Timestamp,EEG.Counter,EEG.Interpolated,EEG.AF3,EEG.F7,EEG.F3,EEG.FC5,EEG.T7,EEG.P7,EEG.O1,EEG.O2,EEG.P8,EEG.T8,EEG.FC6,EEG.F4,EEG.F8,EEG.AF4,EEG.RawCq,EEG.Battery,MarkerIndex,MarkerType,MarkerValueInt,EEG.MarkerHardware,CQ.AF3,CQ.F7,CQ.F3,CQ.FC5,CQ.T7,CQ.P7,CQ.O1,CQ.O2,CQ.P8,CQ.T8,CQ.FC6,CQ.F4,CQ.F8,CQ.AF4,CQ.Overall
1602005329.943683,63.000000,0.000000,4129.230957,4130.256348,4138.974121,4136.410156,4135.897461,4137.436035,4140.512695,4136.922852,4121.538574,4132.307617,4138.974121,4140.000000,4140.512695,4140.000000,0.000000,4.000000,,,,0.000000,4.000000,4.000000,4.000000,4.000000,4.000000,4.000000,4.000000,4.000000,4.000000,4.000000,4.000000,4.000000,4.000000,4.000000,100.000000
1602005329.951665,64.000000,0.000000,4140.000000,4137.436035,4143.589844,4138.974121,4136.922852,4128.717773,4135.384766,4138.461426,4126.153809,4149.230957,4141.025879,4144.102539,4152.820313,4146.153809,808.000000,4.000000,,,,0.000000,4.000000,4.000000,4.000000,4.000000,4.000000,4.000000,4.000000,4.000000,4.000000,4.000000,4.000000,4.000000,4.000000,4.000000,100.000000
1602005329.959547,65.000000,0.000000,4140.000000,4135.897461,4140.512695,4136.922852,4132.820313,4117.948730,4125.128418,4132.307617,4128.205078,4160.512695,4142.563965,4136.922852,4152.820313,4141.025879,799.000000,4.000000,,,,0.000000,4.000000,4.000000,4.000000,4.000000,4.000000,4.000000,4.000000,4.000000,4.000000,4.000000,4.000000,4.000000,4.000000,4.000000,100.000000
1602005329.967428,66.000000,0.000000,4136.410156,4137.948730,4137.948730,4134.358887,4131.282227,4118.461426,4118.974121,4123.077148,4123.077148,4140.000000,4147.692383,4127.692383,4140.512695,4150.256348,859.000000,4.000000,,,,0.000000,4.000000,4.000000,4.000000,4.000000,4.000000,4.000000,4.000000,4.000000,4.000000,4.000000,4.000000,4.000000,4.000000,4.000000,100.000000
1602005329.975310,67.000000,0.000000,4140.512695,4143.589844,4146.153809,4145.128418,4135.384766,4121.538574,4124.102539,4121.538574,4118.461426,4132.307617,4150.256348,4132.820313,4144.102539,4153.846191,869.000000,4.000000,,,,0.000000,4.000000,4.000000,4.000000,4.000000,4.000000,4.000000,4.000000,4.000000,4.000000,4.000000,4.000000,4.000000,4.000000,4.000000,100.000000
1602005329.983093,68.000000,0.000000,4146.666504,4145.128418,4151.794922,4155.384766,4137.436035,4120.000000,4130.769043,4126.666504,4125.128418,4160.000000,4146.153809,4136.410156,4150.256348,4141.538574,807.000000,4.000000,,,,0.000000,4.000000,4.000000,4.000000,4.000000,4.000000,4.000000,4.000000,4.000000,4.000000,4.000000,4.000000,4.000000,4.000000,4.000000,100.000000
1602005329.990976,69.000000,0.000000,4145.641113,4143.077148,4147.692383,4149.230957,4136.410156,4121.538574,4128.717773,4128.717773,4132.820313,4164.615234,4142.563965,4128.717773,4144.615234,4137.948730,808.000000,4.000000,,,,0.000000,4.000000,4.000000,4.000000,4.000000,4.000000,4.000000,4.000000,4.000000,4.000000,4.000000,4.000000,4.000000,4.000000,4.000000,100.000000
1602005329.998859,70.000000,0.000000,4133.846191,4134.358887,4135.897461,4136.922852,4131.282227,4125.128418,4124.615234,4126.153809,4125.128418,4133.333496,4138.461426,4116.410156,4134.358887,4136.922852,776.000000,4.000000,,,,0.000000,4.000000,4.000000,4.000000,4.000000,4.000000,4.000000,4.000000,4.000000,4.000000,4.000000,4.000000,4.000000,4.000000,4.000000,100.000000
1602005330.006742,71.000000,0.000000,4122.051270,4124.102539,4125.641113,4134.358887,4128.205078,4130.256348,4128.717773,4123.077148,4109.230957,4125.641113,4134.358887,4104.615234,4123.077148,4122.051270,689.000000,4.000000,,,,0.000000,4.000000,4.000000,4.000000,4.000000,4.000000,4.000000,4.000000,4.000000,4.000000,4.000000,4.000000,4.000000,4.000000,4.000000,100.000000
1602005330.014625,72.000000,0.000000,4126.666504,4122.563965,4129.743652,4138.974121,4134.358887,4139.487305,4138.461426,4125.128418,4105.128418,4140.512695,4133.846191,4109.743652,4125.641113,4114.871582,785.000000,4.000000,,,,0.000000,4.000000,4.000000,4.000000,4.000000,4.000000,4.000000,4.000000,4.000000,4.000000,4.000000,4.000000,4.000000,4.000000,4.000000,100.000000
1602005330.022507,73.000000,0.000000,4135.897461,4127.179688,4135.897461,4141.025879,4141.025879,4145.128418,4141.025879,4129.230957,4108.717773,4132.820313,4134.871582,4123.589844,4135.897461,4129.743652,841.000000,4.000000,,,,0.000000,4.000000,4.000000,4.000000,4.000000,4.000000,4.000000,4.000000,4.000000,4.000000,4.000000,4.000000,4.000000,4.000000,4.000000,100.000000
1602005330.030390,74.000000,0.000000,4135.897461,4132.820313,4129.230957,4141.025879,4140.000000,4135.384766,4134.358887,4128.205078,4107.179688,4114.358887,4134.871582,4122.051270,4132.307617,4138.974121,871.000000,4.000000,,,,0.000000,4.000000,4.000000,4.000000,4.000000,4.000000,4.000000,4.000000,4.000000,4.000000,4.000000,4.000000,4.000000,4.000000,4.000000,100.000000
1602005330.038273,75.000000,0.000000,4135.384766,4138.461426,4127.179688,4141.538574,4138.974121,4123.589844,4128.717773,4126.153809,4109.743652,4124.615234,4138.974121,4123.589844,4132.820313,4137.436035,805.000000,4.000000,,,,0.000000,4.000000,4.000000,4.000000,4.000000,4.000000,4.000000,4.000000,4.000000,4.000000,4.000000,4.000000,4.000000,4.000000,4.000000,100.000000
1602005330.046255,76.000000,0.000000,4140.000000,4139.487305,4136.410156,4144.615234,4140.000000,4119.487305,4125.128418,4124.615234,4120.000000,4148.717773,4141.538574,4135.897461,4144.102539,4139.487305,783.000000,4.000000,,,,0.000000,4.000000,4.000000,4.000000,4.000000,4.000000,4.000000,4.000000,4.000000,4.000000,4.000000,4.000000,4.000000,4.000000,4.000000,100.000000
1602005330.054137,77.000000,0.000000,4141.025879,4137.436035,4140.000000,4145.641113,4137.436035,4115.897461,4121.538574,4124.615234,4127.692383,4157.436035,4137.436035,4138.974121,4138.974121,4139.487305,777.000000,4.000000,,,,0.000000,4.000000,4.000000,4.000000,4.000000,4.000000,4.000000,4.000000,4.000000,4.000000,4.000000,4.000000,4.000000,4.000000,4.000000,100.000000
1602005330.062019,78.000000,0.000000,4138.974121,4137.948730,4141.025879,4144.102539,4136.922852,4115.897461,4126.153809,4129.230957,4126.153809,4155.384766,4136.410156,4142.051270,4129.743652,4138.974121,871.000000,4.000000,,,,0.000000,4.000000,4.000000,4.000000,4.000000,4.000000,4.000000,4.000000,4.000000,4.000000,4.000000,4.000000,4.000000,4.000000,4.000000,100.000000
1602005330.069901,79.000000,0.000000,4139.487305,4137.948730,4143.077148,4141.538574,4137.948730,4121.538574,4136.410156,4136.922852,4124.615234,4143.589844,4139.487305,4155.384766,4135.897461,4147.179688,805.000000,4.000000,,,,0.000000,4.000000,4.000000,4.000000,4.000000,4.000000,4.000000,4.000000,4.000000,4.000000,4.000000,4.000000,4.000000,4.000000,4.000000,100.000000
1602005330.077782,80.000000,0.000000,4140.000000,4136.410156,4143.077148,4141.538574,4136.922852,4130.256348,4138.974121,4140.512695,4132.307617,4135.384766,4143.077148,4158.974121,4141.025879,4156.410156,783.000000,4.000000,,,,0.000000,4.000000,4.000000,4.000000,4.000000,4.000000,4.000000,4.000000,4.000000,4.000000,4.000000,4.000000,4.000000,4.000000,4.000000,100.000000
1602005330.085565,81.000000,0.000000,4139.487305,4136.410156,4143.077148,4146.666504,4137.436035,4136.410156,4133.846191,4136.922852,4137.948730,4145.128418,4134.871582,4151.794922,4138.974121,4146.666504,777.000000,4.000000,,,,0.000000,4.000000,4.000000,4.000000,4.000000,4.000000,4.000000,4.000000,4.000000,4.000000,4.000000,4.000000,4.000000,4.000000,4.000000,100.000000
1602005330.093448,82.000000,0.000000,4138.974121,4134.871582,4141.025879,4146.666504,4137.436035,4137.948730,4134.358887,4131.794922,4129.743652,4147.179688,4128.205078,4151.282227,4137.948730,4134.871582,871.000000,4.000000,,,,0.000000,4.000000,4.000000,4.000000,4.000000,4.000000,4.000000,4.000000,4.000000,4.000000,4.000000,4.000000,4.000000,4.000000,4.000000,100.000000
1602005330.101331,83.000000,0.000000,4139.487305,4135.384766,4138.461426,4141.025879,4137.436035,4138.461426,4135.384766,4130.256348,4121.538574,4126.153809,4133.333496,4157.436035,4136.410156,4140.512695,805.000000,4.000000,,,,0.000000,4.000000,4.000000,4.000000,4.000000,4.000000,4.000000,4.000000,4.000000,4.000000,4.000000,4.000000,4.000000,4.000000,4.000000,100.000000
1602005330.109214,84.000000,0.000000,4138.974121,4138.461426,4140.512695,4136.410156,4138.461426,4135.897461,4129.230957,4126.666504,4122.563965,4114.871582,4131.282227,4149.743652,4128.717773,4146.153809,783.000000,4.000000,,,,0.000000,4.000000,4.000000,4.000000,4.000000,4.000000,4.000000,4.000000,4.000000,4.000000,4.000000,4.000000,4.000000,4.000000,4.000000,100.000000
1602005330.117097,85.000000,0.000000,4137.436035,4137.436035,4140.512695,4133.846191,4138.461426,4129.743652,4123.589844,4124.102539,4118.974121,4126.666504,4123.589844,4137.436035,4122.563965,4138.461426,777.000000,4.000000,,,,0.000000,4.000000,4.000000,4.000000,4.000000,4.000000,4.000000,4.000000,4.000000,4.000000,4.000000,4.000000,4.000000,4.000000,4.000000,100.000000
1602005330.124980,86.000000,0.000000,4142.051270,4137.436035,4141.025879,4133.846191,4140.512695,4126.666504,4128.205078,4133.846191,4126.153809,4144.102539,4132.820313,4144.615234,4132.820313,4140.512695,871.000000,4.000000,,,,0.000000,4.000000,4.000000,4.000000,4.000000,4.000000,4.000000,4.000000,4.000000,4.000000,4.000000,4.000000,4.000000,4.000000,4.000000,100.000000
1602005330.132862,87.000000,0.000000,4152.307617,4146.666504,4153.846191,4137.948730,4147.179688,4128.205078,4135.897461,4145.641113,4149.230957,4158.974121,4150.256348,4163.077148,4151.282227,4157.948730,805.000000,4.000000,,,,0.000000,4.000000,4.000000,4.000000,4.000000,4.000000,4.000000,4.000000,4.000000,4.000000,4.000000,4.000000,4.000000,4.000000,4.000000,100.000000
1602005330.140745,88.000000,0.000000,4158.461426,4151.794922,4162.563965,4140.000000,4150.769043,4128.205078,4136.922852,4146.153809,4157.948730,4152.820313,4156.922852,4162.563965,4156.410156,4163.589844,783.000000,4.000000,,,,0.000000,4.000000,4.000000,4.000000,4.000000,4.000000,4.000000,4.000000,4.000000,4.000000,4.000000,4.000000,4.000000,4.000000,4.000000,100.000000
1602005330.148528,89.000000,0.000000,4150.256348,4144.615234,4151.794922,4137.948730,4152.307617,4129.743652,4137.948730,4144.102539,4154.871582,4131.794922,4154.871582,4154.871582,4155.897461,4156.922852,777.000000,4.000000,,,,0.000000,4.000000,4.000000,4.000000,4.000000,4.000000,4.000000,4.000000,4.000000,4.000000,4.000000,4.000000,4.000000,4.000000,4.000000,100.000000
1602005330.156411,90.000000,0.000000,4138.974121,4139.487305,4139.487305,4136.922852,4150.256348,4125.128418,4135.897461,4142.563965,4152.307617,4136.410156,4143.589844,4156.410156,4157.436035,4148.717773,871.000000,4.000000,,,,0.000000,4.000000,4.000000,4.000000,4.000000,4.000000,4.000000,4.000000,4.000000,4.000000,4.000000,4.000000,4.000000,4.000000,4.000000,100.000000
1602005330.164295,91.000000,0.000000,4137.948730,4142.563965,4136.410156,4137.436035,4143.077148,4120.512695,4128.205078,4137.948730,4143.589844,4159.487305,4135.384766,4151.282227,4148.717773,4139.487305,805.000000,4.000000,,,,0.000000,4.000000,4.000000,4.000000,4.000000,4.000000,4.000000,4.000000,4.000000,4.000000,4.000000,4.000000,4.000000,4.000000,4.000000,100.000000
1602005330.172178,92.000000,0.000000,4143.077148,4148.205078,4132.307617,4134.871582,4135.897461,4128.717773,4123.589844,4136.410156,4133.846191,4152.820313,4137.436035,4143.077148,4136.410156,4135.897461,783.000000,4.000000,,,,0.000000,4.000000,4.000000,4.000000,4.000000,4.000000,4.000000,4.000000,4.000000,4.000000,4.000000,4.000000,4.000000,4.000000,4.000000,100.000000
1602005330.180061,93.000000,0.000000,4143.589844,4152.307617,4126.153809,4133.846191,4140.000000,4137.948730,4129.743652,4141.538574,4137.436035,4130.256348,4138.461426,4148.205078,4140.000000,4138.974121,777.000000,4.000000,,,,0.000000,4.000000,4.000000,4.000000,4.000000,4.000000,4.000000,4.000000,4.000000,4.000000,4.000000,4.000000,4.000000,4.000000,4.000000,100.000000
1602005330.187944,94.000000,0.000000,4143.077148,4155.384766,4126.153809,4138.974121,4151.794922,4137.948730,4136.922852,4144.615234,4144.615234,4140.000000,4143.077148,4162.051270,4156.410156,4141.025879,871.000000,4.000000,,,,0.000000,4.000000,4.000000,4.000000,4.000000,4.000000,4.000000,4.000000,4.000000,4.000000,4.000000,4.000000,4.000000,4.000000,4.000000,100.000000
1602005330.195827,95.000000,0.000000,4144.102539,4152.820313,4125.641113,4135.384766,4150.769043,4139.487305,4132.820313,4141.025879,4141.025879,4155.384766,4146.666504,4161.025879,4158.974121,4143.077148,805.000000,4.000000,,,,0.000000,4.000000,4.000000,4.000000,4.000000,4.000000,4.000000,4.000000,4.000000,4.000000,4.000000,4.000000,4.000000,4.000000,4.000000,100.000000
1602005330.203710,96.000000,0.000000,4141.025879,4145.641113,4120.512695,4122.563965,4140.000000,4138.461426,4128.205078,4137.436035,4134.871582,4145.128418,4140.512695,4144.102539,4143.589844,4137.948730,783.000000,4.000000,,,,0.000000,4.000000,4.000000,4.000000,4.000000,4.000000,4.000000,4.000000,4.000000,4.000000,4.000000,4.000000,4.000000,4.000000,4.000000,100.000000
1602005330.211593,97.000000,0.000000,4138.974121,4142.051270,4122.051270,4126.666504,4140.000000,4135.384766,4133.846191,4136.410156,4134.358887,4133.333496,4137.436035,4136.922852,4133.846191,4127.179688,777.000000,4.000000,,,,0.000000,4.000000,4.000000,4.000000,4.000000,4.000000,4.000000,4.000000,4.000000,4.000000,4.000000,4.000000,4.000000,4.000000,4.000000,100.000000
1602005330.219576,98.000000,0.000000,4139.487305,4142.563965,4125.641113,4134.871582,4142.563965,4137.436035,4134.358887,4135.897461,4133.846191,4132.307617,4137.436035,4141.538574,4138.974121,4124.102539,871.000000,4.000000,,,,0.000000,4.000000,4.000000,4.000000,4.000000,4.000000,4.000000,4.000000,4.000000,4.000000,4.000000,4.000000,4.000000,4.000000,4.000000,100.000000
1602005330.227460,99.000000,0.000000,4131.794922,4136.410156,4122.051270,4121.025879,4134.871582,4136.410156,4126.153809,4134.871582,4129.743652,4129.743652,4127.179688,4141.025879,4133.846191,4123.589844,805.000000,4.000000,,,,0.000000,4.000000,4.000000,4.000000,4.000000,4.000000,4.000000,4.000000,4.000000,4.000000,4.000000,4.000000,4.000000,4.000000,4.000000,100.000000
1602005330.235344,100.000000,0.000000,4120.512695,4129.230957,4117.436035,4110.256348,4133.846191,4133.846191,4130.769043,4136.410156,4131.794922,4133.333496,4123.589844,4141.025879,4118.461426,4118.461426,783.000000,4.000000,,,,0.000000,4.000000,4.000000,4.000000,4.000000,4.000000,4.000000,4.000000,4.000000,4.000000,4.000000,4.000000,4.000000,4.000000,4.000000,100.000000
1602005330.243227,101.000000,0.000000,4122.051270,4133.846191,4122.051270,4120.512695,4143.589844,4139.487305,4140.000000,4138.974121,4140.000000,4144.102539,4136.922852,4151.794922,4125.641113,4119.487305,777.000000,4.000000,,,,0.000000,4.000000,4.000000,4.000000,4.000000,4.000000,4.000000,4.000000,4.000000,4.000000,4.000000,4.000000,4.000000,4.000000,4.000000,100.000000
1602005330.251111,102.000000,0.000000,4134.358887,4140.512695,4133.333496,4128.205078,4144.615234,4143.077148,4131.282227,4138.461426,4141.538574,4129.230957,4144.102539,4159.487305,4143.077148,4127.179688,871.000000,4.000000,,,,0.000000,4.000000,4.000000,4.000000,4.000000,4.000000,4.000000,4.000000,4.000000,4.000000,4.000000,4.000000,4.000000,4.000000,4.000000,100.000000
1602005330.258994,103.000000,0.000000,4132.820313,4139.487305,4133.846191,4126.666504,4143.077148,4139.487305,4121.538574,4136.922852,4137.948730,4103.589844,4132.820313,4157.948730,4135.384766,4128.205078,805.000000,4.000000,,,,0.000000,4.000000,4.000000,4.000000,4.000000,4.000000,4.000000,4.000000,4.000000,4.000000,4.000000,4.000000,4.000000,4.000000,4.000000,100.000000
1602005330.266878,104.000000,0.000000,4124.615234,4140.000000,4127.179688,4128.205078,4148.717773,4138.974121,4124.615234,4134.871582,4136.410156,4110.256348,4123.077148,4156.922852,4125.641113,4125.128418,783.000000,4.000000,,,,0.000000,4.000000,4.000000,4.000000,4.000000,4.000000,4.000000,4.000000,4.000000,4.000000,4.000000,4.000000,4.000000,4.000000,4.000000,100.000000
1602005330.274761,105.000000,0.000000,4131.794922,4143.077148,4131.282227,4130.256348,4153.333496,4143.077148,4124.615234,4129.230957,4135.897461,4137.436035,4126.153809,4156.922852,4131.794922,4125.641113,777.000000,4.000000,,,,0.000000,4.000000,4.000000,4.000000,4.000000,4.000000,4.000000,4.000000,4.000000,4.000000,4.000000,4.000000,4.000000,4.000000,4.000000,100.000000
1602005330.282645,106.000000,0.000000,4140.512695,4142.563965,4139.487305,4127.692383,4151.282227,4141.538574,4121.025879,4124.102539,4130.256348,4142.563965,4128.717773,4156.410156,4133.846191,4124.615234,871.000000,4.000000,,,,0.000000,4.000000,4.000000,4.000000,4.000000,4.000000,4.000000,4.000000,4.000000,4.000000,4.000000,4.000000,4.000000,4.000000,4.000000,100.000000
1602005330.290528,107.000000,0.000000,4131.282227,4138.974121,4134.358887,4124.615234,4142.563965,4134.871582,4121.025879,4121.538574,4115.384766,4121.538574,4117.948730,4153.846191,4121.025879,4121.538574,805.000000,4.000000,,,,0.000000,4.000000,4.000000,4.000000,4.000000,4.000000,4.000000,4.000000,4.000000,4.000000,4.000000,4.000000,4.000000,4.000000,4.000000,100.000000
1602005330.298412,108.000000,0.000000,4126.153809,4137.436035,4127.692383,4127.179688,4136.410156,4131.282227,4121.025879,4120.512695,4103.589844,4105.641113,4112.307617,4151.794922,4109.230957,4122.051270,783.000000,4.000000,,,,0.000000,4.000000,4.000000,4.000000,4.000000,4.000000,4.000000,4.000000,4.000000,4.000000,4.000000,4.000000,4.000000,4.000000,4.000000,100.000000
1602005330.306193,109.000000,0.000000,4135.897461,4135.384766,4136.922852,4129.230957,4137.436035,4131.794922,4124.615234,4126.666504,4108.205078,4103.077148,4121.025879,4154.358887,4108.717773,4120.512695,777.000000,4.000000,,,,0.000000,4.000000,4.000000,4.000000,4.000000,4.000000,4.000000,4.000000,4.000000,4.000000,4.000000,4.000000,4.000000,4.000000,4.000000,100.000000
1602005330.313975,110.000000,0.000000,4137.948730,4130.769043,4145.128418,4125.128418,4139.487305,4135.897461,4133.846191,4136.922852,4121.025879,4116.922852,4129.230957,4157.436035,4118.461426,4119.487305,871.000000,4.000000,,,,0.000000,4.000000,4.000000,4.000000,4.000000,4.000000,4.000000,4.000000,4.000000,4.000000,4.000000,4.000000,4.000000,4.000000,4.000000,100.000000
1602005330.321857,111.000000,0.000000,4132.820313,4124.615234,4143.589844,4121.538574,4137.948730,4140.000000,4138.974121,4140.000000,4129.743652,4133.333496,4135.897461,4162.563965,4131.794922,4130.256348,805.000000,4.000000,,,,0.000000,4.000000,4.000000,4.000000,4.000000,4.000000,4.000000,4.000000,4.000000,4.000000,4.000000,4.000000,4.000000,4.000000,4.000000,100.000000
1602005330.329739,112.000000,0.000000,4133.846191,4121.538574,4143.077148,4120.512695,4135.384766,4138.461426,4137.948730,4138.461426,4134.871582,4127.179688,4139.487305,4169.230957,4136.922852,4140.000000,783.000000,4.000000,,,,0.000000,4.000000,4.000000,4.000000,4.000000,4.000000,4.000000,4.000000,4.000000,4.000000,4.000000,4.000000,4.000000,4.000000,4.000000,100.000000
1602005330.337621,113.000000,0.000000,4136.922852,4126.666504,4145.641113,4119.487305,4136.410156,4135.897461,4136.922852,4141.025879,4147.179688,4125.128418,4138.974121,4168.205078,4134.871582,4138.461426,777.000000,4.000000,,,,0.000000,4.000000,4.000000,4.000000,4.000000,4.000000,4.000000,4.000000,4.000000,4.000000,4.000000,4.000000,4.000000,4.000000,4.000000,100.000000
1602005330.345504,114.000000,0.000000,4137.948730,4134.871582,4142.563965,4124.102539,4140.512695,4138.974121,4138.461426,4143.077148,4154.358887,4150.769043,4142.563965,4160.000000,4136.922852,4137.948730,871.000000,4.000000,,,,0.000000,4.000000,4.000000,4.000000,4.000000,4.000000,4.000000,4.000000,4.000000,4.000000,4.000000,4.000000,4.000000,4.000000,4.000000,100.000000
1602005330.353486,115.000000,0.000000,4139.487305,4137.948730,4136.922852,4126.153809,4144.102539,4142.051270,4136.922852,4138.974121,4146.153809,4160.000000,4144.102539,4153.333496,4140.512695,4141.025879,805.000000,4.000000,,,,0.000000,4.000000,4.000000,4.000000,4.000000,4.000000,4.000000,4.000000,4.000000,4.000000,4.000000,4.000000,4.000000,4.000000,4.000000,100.000000
1602005330.361369,116.000000,0.000000,4138.974121,4136.410156,4134.358887,4125.641113,4143.077148,4135.384766,4130.256348,4133.333496,4135.384766,4137.436035,4135.897461,4150.769043,4138.461426,4134.358887,783.000000,4.000000,,,,0.000000,4.000000,4.000000,4.000000,4.000000,4.000000,4.000000,4.000000,4.000000,4.000000,4.000000,4.000000,4.000000,4.000000,4.000000,100.000000
1602005330.369251,117.000000,0.000000,4136.922852,4138.461426,4135.897461,4133.333496,4140.000000,4127.179688,4124.615234,4134.871582,4136.922852,4136.410156,4133.333496,4152.307617,4134.358887,4128.717773,777.000000,4.000000,,,,0.000000,4.000000,4.000000,4.000000,4.000000,4.000000,4.000000,4.000000,4.000000,4.000000,4.000000,4.000000,4.000000,4.000000,4.000000,100.000000
1602005330.377134,118.000000,0.000000,4139.487305,4143.589844,4139.487305,4138.461426,4137.948730,4125.128418,4125.641113,4138.461426,4142.051270,4142.563965,4141.538574,4155.897461,4136.410156,4134.871582,871.000000,4.000000,,,,0.000000,4.000000,4.000000,4.000000,4.000000,4.000000,4.000000,4.000000,4.000000,4.000000,4.000000,4.000000,4.000000,4.000000,4.000000,100.000000
1602005330.385016,119.000000,0.000000,4142.051270,4144.102539,4141.025879,4137.948730,4139.487305,4124.102539,4125.128418,4130.769043,4132.307617,4116.410156,4134.871582,4156.410156,4138.461426,4141.538574,805.000000,4.000000,,,,0.000000,4.000000,4.000000,4.000000,4.000000,4.000000,4.000000,4.000000,4.000000,4.000000,4.000000,4.000000,4.000000,4.000000,4.000000,100.000000
1602005330.392899,120.000000,0.000000,4138.974121,4140.512695,4139.487305,4135.897461,4138.461426,4122.051270,4121.538574,4124.102539,4125.641113,4109.230957,4125.128418,4153.333496,4136.922852,4139.487305,783.000000,4.000000,,,,0.000000,4.000000,4.000000,4.000000,4.000000,4.000000,4.000000,4.000000,4.000000,4.000000,4.000000,4.000000,4.000000,4.000000,4.000000,100.000000
1602005330.400782,121.000000,0.000000,4133.846191,4138.461426,4140.000000,4131.282227,4134.871582,4124.102539,4124.615234,4132.307617,4136.410156,4147.692383,4133.846191,4152.820313,4136.410156,4135.384766,777.000000,4.000000,,,,0.000000,4.000000,4.000000,4.000000,4.000000,4.000000,4.000000,4.000000,4.000000,4.000000,4.000000,4.000000,4.000000,4.000000,4.000000,100.000000
1602005330.408764,122.000000,0.000000,4136.410156,4141.025879,4142.563965,4127.179688,4136.922852,4127.692383,4129.743652,4140.000000,4144.102539,4158.461426,4144.615234,4156.410156,4138.974121,4140.000000,871.000000,4.000000,,,,0.000000,4.000000,4.000000,4.000000,4.000000,4.000000,4.000000,4.000000,4.000000,4.000000,4.000000,4.000000,4.000000,4.000000,4.000000,100.000000
1602005330.416647,123.000000,0.000000,4141.025879,4141.538574,4142.563965,4125.641113,4141.538574,4128.717773,4132.307617,4137.948730,4140.000000,4128.717773,4141.025879,4158.461426,4143.077148,4147.692383,805.000000,4.000000,,,,0.000000,4.000000,4.000000,4.000000,4.000000,4.000000,4.000000,4.000000,4.000000,4.000000,4.000000,4.000000,4.000000,4.000000,4.000000,100.000000
1602005330.424530,124.000000,0.000000,4136.922852,4135.384766,4140.512695,4123.077148,4139.487305,4132.307617,4135.384766,4138.974121,4138.461426,4130.769043,4138.974121,4156.410156,4144.615234,4145.641113,783.000000,4.000000,,,,0.000000,4.000000,4.000000,4.000000,4.000000,4.000000,4.000000,4.000000,4.000000,4.000000,4.000000,4.000000,4.000000,4.000000,4.000000,100.000000
1602005330.432413,125.000000,0.000000,4130.769043,4127.179688,4138.461426,4123.589844,4137.436035,4140.000000,4136.410156,4143.077148,4142.051270,4162.051270,4144.615234,4151.794922,4145.641113,4138.974121,777.000000,4.000000,,,,0.000000,4.000000,4.000000,4.000000,4.000000,4.000000,4.000000,4.000000,4.000000,4.000000,4.000000,4.000000,4.000000,4.000000,4.000000,100.000000
1602005330.440296,126.000000,0.000000,4128.717773,4124.615234,4130.769043,4120.512695,4138.461426,4136.410156,4132.307617,4137.948730,4142.051270,4162.563965,4139.487305,4142.051270,4142.563965,4132.820313,871.000000,4.000000,,,,0.000000,4.000000,4.000000,4.000000,4.000000,4.000000,4.000000,4.000000,4.000000,4.000000,4.000000,4.000000,4.000000,4.000000,4.000000,100.000000
1602005330.448179,127.000000,0.000000,4115.384766,4119.487305,4113.846191,4106.666504,4129.230957,4121.538574,4123.589844,4124.102539,4132.820313,4131.794922,4123.589844,4125.641113,4125.641113,4117.948730,805.000000,4.000000,,,,0.000000,4.000000,4.000000,4.000000,4.000000,4.000000,4.000000,4.000000,4.000000,4.000000,4.000000,4.000000,4.000000,4.000000,4.000000,100.000000
1602005330.456061,128.000000,0.000000,4102.051270,4116.410156,4106.153809,4106.153809,4124.102539,4122.051270,4117.948730,4119.487305,4124.102539,4121.538574,4117.948730,4118.974121,4112.307617,4108.717773,783.000000,4.000000,,,,0.000000,4.000000,4.000000,4.000000,4.000000,4.000000,4.000000,4.000000,4.000000,4.000000,4.000000,4.000000,4.000000,4.000000,4.000000,100.000000
1602005330.463944,0.000000,0.000000,4111.794922,4125.641113,4116.410156,4122.051270,4136.410156,4138.461426,4124.102539,4126.666504,4130.256348,4134.358887,4124.615234,4123.589844,4121.025879,4117.948730,808.000000,4.000000,,,,0.000000,4.000000,4.000000,4.000000,4.000000,4.000000,4.000000,4.000000,4.000000,4.000000,4.000000,4.000000,4.000000,4.000000,4.000000,100.000000
1602005330.471827,1.000000,0.000000,4122.051270,4128.717773,4122.051270,4125.128418,4137.948730,4141.025879,4132.820313,4127.692383,4138.461426,4135.384766,4124.102539,4121.025879,4126.666504,4122.563965,799.000000,4.000000,,,,0.000000,4.000000,4.000000,4.000000,4.000000,4.000000,4.000000,4.000000,4.000000,4.000000,4.000000,4.000000,4.000000,4.000000,4.000000,100.000000
1602005330.479610,2.000000,0.000000,4121.538574,4125.128418,4120.512695,4121.025879,4127.692383,4134.871582,4133.333496,4122.051270,4135.897461,4112.307617,4118.974121,4121.025879,4120.000000,4120.512695,859.000000,4.000000,,,,0.000000,4.000000,4.000000,4.000000,4.000000,4.000000,4.000000,4.000000,4.000000,4.000000,4.000000,4.000000,4.000000,4.000000,4.000000,100.000000
1602005330.487492,3.000000,0.000000,4125.641113,4132.307617,4125.128418,4126.666504,4128.205078,4134.871582,4135.384766,4127.179688,4135.384766,4096.922852,4126.153809,4133.333496,4127.692383,4126.153809,869.000000,4.000000,,,,0.000000,4.000000,4.000000,4.000000,4.000000,4.000000,4.000000,4.000000,4.000000,4.000000,4.000000,4.000000,4.000000,4.000000,4.000000,100.000000
1602005330.495375,4.000000,0.000000,4128.205078,4135.384766,4126.153809,4128.205078,4128.205078,4129.230957,4133.846191,4132.307617,4140.000000,4121.025879,4131.282227,4134.358887,4135.384766,4128.717773,807.000000,4.000000,,,,0.000000,4.000000,4.000000,4.000000,4.000000,4.000000,4.000000,4.000000,4.000000,4.000000,4.000000,4.000000,4.000000,4.000000,4.000000,100.000000
1602005330.503258,5.000000,0.000000,4120.512695,4123.589844,4119.487305,4121.538574,4121.538574,4124.615234,4125.128418,4127.179688,4138.974121,4153.333496,4123.077148,4120.512695,4124.102539,4123.077148,808.000000,4.000000,,,,0.000000,4.000000,4.000000,4.000000,4.000000,4.000000,4.000000,4.000000,4.000000,4.000000,4.000000,4.000000,4.000000,4.000000,4.000000,100.000000
1602005330.511140,6.000000,0.000000,4121.025879,4124.102539,4120.000000,4122.563965,4130.769043,4134.871582,4127.692383,4124.615234,4138.974121,4156.922852,4120.000000,4121.538574,4122.563965,4122.051270,776.000000,4.000000,,,,0.000000,4.000000,4.000000,4.000000,4.000000,4.000000,4.000000,4.000000,4.000000,4.000000,4.000000,4.000000,4.000000,4.000000,4.000000,100.000000
1602005330.519023,7.000000,0.000000,4125.641113,4129.743652,4124.615234,4125.128418,4140.512695,4140.000000,4137.948730,4126.666504,4140.000000,4148.205078,4128.205078,4131.794922,4130.769043,4123.077148,689.000000,4.000000,,,,0.000000,4.000000,4.000000,4.000000,4.000000,4.000000,4.000000,4.000000,4.000000,4.000000,4.000000,4.000000,4.000000,4.000000,4.000000,100.000000
1602005330.526905,8.000000,0.000000,4124.102539,4124.102539,4123.589844,4123.077148,4130.769043,4134.871582,4136.922852,4125.128418,4136.410156,4143.589844,4129.230957,4130.256348,4124.615234,4122.563965,785.000000,4.000000,,,,0.000000,4.000000,4.000000,4.000000,4.000000,4.000000,4.000000,4.000000,4.000000,4.000000,4.000000,4.000000,4.000000,4.000000,4.000000,100.000000
1602005330.534887,9.000000,0.000000,4123.077148,4125.641113,4122.563965,4124.102539,4128.205078,4136.410156,4134.871582,4125.128418,4138.461426,4139.487305,4123.077148,4124.615234,4123.077148,4122.051270,841.000000,4.000000,,,,0.000000,4.000000,4.000000,4.000000,4.000000,4.000000,4.000000,4.000000,4.000000,4.000000,4.000000,4.000000,4.000000,4.000000,4.000000,100.000000
1602005330.542769,10.000000,0.000000,4121.538574,4136.410156,4126.666504,4125.128418,4138.974121,4135.897461,4137.948730,4125.128418,4144.615234,4139.487305,4127.692383,4125.641113,4135.384766,4124.615234,871.000000,4.000000,,,,0.000000,4.000000,4.000000,4.000000,4.000000,4.000000,4.000000,4.000000,4.000000,4.000000,4.000000,4.000000,4.000000,4.000000,4.000000,100.000000
1602005330.550652,11.000000,0.000000,4124.615234,4139.487305,4134.871582,4122.051270,4141.025879,4127.692383,4131.794922,4125.641113,4145.128418,4135.384766,4138.461426,4131.282227,4140.512695,4131.282227,832.000000,4.000000,,,,0.000000,4.000000,4.000000,4.000000,4.000000,4.000000,4.000000,4.000000,4.000000,4.000000,4.000000,4.000000,4.000000,4.000000,4.000000,100.000000
1602005330.558534,12.000000,0.000000,4136.410156,4140.512695,4140.512695,4129.743652,4136.922852,4128.205078,4128.717773,4130.256348,4146.153809,4125.641113,4142.051270,4137.948730,4140.000000,4140.000000,783.000000,4.000000,,,,0.000000,4.000000,4.000000,4.000000,4.000000,4.000000,4.000000,4.000000,4.000000,4.000000,4.000000,4.000000,4.000000,4.000000,4.000000,100.000000
1602005330.566416,13.000000,0.000000,4142.051270,4143.589844,4138.974121,4141.025879,4136.922852,4136.922852,4136.410156,4131.794922,4150.256348,4136.922852,4137.948730,4140.000000,4143.077148,4145.641113,777.000000,4.000000,,,,0.000000,4.000000,4.000000,4.000000,4.000000,4.000000,4.000000,4.000000,4.000000,4.000000,4.000000,4.000000,4.000000,4.000000,4.000000,100.000000
1602005330.574399,14.000000,0.000000,4136.410156,4142.051270,4139.487305,4139.487305,4139.487305,4140.000000,4137.948730,4125.641113,4147.692383,4141.025879,4131.282227,4132.307617,4141.025879,4140.512695,871.000000,4.000000,,,,0.000000,4.000000,4.000000,4.000000,4.000000,4.000000,4.000000,4.000000,4.000000,4.000000,4.000000,4.000000,4.000000,4.000000,4.000000,100.000000
1602005330.582282,15.000000,0.000000,4136.410156,4137.948730,4139.487305,4136.410156,4135.384766,4133.846191,4134.871582,4123.077148,4137.948730,4126.153809,4123.589844,4123.589844,4134.871582,4133.846191,832.000000,4.000000,,,,0.000000,4.000000,4.000000,4.000000,4.000000,4.000000,4.000000,4.000000,4.000000,4.000000,4.000000,4.000000,4.000000,4.000000,4.000000,100.000000
1602005330.590165,16.000000,0.000000,4137.436035,4136.922852,4130.256348,4137.436035,4127.692383,4126.153809,4134.358887,4122.563965,4133.846191,4135.384766,4124.615234,4127.692383,4135.384766,4137.948730,0.000000,4.000000,,,,0.000000,4.000000,4.000000,4.000000,4.000000,4.000000,4.000000,4.000000,4.000000,4.000000,4.000000,4.000000,4.000000,4.000000,4.000000,100.000000
1602005330.598048,17.000000,0.000000,4130.256348,4136.410156,4124.102539,4134.871582,4127.179688,4126.666504,4134.358887,4120.512695,4137.948730,4154.871582,4128.205078,4137.948730,4138.461426,4142.051270,0.000000,4.000000,,,,0.000000,4.000000,4.000000,4.000000,4.000000,4.000000,4.000000,4.000000,4.000000,4.000000,4.000000,4.000000,4.000000,4.000000,4.000000,100.000000
1602005330.605931,18.000000,0.000000,4132.307617,4136.410156,4126.666504,4135.897461,4135.384766,4137.948730,4135.897461,4122.051270,4143.589844,4153.333496,4127.179688,4143.589844,4140.000000,4136.410156,0.000000,4.000000,,,,0.000000,4.000000,4.000000,4.000000,4.000000,4.000000,4.000000,4.000000,4.000000,4.000000,4.000000,4.000000,4.000000,4.000000,4.000000,100.000000
1602005330.613814,19.000000,0.000000,4137.436035,4134.358887,4126.666504,4134.871582,4136.922852,4139.487305,4134.358887,4122.051270,4145.128418,4150.769043,4132.307617,4141.538574,4138.461426,4133.846191,0.000000,4.000000,,,,0.000000,4.000000,4.000000,4.000000,4.000000,4.000000,4.000000,4.000000,4.000000,4.000000,4.000000,4.000000,4.000000,4.000000,4.000000,100.000000
1602005330.621697,20.000000,0.000000,4130.256348,4133.333496,4122.051270,4126.666504,4134.358887,4126.666504,4124.102539,4121.025879,4139.487305,4144.615234,4139.487305,4138.974121,4136.922852,4140.512695,0.000000,4.000000,,,,0.000000,4.000000,4.000000,4.000000,4.000000,4.000000,4.000000,4.000000,4.000000,4.000000,4.000000,4.000000,4.000000,4.000000,4.000000,100.000000
1602005330.629580,21.000000,0.000000,4127.692383,4137.948730,4124.102539,4131.282227,4136.410156,4126.666504,4121.025879,4123.589844,4139.487305,4123.589844,4140.000000,4138.974121,4137.948730,4143.077148,0.000000,4.000000,,,,0.000000,4.000000,4.000000,4.000000,4.000000,4.000000,4.000000,4.000000,4.000000,4.000000,4.000000,4.000000,4.000000,4.000000,4.000000,100.000000
1602005330.637463,22.000000,0.000000,4138.461426,4143.589844,4130.256348,4145.641113,4140.512695,4136.922852,4129.743652,4124.102539,4146.153809,4125.128418,4137.436035,4134.358887,4137.436035,4138.974121,0.000000,4.000000,,,,0.000000,4.000000,4.000000,4.000000,4.000000,4.000000,4.000000,4.000000,4.000000,4.000000,4.000000,4.000000,4.000000,4.000000,4.000000,100.000000
1602005330.645445,23.000000,0.000000,4140.512695,4144.615234,4128.717773,4145.641113,4143.077148,4139.487305,4133.846191,4122.563965,4145.128418,4149.743652,4132.820313,4126.666504,4139.487305,4138.461426,0.000000,4.000000,,,,0.000000,4.000000,4.000000,4.000000,4.000000,4.000000,4.000000,4.000000,4.000000,4.000000,4.000000,4.000000,4.000000,4.000000,4.000000,100.000000
1602005330.653328,24.000000,0.000000,4128.205078,4138.974121,4122.563965,4136.922852,4141.025879,4137.436035,4128.205078,4124.615234,4139.487305,4157.948730,4124.615234,4126.153809,4135.897461,4133.333496,0.000000,4.000000,,,,0.000000,4.000000,4.000000,4.000000,4.000000,4.000000,4.000000,4.000000,4.000000,4.000000,4.000000,4.000000,4.000000,4.000000,4.000000,100.000000
1602005330.661210,25.000000,0.000000,4121.025879,4134.871582,4119.487305,4133.846191,4137.436035,4139.487305,4126.666504,4122.563965,4136.922852,4134.871582,4116.922852,4125.128418,4125.128418,4122.051270,0.000000,4.000000,,,,0.000000,4.000000,4.000000,4.000000,4.000000,4.000000,4.000000,4.000000,4.000000,4.000000,4.000000,4.000000,4.000000,4.000000,4.000000,100.000000
1602005330.669092,26.000000,0.000000,4122.051270,4134.871582,4120.512695,4136.922852,4139.487305,4139.487305,4130.256348,4118.461426,4135.897461,4113.846191,4119.487305,4124.615234,4123.589844,4124.102539,0.000000,4.000000,,,,0.000000,4.000000,4.000000,4.000000,4.000000,4.000000,4.000000,4.000000,4.000000,4.000000,4.000000,4.000000,4.000000,4.000000,4.000000,100.000000
1602005330.676974,27.000000,0.000000,4120.000000,4125.641113,4129.230957,4135.384766,4141.025879,4139.487305,4136.922852,4128.717773,4142.051270,4136.922852,4134.358887,4140.000000,4135.897461,4139.487305,0.000000,4.000000,,,,0.000000,4.000000,4.000000,4.000000,4.000000,4.000000,4.000000,4.000000,4.000000,4.000000,4.000000,4.000000,4.000000,4.000000,4.000000,100.000000
1602005330.684757,28.000000,0.000000,4123.589844,4121.538574,4140.000000,4133.333496,4137.948730,4143.077148,4143.077148,4137.436035,4154.871582,4174.358887,4146.153809,4156.922852,4148.205078,4146.666504,0.000000,4.000000,,,,0.000000,4.000000,4.000000,4.000000,4.000000,4.000000,4.000000,4.000000,4.000000,4.000000,4.000000,4.000000,4.000000,4.000000,4.000000,100.000000
1602005330.692640,29.000000,0.000000,4140.512695,4143.589844,4145.128418,4146.666504,4138.974121,4137.436035,4138.974121,4128.205078,4157.948730,4160.000000,4145.641113,4154.358887,4150.256348,4144.102539,0.000000,4.000000,,,,0.000000,4.000000,4.000000,4.000000,4.000000,4.000000,4.000000,4.000000,4.000000,4.000000,4.000000,4.000000,4.000000,4.000000,4.000000,100.000000
1602005330.700522,30.000000,0.000000,4149.743652,4169.743652,4143.589844,4158.974121,4141.025879,4126.153809,4128.717773,4121.538574,4150.256348,4127.179688,4139.487305,4142.051270,4145.128418,4135.384766,0.000000,4.000000,,,,0.000000,4.000000,4.000000,4.000000,4.000000,4.000000,4.000000,4.000000,4.000000,4.000000,4.000000,4.000000,4.000000,4.000000,4.000000,100.000000
1602005330.708405,31.000000,0.000000,4141.538574,4171.794922,4141.538574,4148.205078,4139.487305,4120.000000,4123.589844,4124.102539,4143.589844,4137.436035,4135.384766,4136.410156,4133.846191,4122.563965,0.000000,4.000000,,,,0.000000,4.000000,4.000000,4.000000,4.000000,4.000000,4.000000,4.000000,4.000000,4.000000,4.000000,4.000000,4.000000,4.000000,4.000000,100.000000
1602005330.716288,32.000000,0.000000,4137.436035,4167.179688,4139.487305,4137.436035,4138.461426,4118.974121,4128.205078,4123.589844,4143.589844,4160.512695,4134.871582,4143.077148,4124.102539,4119.487305,0.000000,4.000000,,,,0.000000,4.000000,4.000000,4.000000,4.000000,4.000000,4.000000,4.000000,4.000000,4.000000,4.000000,4.000000,4.000000,4.000000,4.000000,100.000000
1602005330.724171,33.000000,0.000000,4143.077148,4170.769043,4141.025879,4143.589844,4143.077148,4122.563965,4133.846191,4128.205078,4151.282227,4159.487305,4134.358887,4150.769043,4125.128418,4125.641113,0.000000,4.000000,,,,0.000000,4.000000,4.000000,4.000000,4.000000,4.000000,4.000000,4.000000,4.000000,4.000000,4.000000,4.000000,4.000000,4.000000,4.000000,100.000000
1602005330.732054,34.000000,0.000000,4143.589844,4168.205078,4142.563965,4145.128418,4145.128418,4125.641113,4129.230957,4128.717773,4147.179688,4151.282227,4124.102539,4144.615234,4122.051270,4118.461426,0.000000,4.000000,,,,0.000000,4.000000,4.000000,4.000000,4.000000,4.000000,4.000000,4.000000,4.000000,4.000000,4.000000,4.000000,4.000000,4.000000,4.000000,100.000000
1602005330.739937,35.000000,0.000000,4133.333496,4156.922852,4130.769043,4133.846191,4139.487305,4122.051270,4119.487305,4109.743652,4122.051270,4141.025879,4109.743652,4128.717773,4107.692383,4096.410156,0.000000,4.000000,,,,0.000000,4.000000,4.000000,4.000000,4.000000,4.000000,4.000000,4.000000,4.000000,4.000000,4.000000,4.000000,4.000000,4.000000,4.000000,100.000000
1602005330.747919,36.000000,0.000000,4123.589844,4151.282227,4120.512695,4127.692383,4137.436035,4118.461426,4119.487305,4103.077148,4107.692383,4126.153809,4104.102539,4121.538574,4098.461426,4085.128174,0.000000,4.000000,,,,0.000000,4.000000,4.000000,4.000000,4.000000,4.000000,4.000000,4.000000,4.000000,4.000000,4.000000,4.000000,4.000000,4.000000,4.000000,100.000000
1602005330.755801,37.000000,0.000000,4127.692383,4152.820313,4127.692383,4133.333496,4140.000000,4120.512695,4122.051270,4117.436035,4120.000000,4120.512695,4107.179688,4123.589844,4105.641113,4095.384521,0.000000,4.000000,,,,0.000000,4.000000,4.000000,4.000000,4.000000,4.000000,4.000000,4.000000,4.000000,4.000000,4.000000,4.000000,4.000000,4.000000,4.000000,100.000000
1602005330.763683,38.000000,0.000000,4138.461426,4154.871582,4138.974121,4137.436035,4138.974121,4119.487305,4118.974121,4121.538574,4133.846191,4126.153809,4114.871582,4125.641113,4110.256348,4106.153809,0.000000,4.000000,,,,0.000000,4.000000,4.000000,4.000000,4.000000,4.000000,4.000000,4.000000,4.000000,4.000000,4.000000,4.000000,4.000000,4.000000,4.000000,100.000000
1602005330.771565,39.000000,0.000000,4136.922852,4155.384766,4140.000000,4136.410156,4134.358887,4118.974121,4121.538574,4119.487305,4137.948730,4127.179688,4123.077148,4126.153809,4106.666504,4105.641113,0.000000,4.000000,,,,0.000000,4.000000,4.000000,4.000000,4.000000,4.000000,4.000000,4.000000,4.000000,4.000000,4.000000,4.000000,4.000000,4.000000,4.000000,100.000000
1602005330.779447,40.000000,0.000000,4126.666504,4149.230957,4138.461426,4136.922852,4132.820313,4116.922852,4128.205078,4126.666504,4136.922852,4125.128418,4117.436035,4126.153809,4104.615234,4102.563965,0.000000,4.000000,,,,0.000000,4.000000,4.000000,4.000000,4.000000,4.000000,4.000000,4.000000,4.000000,4.000000,4.000000,4.000000,4.000000,4.000000,4.000000,100.000000
1602005330.787329,41.000000,0.000000,4123.077148,4138.461426,4140.000000,4134.871582,4135.384766,4110.769043,4127.692383,4129.230957,4136.410156,4137.436035,4107.692383,4125.641113,4105.641113,4102.563965,0.000000,4.000000,,,,0.000000,4.000000,4.000000,4.000000,4.000000,4.000000,4.000000,4.000000,4.000000,4.000000,4.000000,4.000000,4.000000,4.000000,4.000000,100.000000
1602005330.795112,42.000000,0.000000,4127.179688,4140.000000,4135.897461,4127.692383,4138.461426,4110.769043,4124.615234,4124.615234,4138.974121,4155.897461,4108.717773,4123.589844,4106.153809,4105.128418,0.000000,4.000000,,,,0.000000,4.000000,4.000000,4.000000,4.000000,4.000000,4.000000,4.000000,4.000000,4.000000,4.000000,4.000000,4.000000,4.000000,4.000000,100.000000
1602005330.802995,43.000000,0.000000,4127.692383,4144.615234,4125.641113,4128.717773,4132.820313,4112.820313,4122.563965,4124.102539,4139.487305,4150.769043,4112.307617,4123.589844,4105.128418,4103.589844,0.000000,4.000000,,,,0.000000,4.000000,4.000000,4.000000,4.000000,4.000000,4.000000,4.000000,4.000000,4.000000,4.000000,4.000000,4.000000,4.000000,4.000000,100.000000
1602005330.810878,44.000000,0.000000,4122.563965,4139.487305,4118.461426,4128.717773,4121.538574,4108.205078,4120.512695,4125.641113,4136.922852,4135.897461,4108.717773,4120.512695,4104.102539,4096.922852,0.000000,4.000000,,,,0.000000,4.000000,4.000000,4.000000,4.000000,4.000000,4.000000,4.000000,4.000000,4.000000,4.000000,4.000000,4.000000,4.000000,4.000000,100.000000
1602005330.818761,45.000000,0.000000,4118.974121,4141.025879,4114.358887,4120.512695,4124.615234,4106.666504,4121.025879,4123.077148,4135.384766,4129.230957,4102.563965,4111.794922,4105.641113,4089.230713,0.000000,4.000000,,,,0.000000,4.000000,4.000000,4.000000,4.000000,4.000000,4.000000,4.000000,4.000000,4.000000,4.000000,4.000000,4.000000,4.000000,4.000000,100.000000
1602005330.826644,46.000000,0.000000,4119.487305,4153.333496,4109.743652,4124.615234,4136.922852,4111.794922,4121.538574,4118.974121,4130.256348,4122.051270,4106.666504,4108.205078,4107.692383,4086.153809,0.000000,4.000000,,,,0.000000,4.000000,4.000000,4.000000,4.000000,4.000000,4.000000,4.000000,4.000000,4.000000,4.000000,4.000000,4.000000,4.000000,4.000000,100.000000
1602005330.834526,47.000000,0.000000,4121.538574,4156.922852,4111.282227,4136.922852,4137.948730,4112.307617,4117.948730,4117.948730,4119.487305,4121.025879,4120.000000,4109.743652,4112.307617,4093.846191,0.000000,4.000000,,,,0.000000,4.000000,4.000000,4.000000,4.000000,4.000000,4.000000,4.000000,4.000000,4.000000,4.000000,4.000000,4.000000,4.000000,4.000000,100.000000
1602005330.842409,48.000000,0.000000,4122.563965,4153.333496,4119.487305,4141.025879,4136.922852,4115.897461,4115.384766,4118.974121,4113.846191,4128.717773,4126.666504,4109.743652,4118.461426,4106.153809,0.000000,4.000000,,,,0.000000,4.000000,4.000000,4.000000,4.000000,4.000000,4.000000,4.000000,4.000000,4.000000,4.000000,4.000000,4.000000,4.000000,4.000000,100.000000
1602005330.850292,49.000000,0.000000,4123.589844,4155.384766,4124.102539,4138.461426,4142.563965,4124.615234,4123.077148,4122.051270,4119.487305,4133.333496,4120.512695,4108.205078,4117.948730,4103.077148,0.000000,4.000000,,,,0.000000,4.000000,4.000000,4.000000,4.000000,4.000000,4.000000,4.000000,4.000000,4.000000,4.000000,4.000000,4.000000,4.000000,4.000000,100.000000
1602005330.858274,50.000000,0.000000,4121.538574,4156.922852,4121.538574,4136.922852,4144.615234,4126.153809,4134.871582,4124.102539,4124.102539,4131.794922,4117.436035,4109.230957,4112.307617,4092.820557,0.000000,4.000000,,,,0.000000,4.000000,4.000000,4.000000,4.000000,4.000000,4.000000,4.000000,4.000000,4.000000,4.000000,4.000000,4.000000,4.000000,4.000000,100.000000
1602005330.866156,51.000000,0.000000,4120.512695,4154.871582,4120.000000,4136.922852,4144.615234,4129.230957,4138.461426,4124.615234,4122.051270,4122.051270,4120.000000,4109.230957,4112.820313,4097.436035,0.000000,4.000000,,,,0.000000,4.000000,4.000000,4.000000,4.000000,4.000000,4.000000,4.000000,4.000000,4.000000,4.000000,4.000000,4.000000,4.000000,4.000000,100.000000
1602005330.874038,52.000000,0.000000,4128.205078,4156.410156,4123.077148,4139.487305,4151.282227,4140.512695,4140.512695,4126.153809,4125.641113,4116.922852,4123.589844,4112.307617,4122.051270,4106.666504,0.000000,4.000000,,,,0.000000,4.000000,4.000000,4.000000,4.000000,4.000000,4.000000,4.000000,4.000000,4.000000,4.000000,4.000000,4.000000,4.000000,4.000000,100.000000
1602005330.881920,53.000000,0.000000,4133.846191,4157.948730,4121.025879,4142.563965,4156.410156,4141.025879,4142.051270,4126.666504,4128.717773,4123.077148,4123.077148,4114.358887,4125.641113,4106.153809,0.000000,4.000000,,,,0.000000,4.000000,4.000000,4.000000,4.000000,4.000000,4.000000,4.000000,4.000000,4.000000,4.000000,4.000000,4.000000,4.000000,4.000000,100.000000
1602005330.889803,54.000000,0.000000,4125.128418,4153.846191,4110.769043,4136.410156,4149.230957,4128.205078,4133.333496,4123.077148,4117.948730,4116.410156,4110.256348,4111.282227,4113.333496,4105.128418,0.000000,4.000000,,,,0.000000,4.000000,4.000000,4.000000,4.000000,4.000000,4.000000,4.000000,4.000000,4.000000,4.000000,4.000000,4.000000,4.000000,4.000000,100.000000
1602005330.897685,55.000000,0.000000,4120.512695,4151.794922,4109.743652,4131.794922,4142.051270,4123.077148,4122.563965,4121.538574,4113.846191,4107.692383,4106.153809,4116.922852,4104.615234,4106.666504,0.000000,4.000000,,,,0.000000,4.000000,4.000000,4.000000,4.000000,4.000000,4.000000,4.000000,4.000000,4.000000,4.000000,4.000000,4.000000,4.000000,4.000000,100.000000
1602005330.905468,56.000000,0.000000,4131.282227,4155.384766,4120.000000,4135.384766,4141.538574,4123.077148,4120.000000,4123.077148,4121.025879,4122.051270,4119.487305,4128.205078,4111.282227,4107.179688,0.000000,4.000000,,,,0.000000,4.000000,4.000000,4.000000,4.000000,4.000000,4.000000,4.000000,4.000000,4.000000,4.000000,4.000000,4.000000,4.000000,4.000000,100.000000
1602005330.913351,57.000000,0.000000,4139.487305,4158.461426,4124.615234,4137.436035,4140.512695,4117.948730,4121.025879,4121.538574,4118.461426,4126.666504,4126.153809,4132.820313,4117.436035,4109.743652,0.000000,4.000000,,,,0.000000,4.000000,4.000000,4.000000,4.000000,4.000000,4.000000,4.000000,4.000000,4.000000,4.000000,4.000000,4.000000,4.000000,4.000000,100.000000
1602005330.921234,58.000000,0.000000,4137.436035,4160.000000,4124.615234,4137.436035,4141.025879,4122.051270,4120.512695,4118.461426,4109.743652,4105.128418,4122.563965,4135.897461,4114.358887,4113.846191,0.000000,4.000000,,,,0.000000,4.000000,4.000000,4.000000,4.000000,4.000000,4.000000,4.000000,4.000000,4.000000,4.000000,4.000000,4.000000,4.000000,4.000000,100.000000
1602005330.929117,59.000000,0.000000,4132.307617,4153.333496,4124.102539,4131.794922,4136.922852,4122.563965,4115.384766,4113.846191,4107.692383,4096.410156,4117.948730,4134.871582,4110.256348,4108.717773,0.000000,4.000000,,,,0.000000,4.000000,4.000000,4.000000,4.000000,4.000000,4.000000,4.000000,4.000000,4.000000,4.000000,4.000000,4.000000,4.000000,4.000000,100.000000
1602005330.937000,60.000000,0.000000,4125.641113,4138.974121,4114.871582,4122.051270,4123.589844,4108.205078,4108.205078,4109.743652,4106.666504,4109.743652,4110.256348,4124.615234,4107.692383,4094.871826,0.000000,4.000000,,,,0.000000,4.000000,4.000000,4.000000,4.000000,4.000000,4.000000,4.000000,4.000000,4.000000,4.000000,4.000000,4.000000,4.000000,4.000000,100.000000
1602005330.944883,61.000000,0.000000,4123.589844,4138.461426,4107.692383,4119.487305,4122.051270,4108.717773,4106.666504,4114.358887,4108.205078,4109.230957,4105.641113,4120.000000,4104.102539,4089.743652,0.000000,4.000000,,,,0.000000,4.000000,4.000000,4.000000,4.000000,4.000000,4.000000,4.000000,4.000000,4.000000,4.000000,4.000000,4.000000,4.000000,4.000000,100.000000
1602005330.952766,62.000000,0.000000,4122.051270,4145.641113,4110.769043,4125.128418,4131.794922,4123.077148,4109.230957,4118.974121,4111.794922,4083.589844,4109.230957,4123.077148,4104.615234,4093.333252,0.000000,4.000000,,,,0.000000,4.000000,4.000000,4.000000,4.000000,4.000000,4.000000,4.000000,4.000000,4.000000,4.000000,4.000000,4.000000,4.000000,4.000000,100.000000
1602005330.960649,63.000000,0.000000,4120.000000,4141.025879,4112.820313,4125.641113,4128.717773,4122.051270,4108.205078,4116.410156,4111.794922,4080.512939,4107.179688,4122.563965,4106.153809,4091.281982,0.000000,4.000000,,,,0.000000,4.000000,4.000000,4.000000,4.000000,4.000000,4.000000,4.000000,4.000000,4.000000,4.000000,4.000000,4.000000,4.000000,4.000000,100.000000
1602005330.968532,64.000000,0.000000,4116.922852,4133.846191,4108.205078,4122.051270,4121.025879,4118.974121,4108.717773,4114.358887,4112.307617,4112.307617,4104.102539,4121.538574,4100.000000,4086.666748,808.000000,4.000000,,,,0.000000,4.000000,4.000000,4.000000,4.000000,4.000000,4.000000,4.000000,4.000000,4.000000,4.000000,4.000000,4.000000,4.000000,4.000000,100.000000
1602005330.976314,65.000000,0.000000,4112.307617,4135.897461,4104.615234,4120.000000,4122.051270,4123.077148,4109.230957,4113.846191,4108.717773,4119.487305,4103.077148,4120.512695,4092.820557,4085.128174,799.000000,4.000000,,,,0.000000,4.000000,4.000000,4.000000,4.000000,4.000000,4.000000,4.000000,4.000000,4.000000,4.000000,4.000000,4.000000,4.000000,4.000000,100.000000
1602005330.984196,66.000000,0.000000,4115.384766,4137.436035,4109.743652,4120.512695,4123.077148,4123.077148,4110.769043,4115.897461,4110.256348,4102.563965,4103.077148,4125.641113,4097.948730,4091.794922,859.000000,4.000000,,,,0.000000,4.000000,4.000000,4.000000,4.000000,4.000000,4.000000,4.000000,4.000000,4.000000,4.000000,4.000000,4.000000,4.000000,4.000000,100.000000
1602005330.992077,67.000000,0.000000,4131.282227,4140.512695,4117.948730,4124.615234,4123.077148,4122.563965,4117.436035,4121.025879,4122.051270,4108.205078,4112.307617,4142.051270,4112.820313,4108.717773,869.000000,4.000000,,,,0.000000,4.000000,4.000000,4.000000,4.000000,4.000000,4.000000,4.000000,4.000000,4.000000,4.000000,4.000000,4.000000,4.000000,4.000000,100.000000
1602005331.000059,68.000000,0.000000,4141.538574,4148.205078,4124.615234,4125.128418,4125.128418,4127.179688,4122.563965,4125.641113,4127.179688,4114.871582,4124.102539,4154.871582,4123.077148,4123.589844,807.000000,4.000000,,,,0.000000,4.000000,4.000000,4.000000,4.000000,4.000000,4.000000,4.000000,4.000000,4.000000,4.000000,4.000000,4.000000,4.000000,4.000000,100.000000
1602005331.007940,69.000000,0.000000,4141.025879,4152.307617,4134.358887,4126.666504,4123.077148,4123.077148,4121.025879,4127.179688,4124.102539,4106.666504,4125.641113,4155.384766,4125.641113,4122.051270,808.000000,4.000000,,,,0.000000,4.000000,4.000000,4.000000,4.000000,4.000000,4.000000,4.000000,4.000000,4.000000,4.000000,4.000000,4.000000,4.000000,4.000000,100.000000
1602005331.015921,70.000000,0.000000,4141.025879,4150.256348,4139.487305,4133.846191,4119.487305,4113.846191,4115.384766,4126.666504,4123.077148,4115.384766,4127.179688,4156.922852,4120.512695,4118.461426,776.000000,4.000000,,,,0.000000,4.000000,4.000000,4.000000,4.000000,4.000000,4.000000,4.000000,4.000000,4.000000,4.000000,4.000000,4.000000,4.000000,4.000000,100.000000
1602005331.023803,71.000000,0.000000,4142.563965,4150.769043,4136.410156,4137.436035,4125.128418,4114.871582,4116.410156,4125.641113,4123.077148,4123.589844,4135.384766,4165.641113,4121.025879,4125.641113,689.000000,4.000000,,,,0.000000,4.000000,4.000000,4.000000,4.000000,4.000000,4.000000,4.000000,4.000000,4.000000,4.000000,4.000000,4.000000,4.000000,4.000000,100.000000
1602005331.031684,72.000000,0.000000,4143.077148,4154.358887,4139.487305,4138.461426,4132.820313,4122.051270,4122.051270,4126.666504,4124.102539,4115.897461,4138.974121,4170.769043,4134.358887,4128.717773,785.000000,4.000000,,,,0.000000,4.000000,4.000000,4.000000,4.000000,4.000000,4.000000,4.000000,4.000000,4.000000,4.000000,4.000000,4.000000,4.000000,4.000000,100.000000
1602005331.039465,73.000000,0.000000,4141.025879,4154.871582,4143.077148,4139.487305,4128.717773,4116.922852,4121.538574,4130.769043,4127.692383,4122.051270,4136.410156,4164.615234,4137.436035,4126.153809,841.000000,4.000000,,,,0.000000,4.000000,4.000000,4.000000,4.000000,4.000000,4.000000,4.000000,4.000000,4.000000,4.000000,4.000000,4.000000,4.000000,4.000000,100.000000
1602005331.047346,74.000000,0.000000,4137.948730,4148.717773,4132.820313,4138.461426,4120.512695,4109.743652,4118.974121,4127.179688,4130.256348,4139.487305,4131.794922,4154.358887,4124.102539,4120.512695,871.000000,4.000000,,,,0.000000,4.000000,4.000000,4.000000,4.000000,4.000000,4.000000,4.000000,4.000000,4.000000,4.000000,4.000000,4.000000,4.000000,4.000000,100.000000
1602005331.055129,75.000000,0.000000,4135.897461,4143.077148,4124.615234,4136.922852,4121.025879,4122.563965,4124.102539,4123.589844,4135.384766,4141.538574,4127.692383,4152.307617,4122.563965,4111.794922,836.000000,4.000000,,,,0.000000,4.000000,4.000000,4.000000,4.000000,4.000000,4.000000,4.000000,4.000000,4.000000,4.000000,4.000000,4.000000,4.000000,4.000000,100.000000
1602005331.063012,76.000000,0.000000,4128.717773,4138.974121,4127.692383,4136.410156,4124.102539,4133.846191,4129.230957,4130.256348,4139.487305,4124.102539,4126.153809,4154.358887,4125.641113,4110.769043,783.000000,4.000000,,,,0.000000,4.000000,4.000000,4.000000,4.000000,4.000000,4.000000,4.000000,4.000000,4.000000,4.000000,4.000000,4.000000,4.000000,4.000000,100.000000
1602005331.070894,77.000000,0.000000,4120.000000,4137.948730,4123.077148,4133.846191,4120.512695,4126.666504,4128.717773,4132.820313,4138.461426,4102.563965,4122.563965,4150.256348,4113.333496,4120.512695,777.000000,4.000000,,,,0.000000,4.000000,4.000000,4.000000,4.000000,4.000000,4.000000,4.000000,4.000000,4.000000,4.000000,4.000000,4.000000,4.000000,4.000000,100.000000
1602005331.078777,78.000000,0.000000,4122.051270,4138.461426,4115.897461,4134.871582,4117.948730,4122.051270,4126.666504,4128.205078,4137.436035,4103.077148,4119.487305,4150.256348,4111.794922,4120.512695,871.000000,4.000000,,,,0.000000,4.000000,4.000000,4.000000,4.000000,4.000000,4.000000,4.000000,4.000000,4.000000,4.000000,4.000000,4.000000,4.000000,4.000000,100.000000
1602005331.086659,79.000000,0.000000,4124.102539,4135.384766,4117.436035,4133.846191,4119.487305,4124.102539,4124.102539,4128.205078,4137.948730,4118.461426,4121.538574,4150.769043,4120.000000,4109.230957,836.000000,4.000000,,,,0.000000,4.000000,4.000000,4.000000,4.000000,4.000000,4.000000,4.000000,4.000000,4.000000,4.000000,4.000000,4.000000,4.000000,4.000000,100.000000
1602005331.094542,80.000000,0.000000,4123.589844,4138.974121,4121.025879,4134.358887,4120.000000,4121.025879,4120.512695,4127.692383,4137.436035,4121.025879,4125.128418,4142.051270,4112.307617,4102.563965,783.000000,4.000000,,,,0.000000,4.000000,4.000000,4.000000,4.000000,4.000000,4.000000,4.000000,4.000000,4.000000,4.000000,4.000000,4.000000,4.000000,4.000000,100.000000
1602005331.102425,81.000000,0.000000,4132.307617,4152.820313,4122.051270,4145.128418,4121.025879,4115.897461,4115.384766,4122.051270,4138.974121,4124.102539,4121.025879,4136.922852,4108.717773,4105.128418,777.000000,4.000000,,,,0.000000,4.000000,4.000000,4.000000,4.000000,4.000000,4.000000,4.000000,4.000000,4.000000,4.000000,4.000000,4.000000,4.000000,4.000000,100.000000
1602005331.110307,82.000000,0.000000,4140.000000,4160.000000,4123.589844,4149.743652,4123.589844,4115.897461,4114.871582,4121.025879,4138.974121,4138.974121,4113.333496,4141.025879,4122.563965,4113.846191,871.000000,4.000000,,,,0.000000,4.000000,4.000000,4.000000,4.000000,4.000000,4.000000,4.000000,4.000000,4.000000,4.000000,4.000000,4.000000,4.000000,4.000000,100.000000
1602005331.118089,83.000000,0.000000,4137.436035,4149.743652,4123.077148,4141.025879,4125.641113,4118.461426,4118.461426,4124.615234,4140.512695,4138.461426,4115.897461,4140.000000,4124.102539,4115.384766,836.000000,4.000000,,,,0.000000,4.000000,4.000000,4.000000,4.000000,4.000000,4.000000,4.000000,4.000000,4.000000,4.000000,4.000000,4.000000,4.000000,4.000000,100.000000
1602005331.125971,84.000000,0.000000,4131.282227,4141.025879,4122.051270,4136.922852,4125.128418,4125.128418,4122.563965,4123.589844,4140.000000,4122.563965,4125.641113,4131.282227,4111.794922,4107.179688,783.000000,4.000000,,,,0.000000,4.000000,4.000000,4.000000,4.000000,4.000000,4.000000,4.000000,4.000000,4.000000,4.000000,4.000000,4.000000,4.000000,4.000000,100.000000
1602005331.133853,85.000000,0.000000,4125.128418,4142.051270,4122.051270,4138.974121,4123.589844,4134.871582,4130.256348,4123.589844,4133.333496,4110.256348,4121.025879,4123.589844,4109.743652,4104.102539,777.000000,4.000000,,,,0.000000,4.000000,4.000000,4.000000,4.000000,4.000000,4.000000,4.000000,4.000000,4.000000,4.000000,4.000000,4.000000,4.000000,4.000000,100.000000
1602005331.141735,86.000000,0.000000,4121.538574,4141.538574,4121.025879,4136.922852,4123.077148,4136.922852,4138.974121,4125.128418,4130.256348,4104.102539,4110.769043,4121.538574,4112.307617,4106.153809,871.000000,4.000000,,,,0.000000,4.000000,4.000000,4.000000,4.000000,4.000000,4.000000,4.000000,4.000000,4.000000,4.000000,4.000000,4.000000,4.000000,4.000000,100.000000
1602005331.149718,87.000000,0.000000,4124.102539,4140.512695,4120.512695,4137.948730,4125.641113,4135.897461,4141.025879,4124.615234,4134.871582,4104.615234,4114.871582,4122.563965,4109.230957,4107.179688,836.000000,4.000000,,,,0.000000,4.000000,4.000000,4.000000,4.000000,4.000000,4.000000,4.000000,4.000000,4.000000,4.000000,4.000000,4.000000,4.000000,4.000000,100.000000
1602005331.157601,88.000000,0.000000,4128.205078,4142.563965,4124.615234,4141.538574,4130.256348,4141.538574,4140.512695,4126.153809,4136.922852,4105.128418,4122.563965,4123.077148,4108.205078,4103.077148,783.000000,4.000000,,,,0.000000,4.000000,4.000000,4.000000,4.000000,4.000000,4.000000,4.000000,4.000000,4.000000,4.000000,4.000000,4.000000,4.000000,4.000000,100.000000
1602005331.165485,89.000000,0.000000,4126.153809,4141.538574,4124.615234,4138.461426,4128.205078,4144.102539,4141.025879,4126.153809,4134.871582,4104.102539,4121.025879,4120.000000,4108.717773,4092.820557,777.000000,4.000000,,,,0.000000,4.000000,4.000000,4.000000,4.000000,4.000000,4.000000,4.000000,4.000000,4.000000,4.000000,4.000000,4.000000,4.000000,4.000000,100.000000
1602005331.173368,90.000000,0.000000,4121.538574,4135.897461,4121.025879,4134.871582,4121.538574,4134.358887,4136.922852,4122.051270,4135.384766,4107.179688,4118.461426,4121.025879,4106.666504,4093.846191,871.000000,4.000000,,,,0.000000,4.000000,4.000000,4.000000,4.000000,4.000000,4.000000,4.000000,4.000000,4.000000,4.000000,4.000000,4.000000,4.000000,4.000000,100.000000
1602005331.181251,91.000000,0.000000,4121.538574,4137.436035,4129.230957,4135.897461,4121.025879,4131.282227,4134.871582,4126.153809,4135.897461,4106.666504,4120.000000,4131.282227,4112.307617,4107.179688,836.000000,4.000000,,,,0.000000,4.000000,4.000000,4.000000,4.000000,4.000000,4.000000,4.000000,4.000000,4.000000,4.000000,4.000000,4.000000,4.000000,4.000000,100.000000
1602005331.189135,92.000000,0.000000,4131.794922,4142.563965,4141.025879,4139.487305,4123.589844,4136.410156,4141.025879,4137.948730,4135.384766,4111.282227,4126.153809,4142.051270,4125.128418,4111.282227,783.000000,4.000000,,,,0.000000,4.000000,4.000000,4.000000,4.000000,4.000000,4.000000,4.000000,4.000000,4.000000,4.000000,4.000000,4.000000,4.000000,4.000000,100.000000
1602005331.197018,93.000000,0.000000,4137.948730,4140.512695,4136.410156,4138.974121,4121.025879,4126.666504,4141.538574,4137.948730,4138.461426,4125.641113,4129.743652,4135.897461,4125.128418,4108.205078,777.000000,4.000000,,,,0.000000,4.000000,4.000000,4.000000,4.000000,4.000000,4.000000,4.000000,4.000000,4.000000,4.000000,4.000000,4.000000,4.000000,4.000000,100.000000
1602005331.204901,94.000000,0.000000,4130.256348,4137.948730,4124.102539,4136.410156,4117.948730,4112.307617,4131.794922,4126.153809,4134.358887,4124.615234,4124.615234,4126.666504,4116.410156,4107.692383,871.000000,4.000000,,,,0.000000,4.000000,4.000000,4.000000,4.000000,4.000000,4.000000,4.000000,4.000000,4.000000,4.000000,4.000000,4.000000,4.000000,4.000000,100.000000
1602005331.212785,95.000000,0.000000,4122.051270,4138.974121,4120.512695,4134.871582,4120.000000,4115.384766,4127.692383,4121.538574,4127.692383,4115.384766,4119.487305,4131.794922,4111.794922,4111.794922,836.000000,4.000000,,,,0.000000,4.000000,4.000000,4.000000,4.000000,4.000000,4.000000,4.000000,4.000000,4.000000,4.000000,4.000000,4.000000,4.000000,4.000000,100.000000
1602005331.220668,96.000000,0.000000,4123.589844,4138.974121,4122.051270,4137.436035,4122.563965,4122.051270,4132.820313,4125.641113,4125.128418,4108.717773,4121.538574,4138.461426,4110.769043,4120.000000,783.000000,4.000000,,,,0.000000,4.000000,4.000000,4.000000,4.000000,4.000000,4.000000,4.000000,4.000000,4.000000,4.000000,4.000000,4.000000,4.000000,4.000000,100.000000
1602005331.228450,97.000000,0.000000,4127.179688,4138.974121,4123.589844,4139.487305,4121.538574,4122.051270,4135.384766,4128.205078,4121.025879,4093.333252,4120.000000,4137.948730,4109.743652,4118.974121,777.000000,4.000000,,,,0.000000,4.000000,4.000000,4.000000,4.000000,4.000000,4.000000,4.000000,4.000000,4.000000,4.000000,4.000000,4.000000,4.000000,4.000000,100.000000
1602005331.236333,98.000000,0.000000,4124.615234,4137.948730,4123.077148,4136.922852,4121.538574,4123.589844,4133.846191,4125.641113,4112.820313,4089.230713,4120.512695,4133.846191,4108.205078,4106.153809,871.000000,4.000000,,,,0.000000,4.000000,4.000000,4.000000,4.000000,4.000000,4.000000,4.000000,4.000000,4.000000,4.000000,4.000000,4.000000,4.000000,4.000000,100.000000
1602005331.244215,99.000000,0.000000,4122.563965,4136.410156,4120.512695,4135.384766,4122.051270,4124.102539,4133.846191,4120.512695,4117.948730,4111.794922,4118.974121,4127.179688,4106.153809,4103.077148,836.000000,4.000000,,,,0.000000,4.000000,4.000000,4.000000,4.000000,4.000000,4.000000,4.000000,4.000000,4.000000,4.000000,4.000000,4.000000,4.000000,4.000000,100.000000
1602005331.252097,100.000000,0.000000,4125.128418,4136.922852,4127.692383,4141.025879,4123.589844,4128.205078,4138.974121,4124.102539,4134.871582,4122.051270,4110.769043,4122.051270,4107.179688,4104.102539,783.000000,4.000000,,,,0.000000,4.000000,4.000000,4.000000,4.000000,4.000000,4.000000,4.000000,4.000000,4.000000,4.000000,4.000000,4.000000,4.000000,4.000000,100.000000
1602005331.259980,101.000000,0.000000,4133.333496,4145.128418,4140.000000,4150.256348,4126.153809,4138.461426,4144.615234,4136.922852,4140.512695,4118.974121,4114.358887,4123.589844,4109.743652,4101.538574,777.000000,4.000000,,,,0.000000,4.000000,4.000000,4.000000,4.000000,4.000000,4.000000,4.000000,4.000000,4.000000,4.000000,4.000000,4.000000,4.000000,4.000000,100.000000
1602005331.267862,102.000000,0.000000,4140.000000,4149.743652,4141.025879,4150.769043,4127.692383,4140.000000,4145.128418,4136.922852,4136.410156,4118.461426,4118.461426,4129.230957,4108.717773,4104.102539,871.000000,4.000000,,,,0.000000,4.000000,4.000000,4.000000,4.000000,4.000000,4.000000,4.000000,4.000000,4.000000,4.000000,4.000000,4.000000,4.000000,4.000000,100.000000
1602005331.275845,103.000000,0.000000,4139.487305,4144.615234,4136.922852,4146.153809,4127.692383,4136.410156,4139.487305,4127.179688,4136.922852,4104.615234,4114.358887,4133.333496,4108.205078,4108.717773,836.000000,4.000000,,,,0.000000,4.000000,4.000000,4.000000,4.000000,4.000000,4.000000,4.000000,4.000000,4.000000,4.000000,4.000000,4.000000,4.000000,4.000000,100.000000
1602005331.283727,104.000000,0.000000,4138.461426,4141.538574,4136.410156,4146.153809,4128.717773,4137.948730,4138.974121,4128.205078,4134.871582,4097.436035,4115.384766,4132.307617,4110.769043,4109.230957,783.000000,4.000000,,,,0.000000,4.000000,4.000000,4.000000,4.000000,4.000000,4.000000,4.000000,4.000000,4.000000,4.000000,4.000000,4.000000,4.000000,4.000000,100.000000
1602005331.291610,105.000000,0.000000,4136.410156,4142.051270,4136.922852,4143.589844,4127.692383,4131.282227,4140.000000,4133.333496,4127.179688,4109.230957,4116.922852,4124.102539,4110.769043,4107.692383,777.000000,4.000000,,,,0.000000,4.000000,4.000000,4.000000,4.000000,4.000000,4.000000,4.000000,4.000000,4.000000,4.000000,4.000000,4.000000,4.000000,4.000000,100.000000
1602005331.299492,106.000000,0.000000,4135.897461,4140.512695,4134.871582,4140.512695,4124.615234,4124.102539,4140.000000,4131.282227,4125.128418,4112.307617,4114.358887,4120.512695,4106.666504,4109.743652,871.000000,4.000000,,,,0.000000,4.000000,4.000000,4.000000,4.000000,4.000000,4.000000,4.000000,4.000000,4.000000,4.000000,4.000000,4.000000,4.000000,4.000000,100.000000
1602005331.307375,107.000000,0.000000,4138.461426,4138.974121,4129.743652,4142.051270,4123.077148,4125.641113,4140.000000,4126.153809,4128.717773,4111.282227,4116.410156,4122.563965,4104.615234,4109.743652,836.000000,4.000000,,,,0.000000,4.000000,4.000000,4.000000,4.000000,4.000000,4.000000,4.000000,4.000000,4.000000,4.000000,4.000000,4.000000,4.000000,4.000000,100.000000
1602005331.315258,108.000000,0.000000,4135.384766,4138.461426,4123.589844,4140.000000,4123.077148,4127.179688,4136.922852,4123.589844,4126.153809,4122.563965,4115.897461,4121.025879,4104.102539,4105.641113,783.000000,4.000000,,,,0.000000,4.000000,4.000000,4.000000,4.000000,4.000000,4.000000,4.000000,4.000000,4.000000,4.000000,4.000000,4.000000,4.000000,4.000000,100.000000
1602005331.323140,109.000000,0.000000,4133.846191,4137.436035,4124.102539,4136.922852,4124.615234,4126.153809,4141.025879,4123.077148,4121.538574,4127.692383,4107.179688,4120.512695,4103.077148,4104.102539,777.000000,4.000000,,,,0.000000,4.000000,4.000000,4.000000,4.000000,4.000000,4.000000,4.000000,4.000000,4.000000,4.000000,4.000000,4.000000,4.000000,4.000000,100.000000
1602005331.331123,110.000000,0.000000,4135.384766,4135.897461,4125.128418,4137.436035,4124.615234,4124.615234,4148.717773,4124.102539,4120.512695,4120.000000,4108.205078,4121.538574,4107.179688,4105.641113,871.000000,4.000000,,,,0.000000,4.000000,4.000000,4.000000,4.000000,4.000000,4.000000,4.000000,4.000000,4.000000,4.000000,4.000000,4.000000,4.000000,4.000000,100.000000
1602005331.339006,111.000000,0.000000,4127.179688,4127.692383,4121.538574,4130.769043,4118.974121,4120.000000,4144.615234,4122.051270,4118.461426,4115.897461,4115.384766,4120.000000,4109.230957,4105.128418,836.000000,4.000000,,,,0.000000,4.000000,4.000000,4.000000,4.000000,4.000000,4.000000,4.000000,4.000000,4.000000,4.000000,4.000000,4.000000,4.000000,4.000000,100.000000
1602005331.346889,112.000000,0.000000,4120.512695,4119.487305,4122.563965,4126.153809,4116.922852,4117.436035,4134.871582,4121.538574,4120.512695,4124.102539,4120.512695,4124.102539,4105.128418,4111.282227,783.000000,4.000000,,,,0.000000,4.000000,4.000000,4.000000,4.000000,4.000000,4.000000,4.000000,4.000000,4.000000,4.000000,4.000000,4.000000,4.000000,4.000000,100.000000
1602005331.354771,113.000000,0.000000,4130.256348,4128.717773,4127.692383,4134.358887,4121.025879,4120.512695,4134.871582,4124.615234,4125.128418,4129.743652,4129.230957,4136.922852,4112.307617,4120.512695,777.000000,4.000000,,,,0.000000,4.000000,4.000000,4.000000,4.000000,4.000000,4.000000,4.000000,4.000000,4.000000,4.000000,4.000000,4.000000,4.000000,4.000000,100.000000
1602005331.362654,114.000000,0.000000,4133.846191,4138.461426,4126.153809,4139.487305,4126.153809,4122.051270,4138.461426,4123.589844,4126.666504,4109.230957,4128.205078,4147.179688,4126.666504,4123.589844,871.000000,4.000000,,,,0.000000,4.000000,4.000000,4.000000,4.000000,4.000000,4.000000,4.000000,4.000000,4.000000,4.000000,4.000000,4.000000,4.000000,4.000000,100.000000
1602005331.370537,115.000000,0.000000,4126.153809,4134.871582,4127.179688,4138.461426,4131.794922,4122.563965,4140.000000,4127.692383,4133.333496,4098.461426,4125.128418,4152.307617,4126.153809,4131.282227,836.000000,4.000000,,,,0.000000,4.000000,4.000000,4.000000,4.000000,4.000000,4.000000,4.000000,4.000000,4.000000,4.000000,4.000000,4.000000,4.000000,4.000000,100.000000
1602005331.378420,116.000000,0.000000,4127.179688,4136.410156,4137.948730,4138.461426,4134.358887,4131.282227,4139.487305,4138.461426,4143.589844,4135.897461,4130.769043,4155.897461,4122.563965,4135.384766,783.000000,4.000000,,,,0.000000,4.000000,4.000000,4.000000,4.000000,4.000000,4.000000,4.000000,4.000000,4.000000,4.000000,4.000000,4.000000,4.000000,4.000000,100.000000
1602005331.386303,117.000000,0.000000,4131.794922,4140.512695,4138.974121,4138.974121,4128.205078,4140.000000,4140.000000,4134.871582,4137.436035,4162.051270,4132.307617,4152.307617,4127.692383,4128.205078,777.000000,4.000000,,,,0.000000,4.000000,4.000000,4.000000,4.000000,4.000000,4.000000,4.000000,4.000000,4.000000,4.000000,4.000000,4.000000,4.000000,4.000000,100.000000
1602005331.394286,118.000000,0.000000,4122.051270,4132.820313,4124.102539,4137.948730,4122.563965,4133.333496,4138.461426,4121.538574,4122.563965,4136.922852,4120.512695,4145.128418,4117.436035,4122.563965,871.000000,4.000000,,,,0.000000,4.000000,4.000000,4.000000,4.000000,4.000000,4.000000,4.000000,4.000000,4.000000,4.000000,4.000000,4.000000,4.000000,4.000000,100.000000
1602005331.402169,119.000000,0.000000,4106.153809,4120.512695,4114.358887,4129.743652,4121.538574,4123.077148,4129.230957,4121.025879,4122.051270,4118.461426,4107.179688,4143.077148,4098.974121,4116.922852,836.000000,4.000000,,,,0.000000,4.000000,4.000000,4.000000,4.000000,4.000000,4.000000,4.000000,4.000000,4.000000,4.000000,4.000000,4.000000,4.000000,4.000000,100.000000
1602005331.410052,120.000000,0.000000,4108.205078,4120.512695,4120.000000,4124.615234,4121.025879,4125.641113,4126.666504,4124.102539,4124.102539,4124.615234,4105.641113,4140.512695,4099.487305,4110.256348,783.000000,4.000000,,,,0.000000,4.000000,4.000000,4.000000,4.000000,4.000000,4.000000,4.000000,4.000000,4.000000,4.000000,4.000000,4.000000,4.000000,4.000000,100.000000
1602005331.417935,121.000000,0.000000,4121.025879,4123.589844,4127.692383,4131.282227,4121.025879,4127.179688,4134.358887,4121.025879,4117.948730,4116.922852,4113.846191,4140.000000,4108.205078,4116.410156,777.000000,4.000000,,,,0.000000,4.000000,4.000000,4.000000,4.000000,4.000000,4.000000,4.000000,4.000000,4.000000,4.000000,4.000000,4.000000,4.000000,4.000000,100.000000
1602005331.425818,122.000000,0.000000,4123.077148,4121.025879,4127.692383,4132.820313,4121.538574,4120.512695,4139.487305,4127.179688,4125.641113,4105.128418,4124.102539,4146.666504,4107.692383,4123.077148,871.000000,4.000000,,,,0.000000,4.000000,4.000000,4.000000,4.000000,4.000000,4.000000,4.000000,4.000000,4.000000,4.000000,4.000000,4.000000,4.000000,4.000000,100.000000
1602005331.433701,123.000000,0.000000,4115.897461,4120.512695,4121.538574,4125.128418,4122.051270,4122.051270,4141.538574,4138.461426,4140.512695,4116.410156,4125.128418,4152.307617,4105.641113,4119.487305,836.000000,4.000000,,,,0.000000,4.000000,4.000000,4.000000,4.000000,4.000000,4.000000,4.000000,4.000000,4.000000,4.000000,4.000000,4.000000,4.000000,4.000000,100.000000
1602005331.441584,124.000000,0.000000,4114.358887,4122.051270,4119.487305,4122.051270,4118.974121,4127.179688,4144.102539,4138.461426,4141.025879,4134.871582,4125.641113,4149.230957,4112.307617,4118.461426,783.000000,4.000000,,,,0.000000,4.000000,4.000000,4.000000,4.000000,4.000000,4.000000,4.000000,4.000000,4.000000,4.000000,4.000000,4.000000,4.000000,4.000000,100.000000
1602005331.449467,125.000000,0.000000,4117.436035,4120.000000,4121.538574,4124.102539,4116.410156,4123.589844,4140.000000,4135.384766,4138.974121,4141.025879,4135.384766,4148.717773,4121.538574,4120.000000,777.000000,4.000000,,,,0.000000,4.000000,4.000000,4.000000,4.000000,4.000000,4.000000,4.000000,4.000000,4.000000,4.000000,4.000000,4.000000,4.000000,4.000000,100.000000
1602005331.457350,126.000000,0.000000,4120.512695,4120.000000,4121.538574,4130.769043,4119.487305,4122.051270,4135.897461,4137.436035,4144.615234,4144.102539,4135.384766,4154.871582,4123.077148,4124.615234,871.000000,4.000000,,,,0.000000,4.000000,4.000000,4.000000,4.000000,4.000000,4.000000,4.000000,4.000000,4.000000,4.000000,4.000000,4.000000,4.000000,4.000000,100.000000
1602005331.465133,127.000000,0.000000,4121.025879,4124.102539,4121.538574,4135.897461,4122.563965,4132.820313,4139.487305,4139.487305,4149.743652,4147.692383,4131.794922,4156.922852,4120.000000,4131.794922,836.000000,4.000000,,,,0.000000,4.000000,4.000000,4.000000,4.000000,4.000000,4.000000,4.000000,4.000000,4.000000,4.000000,4.000000,4.000000,4.000000,4.000000,100.000000
1602005331.473016,128.000000,0.000000,4116.922852,4123.589844,4120.000000,4129.230957,4120.512695,4140.000000,4141.025879,4140.000000,4153.333496,4140.512695,4133.846191,4153.846191,4121.025879,4127.692383,783.000000,4.000000,,,,0.000000,4.000000,4.000000,4.000000,4.000000,4.000000,4.000000,4.000000,4.000000,4.000000,4.000000,4.000000,4.000000,4.000000,4.000000,100.000000
1602005331.480899,0.000000,0.000000,4120.512695,4120.512695,4116.410156,4123.589844,4122.051270,4136.922852,4139.487305,4140.000000,4155.897461,4129.743652,4131.794922,4153.846191,4126.666504,4122.051270,808.000000,4.000000,,,,0.000000,4.000000,4.000000,4.000000,4.000000,4.000000,4.000000,4.000000,4.000000,4.000000,4.000000,4.000000,4.000000,4.000000,4.000000,100.000000
1602005331.488782,1.000000,0.000000,4122.563965,4122.051270,4113.846191,4124.615234,4125.641113,4135.384766,4135.897461,4133.846191,4147.179688,4134.358887,4123.077148,4151.794922,4124.102539,4127.179688,799.000000,4.000000,,,,0.000000,4.000000,4.000000,4.000000,4.000000,4.000000,4.000000,4.000000,4.000000,4.000000,4.000000,4.000000,4.000000,4.000000,4.000000,100.000000
1602005331.496665,2.000000,0.000000,4109.230957,4123.077148,4111.282227,4121.025879,4124.102539,4136.922852,4133.333496,4124.615234,4132.307617,4144.102539,4118.974121,4140.000000,4115.897461,4126.666504,859.000000,4.000000,,,,0.000000,4.000000,4.000000,4.000000,4.000000,4.000000,4.000000,4.000000,4.000000,4.000000,4.000000,4.000000,4.000000,4.000000,4.000000,100.000000
1602005331.504547,3.000000,0.000000,4105.641113,4120.000000,4114.871582,4120.512695,4128.205078,4135.897461,4136.410156,4121.538574,4127.179688,4138.461426,4121.538574,4127.692383,4117.436035,4119.487305,869.000000,4.000000,,,,0.000000,4.000000,4.000000,4.000000,4.000000,4.000000,4.000000,4.000000,4.000000,4.000000,4.000000,4.000000,4.000000,4.000000,4.000000,100.000000
1602005331.512430,4.000000,0.000000,4117.436035,4121.538574,4120.000000,4126.153809,4138.461426,4135.384766,4135.897461,4126.153809,4135.897461,4135.897461,4125.128418,4125.641113,4124.615234,4123.077148,807.000000,4.000000,,,,0.000000,4.000000,4.000000,4.000000,4.000000,4.000000,4.000000,4.000000,4.000000,4.000000,4.000000,4.000000,4.000000,4.000000,4.000000,100.000000
1602005331.520313,5.000000,0.000000,4115.897461,4125.128418,4114.358887,4125.641113,4140.512695,4136.410156,4127.692383,4127.692383,4143.077148,4150.769043,4127.179688,4128.205078,4125.641113,4126.666504,810.000000,4.000000,,,,0.000000,4.000000,4.000000,4.000000,4.000000,4.000000,4.000000,4.000000,4.000000,4.000000,4.000000,4.000000,4.000000,4.000000,4.000000,100.000000
1602005331.528296,6.000000,0.000000,4103.077148,4119.487305,4102.051270,4121.025879,4133.846191,4134.358887,4122.051270,4123.589844,4139.487305,4153.333496,4124.615234,4125.641113,4123.077148,4122.051270,776.000000,4.000000,,,,0.000000,4.000000,4.000000,4.000000,4.000000,4.000000,4.000000,4.000000,4.000000,4.000000,4.000000,4.000000,4.000000,4.000000,4.000000,100.000000
1602005331.536179,7.000000,0.000000,4103.589844,4113.333496,4099.487305,4121.538574,4134.358887,4135.384766,4126.153809,4121.538574,4135.384766,4142.051270,4122.051270,4121.025879,4121.538574,4120.000000,689.000000,4.000000,,,,0.000000,4.000000,4.000000,4.000000,4.000000,4.000000,4.000000,4.000000,4.000000,4.000000,4.000000,4.000000,4.000000,4.000000,4.000000,100.000000
1602005331.544062,8.000000,0.000000,4111.794922,4121.025879,4106.666504,4124.102539,4139.487305,4136.922852,4129.230957,4123.589844,4130.769043,4136.922852,4124.615234,4124.102539,4123.589844,4122.051270,785.000000,4.000000,,,,0.000000,4.000000,4.000000,4.000000,4.000000,4.000000,4.000000,4.000000,4.000000,4.000000,4.000000,4.000000,4.000000,4.000000,4.000000,100.000000
1602005331.551945,9.000000,0.000000,4113.846191,4123.589844,4110.769043,4125.128418,4133.333496,4130.769043,4125.128418,4124.102539,4124.102539,4125.641113,4129.743652,4131.282227,4127.179688,4123.077148,841.000000,4.000000,,,,0.000000,4.000000,4.000000,4.000000,4.000000,4.000000,4.000000,4.000000,4.000000,4.000000,4.000000,4.000000,4.000000,4.000000,4.000000,100.000000
1602005331.559828,10.000000,0.000000,4108.717773,4108.717773,4107.692383,4121.025879,4118.461426,4117.436035,4120.512695,4120.000000,4117.436035,4119.487305,4126.153809,4127.179688,4117.436035,4123.077148,871.000000,4.000000,,,,0.000000,4.000000,4.000000,4.000000,4.000000,4.000000,4.000000,4.000000,4.000000,4.000000,4.000000,4.000000,4.000000,4.000000,4.000000,100.000000
1602005331.567711,11.000000,0.000000,4104.102539,4106.153809,4104.102539,4117.948730,4115.384766,4108.717773,4118.461426,4114.871582,4111.282227,4134.358887,4112.307617,4121.025879,4105.128418,4120.512695,836.000000,4.000000,,,,0.000000,4.000000,4.000000,4.000000,4.000000,4.000000,4.000000,4.000000,4.000000,4.000000,4.000000,4.000000,4.000000,4.000000,4.000000,100.000000
1602005331.575594,12.000000,0.000000,4114.871582,4126.666504,4110.256348,4129.743652,4131.282227,4113.846191,4122.051270,4116.922852,4114.871582,4141.025879,4113.333496,4125.128418,4115.384766,4120.512695,783.000000,4.000000,,,,0.000000,4.000000,4.000000,4.000000,4.000000,4.000000,4.000000,4.000000,4.000000,4.000000,4.000000,4.000000,4.000000,4.000000,4.000000,100.000000
1602005331.583478,13.000000,0.000000,4127.179688,4137.948730,4116.410156,4138.974121,4143.589844,4124.102539,4122.563965,4122.051270,4124.102539,4134.358887,4131.282227,4128.205078,4129.230957,4125.641113,777.000000,4.000000,,,,0.000000,4.000000,4.000000,4.000000,4.000000,4.000000,4.000000,4.000000,4.000000,4.000000,4.000000,4.000000,4.000000,4.000000,4.000000,100.000000
1602005331.591361,14.000000,0.000000,4125.128418,4128.717773,4111.282227,4127.692383,4146.153809,4127.692383,4115.897461,4118.974121,4123.077148,4138.461426,4136.410156,4124.102539,4125.641113,4127.179688,871.000000,4.000000,,,,0.000000,4.000000,4.000000,4.000000,4.000000,4.000000,4.000000,4.000000,4.000000,4.000000,4.000000,4.000000,4.000000,4.000000,4.000000,100.000000
1602005331.599343,15.000000,0.000000,4118.461426,4124.102539,4106.666504,4118.974121,4146.153809,4125.641113,4115.384766,4109.743652,4114.358887,4129.230957,4126.153809,4121.025879,4120.512695,4124.102539,836.000000,4.000000,,,,0.000000,4.000000,4.000000,4.000000,4.000000,4.000000,4.000000,4.000000,4.000000,4.000000,4.000000,4.000000,4.000000,4.000000,4.000000,100.000000
1602005331.607226,16.000000,0.000000,4115.897461,4125.641113,4105.641113,4123.077148,4144.615234,4126.666504,4120.512695,4106.666504,4116.410156,4108.717773,4123.589844,4119.487305,4122.051270,4124.102539,0.000000,4.000000,,,,0.000000,4.000000,4.000000,4.000000,4.000000,4.000000,4.000000,4.000000,4.000000,4.000000,4.000000,4.000000,4.000000,4.000000,4.000000,100.000000
1602005331.615109,17.000000,0.000000,4117.948730,4126.666504,4105.641113,4125.641113,4147.692383,4128.205078,4121.538574,4114.871582,4122.051270,4125.128418,4133.333496,4116.410156,4128.205078,4123.589844,0.000000,4.000000,,,,0.000000,4.000000,4.000000,4.000000,4.000000,4.000000,4.000000,4.000000,4.000000,4.000000,4.000000,4.000000,4.000000,4.000000,4.000000,100.000000
1602005331.622992,18.000000,0.000000,4122.563965,4132.820313,4107.692383,4129.230957,4151.282227,4127.692383,4121.025879,4123.077148,4126.666504,4152.820313,4136.922852,4125.128418,4136.922852,4128.717773,0.000000,4.000000,,,,0.000000,4.000000,4.000000,4.000000,4.000000,4.000000,4.000000,4.000000,4.000000,4.000000,4.000000,4.000000,4.000000,4.000000,4.000000,100.000000
1602005331.630875,19.000000,0.000000,4122.563965,4137.948730,4109.743652,4136.410156,4148.205078,4131.794922,4125.128418,4125.128418,4128.717773,4135.384766,4132.307617,4135.897461,4139.487305,4137.436035,0.000000,4.000000,,,,0.000000,4.000000,4.000000,4.000000,4.000000,4.000000,4.000000,4.000000,4.000000,4.000000,4.000000,4.000000,4.000000,4.000000,4.000000,100.000000
1602005331.638758,20.000000,0.000000,4123.589844,4136.922852,4114.358887,4136.922852,4142.563965,4135.897461,4130.769043,4129.743652,4123.589844,4112.307617,4134.358887,4137.436035,4134.871582,4138.461426,0.000000,4.000000,,,,0.000000,4.000000,4.000000,4.000000,4.000000,4.000000,4.000000,4.000000,4.000000,4.000000,4.000000,4.000000,4.000000,4.000000,4.000000,100.000000
1602005331.646640,21.000000,0.000000,4134.358887,4138.461426,4120.512695,4135.897461,4142.563965,4128.205078,4135.384766,4135.384766,4121.538574,4130.256348,4139.487305,4143.077148,4137.436035,4141.538574,0.000000,4.000000,,,,0.000000,4.000000,4.000000,4.000000,4.000000,4.000000,4.000000,4.000000,4.000000,4.000000,4.000000,4.000000,4.000000,4.000000,4.000000,100.000000
1602005331.654523,22.000000,0.000000,4144.615234,4143.589844,4124.102539,4143.077148,4146.153809,4119.487305,4136.410156,4137.948730,4124.615234,4139.487305,4140.512695,4155.897461,4145.128418,4152.820313,0.000000,4.000000,,,,0.000000,4.000000,4.000000,4.000000,4.000000,4.000000,4.000000,4.000000,4.000000,4.000000,4.000000,4.000000,4.000000,4.000000,4.000000,100.000000
1602005331.662406,23.000000,0.000000,4144.102539,4143.589844,4124.102539,4148.717773,4149.230957,4127.179688,4132.820313,4140.000000,4121.538574,4116.922852,4141.538574,4160.512695,4147.692383,4155.384766,0.000000,4.000000,,,,0.000000,4.000000,4.000000,4.000000,4.000000,4.000000,4.000000,4.000000,4.000000,4.000000,4.000000,4.000000,4.000000,4.000000,4.000000,100.000000
1602005331.670189,24.000000,0.000000,4140.000000,4143.077148,4126.153809,4147.179688,4148.205078,4135.384766,4130.769043,4137.436035,4117.948730,4120.000000,4144.102539,4157.948730,4143.077148,4146.666504,0.000000,4.000000,,,,0.000000,4.000000,4.000000,4.000000,4.000000,4.000000,4.000000,4.000000,4.000000,4.000000,4.000000,4.000000,4.000000,4.000000,4.000000,100.000000
1602005331.678071,25.000000,0.000000,4140.512695,4144.102539,4125.641113,4141.538574,4141.025879,4126.153809,4126.153809,4125.641113,4122.051270,4144.615234,4139.487305,4155.897461,4139.487305,4138.974121,0.000000,4.000000,,,,0.000000,4.000000,4.000000,4.000000,4.000000,4.000000,4.000000,4.000000,4.000000,4.000000,4.000000,4.000000,4.000000,4.000000,4.000000,100.000000
1602005331.685954,26.000000,0.000000,4140.512695,4143.589844,4122.563965,4138.974121,4137.948730,4119.487305,4123.589844,4121.025879,4124.102539,4141.025879,4136.410156,4154.871582,4140.512695,4138.461426,0.000000,4.000000,,,,0.000000,4.000000,4.000000,4.000000,4.000000,4.000000,4.000000,4.000000,4.000000,4.000000,4.000000,4.000000,4.000000,4.000000,4.000000,100.000000
1602005331.693836,27.000000,0.000000,4139.487305,4140.512695,4128.717773,4140.512695,4140.000000,4129.743652,4131.282227,4127.692383,4128.717773,4129.230957,4140.512695,4157.948730,4140.000000,4146.666504,0.000000,4.000000,,,,0.000000,4.000000,4.000000,4.000000,4.000000,4.000000,4.000000,4.000000,4.000000,4.000000,4.000000,4.000000,4.000000,4.000000,4.000000,100.000000
1602005331.701719,28.000000,0.000000,4140.000000,4137.948730,4125.641113,4140.000000,4143.077148,4140.000000,4141.025879,4128.717773,4136.922852,4135.384766,4140.512695,4157.436035,4138.461426,4149.230957,0.000000,4.000000,,,,0.000000,4.000000,4.000000,4.000000,4.000000,4.000000,4.000000,4.000000,4.000000,4.000000,4.000000,4.000000,4.000000,4.000000,4.000000,100.000000
1602005331.709602,29.000000,0.000000,4137.436035,4139.487305,4108.717773,4138.461426,4150.769043,4139.487305,4136.410156,4125.128418,4141.025879,4134.358887,4138.974121,4147.179688,4138.461426,4139.487305,0.000000,4.000000,,,,0.000000,4.000000,4.000000,4.000000,4.000000,4.000000,4.000000,4.000000,4.000000,4.000000,4.000000,4.000000,4.000000,4.000000,4.000000,100.000000
1602005331.717484,30.000000,0.000000,4129.743652,4140.000000,4102.563965,4135.897461,4155.897461,4140.000000,4125.128418,4125.128418,4137.436035,4105.641113,4137.948730,4140.000000,4138.974121,4136.410156,0.000000,4.000000,,,,0.000000,4.000000,4.000000,4.000000,4.000000,4.000000,4.000000,4.000000,4.000000,4.000000,4.000000,4.000000,4.000000,4.000000,4.000000,100.000000
1602005331.725367,31.000000,0.000000,4121.538574,4136.922852,4104.102539,4134.871582,4149.743652,4138.974121,4120.512695,4123.589844,4130.769043,4085.641113,4130.769043,4143.077148,4138.974121,4140.000000,0.000000,4.000000,,,,0.000000,4.000000,4.000000,4.000000,4.000000,4.000000,4.000000,4.000000,4.000000,4.000000,4.000000,4.000000,4.000000,4.000000,4.000000,100.000000
1602005331.733150,32.000000,0.000000,4126.153809,4135.897461,4105.641113,4135.897461,4138.974121,4130.256348,4122.051270,4123.077148,4130.769043,4114.358887,4128.717773,4149.743652,4138.974121,4138.461426,0.000000,4.000000,,,,0.000000,4.000000,4.000000,4.000000,4.000000,4.000000,4.000000,4.000000,4.000000,4.000000,4.000000,4.000000,4.000000,4.000000,4.000000,100.000000
1602005331.741033,33.000000,0.000000,4137.436035,4140.000000,4115.384766,4138.974121,4138.974121,4130.256348,4126.666504,4131.794922,4133.846191,4154.358887,4139.487305,4155.384766,4142.051270,4137.948730,0.000000,4.000000,,,,0.000000,4.000000,4.000000,4.000000,4.000000,4.000000,4.000000,4.000000,4.000000,4.000000,4.000000,4.000000,4.000000,4.000000,4.000000,100.000000
1602005331.748915,34.000000,0.000000,4139.487305,4141.025879,4125.128418,4139.487305,4145.641113,4139.487305,4127.692383,4136.410156,4128.205078,4151.794922,4145.641113,4162.563965,4144.102539,4143.589844,0.000000,4.000000,,,,0.000000,4.000000,4.000000,4.000000,4.000000,4.000000,4.000000,4.000000,4.000000,4.000000,4.000000,4.000000,4.000000,4.000000,4.000000,100.000000
1602005331.756798,35.000000,0.000000,4135.897461,4140.000000,4122.563965,4138.461426,4144.615234,4135.897461,4124.615234,4127.179688,4119.487305,4135.384766,4143.077148,4169.230957,4144.615234,4145.641113,0.000000,4.000000,,,,0.000000,4.000000,4.000000,4.000000,4.000000,4.000000,4.000000,4.000000,4.000000,4.000000,4.000000,4.000000,4.000000,4.000000,4.000000,100.000000
1602005331.764681,36.000000,0.000000,4138.974121,4142.563965,4120.512695,4142.563965,4144.615234,4131.794922,4129.230957,4122.563965,4118.461426,4133.333496,4144.102539,4169.743652,4142.563965,4143.077148,0.000000,4.000000,,,,0.000000,4.000000,4.000000,4.000000,4.000000,4.000000,4.000000,4.000000,4.000000,4.000000,4.000000,4.000000,4.000000,4.000000,4.000000,100.000000
1602005331.772564,37.000000,0.000000,4139.487305,4142.051270,4123.077148,4143.589844,4150.256348,4142.563965,4136.922852,4126.153809,4121.025879,4131.794922,4138.974121,4157.436035,4138.974121,4134.871582,0.000000,4.000000,,,,0.000000,4.000000,4.000000,4.000000,4.000000,4.000000,4.000000,4.000000,4.000000,4.000000,4.000000,4.000000,4.000000,4.000000,4.000000,100.000000
1602005331.780447,38.000000,0.000000,4135.897461,4138.461426,4122.563965,4137.948730,4151.794922,4143.077148,4134.871582,4126.153809,4128.205078,4121.025879,4127.692383,4142.051270,4135.897461,4128.717773,0.000000,4.000000,,,,0.000000,4.000000,4.000000,4.000000,4.000000,4.000000,4.000000,4.000000,4.000000,4.000000,4.000000,4.000000,4.000000,4.000000,4.000000,100.000000
1602005331.788330,39.000000,0.000000,4136.410156,4139.487305,4123.077148,4142.051270,4149.743652,4137.436035,4132.820313,4129.230957,4138.974121,4105.128418,4130.769043,4141.538574,4136.922852,4133.846191,0.000000,4.000000,,,,0.000000,4.000000,4.000000,4.000000,4.000000,4.000000,4.000000,4.000000,4.000000,4.000000,4.000000,4.000000,4.000000,4.000000,4.000000,100.000000
1602005331.796212,40.000000,0.000000,4133.333496,4144.615234,4123.077148,4149.743652,4146.153809,4145.128418,4137.948730,4138.974121,4147.692383,4112.820313,4140.000000,4152.820313,4137.948730,4140.000000,0.000000,4.000000,,,,0.000000,4.000000,4.000000,4.000000,4.000000,4.000000,4.000000,4.000000,4.000000,4.000000,4.000000,4.000000,4.000000,4.000000,4.000000,100.000000
1602005331.804094,41.000000,0.000000,4125.128418,4142.051270,4122.051270,4145.128418,4139.487305,4147.692383,4140.000000,4143.589844,4156.922852,4151.282227,4139.487305,4157.948730,4137.436035,4136.410156,0.000000,4.000000,,,,0.000000,4.000000,4.000000,4.000000,4.000000,4.000000,4.000000,4.000000,4.000000,4.000000,4.000000,4.000000,4.000000,4.000000,4.000000,100.000000
1602005331.811976,42.000000,0.000000,4123.077148,4137.436035,4118.974121,4139.487305,4138.974121,4146.153809,4141.025879,4145.641113,4154.871582,4164.615234,4138.461426,4153.333496,4134.358887,4125.128418,0.000000,4.000000,,,,0.000000,4.000000,4.000000,4.000000,4.000000,4.000000,4.000000,4.000000,4.000000,4.000000,4.000000,4.000000,4.000000,4.000000,4.000000,100.000000
1602005331.819858,43.000000,0.000000,4124.102539,4138.974121,4112.820313,4144.615234,4143.589844,4151.794922,4145.641113,4145.128418,4137.436035,4143.077148,4135.384766,4151.794922,4131.282227,4118.461426,0.000000,4.000000,,,,0.000000,4.000000,4.000000,4.000000,4.000000,4.000000,4.000000,4.000000,4.000000,4.000000,4.000000,4.000000,4.000000,4.000000,4.000000,100.000000
1602005331.827740,44.000000,0.000000,4123.077148,4137.948730,4110.769043,4144.615234,4140.000000,4140.512695,4138.461426,4132.307617,4116.410156,4130.769043,4125.641113,4149.743652,4132.820313,4126.666504,0.000000,4.000000,,,,0.000000,4.000000,4.000000,4.000000,4.000000,4.000000,4.000000,4.000000,4.000000,4.000000,4.000000,4.000000,4.000000,4.000000,4.000000,100.000000
1602005331.835722,45.000000,0.000000,4123.077148,4130.769043,4115.897461,4136.922852,4132.820313,4116.922852,4122.051270,4117.948730,4107.179688,4131.282227,4126.666504,4149.230957,4136.410156,4137.436035,0.000000,4.000000,,,,0.000000,4.000000,4.000000,4.000000,4.000000,4.000000,4.000000,4.000000,4.000000,4.000000,4.000000,4.000000,4.000000,4.000000,4.000000,100.000000
1602005331.843604,46.000000,0.000000,4129.230957,4129.743652,4124.102539,4136.922852,4135.384766,4117.948730,4118.974121,4120.512695,4118.461426,4123.589844,4140.000000,4161.538574,4137.436035,4135.897461,0.000000,4.000000,,,,0.000000,4.000000,4.000000,4.000000,4.000000,4.000000,4.000000,4.000000,4.000000,4.000000,4.000000,4.000000,4.000000,4.000000,4.000000,100.000000
1602005331.851486,47.000000,0.000000,4137.436035,4137.436035,4127.692383,4143.077148,4138.461426,4128.205078,4124.615234,4126.666504,4135.897461,4122.563965,4142.563965,4169.743652,4139.487305,4138.974121,0.000000,4.000000,,,,0.000000,4.000000,4.000000,4.000000,4.000000,4.000000,4.000000,4.000000,4.000000,4.000000,4.000000,4.000000,4.000000,4.000000,4.000000,100.000000
1602005331.859369,48.000000,0.000000,4142.051270,4141.538574,4124.615234,4143.589844,4129.230957,4121.025879,4119.487305,4126.153809,4141.025879,4136.922852,4137.436035,4161.538574,4147.179688,4155.384766,0.000000,4.000000,,,,0.000000,4.000000,4.000000,4.000000,4.000000,4.000000,4.000000,4.000000,4.000000,4.000000,4.000000,4.000000,4.000000,4.000000,4.000000,100.000000
1602005331.867251,49.000000,0.000000,4142.051270,4139.487305,4123.077148,4140.512695,4122.563965,4115.897461,4112.307617,4128.717773,4142.051270,4135.384766,4143.077148,4153.333496,4152.820313,4158.461426,0.000000,4.000000,,,,0.000000,4.000000,4.000000,4.000000,4.000000,4.000000,4.000000,4.000000,4.000000,4.000000,4.000000,4.000000,4.000000,4.000000,4.000000,100.000000
1602005331.875233,50.000000,0.000000,4141.538574,4139.487305,4124.615234,4143.077148,4129.743652,4125.128418,4121.025879,4140.512695,4158.461426,4124.102539,4151.282227,4154.871582,4154.871582,4149.230957,0.000000,4.000000,,,,0.000000,4.000000,4.000000,4.000000,4.000000,4.000000,4.000000,4.000000,4.000000,4.000000,4.000000,4.000000,4.000000,4.000000,4.000000,100.000000
1602005331.883116,51.000000,0.000000,4141.025879,4142.051270,4124.102539,4146.666504,4138.461426,4137.948730,4137.948730,4150.256348,4170.769043,4142.051270,4157.436035,4156.922852,4158.461426,4153.846191,0.000000,4.000000,,,,0.000000,4.000000,4.000000,4.000000,4.000000,4.000000,4.000000,4.000000,4.000000,4.000000,4.000000,4.000000,4.000000,4.000000,4.000000,100.000000
1602005331.890999,52.000000,0.000000,4140.512695,4138.974121,4123.589844,4141.025879,4137.948730,4136.922852,4142.051270,4145.641113,4162.051270,4161.538574,4153.333496,4154.871582,4157.948730,4156.410156,0.000000,4.000000,,,,0.000000,4.000000,4.000000,4.000000,4.000000,4.000000,4.000000,4.000000,4.000000,4.000000,4.000000,4.000000,4.000000,4.000000,4.000000,100.000000
1602005331.898882,53.000000,0.000000,4137.948730,4131.794922,4127.179688,4136.410156,4135.384766,4129.230957,4138.974121,4137.948730,4151.282227,4149.743652,4142.051270,4149.230957,4153.333496,4144.102539,0.000000,4.000000,,,,0.000000,4.000000,4.000000,4.000000,4.000000,4.000000,4.000000,4.000000,4.000000,4.000000,4.000000,4.000000,4.000000,4.000000,4.000000,100.000000
1602005331.906765,54.000000,0.000000,4127.692383,4126.666504,4125.641113,4136.922852,4136.410156,4129.230957,4138.974121,4134.358887,4145.641113,4128.717773,4136.922852,4140.512695,4147.179688,4134.871582,0.000000,4.000000,,,,0.000000,4.000000,4.000000,4.000000,4.000000,4.000000,4.000000,4.000000,4.000000,4.000000,4.000000,4.000000,4.000000,4.000000,4.000000,100.000000
1602005331.914648,55.000000,0.000000,4114.871582,4124.615234,4115.384766,4130.256348,4136.410156,4125.128418,4133.846191,4127.179688,4137.436035,4117.436035,4138.974121,4130.769043,4141.538574,4129.743652,0.000000,4.000000,,,,0.000000,4.000000,4.000000,4.000000,4.000000,4.000000,4.000000,4.000000,4.000000,4.000000,4.000000,4.000000,4.000000,4.000000,4.000000,100.000000
1602005331.922530,56.000000,0.000000,4113.333496,4122.051270,4109.230957,4125.128418,4135.897461,4118.461426,4124.615234,4125.128418,4135.897461,4127.179688,4140.512695,4123.077148,4137.436035,4121.538574,0.000000,4.000000,,,,0.000000,4.000000,4.000000,4.000000,4.000000,4.000000,4.000000,4.000000,4.000000,4.000000,4.000000,4.000000,4.000000,4.000000,4.000000,100.000000
1602005331.930413,57.000000,0.000000,4117.948730,4124.102539,4109.230957,4133.333496,4137.436035,4120.000000,4122.051270,4131.794922,4144.102539,4156.410156,4137.436035,4124.615234,4139.487305,4123.077148,0.000000,4.000000,,,,0.000000,4.000000,4.000000,4.000000,4.000000,4.000000,4.000000,4.000000,4.000000,4.000000,4.000000,4.000000,4.000000,4.000000,4.000000,100.000000
1602005331.938397,58.000000,0.000000,4124.615234,4131.794922,4115.384766,4141.025879,4138.974121,4123.077148,4125.128418,4130.769043,4144.102539,4160.512695,4135.897461,4132.820313,4141.538574,4131.282227,0.000000,4.000000,,,,0.000000,4.000000,4.000000,4.000000,4.000000,4.000000,4.000000,4.000000,4.000000,4.000000,4.000000,4.000000,4.000000,4.000000,4.000000,100.000000
1602005331.946280,59.000000,0.000000,4136.922852,4137.948730,4130.769043,4140.512695,4137.436035,4122.563965,4132.307617,4127.692383,4140.000000,4127.692383,4144.615234,4146.153809,4143.589844,4137.436035,0.000000,4.000000,,,,0.000000,4.000000,4.000000,4.000000,4.000000,4.000000,4.000000,4.000000,4.000000,4.000000,4.000000,4.000000,4.000000,4.000000,4.000000,100.000000
1602005331.954163,60.000000,0.000000,4142.563965,4138.974121,4141.538574,4140.512695,4129.230957,4123.077148,4138.461426,4136.410156,4137.948730,4110.256348,4151.282227,4159.487305,4147.179688,4148.205078,0.000000,4.000000,,,,0.000000,4.000000,4.000000,4.000000,4.000000,4.000000,4.000000,4.000000,4.000000,4.000000,4.000000,4.000000,4.000000,4.000000,4.000000,100.000000
1602005331.962046,61.000000,0.000000,4138.461426,4136.410156,4140.512695,4140.000000,4120.512695,4123.589844,4131.282227,4136.410156,4133.333496,4120.512695,4138.461426,4152.820313,4141.538574,4151.282227,0.000000,4.000000,,,,0.000000,4.000000,4.000000,4.000000,4.000000,4.000000,4.000000,4.000000,4.000000,4.000000,4.000000,4.000000,4.000000,4.000000,4.000000,100.000000
1602005331.969930,62.000000,0.000000,4139.487305,4128.717773,4137.948730,4137.948730,4120.000000,4122.563965,4121.025879,4125.641113,4133.333496,4123.077148,4125.128418,4139.487305,4130.769043,4144.615234,0.000000,4.000000,,,,0.000000,4.000000,4.000000,4.000000,4.000000,4.000000,4.000000,4.000000,4.000000,4.000000,4.000000,4.000000,4.000000,4.000000,4.000000,100.000000
1602005331.977813,63.000000,0.000000,4139.487305,4122.051270,4130.769043,4136.410156,4121.538574,4118.461426,4118.461426,4122.051270,4131.794922,4105.128418,4126.153809,4134.871582,4124.102539,4134.871582,0.000000,4.000000,,,,0.000000,4.000000,4.000000,4.000000,4.000000,4.000000,4.000000,4.000000,4.000000,4.000000,4.000000,4.000000,4.000000,4.000000,4.000000,100.000000
1602005331.985696,64.000000,0.000000,4126.153809,4124.102539,4116.410156,4132.820313,4120.512695,4117.436035,4113.846191,4122.051270,4124.615234,4100.512695,4118.461426,4124.615234,4115.897461,4119.487305,808.000000,4.000000,,,,0.000000,4.000000,4.000000,4.000000,4.000000,4.000000,4.000000,4.000000,4.000000,4.000000,4.000000,4.000000,4.000000,4.000000,4.000000,100.000000
1602005331.993580,65.000000,0.000000,4114.358887,4120.512695,4107.179688,4126.153809,4122.563965,4117.948730,4115.897461,4120.512695,4125.128418,4121.538574,4105.641113,4112.307617,4105.128418,4112.820313,799.000000,4.000000,,,,0.000000,4.000000,4.000000,4.000000,4.000000,4.000000,4.000000,4.000000,4.000000,4.000000,4.000000,4.000000,4.000000,4.000000,4.000000,100.000000
1602005332.001463,66.000000,0.000000,4108.717773,4107.692383,4107.692383,4121.025879,4124.615234,4113.333496,4123.589844,4126.153809,4134.358887,4127.692383,4110.256348,4117.436035,4103.589844,4118.974121,859.000000,4.000000,,,,0.000000,4.000000,4.000000,4.000000,4.000000,4.000000,4.000000,4.000000,4.000000,4.000000,4.000000,4.000000,4.000000,4.000000,4.000000,100.000000
1602005332.009346,67.000000,0.000000,4107.692383,4107.179688,4108.717773,4120.512695,4123.589844,4113.846191,4124.102539,4137.948730,4144.615234,4116.410156,4122.563965,4125.128418,4111.794922,4116.410156,869.000000,4.000000,,,,0.000000,4.000000,4.000000,4.000000,4.000000,4.000000,4.000000,4.000000,4.000000,4.000000,4.000000,4.000000,4.000000,4.000000,4.000000,100.000000
1602005332.017129,68.000000,0.000000,4113.846191,4110.769043,4108.205078,4122.563965,4122.563965,4121.025879,4126.666504,4145.128418,4153.333496,4128.205078,4125.641113,4124.615234,4120.000000,4109.230957,817.000000,4.000000,,,,0.000000,4.000000,4.000000,4.000000,4.000000,4.000000,4.000000,4.000000,4.000000,4.000000,4.000000,4.000000,4.000000,4.000000,4.000000,100.000000
1602005332.025011,69.000000,0.000000,4121.538574,4111.282227,4110.256348,4122.563965,4123.589844,4123.077148,4133.846191,4144.615234,4150.769043,4131.282227,4126.153809,4124.102539,4123.077148,4116.410156,810.000000,4.000000,,,,0.000000,4.000000,4.000000,4.000000,4.000000,4.000000,4.000000,4.000000,4.000000,4.000000,4.000000,4.000000,4.000000,4.000000,4.000000,100.000000
1602005332.032893,70.000000,0.000000,4124.102539,4114.871582,4114.358887,4121.538574,4122.051270,4122.563965,4129.230957,4137.948730,4137.948730,4101.538574,4123.077148,4116.410156,4118.461426,4124.102539,776.000000,4.000000,,,,0.000000,4.000000,4.000000,4.000000,4.000000,4.000000,4.000000,4.000000,4.000000,4.000000,4.000000,4.000000,4.000000,4.000000,4.000000,100.000000
1602005332.040775,71.000000,0.000000,4118.461426,4114.871582,4116.410156,4122.051270,4120.512695,4125.128418,4122.563965,4128.717773,4132.820313,4098.461426,4114.871582,4105.128418,4109.230957,4117.948730,689.000000,4.000000,,,,0.000000,4.000000,4.000000,4.000000,4.000000,4.000000,4.000000,4.000000,4.000000,4.000000,4.000000,4.000000,4.000000,4.000000,4.000000,100.000000
1602005332.048657,72.000000,0.000000,4111.794922,4107.692383,4116.922852,4124.102539,4119.487305,4127.179688,4128.717773,4128.717773,4135.897461,4135.384766,4109.230957,4103.589844,4104.615234,4107.692383,785.000000,4.000000,,,,0.000000,4.000000,4.000000,4.000000,4.000000,4.000000,4.000000,4.000000,4.000000,4.000000,4.000000,4.000000,4.000000,4.000000,4.000000,100.000000
1602005332.056440,73.000000,0.000000,4115.897461,4109.743652,4120.512695,4124.102539,4120.512695,4132.307617,4137.436035,4134.871582,4136.922852,4147.179688,4109.743652,4105.641113,4105.641113,4108.717773,841.000000,4.000000,,,,0.000000,4.000000,4.000000,4.000000,4.000000,4.000000,4.000000,4.000000,4.000000,4.000000,4.000000,4.000000,4.000000,4.000000,4.000000,100.000000
1602005332.064322,74.000000,0.000000,4123.077148,4114.358887,4123.589844,4121.538574,4123.077148,4138.974121,4141.025879,4140.000000,4134.358887,4132.820313,4112.307617,4109.230957,4113.333496,4121.025879,871.000000,4.000000,,,,0.000000,4.000000,4.000000,4.000000,4.000000,4.000000,4.000000,4.000000,4.000000,4.000000,4.000000,4.000000,4.000000,4.000000,4.000000,100.000000
1602005332.072205,75.000000,0.000000,4123.589844,4110.256348,4124.102539,4121.538574,4124.615234,4139.487305,4143.589844,4147.692383,4136.410156,4137.948730,4120.512695,4119.487305,4122.563965,4126.153809,836.000000,4.000000,,,,0.000000,4.000000,4.000000,4.000000,4.000000,4.000000,4.000000,4.000000,4.000000,4.000000,4.000000,4.000000,4.000000,4.000000,4.000000,100.000000
1602005332.080087,76.000000,0.000000,4121.538574,4109.230957,4129.230957,4123.589844,4125.641113,4138.461426,4144.615234,4151.282227,4142.563965,4140.512695,4129.743652,4129.743652,4125.128418,4124.615234,783.000000,4.000000,,,,0.000000,4.000000,4.000000,4.000000,4.000000,4.000000,4.000000,4.000000,4.000000,4.000000,4.000000,4.000000,4.000000,4.000000,4.000000,100.000000
1602005332.087970,77.000000,0.000000,4115.384766,4109.743652,4130.256348,4120.512695,4122.051270,4135.384766,4143.077148,4144.102539,4141.025879,4114.871582,4126.153809,4130.256348,4123.077148,4127.692383,777.000000,4.000000,,,,0.000000,4.000000,4.000000,4.000000,4.000000,4.000000,4.000000,4.000000,4.000000,4.000000,4.000000,4.000000,4.000000,4.000000,4.000000,100.000000
1602005332.095853,78.000000,0.000000,4112.307617,4106.666504,4125.641113,4117.948730,4118.974121,4136.922852,4142.563965,4140.512695,4133.846191,4109.230957,4117.948730,4126.666504,4120.000000,4126.153809,871.000000,4.000000,,,,0.000000,4.000000,4.000000,4.000000,4.000000,4.000000,4.000000,4.000000,4.000000,4.000000,4.000000,4.000000,4.000000,4.000000,4.000000,100.000000
1602005332.103735,79.000000,0.000000,4118.461426,4105.641113,4122.563965,4122.051270,4120.512695,4134.358887,4140.512695,4143.077148,4136.410156,4130.256348,4119.487305,4125.641113,4116.410156,4120.512695,836.000000,4.000000,,,,0.000000,4.000000,4.000000,4.000000,4.000000,4.000000,4.000000,4.000000,4.000000,4.000000,4.000000,4.000000,4.000000,4.000000,4.000000,100.000000
1602005332.111618,80.000000,0.000000,4123.589844,4109.743652,4124.615234,4124.102539,4122.563965,4124.102539,4137.948730,4140.512695,4142.563965,4140.000000,4123.589844,4123.589844,4120.000000,4123.077148,783.000000,4.000000,,,,0.000000,4.000000,4.000000,4.000000,4.000000,4.000000,4.000000,4.000000,4.000000,4.000000,4.000000,4.000000,4.000000,4.000000,4.000000,100.000000
1602005332.119400,81.000000,0.000000,4122.051270,4116.410156,4132.820313,4122.563965,4122.051270,4125.641113,4137.948730,4139.487305,4138.461426,4138.461426,4121.025879,4122.563965,4120.000000,4123.589844,777.000000,4.000000,,,,0.000000,4.000000,4.000000,4.000000,4.000000,4.000000,4.000000,4.000000,4.000000,4.000000,4.000000,4.000000,4.000000,4.000000,4.000000,100.000000
1602005332.127282,82.000000,0.000000,4121.538574,4121.025879,4140.000000,4130.769043,4124.102539,4137.436035,4135.384766,4141.025879,4135.897461,4149.743652,4116.410156,4127.179688,4111.794922,4122.051270,871.000000,4.000000,,,,0.000000,4.000000,4.000000,4.000000,4.000000,4.000000,4.000000,4.000000,4.000000,4.000000,4.000000,4.000000,4.000000,4.000000,4.000000,100.000000
1602005332.135164,83.000000,0.000000,4125.128418,4125.128418,4140.512695,4137.436035,4133.333496,4141.025879,4129.743652,4138.461426,4139.487305,4148.205078,4123.077148,4137.436035,4120.512695,4134.358887,836.000000,4.000000,,,,0.000000,4.000000,4.000000,4.000000,4.000000,4.000000,4.000000,4.000000,4.000000,4.000000,4.000000,4.000000,4.000000,4.000000,4.000000,100.000000
1602005332.143046,84.000000,0.000000,4127.179688,4124.102539,4136.922852,4130.256348,4137.436035,4136.922852,4131.794922,4137.948730,4140.512695,4124.615234,4136.410156,4144.102539,4141.025879,4150.256348,783.000000,4.000000,,,,0.000000,4.000000,4.000000,4.000000,4.000000,4.000000,4.000000,4.000000,4.000000,4.000000,4.000000,4.000000,4.000000,4.000000,4.000000,100.000000
1602005332.150929,85.000000,0.000000,4119.487305,4113.333496,4136.922852,4125.128418,4131.282227,4135.897461,4136.922852,4141.025879,4141.025879,4129.230957,4140.000000,4142.051270,4150.769043,4152.307617,777.000000,4.000000,,,,0.000000,4.000000,4.000000,4.000000,4.000000,4.000000,4.000000,4.000000,4.000000,4.000000,4.000000,4.000000,4.000000,4.000000,4.000000,100.000000
1602005332.158712,86.000000,0.000000,4103.589844,4098.461426,4134.871582,4127.179688,4126.153809,4137.436035,4136.410156,4142.051270,4140.512695,4148.717773,4137.948730,4136.922852,4155.384766,4153.846191,871.000000,4.000000,,,,0.000000,4.000000,4.000000,4.000000,4.000000,4.000000,4.000000,4.000000,4.000000,4.000000,4.000000,4.000000,4.000000,4.000000,4.000000,100.000000
1602005332.166595,87.000000,0.000000,4089.230713,4090.256348,4125.128418,4120.000000,4123.077148,4135.384766,4134.871582,4138.974121,4137.436035,4141.025879,4140.000000,4136.922852,4157.948730,4153.333496,836.000000,4.000000,,,,0.000000,4.000000,4.000000,4.000000,4.000000,4.000000,4.000000,4.000000,4.000000,4.000000,4.000000,4.000000,4.000000,4.000000,4.000000,100.000000
1602005332.174478,88.000000,0.000000,4082.051270,4087.692383,4117.948730,4108.205078,4118.974121,4126.666504,4135.897461,4138.461426,4139.487305,4138.461426,4139.487305,4134.871582,4155.384766,4143.077148,783.000000,4.000000,,,,0.000000,4.000000,4.000000,4.000000,4.000000,4.000000,4.000000,4.000000,4.000000,4.000000,4.000000,4.000000,4.000000,4.000000,4.000000,100.000000
1602005332.182361,89.000000,0.000000,4091.794922,4088.205078,4127.692383,4111.282227,4118.461426,4120.512695,4135.897461,4146.153809,4148.205078,4165.641113,4140.512695,4133.846191,4163.589844,4147.179688,777.000000,4.000000,,,,0.000000,4.000000,4.000000,4.000000,4.000000,4.000000,4.000000,4.000000,4.000000,4.000000,4.000000,4.000000,4.000000,4.000000,4.000000,100.000000
1602005332.190244,90.000000,0.000000,4106.153809,4097.436035,4144.615234,4121.538574,4125.128418,4129.230957,4138.974121,4152.820313,4163.589844,4177.948730,4154.871582,4146.153809,4181.538574,4168.205078,871.000000,4.000000,,,,0.000000,4.000000,4.000000,4.000000,4.000000,4.000000,4.000000,4.000000,4.000000,4.000000,4.000000,4.000000,4.000000,4.000000,4.000000,100.000000
1602005332.198127,91.000000,0.000000,4106.666504,4105.641113,4148.205078,4122.051270,4130.769043,4138.461426,4144.102539,4154.358887,4167.692383,4158.974121,4164.102539,4158.974121,4186.666504,4172.820313,836.000000,4.000000,,,,0.000000,4.000000,4.000000,4.000000,4.000000,4.000000,4.000000,4.000000,4.000000,4.000000,4.000000,4.000000,4.000000,4.000000,4.000000,100.000000
1602005332.206010,92.000000,0.000000,4104.102539,4105.128418,4141.538574,4122.051270,4135.897461,4140.512695,4146.153809,4151.794922,4151.794922,4150.769043,4160.000000,4161.538574,4185.641113,4167.692383,783.000000,4.000000,,,,0.000000,4.000000,4.000000,4.000000,4.000000,4.000000,4.000000,4.000000,4.000000,4.000000,4.000000,4.000000,4.000000,4.000000,4.000000,100.000000
1602005332.213893,93.000000,0.000000,4108.717773,4103.589844,4138.974121,4127.179688,4136.410156,4139.487305,4144.615234,4143.589844,4135.897461,4154.358887,4157.436035,4163.589844,4188.717773,4174.871582,777.000000,4.000000,,,,0.000000,4.000000,4.000000,4.000000,4.000000,4.000000,4.000000,4.000000,4.000000,4.000000,4.000000,4.000000,4.000000,4.000000,4.000000,100.000000
1602005332.221776,94.000000,0.000000,4109.743652,4105.641113,4139.487305,4128.205078,4129.230957,4135.897461,4138.461426,4136.410156,4132.820313,4149.743652,4154.871582,4162.563965,4184.102539,4179.487305,871.000000,4.000000,,,,0.000000,4.000000,4.000000,4.000000,4.000000,4.000000,4.000000,4.000000,4.000000,4.000000,4.000000,4.000000,4.000000,4.000000,4.000000,100.000000
1602005332.229758,95.000000,0.000000,4107.179688,4107.692383,4138.974121,4130.769043,4129.743652,4136.922852,4138.974121,4144.102539,4142.563965,4160.512695,4158.974121,4155.897461,4182.051270,4173.333496,836.000000,4.000000,,,,0.000000,4.000000,4.000000,4.000000,4.000000,4.000000,4.000000,4.000000,4.000000,4.000000,4.000000,4.000000,4.000000,4.000000,4.000000,100.000000
1602005332.237640,96.000000,0.000000,4108.205078,4108.717773,4137.948730,4137.948730,4136.410156,4137.436035,4146.153809,4153.846191,4152.307617,4173.333496,4169.743652,4152.820313,4191.794922,4172.820313,783.000000,4.000000,,,,0.000000,4.000000,4.000000,4.000000,4.000000,4.000000,4.000000,4.000000,4.000000,4.000000,4.000000,4.000000,4.000000,4.000000,4.000000,100.000000
1602005332.245523,97.000000,0.000000,4111.282227,4110.256348,4136.410156,4138.974121,4138.461426,4137.436035,4145.641113,4155.384766,4156.922852,4154.871582,4172.307617,4152.307617,4196.410156,4173.846191,777.000000,4.000000,,,,0.000000,4.000000,4.000000,4.000000,4.000000,4.000000,4.000000,4.000000,4.000000,4.000000,4.000000,4.000000,4.000000,4.000000,4.000000,100.000000
1602005332.253405,98.000000,0.000000,4111.282227,4111.282227,4138.461426,4136.922852,4134.358887,4137.948730,4137.436035,4150.769043,4158.461426,4148.205078,4163.077148,4151.282227,4186.666504,4164.102539,871.000000,4.000000,,,,0.000000,4.000000,4.000000,4.000000,4.000000,4.000000,4.000000,4.000000,4.000000,4.000000,4.000000,4.000000,4.000000,4.000000,4.000000,100.000000
1602005332.261287,99.000000,0.000000,4108.717773,4109.230957,4142.563965,4138.461426,4127.179688,4133.333496,4134.358887,4143.077148,4158.974121,4182.563965,4158.974121,4149.230957,4182.051270,4160.000000,836.000000,4.000000,,,,0.000000,4.000000,4.000000,4.000000,4.000000,4.000000,4.000000,4.000000,4.000000,4.000000,4.000000,4.000000,4.000000,4.000000,4.000000,100.000000
1602005332.269169,100.000000,0.000000,4109.743652,4106.153809,4141.538574,4138.461426,4122.051270,4126.153809,4134.871582,4144.615234,4157.948730,4195.897461,4163.077148,4143.077148,4188.205078,4165.128418,783.000000,4.000000,,,,0.000000,4.000000,4.000000,4.000000,4.000000,4.000000,4.000000,4.000000,4.000000,4.000000,4.000000,4.000000,4.000000,4.000000,4.000000,100.000000
1602005332.276950,101.000000,0.000000,4110.769043,4106.666504,4140.512695,4130.769043,4121.538574,4121.538574,4133.846191,4151.282227,4157.436035,4174.358887,4161.025879,4139.487305,4184.615234,4161.538574,777.000000,4.000000,,,,0.000000,4.000000,4.000000,4.000000,4.000000,4.000000,4.000000,4.000000,4.000000,4.000000,4.000000,4.000000,4.000000,4.000000,4.000000,100.000000
1602005332.284732,102.000000,0.000000,4106.153809,4105.128418,4141.538574,4123.589844,4119.487305,4120.512695,4134.871582,4142.563965,4153.333496,4168.717773,4151.282227,4133.333496,4169.230957,4146.666504,871.000000,4.000000,,,,0.000000,4.000000,4.000000,4.000000,4.000000,4.000000,4.000000,4.000000,4.000000,4.000000,4.000000,4.000000,4.000000,4.000000,4.000000,100.000000
1602005332.292615,103.000000,0.000000,4103.589844,4097.948730,4134.358887,4121.538574,4121.538574,4124.102539,4134.871582,4133.846191,4141.025879,4164.102539,4139.487305,4119.487305,4160.512695,4134.358887,836.000000,4.000000,,,,0.000000,4.000000,4.000000,4.000000,4.000000,4.000000,4.000000,4.000000,4.000000,4.000000,4.000000,4.000000,4.000000,4.000000,4.000000,100.000000
1602005332.300497,104.000000,0.000000,4106.153809,4100.512695,4127.692383,4125.128418,4135.897461,4136.922852,4138.974121,4148.205078,4144.102539,4147.179688,4140.512695,4122.051270,4169.743652,4142.051270,783.000000,4.000000,,,,0.000000,4.000000,4.000000,4.000000,4.000000,4.000000,4.000000,4.000000,4.000000,4.000000,4.000000,4.000000,4.000000,4.000000,4.000000,100.000000
1602005332.308379,105.000000,0.000000,4105.641113,4108.717773,4133.333496,4131.282227,4140.512695,4143.077148,4147.692383,4156.922852,4156.922852,4158.974121,4144.615234,4136.410156,4173.333496,4154.358887,777.000000,4.000000,,,,0.000000,4.000000,4.000000,4.000000,4.000000,4.000000,4.000000,4.000000,4.000000,4.000000,4.000000,4.000000,4.000000,4.000000,4.000000,100.000000
1602005332.316262,106.000000,0.000000,4108.205078,4108.205078,4138.974121,4136.922852,4135.897461,4141.025879,4153.333496,4145.128418,4151.282227,4173.846191,4145.128418,4136.922852,4161.538574,4153.333496,871.000000,4.000000,,,,0.000000,4.000000,4.000000,4.000000,4.000000,4.000000,4.000000,4.000000,4.000000,4.000000,4.000000,4.000000,4.000000,4.000000,4.000000,100.000000
1602005332.324144,107.000000,0.000000,4112.820313,4110.256348,4137.948730,4140.000000,4145.641113,4142.051270,4151.282227,4138.974121,4138.974121,4151.794922,4146.666504,4129.230957,4163.077148,4150.256348,836.000000,4.000000,,,,0.000000,4.000000,4.000000,4.000000,4.000000,4.000000,4.000000,4.000000,4.000000,4.000000,4.000000,4.000000,4.000000,4.000000,4.000000,100.000000
1602005332.332127,108.000000,0.000000,4110.256348,4121.538574,4138.461426,4140.000000,4153.333496,4142.051270,4145.128418,4139.487305,4135.897461,4134.358887,4145.641113,4124.102539,4169.743652,4155.384766,783.000000,4.000000,,,,0.000000,4.000000,4.000000,4.000000,4.000000,4.000000,4.000000,4.000000,4.000000,4.000000,4.000000,4.000000,4.000000,4.000000,4.000000,100.000000
1602005332.340010,109.000000,0.000000,4111.794922,4127.179688,4137.948730,4141.025879,4143.589844,4138.461426,4139.487305,4135.384766,4131.794922,4148.205078,4143.077148,4120.512695,4163.077148,4156.922852,777.000000,4.000000,,,,0.000000,4.000000,4.000000,4.000000,4.000000,4.000000,4.000000,4.000000,4.000000,4.000000,4.000000,4.000000,4.000000,4.000000,4.000000,100.000000
1602005332.347893,110.000000,0.000000,4116.922852,4124.102539,4133.333496,4141.025879,4136.922852,4135.384766,4135.897461,4133.333496,4122.051270,4159.487305,4143.077148,4125.128418,4160.000000,4150.256348,871.000000,4.000000,,,,0.000000,4.000000,4.000000,4.000000,4.000000,4.000000,4.000000,4.000000,4.000000,4.000000,4.000000,4.000000,4.000000,4.000000,4.000000,100.000000
1602005332.355775,111.000000,0.000000,4115.384766,4123.589844,4134.871582,4140.512695,4137.948730,4129.743652,4136.410156,4135.897461,4117.436035,4150.769043,4147.179688,4134.871582,4169.743652,4152.820313,836.000000,4.000000,,,,0.000000,4.000000,4.000000,4.000000,4.000000,4.000000,4.000000,4.000000,4.000000,4.000000,4.000000,4.000000,4.000000,4.000000,4.000000,100.000000
1602005332.363658,112.000000,0.000000,4116.922852,4125.128418,4140.000000,4141.538574,4137.948730,4124.102539,4136.922852,4136.410156,4122.051270,4144.615234,4152.820313,4138.974121,4174.358887,4164.615234,783.000000,4.000000,,,,0.000000,4.000000,4.000000,4.000000,4.000000,4.000000,4.000000,4.000000,4.000000,4.000000,4.000000,4.000000,4.000000,4.000000,4.000000,100.000000
1602005332.371541,113.000000,0.000000,4125.641113,4127.179688,4142.563965,4145.128418,4137.948730,4123.077148,4130.256348,4134.871582,4132.307617,4158.461426,4154.358887,4137.948730,4169.743652,4165.641113,777.000000,4.000000,,,,0.000000,4.000000,4.000000,4.000000,4.000000,4.000000,4.000000,4.000000,4.000000,4.000000,4.000000,4.000000,4.000000,4.000000,4.000000,100.000000
1602005332.379424,114.000000,0.000000,4126.666504,4128.205078,4143.077148,4146.153809,4140.000000,4121.538574,4126.153809,4134.871582,4136.922852,4171.282227,4147.692383,4136.922852,4163.589844,4156.410156,871.000000,4.000000,,,,0.000000,4.000000,4.000000,4.000000,4.000000,4.000000,4.000000,4.000000,4.000000,4.000000,4.000000,4.000000,4.000000,4.000000,4.000000,100.000000
1602005332.387307,115.000000,0.000000,4118.461426,4124.615234,4140.512695,4141.538574,4137.948730,4121.538574,4134.358887,4137.948730,4135.384766,4160.000000,4145.641113,4134.358887,4157.948730,4154.871582,836.000000,4.000000,,,,0.000000,4.000000,4.000000,4.000000,4.000000,4.000000,4.000000,4.000000,4.000000,4.000000,4.000000,4.000000,4.000000,4.000000,4.000000,100.000000
1602005332.395190,116.000000,0.000000,4115.384766,4121.025879,4136.410156,4137.436035,4136.410156,4126.153809,4136.410156,4137.948730,4135.897461,4142.051270,4153.846191,4134.358887,4156.922852,4157.948730,783.000000,4.000000,,,,0.000000,4.000000,4.000000,4.000000,4.000000,4.000000,4.000000,4.000000,4.000000,4.000000,4.000000,4.000000,4.000000,4.000000,4.000000,100.000000
1602005332.402972,117.000000,0.000000,4117.948730,4120.512695,4133.846191,4137.948730,4143.077148,4129.230957,4127.692383,4134.358887,4137.948730,4140.000000,4154.871582,4143.077148,4160.000000,4158.461426,777.000000,4.000000,,,,0.000000,4.000000,4.000000,4.000000,4.000000,4.000000,4.000000,4.000000,4.000000,4.000000,4.000000,4.000000,4.000000,4.000000,4.000000,100.000000
1602005332.410853,118.000000,0.000000,4124.102539,4125.128418,4137.948730,4141.025879,4152.820313,4129.230957,4130.769043,4141.538574,4136.410156,4140.512695,4153.333496,4160.000000,4165.128418,4165.641113,871.000000,4.000000,,,,0.000000,4.000000,4.000000,4.000000,4.000000,4.000000,4.000000,4.000000,4.000000,4.000000,4.000000,4.000000,4.000000,4.000000,4.000000,100.000000
1602005332.418735,119.000000,0.000000,4127.692383,4129.743652,4142.051270,4143.589844,4154.358887,4127.179688,4134.358887,4151.794922,4134.871582,4129.230957,4156.410156,4169.230957,4170.769043,4169.743652,836.000000,4.000000,,,,0.000000,4.000000,4.000000,4.000000,4.000000,4.000000,4.000000,4.000000,4.000000,4.000000,4.000000,4.000000,4.000000,4.000000,4.000000,100.000000
1602005332.426617,120.000000,0.000000,4125.128418,4127.692383,4133.333496,4143.589844,4152.307617,4127.692383,4123.589844,4147.692383,4135.384766,4121.025879,4156.922852,4156.922852,4171.794922,4158.974121,783.000000,4.000000,,,,0.000000,4.000000,4.000000,4.000000,4.000000,4.000000,4.000000,4.000000,4.000000,4.000000,4.000000,4.000000,4.000000,4.000000,4.000000,100.000000
1602005332.434499,121.000000,0.000000,4120.512695,4124.102539,4121.538574,4141.538574,4156.410156,4132.820313,4121.025879,4138.461426,4137.436035,4131.794922,4155.384766,4142.051270,4169.230957,4148.205078,777.000000,4.000000,,,,0.000000,4.000000,4.000000,4.000000,4.000000,4.000000,4.000000,4.000000,4.000000,4.000000,4.000000,4.000000,4.000000,4.000000,4.000000,100.000000
1602005332.442282,122.000000,0.000000,4112.820313,4122.051270,4116.410156,4138.974121,4151.282227,4130.769043,4127.692383,4138.974121,4134.871582,4149.743652,4149.230957,4141.025879,4160.512695,4142.563965,871.000000,4.000000,,,,0.000000,4.000000,4.000000,4.000000,4.000000,4.000000,4.000000,4.000000,4.000000,4.000000,4.000000,4.000000,4.000000,4.000000,4.000000,100.000000
1602005332.450164,123.000000,0.000000,4113.846191,4120.512695,4116.410156,4137.948730,4142.563965,4125.128418,4131.282227,4147.179688,4132.820313,4153.333496,4146.153809,4152.820313,4156.922852,4152.820313,836.000000,4.000000,,,,0.000000,4.000000,4.000000,4.000000,4.000000,4.000000,4.000000,4.000000,4.000000,4.000000,4.000000,4.000000,4.000000,4.000000,4.000000,100.000000
1602005332.458046,124.000000,0.000000,4125.641113,4124.615234,4123.589844,4138.461426,4144.615234,4132.820313,4137.436035,4157.948730,4146.666504,4159.487305,4162.051270,4174.358887,4173.333496,4170.256348,783.000000,4.000000,,,,0.000000,4.000000,4.000000,4.000000,4.000000,4.000000,4.000000,4.000000,4.000000,4.000000,4.000000,4.000000,4.000000,4.000000,4.000000,100.000000
