Timestamp,EEG.Counter,EEG.Interpolated,EEG.AF3,EEG.F7,EEG.F3,EEG.FC5,EEG.T7,EEG.P7,EEG.O1,EEG.O2,EEG.P8,EEG.T8,EEG.FC6,EEG.F4,EEG.F8,EEG.AF4,EEG.RawCq,EEG.Battery,MarkerIndex,MarkerType,MarkerValueInt,EEG.MarkerHardware,CQ.AF3,CQ.F7,CQ.F3,CQ.FC5,CQ.T7,CQ.P7,CQ.O1,CQ.O2,CQ.P8,CQ.T8,CQ.FC6,CQ.F4,CQ.F8,CQ.AF4,CQ.Overall
1602005352.884317,7.000000,0.000000,4124.102539,4123.077148,4137.436035,4126.666504,4120.512695,4125.641113,4126.153809,4119.487305,4104.102539,4094.358887,4131.794922,4135.384766,4121.538574,4138.974121,684.000000,4.000000,,,,0.000000,4.000000,4.000000,4.000000,4.000000,4.000000,4.000000,4.000000,4.000000,4.000000,4.000000,4.000000,4.000000,4.000000,4.000000,100.000000
1602005352.892099,8.000000,0.000000,4123.077148,4123.589844,4134.871582,4125.128418,4120.512695,4123.077148,4121.538574,4112.307617,4104.615234,4103.589844,4122.051270,4125.641113,4120.512695,4136.922852,780.000000,4.000000,,,,0.000000,4.000000,4.000000,4.000000,4.000000,4.000000,4.000000,4.000000,4.000000,4.000000,4.000000,4.000000,4.000000,4.000000,4.000000,100.000000
1602005352.899981,9.000000,0.000000,4121.538574,4121.538574,4126.666504,4124.102539,4122.051270,4120.512695,4120.512695,4112.307617,4111.794922,4131.282227,4123.077148,4125.128418,4120.512695,4121.538574,841.000000,4.000000,,,,0.000000,4.000000,4.000000,4.000000,4.000000,4.000000,4.000000,4.000000,4.000000,4.000000,4.000000,4.000000,4.000000,4.000000,4.000000,100.000000
1602005352.907863,10.000000,0.000000,4121.025879,4121.538574,4128.717773,4125.128418,4123.077148,4121.538574,4119.487305,4120.512695,4128.717773,4140.000000,4129.743652,4125.128418,4121.025879,4125.128418,871.000000,4.000000,,,,0.000000,4.000000,4.000000,4.000000,4.000000,4.000000,4.000000,4.000000,4.000000,4.000000,4.000000,4.000000,4.000000,4.000000,4.000000,100.000000
1602005352.915746,11.000000,0.000000,4128.717773,4129.230957,4136.410156,4125.641113,4123.589844,4120.512695,4116.922852,4123.077148,4139.487305,4137.948730,4131.794922,4121.538574,4123.077148,4136.410156,837.000000,4.000000,,,,0.000000,4.000000,4.000000,4.000000,4.000000,4.000000,4.000000,4.000000,4.000000,4.000000,4.000000,4.000000,4.000000,4.000000,4.000000,100.000000
1602005352.923628,12.000000,0.000000,4131.282227,4133.846191,4133.846191,4125.128418,4129.230957,4121.538574,4116.922852,4121.025879,4135.897461,4125.128418,4134.358887,4122.051270,4124.615234,4127.179688,778.000000,4.000000,,,,0.000000,4.000000,4.000000,4.000000,4.000000,4.000000,4.000000,4.000000,4.000000,4.000000,4.000000,4.000000,4.000000,4.000000,4.000000,100.000000
1602005352.931611,13.000000,0.000000,4123.589844,4130.769043,4128.205078,4127.179688,4136.922852,4126.153809,4123.077148,4125.128418,4140.000000,4116.922852,4136.922852,4122.051270,4125.128418,4120.000000,777.000000,4.000000,,,,0.000000,4.000000,4.000000,4.000000,4.000000,4.000000,4.000000,4.000000,4.000000,4.000000,4.000000,4.000000,4.000000,4.000000,4.000000,100.000000
1602005352.939494,14.000000,0.000000,4120.512695,4131.794922,4124.615234,4128.205078,4137.948730,4131.282227,4130.769043,4132.820313,4152.820313,4131.282227,4137.436035,4111.794922,4129.230957,4127.179688,871.000000,4.000000,,,,0.000000,4.000000,4.000000,4.000000,4.000000,4.000000,4.000000,4.000000,4.000000,4.000000,4.000000,4.000000,4.000000,4.000000,4.000000,100.000000
1602005352.947377,15.000000,0.000000,4123.077148,4137.436035,4121.538574,4124.102539,4130.769043,4134.871582,4134.871582,4136.922852,4154.871582,4142.051270,4132.820313,4102.563965,4130.256348,4125.641113,837.000000,4.000000,,,,0.000000,4.000000,4.000000,4.000000,4.000000,4.000000,4.000000,4.000000,4.000000,4.000000,4.000000,4.000000,4.000000,4.000000,4.000000,100.000000
1602005352.955260,16.000000,0.000000,4127.692383,4137.948730,4123.077148,4122.563965,4126.153809,4137.436035,4137.948730,4136.410156,4151.282227,4132.307617,4123.077148,4109.743652,4126.153809,4125.128418,0.000000,4.000000,,,,0.000000,4.000000,4.000000,4.000000,4.000000,4.000000,4.000000,4.000000,4.000000,4.000000,4.000000,4.000000,4.000000,4.000000,4.000000,100.000000
1602005352.963143,17.000000,0.000000,4133.846191,4136.410156,4125.128418,4127.692383,4127.692383,4139.487305,4139.487305,4135.897461,4151.794922,4127.692383,4124.102539,4123.589844,4124.102539,4136.410156,0.000000,4.000000,,,,0.000000,4.000000,4.000000,4.000000,4.000000,4.000000,4.000000,4.000000,4.000000,4.000000,4.000000,4.000000,4.000000,4.000000,4.000000,100.000000
1602005352.971026,18.000000,0.000000,4129.743652,4135.897461,4122.051270,4128.205078,4127.179688,4139.487305,4139.487305,4137.436035,4145.128418,4131.794922,4133.333496,4121.025879,4123.589844,4130.769043,0.000000,4.000000,,,,0.000000,4.000000,4.000000,4.000000,4.000000,4.000000,4.000000,4.000000,4.000000,4.000000,4.000000,4.000000,4.000000,4.000000,4.000000,100.000000
1602005352.978909,19.000000,0.000000,4121.025879,4133.846191,4120.512695,4124.102539,4124.102539,4136.922852,4137.436035,4136.410156,4127.692383,4124.102539,4130.256348,4108.205078,4123.077148,4111.794922,0.000000,4.000000,,,,0.000000,4.000000,4.000000,4.000000,4.000000,4.000000,4.000000,4.000000,4.000000,4.000000,4.000000,4.000000,4.000000,4.000000,4.000000,100.000000
1602005352.986792,20.000000,0.000000,4125.128418,4131.282227,4122.051270,4124.615234,4124.102539,4130.256348,4134.358887,4133.846191,4114.871582,4114.358887,4121.025879,4112.820313,4123.077148,4108.717773,0.000000,4.000000,,,,0.000000,4.000000,4.000000,4.000000,4.000000,4.000000,4.000000,4.000000,4.000000,4.000000,4.000000,4.000000,4.000000,4.000000,4.000000,100.000000
1602005352.994675,21.000000,0.000000,4128.205078,4127.692383,4121.538574,4126.153809,4125.128418,4123.589844,4130.256348,4130.256348,4109.743652,4099.487305,4121.538574,4120.000000,4116.922852,4111.794922,0.000000,4.000000,,,,0.000000,4.000000,4.000000,4.000000,4.000000,4.000000,4.000000,4.000000,4.000000,4.000000,4.000000,4.000000,4.000000,4.000000,4.000000,100.000000
1602005353.002558,22.000000,0.000000,4121.538574,4122.563965,4120.000000,4123.589844,4122.051270,4122.051270,4127.692383,4126.666504,4105.641113,4077.435791,4123.077148,4110.256348,4107.692383,4107.692383,0.000000,4.000000,,,,0.000000,4.000000,4.000000,4.000000,4.000000,4.000000,4.000000,4.000000,4.000000,4.000000,4.000000,4.000000,4.000000,4.000000,4.000000,100.000000
1602005353.010341,23.000000,0.000000,4118.461426,4125.641113,4119.487305,4121.025879,4120.512695,4124.102539,4125.641113,4121.538574,4106.666504,4081.538574,4112.820313,4106.666504,4106.666504,4106.153809,0.000000,4.000000,,,,0.000000,4.000000,4.000000,4.000000,4.000000,4.000000,4.000000,4.000000,4.000000,4.000000,4.000000,4.000000,4.000000,4.000000,4.000000,100.000000
1602005353.018224,24.000000,0.000000,4124.615234,4135.384766,4120.512695,4124.615234,4124.615234,4129.743652,4124.615234,4122.563965,4118.461426,4115.384766,4107.692383,4118.974121,4109.743652,4108.717773,0.000000,4.000000,,,,0.000000,4.000000,4.000000,4.000000,4.000000,4.000000,4.000000,4.000000,4.000000,4.000000,4.000000,4.000000,4.000000,4.000000,4.000000,100.000000
1602005353.026107,25.000000,0.000000,4127.692383,4138.974121,4119.487305,4129.230957,4129.230957,4137.436035,4131.282227,4132.307617,4133.846191,4135.897461,4119.487305,4126.666504,4109.743652,4112.307617,0.000000,4.000000,,,,0.000000,4.000000,4.000000,4.000000,4.000000,4.000000,4.000000,4.000000,4.000000,4.000000,4.000000,4.000000,4.000000,4.000000,4.000000,100.000000
1602005353.033990,26.000000,0.000000,4123.589844,4137.436035,4114.358887,4129.743652,4126.666504,4139.487305,4138.461426,4133.846191,4142.563965,4130.256348,4124.615234,4126.666504,4111.794922,4110.769043,0.000000,4.000000,,,,0.000000,4.000000,4.000000,4.000000,4.000000,4.000000,4.000000,4.000000,4.000000,4.000000,4.000000,4.000000,4.000000,4.000000,4.000000,100.000000
1602005353.041873,27.000000,0.000000,4126.666504,4136.410156,4112.307617,4129.743652,4125.128418,4138.461426,4136.410156,4129.230957,4143.589844,4122.563965,4116.410156,4128.205078,4114.871582,4107.179688,0.000000,4.000000,,,,0.000000,4.000000,4.000000,4.000000,4.000000,4.000000,4.000000,4.000000,4.000000,4.000000,4.000000,4.000000,4.000000,4.000000,4.000000,100.000000
1602005353.049755,28.000000,0.000000,4135.897461,4138.461426,4117.948730,4134.871582,4134.358887,4142.051270,4134.871582,4134.358887,4145.641113,4128.717773,4118.974121,4127.179688,4119.487305,4114.871582,0.000000,4.000000,,,,0.000000,4.000000,4.000000,4.000000,4.000000,4.000000,4.000000,4.000000,4.000000,4.000000,4.000000,4.000000,4.000000,4.000000,4.000000,100.000000
1602005353.057638,29.000000,0.000000,4140.512695,4145.128418,4123.589844,4142.051270,4144.615234,4147.179688,4140.512695,4140.000000,4145.128418,4126.153809,4130.769043,4128.205078,4126.666504,4129.743652,0.000000,4.000000,,,,0.000000,4.000000,4.000000,4.000000,4.000000,4.000000,4.000000,4.000000,4.000000,4.000000,4.000000,4.000000,4.000000,4.000000,4.000000,100.000000
1602005353.065521,30.000000,0.000000,4134.358887,4144.102539,4116.410156,4138.974121,4138.974121,4142.051270,4134.871582,4128.205078,4126.666504,4100.512695,4126.153809,4123.589844,4121.025879,4119.487305,0.000000,4.000000,,,,0.000000,4.000000,4.000000,4.000000,4.000000,4.000000,4.000000,4.000000,4.000000,4.000000,4.000000,4.000000,4.000000,4.000000,4.000000,100.000000
1602005353.073404,31.000000,0.000000,4124.102539,4130.256348,4106.153809,4125.641113,4124.102539,4129.743652,4117.436035,4111.794922,4104.615234,4090.256348,4108.205078,4108.205078,4098.974121,4095.384521,0.000000,4.000000,,,,0.000000,4.000000,4.000000,4.000000,4.000000,4.000000,4.000000,4.000000,4.000000,4.000000,4.000000,4.000000,4.000000,4.000000,4.000000,100.000000
1602005353.081386,32.000000,0.000000,4118.974121,4120.512695,4103.077148,4121.025879,4118.974121,4123.077148,4107.692383,4109.230957,4101.538574,4093.333252,4103.589844,4105.128418,4093.846191,4096.410156,0.000000,4.000000,,,,0.000000,4.000000,4.000000,4.000000,4.000000,4.000000,4.000000,4.000000,4.000000,4.000000,4.000000,4.000000,4.000000,4.000000,4.000000,100.000000
1602005353.089268,33.000000,0.000000,4117.436035,4122.051270,4105.128418,4125.641113,4122.563965,4124.102539,4112.307617,4113.333496,4104.615234,4080.000000,4113.333496,4117.436035,4103.589844,4107.179688,0.000000,4.000000,,,,0.000000,4.000000,4.000000,4.000000,4.000000,4.000000,4.000000,4.000000,4.000000,4.000000,4.000000,4.000000,4.000000,4.000000,4.000000,100.000000
1602005353.097150,34.000000,0.000000,4125.641113,4130.256348,4114.871582,4127.179688,4123.589844,4123.589844,4117.948730,4117.436035,4102.563965,4083.076904,4121.538574,4128.205078,4107.692383,4112.307617,0.000000,4.000000,,,,0.000000,4.000000,4.000000,4.000000,4.000000,4.000000,4.000000,4.000000,4.000000,4.000000,4.000000,4.000000,4.000000,4.000000,4.000000,100.000000
1602005353.105032,35.000000,0.000000,4134.358887,4129.230957,4125.641113,4124.615234,4115.897461,4119.487305,4120.000000,4128.205078,4113.333496,4115.384766,4128.205078,4138.461426,4114.358887,4124.102539,0.000000,4.000000,,,,0.000000,4.000000,4.000000,4.000000,4.000000,4.000000,4.000000,4.000000,4.000000,4.000000,4.000000,4.000000,4.000000,4.000000,4.000000,100.000000
1602005353.112914,36.000000,0.000000,4120.000000,4108.717773,4126.153809,4118.461426,4110.256348,4121.538574,4124.102539,4140.512695,4134.871582,4125.641113,4131.282227,4146.153809,4118.974121,4117.948730,0.000000,4.000000,,,,0.000000,4.000000,4.000000,4.000000,4.000000,4.000000,4.000000,4.000000,4.000000,4.000000,4.000000,4.000000,4.000000,4.000000,4.000000,100.000000
1602005353.120796,37.000000,0.000000,4115.384766,4109.743652,4121.025879,4122.051270,4115.897461,4133.846191,4126.153809,4144.102539,4143.077148,4117.948730,4127.692383,4141.025879,4109.743652,4102.051270,0.000000,4.000000,,,,0.000000,4.000000,4.000000,4.000000,4.000000,4.000000,4.000000,4.000000,4.000000,4.000000,4.000000,4.000000,4.000000,4.000000,4.000000,100.000000
1602005353.128578,38.000000,0.000000,4145.641113,4143.077148,4121.025879,4134.871582,4123.589844,4136.922852,4123.077148,4137.948730,4137.948730,4121.538574,4125.128418,4134.871582,4106.153809,4113.333496,0.000000,4.000000,,,,0.000000,4.000000,4.000000,4.000000,4.000000,4.000000,4.000000,4.000000,4.000000,4.000000,4.000000,4.000000,4.000000,4.000000,4.000000,100.000000
1602005353.136460,39.000000,0.000000,4170.256348,4166.153809,4120.000000,4139.487305,4128.205078,4126.153809,4118.461426,4130.769043,4136.410156,4113.846191,4125.641113,4136.410156,4110.769043,4125.641113,0.000000,4.000000,,,,0.000000,4.000000,4.000000,4.000000,4.000000,4.000000,4.000000,4.000000,4.000000,4.000000,4.000000,4.000000,4.000000,4.000000,4.000000,100.000000
1602005353.144342,40.000000,0.000000,4175.384766,4173.846191,4120.512695,4144.102539,4135.384766,4127.692383,4120.000000,4129.743652,4136.922852,4097.436035,4125.128418,4136.410156,4108.205078,4117.436035,0.000000,4.000000,,,,0.000000,4.000000,4.000000,4.000000,4.000000,4.000000,4.000000,4.000000,4.000000,4.000000,4.000000,4.000000,4.000000,4.000000,4.000000,100.000000
1602005353.152322,41.000000,0.000000,4187.179688,4189.230957,4127.179688,4157.436035,4143.589844,4139.487305,4124.615234,4133.846191,4137.436035,4107.692383,4125.641113,4137.436035,4106.153809,4120.512695,0.000000,4.000000,,,,0.000000,4.000000,4.000000,4.000000,4.000000,4.000000,4.000000,4.000000,4.000000,4.000000,4.000000,4.000000,4.000000,4.000000,4.000000,100.000000
1602005353.160104,42.000000,0.000000,4193.333496,4191.794922,4129.230957,4159.487305,4137.948730,4132.307617,4123.589844,4133.333496,4139.487305,4134.358887,4124.615234,4138.974121,4107.692383,4128.717773,0.000000,4.000000,,,,0.000000,4.000000,4.000000,4.000000,4.000000,4.000000,4.000000,4.000000,4.000000,4.000000,4.000000,4.000000,4.000000,4.000000,4.000000,100.000000
1602005353.167985,43.000000,0.000000,4185.128418,4177.948730,4131.282227,4150.769043,4127.179688,4118.461426,4118.974121,4126.153809,4133.333496,4129.743652,4122.563965,4138.461426,4105.128418,4121.538574,0.000000,4.000000,,,,0.000000,4.000000,4.000000,4.000000,4.000000,4.000000,4.000000,4.000000,4.000000,4.000000,4.000000,4.000000,4.000000,4.000000,4.000000,100.000000
1602005353.175867,44.000000,0.000000,4178.461426,4171.794922,4136.410156,4152.307617,4125.128418,4120.512695,4118.974121,4125.128418,4121.025879,4105.128418,4123.077148,4136.410156,4102.051270,4113.846191,0.000000,4.000000,,,,0.000000,4.000000,4.000000,4.000000,4.000000,4.000000,4.000000,4.000000,4.000000,4.000000,4.000000,4.000000,4.000000,4.000000,4.000000,100.000000
1602005353.183650,45.000000,0.000000,4172.820313,4170.256348,4135.897461,4155.384766,4125.128418,4127.179688,4120.000000,4131.282227,4118.974121,4108.205078,4118.974121,4135.384766,4098.974121,4111.794922,0.000000,4.000000,,,,0.000000,4.000000,4.000000,4.000000,4.000000,4.000000,4.000000,4.000000,4.000000,4.000000,4.000000,4.000000,4.000000,4.000000,4.000000,100.000000
1602005353.191532,46.000000,0.000000,4171.282227,4169.743652,4136.410156,4149.230957,4121.538574,4134.871582,4123.589844,4137.948730,4126.666504,4123.589844,4116.922852,4138.461426,4094.358887,4110.769043,0.000000,4.000000,,,,0.000000,4.000000,4.000000,4.000000,4.000000,4.000000,4.000000,4.000000,4.000000,4.000000,4.000000,4.000000,4.000000,4.000000,4.000000,100.000000
1602005353.199415,47.000000,0.000000,4173.846191,4166.666504,4140.000000,4141.025879,4119.487305,4142.563965,4132.307617,4141.025879,4129.743652,4117.436035,4122.051270,4140.000000,4093.333252,4114.358887,0.000000,4.000000,,,,0.000000,4.000000,4.000000,4.000000,4.000000,4.000000,4.000000,4.000000,4.000000,4.000000,4.000000,4.000000,4.000000,4.000000,4.000000,100.000000
1602005353.207298,48.000000,0.000000,4166.666504,4155.897461,4133.333496,4135.384766,4120.512695,4143.589844,4137.436035,4138.461426,4124.615234,4096.410156,4115.384766,4130.256348,4091.281982,4107.692383,0.000000,4.000000,,,,0.000000,4.000000,4.000000,4.000000,4.000000,4.000000,4.000000,4.000000,4.000000,4.000000,4.000000,4.000000,4.000000,4.000000,4.000000,100.000000
1602005353.215181,49.000000,0.000000,4155.384766,4151.282227,4124.615234,4137.436035,4121.538574,4143.077148,4138.461426,4136.410156,4121.538574,4087.179443,4107.179688,4115.897461,4082.051270,4094.871826,0.000000,4.000000,,,,0.000000,4.000000,4.000000,4.000000,4.000000,4.000000,4.000000,4.000000,4.000000,4.000000,4.000000,4.000000,4.000000,4.000000,4.000000,100.000000
1602005353.223064,50.000000,0.000000,4150.256348,4154.871582,4124.102539,4137.948730,4123.589844,4144.615234,4137.436035,4133.846191,4116.410156,4096.410156,4105.641113,4107.179688,4073.333252,4090.256348,0.000000,4.000000,,,,0.000000,4.000000,4.000000,4.000000,4.000000,4.000000,4.000000,4.000000,4.000000,4.000000,4.000000,4.000000,4.000000,4.000000,4.000000,100.000000
1602005353.230947,51.000000,0.000000,4150.256348,4154.358887,4115.384766,4135.384766,4123.077148,4141.538574,4135.897461,4132.820313,4108.205078,4104.615234,4095.897461,4103.589844,4070.769287,4083.589844,0.000000,4.000000,,,,0.000000,4.000000,4.000000,4.000000,4.000000,4.000000,4.000000,4.000000,4.000000,4.000000,4.000000,4.000000,4.000000,4.000000,4.000000,100.000000
1602005353.238829,52.000000,0.000000,4150.769043,4153.333496,4107.692383,4136.410156,4122.051270,4144.102539,4137.948730,4132.820313,4114.358887,4106.666504,4090.256348,4105.128418,4073.846191,4074.871826,0.000000,4.000000,,,,0.000000,4.000000,4.000000,4.000000,4.000000,4.000000,4.000000,4.000000,4.000000,4.000000,4.000000,4.000000,4.000000,4.000000,4.000000,100.000000
1602005353.246712,53.000000,0.000000,4148.717773,4157.436035,4117.436035,4140.000000,4126.153809,4148.717773,4135.897461,4129.743652,4127.179688,4115.384766,4102.051270,4108.717773,4076.923096,4080.512939,0.000000,4.000000,,,,0.000000,4.000000,4.000000,4.000000,4.000000,4.000000,4.000000,4.000000,4.000000,4.000000,4.000000,4.000000,4.000000,4.000000,4.000000,100.000000
1602005353.254694,54.000000,0.000000,4142.051270,4155.897461,4124.102539,4140.000000,4127.179688,4143.077148,4124.615234,4124.615234,4125.128418,4113.333496,4106.153809,4108.205078,4073.846191,4090.769287,0.000000,4.000000,,,,0.000000,4.000000,4.000000,4.000000,4.000000,4.000000,4.000000,4.000000,4.000000,4.000000,4.000000,4.000000,4.000000,4.000000,4.000000,100.000000
1602005353.262575,55.000000,0.000000,4144.102539,4150.256348,4118.974121,4135.384766,4121.538574,4134.871582,4118.974121,4123.077148,4123.077148,4094.358887,4102.563965,4111.282227,4070.769287,4088.718018,0.000000,4.000000,,,,0.000000,4.000000,4.000000,4.000000,4.000000,4.000000,4.000000,4.000000,4.000000,4.000000,4.000000,4.000000,4.000000,4.000000,4.000000,100.000000
1602005353.270456,56.000000,0.000000,4155.384766,4155.897461,4124.102539,4136.922852,4117.436035,4135.384766,4122.051270,4129.743652,4134.358887,4096.922852,4115.384766,4121.538574,4082.051270,4094.358887,0.000000,4.000000,,,,0.000000,4.000000,4.000000,4.000000,4.000000,4.000000,4.000000,4.000000,4.000000,4.000000,4.000000,4.000000,4.000000,4.000000,4.000000,100.000000
1602005353.278238,57.000000,0.000000,4158.461426,4168.205078,4136.922852,4145.128418,4122.563965,4144.102539,4126.153809,4137.948730,4142.563965,4117.948730,4128.205078,4132.820313,4093.333252,4108.717773,0.000000,4.000000,,,,0.000000,4.000000,4.000000,4.000000,4.000000,4.000000,4.000000,4.000000,4.000000,4.000000,4.000000,4.000000,4.000000,4.000000,4.000000,100.000000
1602005353.286119,58.000000,0.000000,4162.051270,4172.820313,4142.051270,4147.692383,4129.743652,4153.333496,4133.333496,4140.512695,4144.615234,4125.128418,4122.563965,4141.025879,4093.846191,4111.282227,0.000000,4.000000,,,,0.000000,4.000000,4.000000,4.000000,4.000000,4.000000,4.000000,4.000000,4.000000,4.000000,4.000000,4.000000,4.000000,4.000000,4.000000,100.000000
1602005353.293901,59.000000,0.000000,4167.692383,4164.615234,4137.948730,4141.538574,4127.692383,4153.846191,4136.922852,4137.948730,4145.641113,4122.051270,4118.461426,4145.128418,4094.871826,4108.717773,0.000000,4.000000,,,,0.000000,4.000000,4.000000,4.000000,4.000000,4.000000,4.000000,4.000000,4.000000,4.000000,4.000000,4.000000,4.000000,4.000000,4.000000,100.000000
1602005353.301783,60.000000,0.000000,4161.538574,4155.897461,4130.256348,4134.871582,4120.000000,4143.589844,4134.358887,4136.922852,4141.538574,4123.589844,4122.563965,4140.000000,4094.871826,4109.743652,0.000000,4.000000,,,,0.000000,4.000000,4.000000,4.000000,4.000000,4.000000,4.000000,4.000000,4.000000,4.000000,4.000000,4.000000,4.000000,4.000000,4.000000,100.000000
1602005353.309665,61.000000,0.000000,4153.846191,4154.871582,4126.666504,4135.384766,4122.051270,4137.948730,4135.897461,4138.461426,4135.897461,4123.077148,4120.512695,4129.743652,4089.743652,4106.666504,0.000000,4.000000,,,,0.000000,4.000000,4.000000,4.000000,4.000000,4.000000,4.000000,4.000000,4.000000,4.000000,4.000000,4.000000,4.000000,4.000000,4.000000,100.000000
1602005353.317547,62.000000,0.000000,4158.974121,4156.410156,4126.666504,4137.948730,4127.179688,4140.512695,4140.000000,4138.974121,4135.897461,4122.051270,4119.487305,4127.179688,4093.333252,4107.179688,0.000000,4.000000,,,,0.000000,4.000000,4.000000,4.000000,4.000000,4.000000,4.000000,4.000000,4.000000,4.000000,4.000000,4.000000,4.000000,4.000000,4.000000,100.000000
1602005353.325429,63.000000,0.000000,4156.410156,4153.846191,4119.487305,4131.794922,4124.102539,4139.487305,4137.436035,4140.000000,4136.922852,4129.743652,4125.641113,4128.717773,4104.615234,4115.384766,0.000000,4.000000,,,,0.000000,4.000000,4.000000,4.000000,4.000000,4.000000,4.000000,4.000000,4.000000,4.000000,4.000000,4.000000,4.000000,4.000000,4.000000,100.000000
1602005353.333312,64.000000,0.000000,4144.102539,4149.743652,4110.769043,4124.102539,4120.512695,4135.897461,4134.358887,4140.000000,4137.948730,4126.153809,4125.641113,4126.153809,4106.153809,4114.871582,815.000000,4.000000,,,,0.000000,4.000000,4.000000,4.000000,4.000000,4.000000,4.000000,4.000000,4.000000,4.000000,4.000000,4.000000,4.000000,4.000000,4.000000,100.000000
1602005353.341294,65.000000,0.000000,4147.179688,4152.307617,4114.871582,4129.743652,4123.077148,4136.410156,4138.461426,4141.538574,4138.974121,4104.102539,4122.563965,4122.563965,4105.128418,4111.282227,799.000000,4.000000,,,,0.000000,4.000000,4.000000,4.000000,4.000000,4.000000,4.000000,4.000000,4.000000,4.000000,4.000000,4.000000,4.000000,4.000000,4.000000,100.000000
1602005353.349177,66.000000,0.000000,4151.794922,4154.871582,4115.897461,4137.948730,4122.563965,4135.897461,4135.897461,4137.436035,4137.948730,4113.846191,4124.102539,4120.512695,4107.692383,4111.282227,854.000000,4.000000,,,,0.000000,4.000000,4.000000,4.000000,4.000000,4.000000,4.000000,4.000000,4.000000,4.000000,4.000000,4.000000,4.000000,4.000000,4.000000,100.000000
1602005353.357060,67.000000,0.000000,4143.589844,4152.307617,4111.794922,4134.871582,4115.384766,4126.666504,4125.641113,4131.282227,4138.461426,4152.820313,4122.563965,4120.512695,4104.102539,4107.179688,869.000000,4.000000,,,,0.000000,4.000000,4.000000,4.000000,4.000000,4.000000,4.000000,4.000000,4.000000,4.000000,4.000000,4.000000,4.000000,4.000000,4.000000,100.000000
1602005353.364943,68.000000,0.000000,4146.153809,4151.282227,4118.461426,4133.846191,4114.358887,4121.538574,4122.563965,4132.820313,4140.512695,4154.358887,4123.077148,4131.282227,4103.077148,4110.256348,810.000000,4.000000,,,,0.000000,4.000000,4.000000,4.000000,4.000000,4.000000,4.000000,4.000000,4.000000,4.000000,4.000000,4.000000,4.000000,4.000000,4.000000,100.000000
1602005353.372826,69.000000,0.000000,4161.025879,4155.384766,4127.179688,4140.000000,4121.025879,4125.128418,4126.153809,4135.897461,4138.461426,4131.794922,4133.846191,4149.230957,4115.384766,4131.794922,811.000000,4.000000,,,,0.000000,4.000000,4.000000,4.000000,4.000000,4.000000,4.000000,4.000000,4.000000,4.000000,4.000000,4.000000,4.000000,4.000000,4.000000,100.000000
1602005353.380709,70.000000,0.000000,4158.974121,4154.871582,4130.769043,4137.948730,4121.538574,4124.615234,4124.102539,4134.871582,4133.846191,4134.358887,4139.487305,4151.794922,4124.102539,4144.102539,770.000000,4.000000,,,,0.000000,4.000000,4.000000,4.000000,4.000000,4.000000,4.000000,4.000000,4.000000,4.000000,4.000000,4.000000,4.000000,4.000000,4.000000,100.000000
1602005353.388591,71.000000,0.000000,4150.769043,4150.256348,4137.436035,4134.358887,4113.333496,4121.025879,4126.153809,4136.410156,4137.948730,4147.179688,4139.487305,4143.589844,4121.025879,4138.461426,708.000000,4.000000,,,,0.000000,4.000000,4.000000,4.000000,4.000000,4.000000,4.000000,4.000000,4.000000,4.000000,4.000000,4.000000,4.000000,4.000000,4.000000,100.000000
1602005353.396474,72.000000,0.000000,4157.436035,4152.820313,4139.487305,4136.410156,4107.692383,4123.077148,4135.897461,4141.025879,4145.128418,4142.563965,4138.461426,4142.563965,4118.461426,4136.410156,780.000000,4.000000,,,,0.000000,4.000000,4.000000,4.000000,4.000000,4.000000,4.000000,4.000000,4.000000,4.000000,4.000000,4.000000,4.000000,4.000000,4.000000,100.000000
1602005353.404357,73.000000,0.000000,4152.307617,4151.282227,4127.179688,4131.282227,4105.641113,4123.589844,4133.846191,4140.000000,4142.051270,4120.512695,4130.256348,4142.051270,4114.358887,4131.282227,841.000000,4.000000,,,,0.000000,4.000000,4.000000,4.000000,4.000000,4.000000,4.000000,4.000000,4.000000,4.000000,4.000000,4.000000,4.000000,4.000000,4.000000,100.000000
1602005353.412139,74.000000,0.000000,4137.436035,4138.461426,4120.512695,4121.538574,4101.538574,4120.512695,4125.128418,4137.436035,4135.897461,4118.461426,4120.000000,4134.358887,4105.641113,4118.974121,871.000000,4.000000,,,,0.000000,4.000000,4.000000,4.000000,4.000000,4.000000,4.000000,4.000000,4.000000,4.000000,4.000000,4.000000,4.000000,4.000000,4.000000,100.000000
1602005353.420021,75.000000,0.000000,4138.461426,4136.922852,4125.128418,4125.128418,4107.692383,4122.051270,4124.615234,4139.487305,4139.487305,4141.538574,4119.487305,4134.358887,4105.641113,4118.974121,863.000000,4.000000,,,,0.000000,4.000000,4.000000,4.000000,4.000000,4.000000,4.000000,4.000000,4.000000,4.000000,4.000000,4.000000,4.000000,4.000000,4.000000,100.000000
1602005353.427903,76.000000,0.000000,4146.666504,4151.282227,4128.717773,4136.410156,4120.000000,4125.128418,4126.153809,4135.384766,4143.589844,4138.461426,4124.102539,4142.051270,4110.256348,4121.025879,807.000000,4.000000,,,,0.000000,4.000000,4.000000,4.000000,4.000000,4.000000,4.000000,4.000000,4.000000,4.000000,4.000000,4.000000,4.000000,4.000000,4.000000,100.000000
1602005353.435786,77.000000,0.000000,4143.077148,4151.282227,4127.179688,4133.846191,4116.922852,4121.538574,4120.512695,4125.128418,4140.000000,4114.871582,4124.615234,4137.436035,4108.205078,4114.358887,777.000000,4.000000,,,,0.000000,4.000000,4.000000,4.000000,4.000000,4.000000,4.000000,4.000000,4.000000,4.000000,4.000000,4.000000,4.000000,4.000000,4.000000,100.000000
1602005353.443668,78.000000,0.000000,4140.000000,4140.000000,4129.743652,4128.205078,4107.179688,4118.974121,4117.948730,4127.692383,4137.436035,4120.000000,4119.487305,4129.743652,4104.615234,4112.820313,871.000000,4.000000,,,,0.000000,4.000000,4.000000,4.000000,4.000000,4.000000,4.000000,4.000000,4.000000,4.000000,4.000000,4.000000,4.000000,4.000000,4.000000,100.000000
1602005353.451550,79.000000,0.000000,4149.743652,4142.563965,4139.487305,4135.384766,4111.794922,4124.102539,4126.153809,4135.897461,4139.487305,4133.846191,4111.282227,4135.384766,4100.512695,4118.974121,863.000000,4.000000,,,,0.000000,4.000000,4.000000,4.000000,4.000000,4.000000,4.000000,4.000000,4.000000,4.000000,4.000000,4.000000,4.000000,4.000000,4.000000,100.000000
1602005353.459332,80.000000,0.000000,4156.410156,4147.692383,4141.538574,4140.512695,4116.410156,4126.666504,4130.256348,4132.820313,4135.897461,4117.436035,4107.692383,4134.871582,4093.333252,4122.051270,807.000000,4.000000,,,,0.000000,4.000000,4.000000,4.000000,4.000000,4.000000,4.000000,4.000000,4.000000,4.000000,4.000000,4.000000,4.000000,4.000000,4.000000,100.000000
1602005353.467213,81.000000,0.000000,4149.230957,4140.512695,4136.410156,4134.871582,4108.717773,4122.563965,4125.128418,4124.615234,4125.128418,4100.000000,4106.666504,4124.615234,4089.230713,4117.436035,777.000000,4.000000,,,,0.000000,4.000000,4.000000,4.000000,4.000000,4.000000,4.000000,4.000000,4.000000,4.000000,4.000000,4.000000,4.000000,4.000000,4.000000,100.000000
1602005353.475095,82.000000,0.000000,4138.974121,4138.461426,4134.871582,4132.307617,4106.153809,4118.461426,4120.000000,4121.025879,4122.051270,4107.179688,4106.153809,4122.051270,4093.846191,4109.230957,871.000000,4.000000,,,,0.000000,4.000000,4.000000,4.000000,4.000000,4.000000,4.000000,4.000000,4.000000,4.000000,4.000000,4.000000,4.000000,4.000000,4.000000,100.000000
1602005353.482976,83.000000,0.000000,4141.538574,4148.205078,4134.358887,4135.897461,4114.358887,4120.000000,4123.077148,4127.692383,4130.769043,4123.589844,4113.846191,4124.102539,4103.589844,4111.282227,863.000000,4.000000,,,,0.000000,4.000000,4.000000,4.000000,4.000000,4.000000,4.000000,4.000000,4.000000,4.000000,4.000000,4.000000,4.000000,4.000000,4.000000,100.000000
1602005353.490759,84.000000,0.000000,4152.307617,4154.358887,4128.205078,4138.461426,4121.025879,4123.589844,4128.205078,4135.897461,4137.436035,4137.436035,4122.563965,4128.717773,4107.692383,4121.538574,807.000000,4.000000,,,,0.000000,4.000000,4.000000,4.000000,4.000000,4.000000,4.000000,4.000000,4.000000,4.000000,4.000000,4.000000,4.000000,4.000000,4.000000,100.000000
1602005353.498642,85.000000,0.000000,4152.307617,4153.333496,4124.615234,4140.512695,4123.077148,4123.077148,4130.256348,4132.307617,4139.487305,4142.051270,4120.512695,4138.974121,4107.179688,4124.102539,777.000000,4.000000,,,,0.000000,4.000000,4.000000,4.000000,4.000000,4.000000,4.000000,4.000000,4.000000,4.000000,4.000000,4.000000,4.000000,4.000000,4.000000,100.000000
1602005353.506524,86.000000,0.000000,4143.077148,4154.358887,4124.102539,4142.051270,4123.589844,4123.589844,4129.230957,4124.615234,4136.410156,4123.077148,4121.025879,4137.948730,4108.205078,4123.589844,871.000000,4.000000,,,,0.000000,4.000000,4.000000,4.000000,4.000000,4.000000,4.000000,4.000000,4.000000,4.000000,4.000000,4.000000,4.000000,4.000000,4.000000,100.000000
1602005353.514407,87.000000,0.000000,4138.974121,4154.358887,4118.461426,4139.487305,4122.051270,4122.051270,4120.000000,4120.512695,4129.230957,4103.077148,4124.102539,4126.153809,4109.230957,4123.589844,863.000000,4.000000,,,,0.000000,4.000000,4.000000,4.000000,4.000000,4.000000,4.000000,4.000000,4.000000,4.000000,4.000000,4.000000,4.000000,4.000000,4.000000,100.000000
1602005353.522290,88.000000,0.000000,4137.948730,4148.205078,4109.230957,4134.871582,4120.000000,4115.384766,4108.717773,4113.846191,4131.282227,4124.615234,4113.846191,4121.025879,4106.153809,4113.846191,807.000000,4.000000,,,,0.000000,4.000000,4.000000,4.000000,4.000000,4.000000,4.000000,4.000000,4.000000,4.000000,4.000000,4.000000,4.000000,4.000000,4.000000,100.000000
1602005353.530172,89.000000,0.000000,4135.897461,4150.256348,4105.128418,4134.871582,4121.538574,4116.410156,4111.282227,4113.333496,4141.025879,4151.282227,4111.794922,4122.051270,4104.615234,4109.743652,777.000000,4.000000,,,,0.000000,4.000000,4.000000,4.000000,4.000000,4.000000,4.000000,4.000000,4.000000,4.000000,4.000000,4.000000,4.000000,4.000000,4.000000,100.000000
1602005353.538055,90.000000,0.000000,4136.410156,4150.256348,4106.666504,4136.922852,4122.051270,4123.589844,4119.487305,4120.512695,4148.205078,4134.871582,4123.077148,4122.563965,4106.153809,4112.820313,871.000000,4.000000,,,,0.000000,4.000000,4.000000,4.000000,4.000000,4.000000,4.000000,4.000000,4.000000,4.000000,4.000000,4.000000,4.000000,4.000000,4.000000,100.000000
1602005353.545937,91.000000,0.000000,4136.410156,4141.025879,4107.179688,4131.282227,4120.000000,4125.128418,4120.000000,4126.666504,4151.794922,4123.589844,4117.948730,4123.589844,4106.666504,4110.256348,863.000000,4.000000,,,,0.000000,4.000000,4.000000,4.000000,4.000000,4.000000,4.000000,4.000000,4.000000,4.000000,4.000000,4.000000,4.000000,4.000000,4.000000,100.000000
1602005353.553920,92.000000,0.000000,4136.410156,4138.974121,4108.205078,4122.563965,4121.538574,4129.230957,4126.153809,4134.358887,4152.307617,4142.051270,4111.794922,4126.153809,4106.666504,4112.820313,807.000000,4.000000,,,,0.000000,4.000000,4.000000,4.000000,4.000000,4.000000,4.000000,4.000000,4.000000,4.000000,4.000000,4.000000,4.000000,4.000000,4.000000,100.000000
1602005353.561802,93.000000,0.000000,4136.922852,4142.051270,4114.358887,4124.102539,4120.000000,4136.410156,4137.436035,4139.487305,4146.153809,4150.256348,4120.512695,4126.666504,4108.205078,4121.025879,777.000000,4.000000,,,,0.000000,4.000000,4.000000,4.000000,4.000000,4.000000,4.000000,4.000000,4.000000,4.000000,4.000000,4.000000,4.000000,4.000000,4.000000,100.000000
1602005353.569684,94.000000,0.000000,4136.922852,4139.487305,4122.563965,4132.820313,4116.410156,4135.384766,4136.922852,4135.384766,4141.025879,4137.948730,4122.563965,4127.692383,4109.743652,4124.615234,871.000000,4.000000,,,,0.000000,4.000000,4.000000,4.000000,4.000000,4.000000,4.000000,4.000000,4.000000,4.000000,4.000000,4.000000,4.000000,4.000000,4.000000,100.000000
1602005353.577567,95.000000,0.000000,4141.025879,4140.000000,4126.153809,4137.436035,4118.974121,4134.358887,4134.358887,4130.769043,4141.025879,4125.641113,4120.000000,4129.743652,4111.282227,4125.641113,863.000000,4.000000,,,,0.000000,4.000000,4.000000,4.000000,4.000000,4.000000,4.000000,4.000000,4.000000,4.000000,4.000000,4.000000,4.000000,4.000000,4.000000,100.000000
1602005353.585449,96.000000,0.000000,4142.051270,4142.563965,4122.051270,4133.333496,4123.077148,4137.436035,4133.846191,4129.743652,4137.948730,4120.000000,4117.436035,4124.615234,4109.230957,4122.563965,807.000000,4.000000,,,,0.000000,4.000000,4.000000,4.000000,4.000000,4.000000,4.000000,4.000000,4.000000,4.000000,4.000000,4.000000,4.000000,4.000000,4.000000,100.000000
1602005353.593331,97.000000,0.000000,4139.487305,4140.512695,4125.641113,4129.230957,4123.589844,4135.897461,4128.717773,4124.102539,4132.307617,4117.436035,4109.743652,4121.538574,4109.743652,4120.000000,777.000000,4.000000,,,,0.000000,4.000000,4.000000,4.000000,4.000000,4.000000,4.000000,4.000000,4.000000,4.000000,4.000000,4.000000,4.000000,4.000000,4.000000,100.000000
1602005353.601214,98.000000,0.000000,4147.179688,4147.179688,4137.436035,4134.358887,4123.077148,4134.871582,4124.615234,4120.000000,4129.743652,4117.436035,4112.307617,4129.230957,4116.410156,4130.769043,871.000000,4.000000,,,,0.000000,4.000000,4.000000,4.000000,4.000000,4.000000,4.000000,4.000000,4.000000,4.000000,4.000000,4.000000,4.000000,4.000000,4.000000,100.000000
1602005353.609196,99.000000,0.000000,4154.358887,4151.794922,4136.410156,4140.000000,4125.128418,4136.410156,4125.128418,4121.538574,4135.897461,4125.641113,4125.641113,4131.794922,4124.102539,4136.410156,863.000000,4.000000,,,,0.000000,4.000000,4.000000,4.000000,4.000000,4.000000,4.000000,4.000000,4.000000,4.000000,4.000000,4.000000,4.000000,4.000000,4.000000,100.000000
1602005353.617079,100.000000,0.000000,4146.153809,4142.051270,4123.589844,4132.307617,4123.077148,4133.333496,4127.179688,4124.102539,4142.051270,4143.589844,4126.666504,4123.589844,4125.641113,4127.692383,807.000000,4.000000,,,,0.000000,4.000000,4.000000,4.000000,4.000000,4.000000,4.000000,4.000000,4.000000,4.000000,4.000000,4.000000,4.000000,4.000000,4.000000,100.000000
1602005353.624962,101.000000,0.000000,4136.410156,4135.384766,4121.538574,4122.563965,4114.871582,4126.153809,4129.743652,4128.205078,4140.512695,4151.794922,4115.384766,4124.102539,4117.436035,4121.025879,777.000000,4.000000,,,,0.000000,4.000000,4.000000,4.000000,4.000000,4.000000,4.000000,4.000000,4.000000,4.000000,4.000000,4.000000,4.000000,4.000000,4.000000,100.000000
1602005353.632845,102.000000,0.000000,4136.922852,4137.436035,4127.179688,4128.205078,4109.230957,4122.563965,4128.205078,4134.358887,4139.487305,4141.025879,4111.794922,4135.384766,4107.692383,4127.179688,871.000000,4.000000,,,,0.000000,4.000000,4.000000,4.000000,4.000000,4.000000,4.000000,4.000000,4.000000,4.000000,4.000000,4.000000,4.000000,4.000000,4.000000,100.000000
1602005353.640728,103.000000,0.000000,4144.102539,4141.025879,4129.743652,4138.974121,4110.769043,4123.077148,4122.563965,4137.436035,4143.077148,4132.307617,4118.974121,4134.871582,4111.794922,4136.922852,863.000000,4.000000,,,,0.000000,4.000000,4.000000,4.000000,4.000000,4.000000,4.000000,4.000000,4.000000,4.000000,4.000000,4.000000,4.000000,4.000000,4.000000,100.000000
1602005353.648611,104.000000,0.000000,4147.179688,4140.000000,4132.820313,4139.487305,4112.820313,4122.563965,4122.563965,4134.871582,4141.538574,4138.461426,4121.538574,4129.230957,4118.461426,4138.461426,807.000000,4.000000,,,,0.000000,4.000000,4.000000,4.000000,4.000000,4.000000,4.000000,4.000000,4.000000,4.000000,4.000000,4.000000,4.000000,4.000000,4.000000,100.000000
1602005353.656493,105.000000,0.000000,4143.589844,4136.922852,4136.410156,4133.846191,4110.256348,4121.538574,4125.128418,4130.256348,4140.000000,4140.512695,4117.436035,4133.846191,4113.333496,4136.410156,777.000000,4.000000,,,,0.000000,4.000000,4.000000,4.000000,4.000000,4.000000,4.000000,4.000000,4.000000,4.000000,4.000000,4.000000,4.000000,4.000000,4.000000,100.000000
1602005353.664376,106.000000,0.000000,4140.000000,4135.897461,4138.461426,4129.743652,4106.666504,4121.538574,4126.666504,4124.615234,4135.897461,4114.358887,4118.461426,4140.512695,4107.179688,4135.384766,871.000000,4.000000,,,,0.000000,4.000000,4.000000,4.000000,4.000000,4.000000,4.000000,4.000000,4.000000,4.000000,4.000000,4.000000,4.000000,4.000000,4.000000,100.000000
1602005353.672259,107.000000,0.000000,4140.000000,4136.922852,4139.487305,4126.666504,4108.205078,4123.589844,4125.641113,4121.538574,4124.615234,4098.974121,4123.589844,4137.948730,4107.692383,4130.256348,863.000000,4.000000,,,,0.000000,4.000000,4.000000,4.000000,4.000000,4.000000,4.000000,4.000000,4.000000,4.000000,4.000000,4.000000,4.000000,4.000000,4.000000,100.000000
1602005353.680142,108.000000,0.000000,4138.461426,4130.769043,4136.410156,4124.615234,4111.282227,4122.051270,4126.153809,4120.000000,4117.948730,4130.256348,4120.000000,4134.358887,4105.641113,4122.563965,807.000000,4.000000,,,,0.000000,4.000000,4.000000,4.000000,4.000000,4.000000,4.000000,4.000000,4.000000,4.000000,4.000000,4.000000,4.000000,4.000000,4.000000,100.000000
1602005353.687925,109.000000,0.000000,4137.948730,4124.615234,4134.358887,4123.077148,4109.743652,4121.025879,4134.358887,4122.051270,4120.512695,4148.717773,4114.871582,4137.436035,4105.641113,4122.051270,777.000000,4.000000,,,,0.000000,4.000000,4.000000,4.000000,4.000000,4.000000,4.000000,4.000000,4.000000,4.000000,4.000000,4.000000,4.000000,4.000000,4.000000,100.000000
1602005353.695807,110.000000,0.000000,4139.487305,4130.256348,4136.410156,4122.051270,4108.717773,4130.769043,4139.487305,4126.666504,4121.538574,4125.128418,4117.436035,4139.487305,4107.692383,4124.615234,871.000000,4.000000,,,,0.000000,4.000000,4.000000,4.000000,4.000000,4.000000,4.000000,4.000000,4.000000,4.000000,4.000000,4.000000,4.000000,4.000000,4.000000,100.000000
1602005353.703690,111.000000,0.000000,4145.128418,4135.897461,4136.922852,4126.153809,4112.307617,4137.436035,4135.384766,4126.153809,4121.025879,4116.922852,4120.512695,4140.000000,4104.615234,4129.230957,863.000000,4.000000,,,,0.000000,4.000000,4.000000,4.000000,4.000000,4.000000,4.000000,4.000000,4.000000,4.000000,4.000000,4.000000,4.000000,4.000000,4.000000,100.000000
1602005353.711572,112.000000,0.000000,4153.333496,4136.410156,4137.948730,4135.384766,4115.384766,4129.743652,4134.871582,4129.743652,4132.820313,4138.974121,4121.025879,4142.051270,4108.205078,4140.000000,807.000000,4.000000,,,,0.000000,4.000000,4.000000,4.000000,4.000000,4.000000,4.000000,4.000000,4.000000,4.000000,4.000000,4.000000,4.000000,4.000000,4.000000,100.000000
1602005353.719455,113.000000,0.000000,4156.410156,4142.051270,4145.128418,4141.025879,4117.948730,4125.128418,4134.871582,4137.436035,4143.589844,4147.179688,4124.615234,4143.589844,4120.512695,4144.102539,777.000000,4.000000,,,,0.000000,4.000000,4.000000,4.000000,4.000000,4.000000,4.000000,4.000000,4.000000,4.000000,4.000000,4.000000,4.000000,4.000000,4.000000,100.000000
1602005353.727338,114.000000,0.000000,4154.358887,4145.128418,4145.641113,4138.461426,4117.436035,4126.153809,4125.128418,4131.282227,4134.358887,4126.666504,4124.102539,4141.025879,4123.589844,4135.897461,871.000000,4.000000,,,,0.000000,4.000000,4.000000,4.000000,4.000000,4.000000,4.000000,4.000000,4.000000,4.000000,4.000000,4.000000,4.000000,4.000000,4.000000,100.000000
1602005353.735220,115.000000,0.000000,4152.307617,4140.000000,4140.512695,4134.871582,4112.307617,4117.436035,4119.487305,4120.512695,4126.153809,4111.794922,4115.384766,4135.384766,4115.384766,4126.153809,863.000000,4.000000,,,,0.000000,4.000000,4.000000,4.000000,4.000000,4.000000,4.000000,4.000000,4.000000,4.000000,4.000000,4.000000,4.000000,4.000000,4.000000,100.000000
1602005353.743103,116.000000,0.000000,4146.666504,4139.487305,4145.641113,4135.897461,4109.230957,4107.179688,4121.025879,4118.461426,4125.641113,4115.897461,4113.846191,4133.333496,4111.794922,4123.077148,807.000000,4.000000,,,,0.000000,4.000000,4.000000,4.000000,4.000000,4.000000,4.000000,4.000000,4.000000,4.000000,4.000000,4.000000,4.000000,4.000000,4.000000,100.000000
1602005353.750885,117.000000,0.000000,4139.487305,4142.051270,4151.794922,4136.410156,4108.717773,4109.743652,4122.563965,4112.820313,4112.307617,4118.974121,4121.538574,4135.384766,4113.333496,4122.563965,777.000000,4.000000,,,,0.000000,4.000000,4.000000,4.000000,4.000000,4.000000,4.000000,4.000000,4.000000,4.000000,4.000000,4.000000,4.000000,4.000000,4.000000,100.000000
1602005353.758767,118.000000,0.000000,4140.000000,4138.461426,4145.641113,4135.897461,4110.769043,4117.436035,4128.717773,4109.743652,4099.487305,4127.179688,4121.538574,4137.436035,4116.922852,4118.461426,871.000000,4.000000,,,,0.000000,4.000000,4.000000,4.000000,4.000000,4.000000,4.000000,4.000000,4.000000,4.000000,4.000000,4.000000,4.000000,4.000000,4.000000,100.000000
1602005353.766649,119.000000,0.000000,4145.641113,4141.538574,4138.974121,4136.410156,4119.487305,4122.563965,4137.436035,4119.487305,4112.820313,4146.153809,4121.025879,4138.461426,4123.589844,4124.615234,863.000000,4.000000,,,,0.000000,4.000000,4.000000,4.000000,4.000000,4.000000,4.000000,4.000000,4.000000,4.000000,4.000000,4.000000,4.000000,4.000000,4.000000,100.000000
1602005353.774531,120.000000,0.000000,4145.128418,4143.589844,4137.948730,4136.922852,4124.102539,4121.538574,4136.922852,4123.589844,4123.077148,4146.666504,4123.077148,4137.948730,4124.615234,4136.922852,807.000000,4.000000,,,,0.000000,4.000000,4.000000,4.000000,4.000000,4.000000,4.000000,4.000000,4.000000,4.000000,4.000000,4.000000,4.000000,4.000000,4.000000,100.000000
1602005353.782414,121.000000,0.000000,4139.487305,4137.948730,4137.436035,4137.436035,4120.512695,4118.461426,4128.717773,4118.974121,4118.974121,4139.487305,4124.102539,4136.922852,4121.025879,4140.000000,777.000000,4.000000,,,,0.000000,4.000000,4.000000,4.000000,4.000000,4.000000,4.000000,4.000000,4.000000,4.000000,4.000000,4.000000,4.000000,4.000000,4.000000,100.000000
1602005353.790296,122.000000,0.000000,4147.179688,4146.666504,4140.512695,4142.563965,4129.230957,4124.615234,4127.179688,4121.025879,4129.743652,4144.102539,4131.282227,4140.000000,4128.205078,4146.153809,871.000000,4.000000,,,,0.000000,4.000000,4.000000,4.000000,4.000000,4.000000,4.000000,4.000000,4.000000,4.000000,4.000000,4.000000,4.000000,4.000000,4.000000,100.000000
1602005353.798278,123.000000,0.000000,4157.948730,4157.436035,4141.538574,4145.128418,4142.051270,4130.769043,4128.717773,4122.563965,4143.077148,4130.769043,4135.384766,4142.051270,4138.461426,4157.948730,863.000000,4.000000,,,,0.000000,4.000000,4.000000,4.000000,4.000000,4.000000,4.000000,4.000000,4.000000,4.000000,4.000000,4.000000,4.000000,4.000000,4.000000,100.000000
1602005353.806161,124.000000,0.000000,4149.743652,4146.153809,4131.794922,4134.358887,4136.922852,4126.153809,4124.615234,4122.051270,4140.000000,4125.641113,4127.692383,4138.974121,4136.410156,4153.333496,807.000000,4.000000,,,,0.000000,4.000000,4.000000,4.000000,4.000000,4.000000,4.000000,4.000000,4.000000,4.000000,4.000000,4.000000,4.000000,4.000000,4.000000,100.000000
1602005353.814044,125.000000,0.000000,4133.846191,4131.794922,4121.025879,4123.589844,4123.589844,4119.487305,4123.077148,4131.794922,4136.922852,4155.897461,4121.025879,4135.897461,4124.615234,4137.436035,777.000000,4.000000,,,,0.000000,4.000000,4.000000,4.000000,4.000000,4.000000,4.000000,4.000000,4.000000,4.000000,4.000000,4.000000,4.000000,4.000000,4.000000,100.000000
1602005353.821927,126.000000,0.000000,4131.282227,4135.384766,4120.000000,4128.717773,4121.538574,4119.487305,4130.256348,4141.538574,4138.974121,4166.153809,4122.051270,4136.410156,4122.051270,4134.358887,871.000000,4.000000,,,,0.000000,4.000000,4.000000,4.000000,4.000000,4.000000,4.000000,4.000000,4.000000,4.000000,4.000000,4.000000,4.000000,4.000000,4.000000,100.000000
1602005353.829810,127.000000,0.000000,4144.615234,4147.179688,4129.230957,4136.922852,4131.282227,4121.025879,4139.487305,4141.538574,4138.461426,4144.615234,4129.743652,4138.974121,4135.384766,4146.666504,863.000000,4.000000,,,,0.000000,4.000000,4.000000,4.000000,4.000000,4.000000,4.000000,4.000000,4.000000,4.000000,4.000000,4.000000,4.000000,4.000000,4.000000,100.000000
1602005353.837693,128.000000,0.000000,4155.384766,4155.384766,4138.974121,4139.487305,4134.871582,4120.000000,4135.384766,4138.461426,4135.897461,4147.692383,4136.922852,4140.512695,4144.102539,4155.897461,807.000000,4.000000,,,,0.000000,4.000000,4.000000,4.000000,4.000000,4.000000,4.000000,4.000000,4.000000,4.000000,4.000000,4.000000,4.000000,4.000000,4.000000,100.000000
1602005353.845575,0.000000,0.000000,4153.333496,4154.871582,4140.512695,4146.666504,4129.743652,4118.461426,4124.615234,4131.794922,4129.743652,4167.692383,4135.897461,4144.102539,4137.948730,4154.358887,815.000000,4.000000,,,,0.000000,4.000000,4.000000,4.000000,4.000000,4.000000,4.000000,4.000000,4.000000,4.000000,4.000000,4.000000,4.000000,4.000000,4.000000,100.000000
1602005353.853458,1.000000,0.000000,4151.794922,4153.333496,4140.512695,4152.820313,4128.717773,4120.000000,4122.563965,4122.563965,4122.051270,4155.897461,4135.384766,4150.769043,4135.384766,4152.820313,799.000000,4.000000,,,,0.000000,4.000000,4.000000,4.000000,4.000000,4.000000,4.000000,4.000000,4.000000,4.000000,4.000000,4.000000,4.000000,4.000000,4.000000,100.000000
1602005353.861341,2.000000,0.000000,4154.358887,4155.897461,4143.589844,4147.179688,4133.333496,4126.153809,4128.717773,4120.000000,4121.538574,4132.820313,4139.487305,4155.897461,4140.000000,4149.743652,854.000000,4.000000,,,,0.000000,4.000000,4.000000,4.000000,4.000000,4.000000,4.000000,4.000000,4.000000,4.000000,4.000000,4.000000,4.000000,4.000000,4.000000,100.000000
1602005353.869324,3.000000,0.000000,4152.307617,4148.717773,4145.641113,4138.974121,4129.743652,4124.615234,4133.333496,4123.077148,4126.153809,4139.487305,4133.846191,4155.384766,4137.948730,4143.589844,869.000000,4.000000,,,,0.000000,4.000000,4.000000,4.000000,4.000000,4.000000,4.000000,4.000000,4.000000,4.000000,4.000000,4.000000,4.000000,4.000000,4.000000,100.000000
1602005353.877206,4.000000,0.000000,4150.256348,4138.461426,4146.666504,4137.436035,4124.102539,4124.102539,4135.897461,4123.077148,4130.256348,4159.487305,4124.615234,4152.820313,4135.897461,4146.666504,810.000000,4.000000,,,,0.000000,4.000000,4.000000,4.000000,4.000000,4.000000,4.000000,4.000000,4.000000,4.000000,4.000000,4.000000,4.000000,4.000000,4.000000,100.000000
1602005353.885089,5.000000,0.000000,4151.282227,4140.000000,4145.128418,4138.461426,4129.743652,4134.871582,4140.000000,4122.563965,4130.256348,4157.948730,4128.205078,4152.820313,4136.410156,4150.769043,811.000000,4.000000,,,,0.000000,4.000000,4.000000,4.000000,4.000000,4.000000,4.000000,4.000000,4.000000,4.000000,4.000000,4.000000,4.000000,4.000000,4.000000,100.000000
1602005353.892971,6.000000,0.000000,4146.153809,4142.563965,4140.000000,4136.922852,4131.282227,4135.384766,4136.410156,4123.077148,4126.153809,4150.256348,4128.717773,4151.282227,4128.717773,4141.025879,771.000000,4.000000,,,,0.000000,4.000000,4.000000,4.000000,4.000000,4.000000,4.000000,4.000000,4.000000,4.000000,4.000000,4.000000,4.000000,4.000000,4.000000,100.000000
1602005353.900854,7.000000,0.000000,4141.025879,4137.436035,4138.461426,4134.358887,4126.153809,4124.615234,4126.666504,4123.077148,4125.641113,4147.179688,4122.051270,4146.666504,4120.512695,4135.897461,696.000000,4.000000,,,,0.000000,4.000000,4.000000,4.000000,4.000000,4.000000,4.000000,4.000000,4.000000,4.000000,4.000000,4.000000,4.000000,4.000000,4.000000,100.000000
1602005353.908737,8.000000,0.000000,4138.461426,4129.230957,4138.461426,4133.333496,4123.589844,4121.025879,4118.974121,4114.871582,4123.589844,4125.641113,4122.051270,4140.512695,4121.025879,4139.487305,780.000000,4.000000,,,,0.000000,4.000000,4.000000,4.000000,4.000000,4.000000,4.000000,4.000000,4.000000,4.000000,4.000000,4.000000,4.000000,4.000000,4.000000,100.000000
1602005353.916619,9.000000,0.000000,4134.358887,4125.641113,4136.410156,4134.871582,4124.102539,4117.948730,4108.717773,4108.717773,4117.948730,4109.230957,4124.102539,4133.846191,4123.077148,4136.410156,841.000000,4.000000,,,,0.000000,4.000000,4.000000,4.000000,4.000000,4.000000,4.000000,4.000000,4.000000,4.000000,4.000000,4.000000,4.000000,4.000000,4.000000,100.000000
1602005353.924502,10.000000,0.000000,4133.846191,4129.230957,4134.358887,4134.871582,4122.051270,4112.820313,4102.563965,4115.897461,4125.128418,4136.410156,4121.025879,4132.307617,4120.512695,4132.820313,872.000000,4.000000,,,,0.000000,4.000000,4.000000,4.000000,4.000000,4.000000,4.000000,4.000000,4.000000,4.000000,4.000000,4.000000,4.000000,4.000000,4.000000,100.000000
1602005353.932484,11.000000,0.000000,4136.922852,4129.743652,4130.769043,4134.358887,4116.922852,4116.410156,4110.769043,4123.077148,4135.384766,4166.153809,4121.025879,4134.871582,4120.512695,4136.922852,846.000000,4.000000,,,,0.000000,4.000000,4.000000,4.000000,4.000000,4.000000,4.000000,4.000000,4.000000,4.000000,4.000000,4.000000,4.000000,4.000000,4.000000,100.000000
1602005353.940366,12.000000,0.000000,4137.948730,4126.666504,4129.230957,4134.871582,4113.846191,4120.512695,4122.051270,4118.974121,4126.666504,4145.128418,4123.589844,4138.461426,4122.051270,4140.512695,791.000000,4.000000,,,,0.000000,4.000000,4.000000,4.000000,4.000000,4.000000,4.000000,4.000000,4.000000,4.000000,4.000000,4.000000,4.000000,4.000000,4.000000,100.000000
1602005353.948248,13.000000,0.000000,4137.948730,4126.153809,4129.230957,4132.820313,4113.846191,4120.000000,4127.179688,4117.948730,4112.307617,4113.846191,4121.025879,4137.948730,4115.384766,4137.436035,777.000000,4.000000,,,,0.000000,4.000000,4.000000,4.000000,4.000000,4.000000,4.000000,4.000000,4.000000,4.000000,4.000000,4.000000,4.000000,4.000000,4.000000,100.000000
1602005353.956130,14.000000,0.000000,4138.974121,4125.641113,4125.128418,4131.282227,4115.897461,4121.025879,4133.846191,4120.000000,4112.820313,4121.538574,4117.948730,4134.871582,4108.205078,4133.333496,872.000000,4.000000,,,,0.000000,4.000000,4.000000,4.000000,4.000000,4.000000,4.000000,4.000000,4.000000,4.000000,4.000000,4.000000,4.000000,4.000000,4.000000,100.000000
1602005353.964012,15.000000,0.000000,4137.436035,4128.205078,4123.589844,4134.871582,4123.077148,4120.000000,4136.922852,4118.461426,4122.051270,4137.948730,4122.563965,4135.384766,4115.384766,4137.948730,846.000000,4.000000,,,,0.000000,4.000000,4.000000,4.000000,4.000000,4.000000,4.000000,4.000000,4.000000,4.000000,4.000000,4.000000,4.000000,4.000000,4.000000,100.000000
1602005353.971894,16.000000,0.000000,4138.461426,4138.461426,4127.692383,4142.051270,4135.384766,4125.641113,4135.384766,4122.051270,4132.307617,4142.563965,4127.692383,4142.051270,4128.205078,4149.230957,0.000000,4.000000,,,,0.000000,4.000000,4.000000,4.000000,4.000000,4.000000,4.000000,4.000000,4.000000,4.000000,4.000000,4.000000,4.000000,4.000000,4.000000,100.000000
1602005353.979877,17.000000,0.000000,4139.487305,4142.051270,4126.153809,4143.589844,4142.051270,4138.461426,4137.436035,4125.641113,4137.948730,4135.384766,4124.102539,4146.153809,4128.717773,4151.282227,0.000000,4.000000,,,,0.000000,4.000000,4.000000,4.000000,4.000000,4.000000,4.000000,4.000000,4.000000,4.000000,4.000000,4.000000,4.000000,4.000000,4.000000,100.000000
1602005353.987760,18.000000,0.000000,4137.948730,4137.436035,4121.538574,4140.000000,4140.000000,4138.974121,4136.922852,4123.077148,4137.948730,4119.487305,4122.051270,4144.615234,4127.179688,4150.256348,0.000000,4.000000,,,,0.000000,4.000000,4.000000,4.000000,4.000000,4.000000,4.000000,4.000000,4.000000,4.000000,4.000000,4.000000,4.000000,4.000000,4.000000,100.000000
1602005353.995643,19.000000,0.000000,4138.974121,4139.487305,4124.102539,4137.948730,4140.000000,4130.769043,4129.743652,4123.077148,4138.974121,4131.794922,4133.333496,4143.589844,4135.897461,4153.333496,0.000000,4.000000,,,,0.000000,4.000000,4.000000,4.000000,4.000000,4.000000,4.000000,4.000000,4.000000,4.000000,4.000000,4.000000,4.000000,4.000000,4.000000,100.000000
1602005354.003526,20.000000,0.000000,4134.871582,4140.000000,4117.436035,4132.307617,4141.025879,4123.589844,4123.077148,4124.615234,4140.000000,4165.128418,4136.410156,4140.000000,4139.487305,4145.641113,0.000000,4.000000,,,,0.000000,4.000000,4.000000,4.000000,4.000000,4.000000,4.000000,4.000000,4.000000,4.000000,4.000000,4.000000,4.000000,4.000000,4.000000,100.000000
1602005354.011410,21.000000,0.000000,4126.666504,4134.871582,4109.743652,4125.641113,4137.948730,4120.512695,4123.077148,4123.589844,4137.436035,4166.666504,4127.179688,4134.358887,4134.871582,4133.333496,0.000000,4.000000,,,,0.000000,4.000000,4.000000,4.000000,4.000000,4.000000,4.000000,4.000000,4.000000,4.000000,4.000000,4.000000,4.000000,4.000000,4.000000,100.000000
1602005354.019293,22.000000,0.000000,4128.717773,4137.948730,4116.922852,4128.717773,4136.922852,4121.538574,4123.077148,4125.641113,4128.717773,4141.538574,4125.128418,4133.333496,4136.922852,4136.410156,0.000000,4.000000,,,,0.000000,4.000000,4.000000,4.000000,4.000000,4.000000,4.000000,4.000000,4.000000,4.000000,4.000000,4.000000,4.000000,4.000000,4.000000,100.000000
1602005354.027176,23.000000,0.000000,4136.922852,4145.128418,4124.615234,4136.922852,4140.512695,4125.128418,4123.589844,4130.256348,4122.563965,4139.487305,4127.179688,4136.922852,4137.436035,4142.563965,0.000000,4.000000,,,,0.000000,4.000000,4.000000,4.000000,4.000000,4.000000,4.000000,4.000000,4.000000,4.000000,4.000000,4.000000,4.000000,4.000000,4.000000,100.000000
1602005354.035059,24.000000,0.000000,4140.000000,4143.589844,4129.230957,4137.948730,4139.487305,4129.230957,4124.615234,4129.230957,4126.153809,4141.025879,4122.563965,4137.436035,4127.179688,4135.384766,0.000000,4.000000,,,,0.000000,4.000000,4.000000,4.000000,4.000000,4.000000,4.000000,4.000000,4.000000,4.000000,4.000000,4.000000,4.000000,4.000000,4.000000,100.000000
1602005354.042942,25.000000,0.000000,4137.948730,4138.974121,4134.358887,4134.358887,4135.897461,4134.358887,4125.128418,4127.692383,4122.051270,4119.487305,4121.025879,4134.871582,4120.512695,4129.230957,0.000000,4.000000,,,,0.000000,4.000000,4.000000,4.000000,4.000000,4.000000,4.000000,4.000000,4.000000,4.000000,4.000000,4.000000,4.000000,4.000000,4.000000,100.000000
1602005354.050825,26.000000,0.000000,4136.410156,4138.461426,4131.282227,4136.410156,4137.436035,4136.410156,4130.256348,4128.205078,4113.333496,4115.897461,4122.563965,4136.410156,4123.077148,4134.358887,0.000000,4.000000,,,,0.000000,4.000000,4.000000,4.000000,4.000000,4.000000,4.000000,4.000000,4.000000,4.000000,4.000000,4.000000,4.000000,4.000000,4.000000,100.000000
1602005354.058607,27.000000,0.000000,4135.897461,4137.948730,4124.102539,4134.871582,4138.974121,4135.384766,4137.948730,4125.128418,4116.922852,4121.538574,4121.025879,4139.487305,4122.563965,4136.922852,0.000000,4.000000,,,,0.000000,4.000000,4.000000,4.000000,4.000000,4.000000,4.000000,4.000000,4.000000,4.000000,4.000000,4.000000,4.000000,4.000000,4.000000,100.000000
1602005354.066489,28.000000,0.000000,4138.974121,4137.948730,4126.666504,4129.230957,4137.436035,4136.410156,4136.410156,4124.102539,4122.563965,4112.820313,4123.589844,4140.000000,4123.077148,4136.922852,0.000000,4.000000,,,,0.000000,4.000000,4.000000,4.000000,4.000000,4.000000,4.000000,4.000000,4.000000,4.000000,4.000000,4.000000,4.000000,4.000000,4.000000,100.000000
1602005354.074371,29.000000,0.000000,4138.461426,4140.512695,4128.205078,4127.179688,4137.948730,4137.948730,4127.692383,4128.205078,4123.077148,4121.538574,4126.153809,4141.025879,4127.692383,4136.922852,0.000000,4.000000,,,,0.000000,4.000000,4.000000,4.000000,4.000000,4.000000,4.000000,4.000000,4.000000,4.000000,4.000000,4.000000,4.000000,4.000000,4.000000,100.000000
1602005354.082253,30.000000,0.000000,4125.128418,4132.820313,4114.358887,4125.128418,4132.307617,4132.820313,4123.077148,4126.153809,4124.102539,4135.897461,4116.410156,4138.461426,4124.102539,4131.282227,0.000000,4.000000,,,,0.000000,4.000000,4.000000,4.000000,4.000000,4.000000,4.000000,4.000000,4.000000,4.000000,4.000000,4.000000,4.000000,4.000000,4.000000,100.000000
1602005354.090134,31.000000,0.000000,4115.384766,4119.487305,4105.641113,4117.948730,4121.538574,4124.615234,4122.051270,4123.077148,4117.948730,4123.077148,4109.230957,4133.333496,4115.897461,4118.974121,0.000000,4.000000,,,,0.000000,4.000000,4.000000,4.000000,4.000000,4.000000,4.000000,4.000000,4.000000,4.000000,4.000000,4.000000,4.000000,4.000000,4.000000,100.000000
1602005354.097917,32.000000,0.000000,4127.692383,4123.589844,4114.358887,4120.000000,4126.153809,4128.205078,4123.589844,4131.794922,4112.307617,4112.307617,4121.025879,4141.025879,4123.077148,4121.025879,0.000000,4.000000,,,,0.000000,4.000000,4.000000,4.000000,4.000000,4.000000,4.000000,4.000000,4.000000,4.000000,4.000000,4.000000,4.000000,4.000000,4.000000,100.000000
1602005354.105800,33.000000,0.000000,4141.538574,4138.461426,4125.128418,4133.333496,4139.487305,4141.025879,4130.256348,4142.563965,4124.615234,4121.538574,4140.000000,4156.410156,4140.000000,4135.897461,0.000000,4.000000,,,,0.000000,4.000000,4.000000,4.000000,4.000000,4.000000,4.000000,4.000000,4.000000,4.000000,4.000000,4.000000,4.000000,4.000000,4.000000,100.000000
1602005354.113683,34.000000,0.000000,4131.794922,4138.461426,4120.000000,4131.282227,4141.025879,4144.102539,4134.358887,4141.025879,4138.461426,4127.692383,4143.589844,4155.897461,4141.025879,4139.487305,0.000000,4.000000,,,,0.000000,4.000000,4.000000,4.000000,4.000000,4.000000,4.000000,4.000000,4.000000,4.000000,4.000000,4.000000,4.000000,4.000000,4.000000,100.000000
1602005354.121566,35.000000,0.000000,4124.615234,4132.307617,4116.922852,4121.025879,4136.410156,4136.410156,4136.410156,4137.436035,4137.436035,4138.461426,4131.282227,4149.230957,4132.820313,4135.897461,0.000000,4.000000,,,,0.000000,4.000000,4.000000,4.000000,4.000000,4.000000,4.000000,4.000000,4.000000,4.000000,4.000000,4.000000,4.000000,4.000000,4.000000,100.000000
1602005354.129449,36.000000,0.000000,4136.410156,4134.871582,4124.615234,4128.717773,4135.384766,4135.897461,4140.000000,4140.000000,4127.692383,4148.205078,4123.589844,4153.846191,4134.358887,4138.461426,0.000000,4.000000,,,,0.000000,4.000000,4.000000,4.000000,4.000000,4.000000,4.000000,4.000000,4.000000,4.000000,4.000000,4.000000,4.000000,4.000000,4.000000,100.000000
1602005354.137332,37.000000,0.000000,4143.589844,4137.948730,4127.692383,4136.922852,4134.871582,4138.974121,4143.077148,4141.025879,4128.717773,4131.282227,4131.794922,4158.974121,4140.000000,4140.000000,0.000000,4.000000,,,,0.000000,4.000000,4.000000,4.000000,4.000000,4.000000,4.000000,4.000000,4.000000,4.000000,4.000000,4.000000,4.000000,4.000000,4.000000,100.000000
1602005354.145214,38.000000,0.000000,4139.487305,4135.897461,4126.153809,4129.743652,4134.871582,4132.820313,4142.051270,4140.512695,4132.307617,4109.743652,4138.974121,4156.410156,4137.948730,4137.948730,0.000000,4.000000,,,,0.000000,4.000000,4.000000,4.000000,4.000000,4.000000,4.000000,4.000000,4.000000,4.000000,4.000000,4.000000,4.000000,4.000000,4.000000,100.000000
1602005354.153097,39.000000,0.000000,4136.922852,4135.897461,4125.641113,4128.205078,4135.897461,4125.128418,4134.871582,4142.051270,4127.692383,4115.384766,4129.230957,4154.358887,4131.282227,4136.410156,0.000000,4.000000,,,,0.000000,4.000000,4.000000,4.000000,4.000000,4.000000,4.000000,4.000000,4.000000,4.000000,4.000000,4.000000,4.000000,4.000000,4.000000,100.000000
1602005354.160980,40.000000,0.000000,4140.512695,4137.948730,4128.717773,4137.436035,4135.384766,4123.589844,4126.666504,4141.538574,4129.743652,4136.410156,4123.077148,4156.922852,4130.769043,4136.410156,0.000000,4.000000,,,,0.000000,4.000000,4.000000,4.000000,4.000000,4.000000,4.000000,4.000000,4.000000,4.000000,4.000000,4.000000,4.000000,4.000000,4.000000,100.000000
1602005354.168763,41.000000,0.000000,4144.615234,4140.000000,4135.384766,4139.487305,4133.333496,4122.051270,4125.128418,4139.487305,4140.512695,4139.487305,4132.307617,4164.102539,4138.974121,4136.922852,0.000000,4.000000,,,,0.000000,4.000000,4.000000,4.000000,4.000000,4.000000,4.000000,4.000000,4.000000,4.000000,4.000000,4.000000,4.000000,4.000000,4.000000,100.000000
1602005354.176646,42.000000,0.000000,4145.128418,4140.000000,4137.436035,4136.922852,4131.282227,4121.025879,4123.589844,4139.487305,4141.025879,4130.256348,4138.974121,4170.769043,4142.563965,4141.538574,0.000000,4.000000,,,,0.000000,4.000000,4.000000,4.000000,4.000000,4.000000,4.000000,4.000000,4.000000,4.000000,4.000000,4.000000,4.000000,4.000000,4.000000,100.000000
1602005354.184529,43.000000,0.000000,4140.000000,4135.897461,4135.384766,4137.436035,4132.820313,4123.589844,4121.538574,4138.974121,4129.230957,4138.974121,4136.922852,4171.794922,4137.436035,4141.538574,0.000000,4.000000,,,,0.000000,4.000000,4.000000,4.000000,4.000000,4.000000,4.000000,4.000000,4.000000,4.000000,4.000000,4.000000,4.000000,4.000000,4.000000,100.000000
1602005354.192411,44.000000,0.000000,4139.487305,4135.897461,4138.974121,4137.436035,4137.436035,4126.666504,4127.692383,4138.461426,4126.153809,4145.128418,4131.794922,4167.179688,4138.974121,4135.384766,0.000000,4.000000,,,,0.000000,4.000000,4.000000,4.000000,4.000000,4.000000,4.000000,4.000000,4.000000,4.000000,4.000000,4.000000,4.000000,4.000000,4.000000,100.000000
1602005354.200294,45.000000,0.000000,4144.102539,4141.025879,4138.461426,4138.974121,4136.410156,4128.205078,4138.461426,4138.461426,4127.179688,4131.794922,4125.128418,4159.487305,4141.025879,4133.846191,0.000000,4.000000,,,,0.000000,4.000000,4.000000,4.000000,4.000000,4.000000,4.000000,4.000000,4.000000,4.000000,4.000000,4.000000,4.000000,4.000000,4.000000,100.000000
1602005354.208177,46.000000,0.000000,4142.051270,4133.846191,4130.769043,4136.410156,4126.666504,4125.128418,4137.436035,4135.897461,4121.025879,4130.769043,4120.000000,4153.333496,4129.230957,4130.769043,0.000000,4.000000,,,,0.000000,4.000000,4.000000,4.000000,4.000000,4.000000,4.000000,4.000000,4.000000,4.000000,4.000000,4.000000,4.000000,4.000000,4.000000,100.000000
1602005354.216060,47.000000,0.000000,4138.461426,4122.563965,4132.820313,4131.794922,4121.025879,4123.077148,4133.333496,4134.358887,4116.922852,4133.846191,4120.512695,4152.307617,4120.512695,4122.563965,0.000000,4.000000,,,,0.000000,4.000000,4.000000,4.000000,4.000000,4.000000,4.000000,4.000000,4.000000,4.000000,4.000000,4.000000,4.000000,4.000000,4.000000,100.000000
1602005354.223943,48.000000,0.000000,4135.897461,4124.102539,4134.871582,4133.846191,4124.102539,4126.153809,4135.897461,4136.922852,4118.974121,4104.615234,4123.077148,4154.358887,4123.589844,4122.051270,0.000000,4.000000,,,,0.000000,4.000000,4.000000,4.000000,4.000000,4.000000,4.000000,4.000000,4.000000,4.000000,4.000000,4.000000,4.000000,4.000000,4.000000,100.000000
1602005354.231826,49.000000,0.000000,4127.692383,4125.641113,4123.589844,4133.333496,4125.128418,4124.615234,4131.794922,4138.461426,4122.051270,4087.179443,4124.615234,4153.846191,4126.153809,4124.615234,0.000000,4.000000,,,,0.000000,4.000000,4.000000,4.000000,4.000000,4.000000,4.000000,4.000000,4.000000,4.000000,4.000000,4.000000,4.000000,4.000000,4.000000,100.000000
1602005354.239607,50.000000,0.000000,4122.563965,4121.538574,4118.974121,4129.743652,4124.615234,4121.025879,4124.102539,4137.436035,4126.666504,4121.025879,4123.077148,4152.307617,4130.256348,4121.538574,0.000000,4.000000,,,,0.000000,4.000000,4.000000,4.000000,4.000000,4.000000,4.000000,4.000000,4.000000,4.000000,4.000000,4.000000,4.000000,4.000000,4.000000,100.000000
1602005354.247489,51.000000,0.000000,4128.205078,4128.717773,4124.615234,4133.846191,4127.179688,4122.563965,4128.717773,4141.025879,4134.358887,4148.717773,4125.128418,4150.769043,4138.461426,4123.589844,0.000000,4.000000,,,,0.000000,4.000000,4.000000,4.000000,4.000000,4.000000,4.000000,4.000000,4.000000,4.000000,4.000000,4.000000,4.000000,4.000000,4.000000,100.000000
1602005354.255370,52.000000,0.000000,4127.692383,4137.948730,4124.102539,4137.436035,4127.692383,4124.102539,4136.922852,4148.205078,4137.948730,4140.000000,4131.282227,4152.820313,4140.512695,4130.769043,0.000000,4.000000,,,,0.000000,4.000000,4.000000,4.000000,4.000000,4.000000,4.000000,4.000000,4.000000,4.000000,4.000000,4.000000,4.000000,4.000000,4.000000,100.000000
1602005354.263151,53.000000,0.000000,4128.205078,4137.948730,4129.230957,4136.922852,4131.794922,4125.128418,4136.410156,4147.179688,4134.871582,4136.922852,4137.948730,4161.538574,4140.512695,4135.897461,0.000000,4.000000,,,,0.000000,4.000000,4.000000,4.000000,4.000000,4.000000,4.000000,4.000000,4.000000,4.000000,4.000000,4.000000,4.000000,4.000000,4.000000,100.000000
1602005354.271032,54.000000,0.000000,4139.487305,4137.948730,4136.410156,4140.512695,4136.410156,4127.179688,4131.282227,4139.487305,4126.666504,4138.461426,4141.538574,4167.692383,4142.051270,4140.512695,0.000000,4.000000,,,,0.000000,4.000000,4.000000,4.000000,4.000000,4.000000,4.000000,4.000000,4.000000,4.000000,4.000000,4.000000,4.000000,4.000000,4.000000,100.000000
1602005354.278814,55.000000,0.000000,4138.974121,4139.487305,4131.282227,4141.538574,4130.769043,4123.589844,4129.230957,4134.358887,4118.974121,4131.794922,4135.384766,4162.051270,4137.436035,4133.333496,0.000000,4.000000,,,,0.000000,4.000000,4.000000,4.000000,4.000000,4.000000,4.000000,4.000000,4.000000,4.000000,4.000000,4.000000,4.000000,4.000000,4.000000,100.000000
1602005354.286696,56.000000,0.000000,4125.641113,4136.922852,4122.563965,4136.410156,4123.589844,4122.563965,4127.692383,4132.307617,4119.487305,4128.205078,4124.615234,4153.846191,4135.384766,4126.153809,0.000000,4.000000,,,,0.000000,4.000000,4.000000,4.000000,4.000000,4.000000,4.000000,4.000000,4.000000,4.000000,4.000000,4.000000,4.000000,4.000000,4.000000,100.000000
1602005354.294577,57.000000,0.000000,4122.051270,4128.717773,4114.358887,4135.897461,4123.077148,4129.743652,4124.615234,4131.794922,4117.948730,4106.153809,4121.025879,4152.307617,4135.897461,4132.307617,0.000000,4.000000,,,,0.000000,4.000000,4.000000,4.000000,4.000000,4.000000,4.000000,4.000000,4.000000,4.000000,4.000000,4.000000,4.000000,4.000000,4.000000,100.000000
1602005354.302560,58.000000,0.000000,4130.769043,4127.692383,4110.769043,4136.410156,4123.077148,4135.897461,4129.230957,4135.384766,4122.051270,4093.333252,4128.717773,4151.794922,4135.897461,4135.897461,0.000000,4.000000,,,,0.000000,4.000000,4.000000,4.000000,4.000000,4.000000,4.000000,4.000000,4.000000,4.000000,4.000000,4.000000,4.000000,4.000000,4.000000,100.000000
1602005354.310442,59.000000,0.000000,4137.948730,4137.948730,4121.538574,4139.487305,4124.102539,4136.410156,4138.974121,4141.538574,4141.025879,4142.563965,4137.436035,4154.871582,4147.692383,4137.436035,0.000000,4.000000,,,,0.000000,4.000000,4.000000,4.000000,4.000000,4.000000,4.000000,4.000000,4.000000,4.000000,4.000000,4.000000,4.000000,4.000000,4.000000,100.000000
1602005354.318325,60.000000,0.000000,4129.743652,4136.922852,4124.102539,4137.948730,4125.128418,4129.743652,4134.871582,4142.051270,4148.717773,4189.230957,4140.512695,4155.897461,4155.897461,4138.974121,0.000000,4.000000,,,,0.000000,4.000000,4.000000,4.000000,4.000000,4.000000,4.000000,4.000000,4.000000,4.000000,4.000000,4.000000,4.000000,4.000000,4.000000,100.000000
1602005354.326208,61.000000,0.000000,4118.974121,4123.077148,4108.205078,4127.692383,4121.025879,4124.102539,4122.051270,4138.461426,4141.025879,4170.769043,4138.974121,4142.563965,4144.615234,4131.794922,0.000000,4.000000,,,,0.000000,4.000000,4.000000,4.000000,4.000000,4.000000,4.000000,4.000000,4.000000,4.000000,4.000000,4.000000,4.000000,4.000000,4.000000,100.000000
1602005354.334090,62.000000,0.000000,4128.205078,4125.641113,4108.717773,4127.179688,4118.461426,4124.102539,4122.051270,4137.948730,4138.461426,4149.743652,4139.487305,4133.333496,4141.025879,4127.692383,0.000000,4.000000,,,,0.000000,4.000000,4.000000,4.000000,4.000000,4.000000,4.000000,4.000000,4.000000,4.000000,4.000000,4.000000,4.000000,4.000000,4.000000,100.000000
1602005354.341973,63.000000,0.000000,4141.025879,4139.487305,4127.692383,4137.436035,4120.000000,4123.589844,4124.615234,4138.461426,4136.410156,4153.846191,4144.102539,4145.641113,4153.846191,4137.948730,0.000000,4.000000,,,,0.000000,4.000000,4.000000,4.000000,4.000000,4.000000,4.000000,4.000000,4.000000,4.000000,4.000000,4.000000,4.000000,4.000000,4.000000,100.000000
1602005354.349855,64.000000,0.000000,4140.000000,4141.025879,4134.358887,4142.051270,4121.538574,4122.051270,4122.563965,4140.512695,4136.410156,4137.436035,4144.615234,4158.461426,4156.922852,4143.077148,815.000000,4.000000,,,,0.000000,4.000000,4.000000,4.000000,4.000000,4.000000,4.000000,4.000000,4.000000,4.000000,4.000000,4.000000,4.000000,4.000000,4.000000,100.000000
1602005354.357738,65.000000,0.000000,4132.820313,4134.871582,4124.615234,4136.922852,4123.077148,4122.563965,4122.563965,4138.461426,4136.922852,4117.948730,4137.436035,4150.256348,4143.589844,4134.358887,799.000000,4.000000,,,,0.000000,4.000000,4.000000,4.000000,4.000000,4.000000,4.000000,4.000000,4.000000,4.000000,4.000000,4.000000,4.000000,4.000000,4.000000,100.000000
1602005354.365721,66.000000,0.000000,4117.948730,4125.128418,4105.641113,4127.692383,4121.025879,4122.563965,4118.461426,4123.589844,4123.589844,4119.487305,4123.589844,4128.717773,4124.102539,4116.922852,854.000000,4.000000,,,,0.000000,4.000000,4.000000,4.000000,4.000000,4.000000,4.000000,4.000000,4.000000,4.000000,4.000000,4.000000,4.000000,4.000000,4.000000,100.000000
1602005354.373603,67.000000,0.000000,4110.256348,4119.487305,4100.512695,4122.563965,4119.487305,4121.538574,4113.333496,4114.358887,4106.153809,4118.974121,4117.948730,4121.025879,4114.871582,4108.717773,869.000000,4.000000,,,,0.000000,4.000000,4.000000,4.000000,4.000000,4.000000,4.000000,4.000000,4.000000,4.000000,4.000000,4.000000,4.000000,4.000000,4.000000,100.000000
1602005354.381486,68.000000,0.000000,4119.487305,4124.102539,4116.410156,4126.153809,4123.077148,4121.538574,4117.948730,4120.512695,4108.205078,4107.179688,4121.025879,4129.743652,4121.025879,4120.512695,810.000000,4.000000,,,,0.000000,4.000000,4.000000,4.000000,4.000000,4.000000,4.000000,4.000000,4.000000,4.000000,4.000000,4.000000,4.000000,4.000000,4.000000,100.000000
1602005354.389368,69.000000,0.000000,4124.102539,4125.641113,4122.563965,4126.153809,4124.102539,4121.538574,4120.000000,4124.615234,4116.410156,4105.641113,4121.538574,4131.282227,4121.025879,4121.025879,811.000000,4.000000,,,,0.000000,4.000000,4.000000,4.000000,4.000000,4.000000,4.000000,4.000000,4.000000,4.000000,4.000000,4.000000,4.000000,4.000000,4.000000,100.000000
1602005354.397251,70.000000,0.000000,4120.512695,4125.128418,4118.461426,4123.589844,4123.589844,4120.512695,4116.410156,4129.230957,4120.000000,4128.717773,4127.692383,4127.692383,4124.102539,4111.282227,771.000000,4.000000,,,,0.000000,4.000000,4.000000,4.000000,4.000000,4.000000,4.000000,4.000000,4.000000,4.000000,4.000000,4.000000,4.000000,4.000000,4.000000,100.000000
1602005354.405134,71.000000,0.000000,4122.563965,4129.743652,4116.922852,4127.179688,4124.102539,4123.589844,4120.000000,4140.000000,4129.230957,4148.205078,4134.358887,4134.358887,4138.461426,4120.000000,695.000000,4.000000,,,,0.000000,4.000000,4.000000,4.000000,4.000000,4.000000,4.000000,4.000000,4.000000,4.000000,4.000000,4.000000,4.000000,4.000000,4.000000,100.000000
1602005354.413016,72.000000,0.000000,4122.563965,4126.153809,4111.794922,4124.615234,4124.102539,4132.307617,4132.307617,4141.025879,4131.282227,4135.897461,4127.179688,4138.461426,4135.897461,4126.666504,780.000000,4.000000,,,,0.000000,4.000000,4.000000,4.000000,4.000000,4.000000,4.000000,4.000000,4.000000,4.000000,4.000000,4.000000,4.000000,4.000000,4.000000,100.000000
1602005354.420899,73.000000,0.000000,4124.615234,4118.974121,4114.358887,4120.512695,4125.641113,4137.948730,4137.948730,4137.436035,4123.077148,4115.897461,4124.615234,4133.846191,4126.666504,4118.461426,841.000000,4.000000,,,,0.000000,4.000000,4.000000,4.000000,4.000000,4.000000,4.000000,4.000000,4.000000,4.000000,4.000000,4.000000,4.000000,4.000000,4.000000,100.000000
1602005354.428881,74.000000,0.000000,4135.384766,4127.179688,4134.871582,4130.769043,4128.205078,4137.436035,4137.948730,4140.512695,4128.717773,4128.205078,4137.436035,4143.077148,4137.436035,4126.153809,872.000000,4.000000,,,,0.000000,4.000000,4.000000,4.000000,4.000000,4.000000,4.000000,4.000000,4.000000,4.000000,4.000000,4.000000,4.000000,4.000000,4.000000,100.000000
1602005354.436763,75.000000,0.000000,4141.025879,4136.922852,4143.077148,4138.974121,4126.666504,4136.410156,4137.948730,4139.487305,4140.000000,4147.179688,4141.538574,4156.410156,4145.128418,4141.538574,846.000000,4.000000,,,,0.000000,4.000000,4.000000,4.000000,4.000000,4.000000,4.000000,4.000000,4.000000,4.000000,4.000000,4.000000,4.000000,4.000000,4.000000,100.000000
1602005354.444646,76.000000,0.000000,4136.922852,4136.922852,4136.410156,4134.358887,4124.102539,4136.410156,4137.436035,4138.461426,4136.410156,4144.615234,4135.897461,4152.820313,4138.974121,4141.025879,788.000000,4.000000,,,,0.000000,4.000000,4.000000,4.000000,4.000000,4.000000,4.000000,4.000000,4.000000,4.000000,4.000000,4.000000,4.000000,4.000000,4.000000,100.000000
1602005354.452528,77.000000,0.000000,4136.410156,4135.897461,4138.974121,4133.333496,4125.641113,4137.436035,4140.000000,4141.025879,4135.384766,4136.410156,4135.897461,4143.589844,4138.461426,4137.948730,777.000000,4.000000,,,,0.000000,4.000000,4.000000,4.000000,4.000000,4.000000,4.000000,4.000000,4.000000,4.000000,4.000000,4.000000,4.000000,4.000000,4.000000,100.000000
1602005354.460410,78.000000,0.000000,4137.948730,4135.897461,4134.871582,4136.410156,4124.102539,4137.436035,4135.897461,4131.282227,4138.461426,4123.589844,4137.436035,4138.461426,4134.871582,4133.333496,872.000000,4.000000,,,,0.000000,4.000000,4.000000,4.000000,4.000000,4.000000,4.000000,4.000000,4.000000,4.000000,4.000000,4.000000,4.000000,4.000000,4.000000,100.000000
1602005354.468293,79.000000,0.000000,4134.871582,4134.358887,4124.615234,4135.897461,4121.538574,4132.307617,4127.179688,4124.102539,4133.846191,4118.461426,4136.922852,4140.512695,4131.282227,4128.717773,846.000000,4.000000,,,,0.000000,4.000000,4.000000,4.000000,4.000000,4.000000,4.000000,4.000000,4.000000,4.000000,4.000000,4.000000,4.000000,4.000000,4.000000,100.000000
1602005354.476175,80.000000,0.000000,4136.410156,4135.897461,4132.820313,4135.384766,4126.153809,4129.230957,4128.205078,4134.871582,4134.871582,4138.461426,4138.974121,4151.794922,4138.974121,4135.897461,788.000000,4.000000,,,,0.000000,4.000000,4.000000,4.000000,4.000000,4.000000,4.000000,4.000000,4.000000,4.000000,4.000000,4.000000,4.000000,4.000000,4.000000,100.000000
1602005354.483958,81.000000,0.000000,4139.487305,4140.512695,4139.487305,4137.948730,4128.717773,4135.384766,4135.897461,4141.025879,4141.025879,4143.589844,4142.563965,4158.974121,4142.563965,4140.000000,777.000000,4.000000,,,,0.000000,4.000000,4.000000,4.000000,4.000000,4.000000,4.000000,4.000000,4.000000,4.000000,4.000000,4.000000,4.000000,4.000000,4.000000,100.000000
1602005354.491841,82.000000,0.000000,4134.358887,4137.948730,4127.179688,4135.897461,4124.102539,4136.922852,4136.410156,4135.897461,4142.051270,4124.615234,4140.512695,4150.256348,4137.948730,4129.230957,872.000000,4.000000,,,,0.000000,4.000000,4.000000,4.000000,4.000000,4.000000,4.000000,4.000000,4.000000,4.000000,4.000000,4.000000,4.000000,4.000000,4.000000,100.000000
1602005354.499724,83.000000,0.000000,4123.077148,4130.256348,4117.948730,4129.230957,4122.563965,4131.794922,4135.897461,4137.436035,4136.922852,4130.256348,4130.256348,4138.974121,4132.307617,4118.461426,846.000000,4.000000,,,,0.000000,4.000000,4.000000,4.000000,4.000000,4.000000,4.000000,4.000000,4.000000,4.000000,4.000000,4.000000,4.000000,4.000000,4.000000,100.000000
1602005354.507607,84.000000,0.000000,4115.897461,4125.641113,4115.384766,4123.589844,4124.102539,4132.307617,4137.436035,4135.384766,4128.205078,4138.974121,4123.077148,4136.410156,4124.102539,4116.922852,788.000000,4.000000,,,,0.000000,4.000000,4.000000,4.000000,4.000000,4.000000,4.000000,4.000000,4.000000,4.000000,4.000000,4.000000,4.000000,4.000000,4.000000,100.000000
1602005354.515489,85.000000,0.000000,4116.410156,4124.102539,4109.743652,4123.077148,4121.538574,4135.897461,4135.897461,4126.666504,4123.077148,4124.102539,4124.102539,4135.897461,4120.000000,4123.077148,777.000000,4.000000,,,,0.000000,4.000000,4.000000,4.000000,4.000000,4.000000,4.000000,4.000000,4.000000,4.000000,4.000000,4.000000,4.000000,4.000000,4.000000,100.000000
1602005354.523372,86.000000,0.000000,4122.563965,4125.128418,4116.922852,4125.641113,4122.563965,4140.000000,4135.897461,4132.307617,4132.307617,4126.666504,4131.794922,4144.102539,4131.282227,4138.974121,872.000000,4.000000,,,,0.000000,4.000000,4.000000,4.000000,4.000000,4.000000,4.000000,4.000000,4.000000,4.000000,4.000000,4.000000,4.000000,4.000000,4.000000,100.000000
1602005354.531255,87.000000,0.000000,4126.153809,4126.666504,4129.743652,4124.102539,4126.153809,4142.563965,4133.846191,4136.922852,4135.897461,4131.794922,4133.333496,4153.846191,4140.512695,4137.948730,846.000000,4.000000,,,,0.000000,4.000000,4.000000,4.000000,4.000000,4.000000,4.000000,4.000000,4.000000,4.000000,4.000000,4.000000,4.000000,4.000000,4.000000,100.000000
1602005354.539138,88.000000,0.000000,4123.589844,4120.512695,4125.641113,4117.948730,4120.512695,4135.384766,4124.615234,4123.589844,4121.538574,4110.769043,4126.153809,4146.153809,4134.871582,4122.563965,788.000000,4.000000,,,,0.000000,4.000000,4.000000,4.000000,4.000000,4.000000,4.000000,4.000000,4.000000,4.000000,4.000000,4.000000,4.000000,4.000000,4.000000,100.000000
1602005354.547021,89.000000,0.000000,4116.922852,4111.282227,4117.948730,4120.512695,4116.922852,4124.615234,4119.487305,4116.922852,4117.436035,4101.025879,4124.615234,4130.256348,4128.205078,4121.538574,777.000000,4.000000,,,,0.000000,4.000000,4.000000,4.000000,4.000000,4.000000,4.000000,4.000000,4.000000,4.000000,4.000000,4.000000,4.000000,4.000000,4.000000,100.000000
1602005354.554803,90.000000,0.000000,4109.230957,4108.205078,4113.333496,4119.487305,4115.897461,4122.051270,4120.512695,4124.615234,4124.615234,4109.230957,4124.615234,4125.641113,4126.153809,4128.205078,872.000000,4.000000,,,,0.000000,4.000000,4.000000,4.000000,4.000000,4.000000,4.000000,4.000000,4.000000,4.000000,4.000000,4.000000,4.000000,4.000000,4.000000,100.000000
1602005354.562685,91.000000,0.000000,4103.077148,4107.692383,4105.128418,4111.794922,4109.230957,4123.077148,4121.025879,4125.641113,4121.538574,4112.307617,4114.871582,4124.102539,4121.025879,4124.102539,846.000000,4.000000,,,,0.000000,4.000000,4.000000,4.000000,4.000000,4.000000,4.000000,4.000000,4.000000,4.000000,4.000000,4.000000,4.000000,4.000000,4.000000,100.000000
1602005354.570566,92.000000,0.000000,4106.153809,4105.128418,4105.641113,4114.358887,4107.692383,4124.615234,4122.051270,4123.589844,4123.077148,4123.077148,4112.820313,4119.487305,4117.948730,4118.461426,788.000000,4.000000,,,,0.000000,4.000000,4.000000,4.000000,4.000000,4.000000,4.000000,4.000000,4.000000,4.000000,4.000000,4.000000,4.000000,4.000000,4.000000,100.000000
1602005354.578448,93.000000,0.000000,4114.871582,4111.282227,4116.922852,4122.051270,4120.000000,4131.282227,4129.230957,4129.230957,4137.436035,4137.436035,4127.179688,4128.717773,4127.179688,4124.102539,777.000000,4.000000,,,,0.000000,4.000000,4.000000,4.000000,4.000000,4.000000,4.000000,4.000000,4.000000,4.000000,4.000000,4.000000,4.000000,4.000000,4.000000,100.000000
1602005354.586330,94.000000,0.000000,4128.205078,4129.743652,4129.743652,4127.179688,4130.769043,4137.948730,4137.948730,4137.948730,4143.077148,4136.922852,4139.487305,4149.230957,4139.487305,4140.000000,872.000000,4.000000,,,,0.000000,4.000000,4.000000,4.000000,4.000000,4.000000,4.000000,4.000000,4.000000,4.000000,4.000000,4.000000,4.000000,4.000000,4.000000,100.000000
1602005354.594313,95.000000,0.000000,4138.974121,4137.436035,4134.871582,4130.769043,4130.769043,4136.922852,4141.538574,4143.589844,4140.512695,4136.922852,4144.102539,4160.000000,4144.102539,4152.820313,846.000000,4.000000,,,,0.000000,4.000000,4.000000,4.000000,4.000000,4.000000,4.000000,4.000000,4.000000,4.000000,4.000000,4.000000,4.000000,4.000000,4.000000,100.000000
1602005354.602196,96.000000,0.000000,4135.897461,4126.666504,4129.743652,4129.743652,4125.641113,4126.153809,4138.974121,4142.051270,4140.000000,4137.948730,4142.051270,4149.743652,4142.051270,4147.179688,788.000000,4.000000,,,,0.000000,4.000000,4.000000,4.000000,4.000000,4.000000,4.000000,4.000000,4.000000,4.000000,4.000000,4.000000,4.000000,4.000000,4.000000,100.000000
1602005354.610079,97.000000,0.000000,4127.179688,4119.487305,4122.563965,4122.563965,4121.538574,4117.948730,4135.384766,4136.410156,4136.410156,4125.641113,4136.410156,4140.000000,4138.974121,4131.282227,777.000000,4.000000,,,,0.000000,4.000000,4.000000,4.000000,4.000000,4.000000,4.000000,4.000000,4.000000,4.000000,4.000000,4.000000,4.000000,4.000000,4.000000,100.000000
1602005354.617961,98.000000,0.000000,4123.077148,4123.077148,4122.051270,4121.538574,4125.641113,4126.153809,4136.410156,4136.410156,4134.358887,4117.948730,4135.384766,4137.436035,4137.436035,4125.641113,872.000000,4.000000,,,,0.000000,4.000000,4.000000,4.000000,4.000000,4.000000,4.000000,4.000000,4.000000,4.000000,4.000000,4.000000,4.000000,4.000000,4.000000,100.000000
1602005354.625844,99.000000,0.000000,4124.615234,4124.615234,4129.230957,4123.589844,4134.358887,4139.487305,4139.487305,4141.538574,4138.461426,4140.000000,4136.922852,4130.769043,4138.461426,4131.794922,846.000000,4.000000,,,,0.000000,4.000000,4.000000,4.000000,4.000000,4.000000,4.000000,4.000000,4.000000,4.000000,4.000000,4.000000,4.000000,4.000000,4.000000,100.000000
1602005354.633727,100.000000,0.000000,4132.307617,4124.102539,4138.974121,4124.615234,4138.974121,4142.051270,4140.000000,4140.512695,4144.102539,4163.077148,4142.563965,4132.307617,4143.077148,4145.641113,788.000000,4.000000,,,,0.000000,4.000000,4.000000,4.000000,4.000000,4.000000,4.000000,4.000000,4.000000,4.000000,4.000000,4.000000,4.000000,4.000000,4.000000,100.000000
1602005354.641610,101.000000,0.000000,4138.461426,4124.615234,4142.563965,4126.153809,4135.384766,4138.461426,4134.358887,4135.384766,4139.487305,4156.922852,4146.153809,4143.077148,4144.615234,4150.769043,777.000000,4.000000,,,,0.000000,4.000000,4.000000,4.000000,4.000000,4.000000,4.000000,4.000000,4.000000,4.000000,4.000000,4.000000,4.000000,4.000000,4.000000,100.000000
1602005354.649493,102.000000,0.000000,4138.461426,4123.077148,4134.871582,4125.128418,4125.641113,4137.948730,4130.769043,4131.794922,4125.641113,4137.436035,4140.000000,4141.538574,4141.025879,4143.077148,872.000000,4.000000,,,,0.000000,4.000000,4.000000,4.000000,4.000000,4.000000,4.000000,4.000000,4.000000,4.000000,4.000000,4.000000,4.000000,4.000000,4.000000,100.000000
1602005354.657376,103.000000,0.000000,4134.871582,4124.615234,4133.846191,4126.153809,4128.717773,4140.512695,4134.358887,4129.230957,4120.512695,4128.205078,4135.384766,4135.384766,4138.461426,4137.436035,846.000000,4.000000,,,,0.000000,4.000000,4.000000,4.000000,4.000000,4.000000,4.000000,4.000000,4.000000,4.000000,4.000000,4.000000,4.000000,4.000000,4.000000,100.000000
1602005354.665357,104.000000,0.000000,4128.205078,4128.717773,4137.948730,4128.205078,4136.922852,4140.512695,4138.974121,4130.256348,4127.179688,4125.128418,4137.436035,4140.000000,4135.897461,4137.436035,788.000000,4.000000,,,,0.000000,4.000000,4.000000,4.000000,4.000000,4.000000,4.000000,4.000000,4.000000,4.000000,4.000000,4.000000,4.000000,4.000000,4.000000,100.000000
1602005354.673239,105.000000,0.000000,4118.461426,4119.487305,4127.179688,4122.051270,4128.717773,4131.794922,4140.512695,4129.230957,4123.589844,4112.820313,4128.205078,4135.384766,4126.153809,4130.769043,777.000000,4.000000,,,,0.000000,4.000000,4.000000,4.000000,4.000000,4.000000,4.000000,4.000000,4.000000,4.000000,4.000000,4.000000,4.000000,4.000000,4.000000,100.000000
1602005354.681121,106.000000,0.000000,4116.410156,4109.230957,4118.974121,4117.436035,4118.461426,4122.051270,4138.974121,4124.615234,4115.897461,4110.256348,4117.948730,4120.512695,4118.461426,4120.512695,872.000000,4.000000,,,,0.000000,4.000000,4.000000,4.000000,4.000000,4.000000,4.000000,4.000000,4.000000,4.000000,4.000000,4.000000,4.000000,4.000000,4.000000,100.000000
1602005354.689003,107.000000,0.000000,4127.179688,4121.538574,4131.282227,4126.666504,4125.128418,4123.077148,4130.256348,4127.179688,4129.743652,4124.615234,4127.692383,4128.205078,4127.692383,4125.641113,846.000000,4.000000,,,,0.000000,4.000000,4.000000,4.000000,4.000000,4.000000,4.000000,4.000000,4.000000,4.000000,4.000000,4.000000,4.000000,4.000000,4.000000,100.000000
1602005354.696885,108.000000,0.000000,4141.025879,4137.948730,4145.128418,4140.000000,4130.769043,4126.666504,4123.077148,4137.948730,4153.333496,4141.538574,4145.128418,4149.230957,4144.102539,4147.179688,788.000000,4.000000,,,,0.000000,4.000000,4.000000,4.000000,4.000000,4.000000,4.000000,4.000000,4.000000,4.000000,4.000000,4.000000,4.000000,4.000000,4.000000,100.000000
1602005354.704668,109.000000,0.000000,4141.538574,4130.769043,4142.051270,4137.436035,4126.153809,4126.153809,4129.230957,4135.897461,4154.358887,4151.282227,4143.589844,4151.794922,4146.153809,4153.846191,777.000000,4.000000,,,,0.000000,4.000000,4.000000,4.000000,4.000000,4.000000,4.000000,4.000000,4.000000,4.000000,4.000000,4.000000,4.000000,4.000000,4.000000,100.000000
1602005354.712551,110.000000,0.000000,4126.666504,4115.897461,4135.384766,4124.615234,4122.563965,4129.230957,4136.410156,4123.077148,4133.333496,4145.128418,4126.153809,4137.948730,4130.769043,4141.025879,872.000000,4.000000,,,,0.000000,4.000000,4.000000,4.000000,4.000000,4.000000,4.000000,4.000000,4.000000,4.000000,4.000000,4.000000,4.000000,4.000000,4.000000,100.000000
1602005354.720434,111.000000,0.000000,4119.487305,4112.307617,4138.974121,4120.512695,4122.563965,4136.922852,4135.897461,4121.025879,4121.538574,4128.205078,4120.512695,4132.820313,4120.512695,4131.282227,846.000000,4.000000,,,,0.000000,4.000000,4.000000,4.000000,4.000000,4.000000,4.000000,4.000000,4.000000,4.000000,4.000000,4.000000,4.000000,4.000000,4.000000,100.000000
1602005354.728316,112.000000,0.000000,4123.077148,4110.256348,4135.384766,4123.589844,4123.589844,4137.948730,4136.922852,4126.153809,4125.641113,4122.563965,4124.102539,4131.794922,4122.563965,4127.692383,788.000000,4.000000,,,,0.000000,4.000000,4.000000,4.000000,4.000000,4.000000,4.000000,4.000000,4.000000,4.000000,4.000000,4.000000,4.000000,4.000000,4.000000,100.000000
1602005354.736199,113.000000,0.000000,4120.000000,4107.179688,4122.051270,4121.538574,4123.589844,4128.717773,4137.436035,4123.589844,4122.563965,4118.461426,4116.410156,4122.563965,4117.436035,4123.077148,777.000000,4.000000,,,,0.000000,4.000000,4.000000,4.000000,4.000000,4.000000,4.000000,4.000000,4.000000,4.000000,4.000000,4.000000,4.000000,4.000000,4.000000,100.000000
1602005354.744082,114.000000,0.000000,4119.487305,4112.820313,4125.128418,4121.538574,4124.102539,4120.512695,4134.871582,4120.512695,4116.922852,4098.974121,4113.333496,4122.563965,4113.846191,4131.794922,872.000000,4.000000,,,,0.000000,4.000000,4.000000,4.000000,4.000000,4.000000,4.000000,4.000000,4.000000,4.000000,4.000000,4.000000,4.000000,4.000000,4.000000,100.000000
1602005354.751965,115.000000,0.000000,4135.384766,4130.256348,4148.717773,4134.358887,4131.794922,4123.077148,4136.922852,4127.179688,4129.743652,4108.205078,4133.333496,4142.051270,4131.794922,4152.307617,846.000000,4.000000,,,,0.000000,4.000000,4.000000,4.000000,4.000000,4.000000,4.000000,4.000000,4.000000,4.000000,4.000000,4.000000,4.000000,4.000000,4.000000,100.000000
1602005354.759848,116.000000,0.000000,4149.743652,4140.512695,4160.000000,4143.077148,4138.461426,4123.077148,4135.384766,4128.205078,4138.461426,4147.692383,4147.179688,4156.410156,4147.179688,4157.948730,788.000000,4.000000,,,,0.000000,4.000000,4.000000,4.000000,4.000000,4.000000,4.000000,4.000000,4.000000,4.000000,4.000000,4.000000,4.000000,4.000000,4.000000,100.000000
1602005354.767731,117.000000,0.000000,4145.128418,4132.307617,4152.307617,4138.461426,4136.410156,4120.512695,4125.641113,4120.000000,4122.051270,4149.230957,4141.025879,4153.846191,4141.025879,4154.871582,777.000000,4.000000,,,,0.000000,4.000000,4.000000,4.000000,4.000000,4.000000,4.000000,4.000000,4.000000,4.000000,4.000000,4.000000,4.000000,4.000000,4.000000,100.000000
1602005354.775513,118.000000,0.000000,4137.436035,4128.205078,4150.256348,4137.436035,4136.410156,4125.641113,4121.025879,4118.461426,4119.487305,4120.512695,4137.948730,4153.846191,4136.410156,4156.410156,872.000000,4.000000,,,,0.000000,4.000000,4.000000,4.000000,4.000000,4.000000,4.000000,4.000000,4.000000,4.000000,4.000000,4.000000,4.000000,4.000000,4.000000,100.000000
1602005354.783395,119.000000,0.000000,4136.922852,4130.769043,4151.794922,4141.025879,4136.410156,4129.743652,4122.051270,4123.589844,4135.384766,4125.128418,4141.025879,4156.410156,4138.974121,4150.769043,846.000000,4.000000,,,,0.000000,4.000000,4.000000,4.000000,4.000000,4.000000,4.000000,4.000000,4.000000,4.000000,4.000000,4.000000,4.000000,4.000000,4.000000,100.000000
1602005354.791277,120.000000,0.000000,4137.948730,4127.692383,4146.666504,4136.922852,4128.717773,4127.179688,4123.077148,4126.153809,4134.358887,4150.769043,4138.974121,4149.230957,4137.436035,4141.025879,788.000000,4.000000,,,,0.000000,4.000000,4.000000,4.000000,4.000000,4.000000,4.000000,4.000000,4.000000,4.000000,4.000000,4.000000,4.000000,4.000000,4.000000,100.000000
1602005354.799159,121.000000,0.000000,4134.871582,4122.051270,4141.025879,4131.794922,4123.589844,4126.666504,4128.205078,4131.282227,4126.666504,4151.282227,4133.846191,4138.461426,4133.846191,4144.102539,777.000000,4.000000,,,,0.000000,4.000000,4.000000,4.000000,4.000000,4.000000,4.000000,4.000000,4.000000,4.000000,4.000000,4.000000,4.000000,4.000000,4.000000,100.000000
1602005354.807041,122.000000,0.000000,4133.846191,4120.000000,4144.615234,4134.358887,4128.717773,4132.307617,4135.897461,4136.410156,4135.897461,4128.717773,4132.820313,4140.000000,4132.307617,4151.794922,872.000000,4.000000,,,,0.000000,4.000000,4.000000,4.000000,4.000000,4.000000,4.000000,4.000000,4.000000,4.000000,4.000000,4.000000,4.000000,4.000000,4.000000,100.000000
1602005354.814923,123.000000,0.000000,4146.153809,4125.128418,4153.846191,4137.948730,4135.897461,4140.000000,4138.461426,4143.077148,4147.692383,4118.974121,4142.051270,4150.769043,4141.025879,4156.922852,846.000000,4.000000,,,,0.000000,4.000000,4.000000,4.000000,4.000000,4.000000,4.000000,4.000000,4.000000,4.000000,4.000000,4.000000,4.000000,4.000000,4.000000,100.000000
1602005354.822706,124.000000,0.000000,4153.846191,4132.307617,4158.974121,4138.974121,4137.948730,4142.051270,4140.512695,4149.743652,4154.358887,4137.436035,4156.410156,4154.358887,4155.384766,4164.102539,788.000000,4.000000,,,,0.000000,4.000000,4.000000,4.000000,4.000000,4.000000,4.000000,4.000000,4.000000,4.000000,4.000000,4.000000,4.000000,4.000000,4.000000,100.000000
1602005354.830589,125.000000,0.000000,4143.077148,4129.230957,4157.436035,4137.436035,4135.897461,4136.410156,4137.948730,4145.641113,4153.333496,4162.563965,4155.897461,4152.820313,4158.461426,4164.615234,777.000000,4.000000,,,,0.000000,4.000000,4.000000,4.000000,4.000000,4.000000,4.000000,4.000000,4.000000,4.000000,4.000000,4.000000,4.000000,4.000000,4.000000,100.000000
1602005354.838471,126.000000,0.000000,4134.358887,4121.538574,4154.871582,4135.384766,4135.897461,4133.333496,4129.230957,4134.358887,4143.589844,4159.487305,4144.102539,4149.743652,4149.230957,4154.871582,872.000000,4.000000,,,,0.000000,4.000000,4.000000,4.000000,4.000000,4.000000,4.000000,4.000000,4.000000,4.000000,4.000000,4.000000,4.000000,4.000000,4.000000,100.000000
1602005354.846354,127.000000,0.000000,4137.948730,4125.128418,4154.871582,4136.410156,4137.948730,4134.871582,4127.692383,4128.205078,4132.820313,4130.769043,4140.512695,4144.102539,4142.051270,4150.769043,846.000000,4.000000,,,,0.000000,4.000000,4.000000,4.000000,4.000000,4.000000,4.000000,4.000000,4.000000,4.000000,4.000000,4.000000,4.000000,4.000000,4.000000,100.000000
1602005354.854236,128.000000,0.000000,4140.512695,4133.333496,4154.358887,4138.974121,4140.512695,4137.436035,4134.871582,4124.615234,4127.179688,4126.153809,4142.563965,4138.461426,4144.615234,4155.384766,788.000000,4.000000,,,,0.000000,4.000000,4.000000,4.000000,4.000000,4.000000,4.000000,4.000000,4.000000,4.000000,4.000000,4.000000,4.000000,4.000000,4.000000,100.000000
1602005354.862119,0.000000,0.000000,4142.563965,4137.436035,4155.384766,4140.000000,4146.666504,4141.025879,4137.948730,4123.077148,4123.589844,4137.436035,4138.974121,4136.410156,4145.128418,4149.743652,815.000000,4.000000,,,,0.000000,4.000000,4.000000,4.000000,4.000000,4.000000,4.000000,4.000000,4.000000,4.000000,4.000000,4.000000,4.000000,4.000000,4.000000,100.000000
1602005354.870002,1.000000,0.000000,4144.102539,4137.436035,4158.461426,4139.487305,4152.307617,4142.563965,4136.922852,4127.179688,4118.461426,4126.153809,4134.358887,4135.384766,4138.974121,4138.461426,799.000000,4.000000,,,,0.000000,4.000000,4.000000,4.000000,4.000000,4.000000,4.000000,4.000000,4.000000,4.000000,4.000000,4.000000,4.000000,4.000000,4.000000,100.000000
1602005354.877884,2.000000,0.000000,4139.487305,4133.846191,4153.846191,4140.000000,4150.256348,4144.102539,4143.077148,4133.846191,4120.000000,4120.512695,4136.410156,4135.384766,4140.512695,4144.102539,854.000000,4.000000,,,,0.000000,4.000000,4.000000,4.000000,4.000000,4.000000,4.000000,4.000000,4.000000,4.000000,4.000000,4.000000,4.000000,4.000000,4.000000,100.000000
1602005354.885867,3.000000,0.000000,4136.922852,4136.410156,4142.563965,4140.000000,4150.769043,4151.282227,4153.333496,4141.025879,4134.358887,4142.563965,4143.589844,4138.974121,4152.307617,4157.948730,869.000000,4.000000,,,,0.000000,4.000000,4.000000,4.000000,4.000000,4.000000,4.000000,4.000000,4.000000,4.000000,4.000000,4.000000,4.000000,4.000000,4.000000,100.000000
1602005354.893750,4.000000,0.000000,4140.000000,4140.000000,4137.436035,4139.487305,4155.384766,4158.461426,4152.307617,4144.102539,4138.974121,4147.179688,4141.538574,4135.897461,4151.282227,4151.282227,810.000000,4.000000,,,,0.000000,4.000000,4.000000,4.000000,4.000000,4.000000,4.000000,4.000000,4.000000,4.000000,4.000000,4.000000,4.000000,4.000000,4.000000,100.000000
1602005354.901633,5.000000,0.000000,4138.974121,4130.256348,4137.948730,4138.974121,4149.230957,4153.333496,4141.538574,4134.358887,4125.128418,4120.000000,4126.666504,4123.077148,4136.922852,4136.410156,811.000000,4.000000,,,,0.000000,4.000000,4.000000,4.000000,4.000000,4.000000,4.000000,4.000000,4.000000,4.000000,4.000000,4.000000,4.000000,4.000000,4.000000,100.000000
1602005354.909515,6.000000,0.000000,4135.384766,4124.102539,4134.871582,4136.410156,4142.051270,4140.512695,4135.897461,4125.128418,4117.436035,4116.922852,4121.538574,4121.025879,4132.307617,4137.948730,771.000000,4.000000,,,,0.000000,4.000000,4.000000,4.000000,4.000000,4.000000,4.000000,4.000000,4.000000,4.000000,4.000000,4.000000,4.000000,4.000000,4.000000,100.000000
1602005354.917398,7.000000,0.000000,4138.461426,4133.846191,4134.871582,4137.948730,4150.769043,4140.512695,4138.461426,4131.794922,4124.615234,4129.230957,4134.358887,4134.358887,4144.102539,4149.230957,695.000000,4.000000,,,,0.000000,4.000000,4.000000,4.000000,4.000000,4.000000,4.000000,4.000000,4.000000,4.000000,4.000000,4.000000,4.000000,4.000000,4.000000,100.000000
1602005354.925281,8.000000,0.000000,4149.230957,4146.153809,4143.077148,4148.717773,4159.487305,4146.153809,4138.461426,4141.538574,4133.846191,4125.641113,4144.102539,4142.051270,4155.384766,4157.948730,780.000000,4.000000,,,,0.000000,4.000000,4.000000,4.000000,4.000000,4.000000,4.000000,4.000000,4.000000,4.000000,4.000000,4.000000,4.000000,4.000000,4.000000,100.000000
1602005354.933164,9.000000,0.000000,4153.846191,4144.615234,4146.666504,4154.871582,4153.846191,4140.512695,4136.922852,4140.000000,4136.410156,4123.589844,4141.538574,4140.512695,4157.436035,4156.410156,841.000000,4.000000,,,,0.000000,4.000000,4.000000,4.000000,4.000000,4.000000,4.000000,4.000000,4.000000,4.000000,4.000000,4.000000,4.000000,4.000000,4.000000,100.000000
1602005354.941047,10.000000,0.000000,4150.256348,4137.948730,4142.051270,4147.179688,4150.256348,4134.358887,4137.436035,4140.000000,4139.487305,4135.384766,4138.974121,4147.179688,4156.922852,4152.307617,872.000000,4.000000,,,,0.000000,4.000000,4.000000,4.000000,4.000000,4.000000,4.000000,4.000000,4.000000,4.000000,4.000000,4.000000,4.000000,4.000000,4.000000,100.000000
1602005354.948930,11.000000,0.000000,4156.410156,4145.128418,4142.563965,4143.589844,4153.846191,4138.461426,4132.820313,4144.615234,4147.179688,4152.307617,4141.538574,4155.897461,4158.974121,4156.410156,846.000000,4.000000,,,,0.000000,4.000000,4.000000,4.000000,4.000000,4.000000,4.000000,4.000000,4.000000,4.000000,4.000000,4.000000,4.000000,4.000000,4.000000,100.000000
1602005354.956912,12.000000,0.000000,4156.410156,4142.563965,4143.589844,4143.077148,4152.820313,4139.487305,4125.128418,4142.563965,4147.179688,4163.077148,4141.025879,4156.922852,4156.410156,4151.794922,786.000000,4.000000,,,,0.000000,4.000000,4.000000,4.000000,4.000000,4.000000,4.000000,4.000000,4.000000,4.000000,4.000000,4.000000,4.000000,4.000000,4.000000,100.000000
1602005354.964795,13.000000,0.000000,4138.974121,4125.128418,4139.487305,4136.410156,4149.230957,4136.410156,4122.051270,4135.384766,4141.538574,4155.384766,4137.948730,4156.410156,4147.692383,4131.794922,777.000000,4.000000,,,,0.000000,4.000000,4.000000,4.000000,4.000000,4.000000,4.000000,4.000000,4.000000,4.000000,4.000000,4.000000,4.000000,4.000000,4.000000,100.000000
1602005354.972678,14.000000,0.000000,4140.000000,4134.358887,4138.461426,4136.410156,4151.282227,4140.000000,4115.384766,4127.692383,4138.461426,4132.820313,4138.974121,4150.769043,4139.487305,4127.179688,872.000000,4.000000,,,,0.000000,4.000000,4.000000,4.000000,4.000000,4.000000,4.000000,4.000000,4.000000,4.000000,4.000000,4.000000,4.000000,4.000000,4.000000,100.000000
1602005354.980561,15.000000,0.000000,4156.922852,4153.333496,4133.846191,4142.051270,4149.743652,4135.384766,4104.615234,4122.563965,4124.615234,4118.974121,4134.871582,4140.000000,4129.743652,4137.436035,846.000000,4.000000,,,,0.000000,4.000000,4.000000,4.000000,4.000000,4.000000,4.000000,4.000000,4.000000,4.000000,4.000000,4.000000,4.000000,4.000000,4.000000,100.000000
1602005354.988444,16.000000,0.000000,4161.025879,4147.692383,4127.692383,4139.487305,4143.077148,4125.641113,4105.128418,4120.512695,4103.589844,4115.384766,4122.563965,4136.410156,4119.487305,4136.410156,0.000000,4.000000,,,,0.000000,4.000000,4.000000,4.000000,4.000000,4.000000,4.000000,4.000000,4.000000,4.000000,4.000000,4.000000,4.000000,4.000000,4.000000,100.000000
1602005354.996326,17.000000,0.000000,4167.179688,4146.666504,4136.922852,4138.461426,4141.538574,4130.769043,4118.461426,4124.102539,4104.615234,4109.743652,4119.487305,4144.615234,4117.436035,4134.358887,0.000000,4.000000,,,,0.000000,4.000000,4.000000,4.000000,4.000000,4.000000,4.000000,4.000000,4.000000,4.000000,4.000000,4.000000,4.000000,4.000000,4.000000,100.000000
1602005355.004209,18.000000,0.000000,4184.615234,4157.948730,4148.717773,4144.615234,4143.589844,4138.974121,4128.205078,4133.846191,4119.487305,4102.051270,4128.205078,4152.307617,4124.615234,4143.589844,0.000000,4.000000,,,,0.000000,4.000000,4.000000,4.000000,4.000000,4.000000,4.000000,4.000000,4.000000,4.000000,4.000000,4.000000,4.000000,4.000000,4.000000,100.000000
1602005355.012092,19.000000,0.000000,4178.461426,4147.692383,4144.615234,4141.538574,4137.436035,4126.666504,4130.769043,4140.512695,4124.615234,4102.051270,4128.205078,4149.743652,4123.077148,4138.461426,0.000000,4.000000,,,,0.000000,4.000000,4.000000,4.000000,4.000000,4.000000,4.000000,4.000000,4.000000,4.000000,4.000000,4.000000,4.000000,4.000000,4.000000,100.000000
1602005355.019975,20.000000,0.000000,4154.358887,4133.846191,4132.820313,4131.794922,4126.153809,4108.205078,4130.256348,4139.487305,4127.179688,4121.538574,4122.563965,4140.000000,4112.307617,4120.512695,0.000000,4.000000,,,,0.000000,4.000000,4.000000,4.000000,4.000000,4.000000,4.000000,4.000000,4.000000,4.000000,4.000000,4.000000,4.000000,4.000000,4.000000,100.000000
1602005355.027757,21.000000,0.000000,4145.641113,4135.384766,4127.179688,4133.333496,4123.077148,4109.230957,4129.230957,4138.974121,4141.025879,4149.743652,4121.538574,4131.282227,4114.871582,4118.461426,0.000000,4.000000,,,,0.000000,4.000000,4.000000,4.000000,4.000000,4.000000,4.000000,4.000000,4.000000,4.000000,4.000000,4.000000,4.000000,4.000000,4.000000,100.000000
1602005355.035639,22.000000,0.000000,4151.282227,4135.897461,4124.102539,4133.333496,4129.743652,4118.461426,4126.153809,4140.512695,4154.871582,4155.897461,4123.589844,4129.230957,4121.025879,4121.538574,0.000000,4.000000,,,,0.000000,4.000000,4.000000,4.000000,4.000000,4.000000,4.000000,4.000000,4.000000,4.000000,4.000000,4.000000,4.000000,4.000000,4.000000,100.000000
1602005355.043521,23.000000,0.000000,4154.358887,4135.384766,4123.077148,4127.692383,4136.922852,4121.538574,4122.051270,4139.487305,4156.922852,4144.102539,4127.692383,4135.384766,4121.025879,4120.512695,0.000000,4.000000,,,,0.000000,4.000000,4.000000,4.000000,4.000000,4.000000,4.000000,4.000000,4.000000,4.000000,4.000000,4.000000,4.000000,4.000000,4.000000,100.000000
1602005355.051403,24.000000,0.000000,4152.820313,4137.436035,4127.692383,4130.769043,4136.922852,4121.538574,4118.974121,4136.922852,4152.307617,4135.897461,4131.794922,4146.153809,4125.128418,4125.641113,0.000000,4.000000,,,,0.000000,4.000000,4.000000,4.000000,4.000000,4.000000,4.000000,4.000000,4.000000,4.000000,4.000000,4.000000,4.000000,4.000000,4.000000,100.000000
1602005355.059284,25.000000,0.000000,4157.436035,4144.102539,4136.922852,4142.051270,4137.948730,4125.641113,4122.051270,4136.922852,4150.769043,4135.384766,4141.538574,4154.871582,4137.948730,4136.922852,0.000000,4.000000,,,,0.000000,4.000000,4.000000,4.000000,4.000000,4.000000,4.000000,4.000000,4.000000,4.000000,4.000000,4.000000,4.000000,4.000000,4.000000,100.000000
1602005355.067267,26.000000,0.000000,4168.717773,4152.307617,4143.589844,4149.230957,4144.615234,4136.410156,4126.153809,4141.538574,4154.871582,4148.717773,4153.846191,4161.025879,4148.717773,4148.717773,0.000000,4.000000,,,,0.000000,4.000000,4.000000,4.000000,4.000000,4.000000,4.000000,4.000000,4.000000,4.000000,4.000000,4.000000,4.000000,4.000000,4.000000,100.000000
1602005355.075150,27.000000,0.000000,4173.333496,4157.436035,4143.589844,4152.307617,4145.128418,4137.436035,4125.641113,4143.077148,4156.410156,4153.846191,4152.307617,4163.589844,4147.179688,4153.333496,0.000000,4.000000,,,,0.000000,4.000000,4.000000,4.000000,4.000000,4.000000,4.000000,4.000000,4.000000,4.000000,4.000000,4.000000,4.000000,4.000000,4.000000,100.000000
1602005355.083033,28.000000,0.000000,4171.282227,4157.948730,4141.025879,4154.358887,4137.948730,4125.128418,4122.051270,4137.436035,4147.179688,4133.333496,4140.512695,4157.436035,4141.025879,4147.179688,0.000000,4.000000,,,,0.000000,4.000000,4.000000,4.000000,4.000000,4.000000,4.000000,4.000000,4.000000,4.000000,4.000000,4.000000,4.000000,4.000000,4.000000,100.000000
1602005355.090916,29.000000,0.000000,4168.205078,4155.384766,4138.974121,4153.333496,4134.871582,4118.974121,4118.974121,4134.871582,4137.436035,4115.384766,4136.410156,4149.743652,4137.948730,4138.974121,0.000000,4.000000,,,,0.000000,4.000000,4.000000,4.000000,4.000000,4.000000,4.000000,4.000000,4.000000,4.000000,4.000000,4.000000,4.000000,4.000000,4.000000,100.000000
1602005355.098799,30.000000,0.000000,4169.230957,4153.333496,4138.461426,4153.333496,4135.897461,4118.974121,4121.025879,4138.461426,4140.512695,4126.666504,4135.384766,4151.282227,4137.948730,4137.436035,0.000000,4.000000,,,,0.000000,4.000000,4.000000,4.000000,4.000000,4.000000,4.000000,4.000000,4.000000,4.000000,4.000000,4.000000,4.000000,4.000000,4.000000,100.000000
1602005355.106681,31.000000,0.000000,4171.794922,4153.333496,4141.538574,4151.794922,4135.384766,4118.461426,4128.205078,4139.487305,4149.743652,4146.153809,4134.871582,4154.871582,4137.948730,4138.461426,0.000000,4.000000,,,,0.000000,4.000000,4.000000,4.000000,4.000000,4.000000,4.000000,4.000000,4.000000,4.000000,4.000000,4.000000,4.000000,4.000000,4.000000,100.000000
1602005355.114564,32.000000,0.000000,4166.153809,4150.769043,4139.487305,4146.153809,4138.461426,4129.230957,4135.897461,4141.025879,4153.333496,4151.794922,4142.051270,4147.179688,4137.948730,4137.436035,0.000000,4.000000,,,,0.000000,4.000000,4.000000,4.000000,4.000000,4.000000,4.000000,4.000000,4.000000,4.000000,4.000000,4.000000,4.000000,4.000000,4.000000,100.000000
1602005355.122447,33.000000,0.000000,4153.846191,4141.538574,4129.230957,4139.487305,4140.512695,4140.512695,4137.948730,4143.077148,4152.820313,4153.333496,4143.589844,4137.948730,4137.948730,4138.974121,0.000000,4.000000,,,,0.000000,4.000000,4.000000,4.000000,4.000000,4.000000,4.000000,4.000000,4.000000,4.000000,4.000000,4.000000,4.000000,4.000000,4.000000,100.000000
1602005355.130330,34.000000,0.000000,4152.820313,4137.948730,4121.025879,4136.922852,4137.436035,4140.512695,4132.820313,4141.538574,4155.897461,4152.820313,4138.974121,4139.487305,4137.436035,4135.897461,0.000000,4.000000,,,,0.000000,4.000000,4.000000,4.000000,4.000000,4.000000,4.000000,4.000000,4.000000,4.000000,4.000000,4.000000,4.000000,4.000000,4.000000,100.000000
1602005355.138311,35.000000,0.000000,4153.333496,4139.487305,4122.563965,4138.974121,4136.922852,4141.538574,4125.128418,4141.538574,4155.897461,4140.512695,4140.000000,4138.461426,4132.820313,4127.179688,0.000000,4.000000,,,,0.000000,4.000000,4.000000,4.000000,4.000000,4.000000,4.000000,4.000000,4.000000,4.000000,4.000000,4.000000,4.000000,4.000000,4.000000,100.000000
1602005355.146193,36.000000,0.000000,4140.000000,4134.871582,4119.487305,4136.922852,4133.846191,4142.051270,4118.974121,4135.897461,4141.538574,4117.948730,4129.743652,4125.641113,4119.487305,4116.922852,0.000000,4.000000,,,,0.000000,4.000000,4.000000,4.000000,4.000000,4.000000,4.000000,4.000000,4.000000,4.000000,4.000000,4.000000,4.000000,4.000000,4.000000,100.000000
1602005355.154075,37.000000,0.000000,4136.410156,4132.820313,4115.897461,4134.871582,4126.666504,4137.948730,4117.436035,4126.666504,4130.769043,4115.384766,4123.077148,4119.487305,4116.410156,4116.922852,0.000000,4.000000,,,,0.000000,4.000000,4.000000,4.000000,4.000000,4.000000,4.000000,4.000000,4.000000,4.000000,4.000000,4.000000,4.000000,4.000000,4.000000,100.000000
1602005355.162056,38.000000,0.000000,4151.282227,4141.025879,4123.077148,4139.487305,4128.717773,4137.948730,4121.538574,4127.692383,4135.384766,4124.615234,4134.358887,4130.769043,4125.641113,4126.153809,0.000000,4.000000,,,,0.000000,4.000000,4.000000,4.000000,4.000000,4.000000,4.000000,4.000000,4.000000,4.000000,4.000000,4.000000,4.000000,4.000000,4.000000,100.000000
1602005355.169937,39.000000,0.000000,4143.077148,4134.358887,4120.000000,4138.461426,4134.871582,4138.461426,4123.589844,4134.358887,4136.410156,4120.000000,4133.333496,4136.922852,4118.974121,4115.897461,0.000000,4.000000,,,,0.000000,4.000000,4.000000,4.000000,4.000000,4.000000,4.000000,4.000000,4.000000,4.000000,4.000000,4.000000,4.000000,4.000000,4.000000,100.000000
1602005355.177918,40.000000,0.000000,4131.282227,4124.615234,4110.256348,4133.333496,4134.871582,4134.358887,4122.051270,4134.871582,4131.282227,4127.179688,4128.205078,4133.333496,4114.871582,4109.743652,0.000000,4.000000,,,,0.000000,4.000000,4.000000,4.000000,4.000000,4.000000,4.000000,4.000000,4.000000,4.000000,4.000000,4.000000,4.000000,4.000000,4.000000,100.000000
1602005355.185900,41.000000,0.000000,4158.974121,4140.000000,4125.641113,4145.128418,4135.384766,4134.871582,4125.128418,4136.410156,4136.410156,4148.717773,4147.179688,4146.666504,4146.666504,4145.128418,0.000000,4.000000,,,,0.000000,4.000000,4.000000,4.000000,4.000000,4.000000,4.000000,4.000000,4.000000,4.000000,4.000000,4.000000,4.000000,4.000000,4.000000,100.000000
1602005355.193781,42.000000,0.000000,4178.461426,4151.282227,4146.666504,4154.871582,4140.000000,4136.922852,4130.769043,4141.538574,4144.102539,4156.410156,4165.128418,4168.717773,4176.922852,4175.384766,0.000000,4.000000,,,,0.000000,4.000000,4.000000,4.000000,4.000000,4.000000,4.000000,4.000000,4.000000,4.000000,4.000000,4.000000,4.000000,4.000000,4.000000,100.000000
1602005355.201663,43.000000,0.000000,4152.307617,4136.410156,4145.128418,4142.563965,4139.487305,4136.410156,4128.717773,4139.487305,4141.538574,4154.358887,4161.538574,4174.871582,4169.743652,4162.051270,0.000000,4.000000,,,,0.000000,4.000000,4.000000,4.000000,4.000000,4.000000,4.000000,4.000000,4.000000,4.000000,4.000000,4.000000,4.000000,4.000000,4.000000,100.000000
1602005355.209445,44.000000,0.000000,4132.820313,4124.102539,4134.871582,4135.384766,4134.871582,4138.974121,4127.179688,4135.897461,4130.256348,4140.512695,4153.333496,4166.153809,4155.897461,4149.230957,0.000000,4.000000,,,,0.000000,4.000000,4.000000,4.000000,4.000000,4.000000,4.000000,4.000000,4.000000,4.000000,4.000000,4.000000,4.000000,4.000000,4.000000,100.000000
1602005355.217327,45.000000,0.000000,4137.436035,4125.641113,4130.769043,4138.974121,4134.358887,4143.077148,4134.358887,4138.974121,4126.153809,4107.692383,4152.307617,4155.897461,4155.897461,4152.820313,0.000000,4.000000,,,,0.000000,4.000000,4.000000,4.000000,4.000000,4.000000,4.000000,4.000000,4.000000,4.000000,4.000000,4.000000,4.000000,4.000000,4.000000,100.000000
1602005355.225209,46.000000,0.000000,4130.256348,4122.051270,4124.615234,4128.717773,4134.358887,4143.077148,4138.974121,4141.538574,4133.333496,4105.128418,4153.333496,4152.307617,4152.820313,4142.563965,0.000000,4.000000,,,,0.000000,4.000000,4.000000,4.000000,4.000000,4.000000,4.000000,4.000000,4.000000,4.000000,4.000000,4.000000,4.000000,4.000000,4.000000,100.000000
1602005355.233091,47.000000,0.000000,4117.436035,4117.436035,4116.922852,4115.384766,4127.179688,4137.436035,4136.410156,4138.974121,4134.871582,4125.641113,4148.205078,4152.820313,4148.717773,4131.794922,0.000000,4.000000,,,,0.000000,4.000000,4.000000,4.000000,4.000000,4.000000,4.000000,4.000000,4.000000,4.000000,4.000000,4.000000,4.000000,4.000000,4.000000,100.000000
1602005355.240973,48.000000,0.000000,4122.563965,4118.974121,4121.025879,4119.487305,4125.641113,4135.897461,4136.410156,4139.487305,4135.897461,4124.615234,4144.615234,4155.897461,4151.794922,4138.974121,0.000000,4.000000,,,,0.000000,4.000000,4.000000,4.000000,4.000000,4.000000,4.000000,4.000000,4.000000,4.000000,4.000000,4.000000,4.000000,4.000000,4.000000,100.000000
1602005355.248855,49.000000,0.000000,4136.410156,4124.102539,4134.358887,4130.256348,4131.794922,4141.025879,4142.051270,4148.205078,4145.641113,4132.820313,4152.307617,4164.102539,4156.410156,4147.692383,0.000000,4.000000,,,,0.000000,4.000000,4.000000,4.000000,4.000000,4.000000,4.000000,4.000000,4.000000,4.000000,4.000000,4.000000,4.000000,4.000000,4.000000,100.000000
1602005355.256637,50.000000,0.000000,4144.102539,4126.666504,4142.051270,4137.948730,4130.256348,4143.589844,4143.077148,4154.358887,4148.205078,4158.974121,4154.871582,4170.256348,4156.410156,4152.307617,0.000000,4.000000,,,,0.000000,4.000000,4.000000,4.000000,4.000000,4.000000,4.000000,4.000000,4.000000,4.000000,4.000000,4.000000,4.000000,4.000000,4.000000,100.000000
1602005355.264518,51.000000,0.000000,4141.025879,4124.615234,4146.666504,4135.897461,4123.077148,4138.974121,4142.051270,4150.769043,4144.102539,4162.563965,4150.769043,4171.282227,4154.871582,4162.051270,0.000000,4.000000,,,,0.000000,4.000000,4.000000,4.000000,4.000000,4.000000,4.000000,4.000000,4.000000,4.000000,4.000000,4.000000,4.000000,4.000000,4.000000,100.000000
1602005355.272300,52.000000,0.000000,4141.025879,4122.563965,4152.307617,4126.666504,4122.563965,4136.410156,4147.179688,4151.282227,4150.256348,4148.717773,4154.358887,4177.436035,4157.948730,4167.692383,0.000000,4.000000,,,,0.000000,4.000000,4.000000,4.000000,4.000000,4.000000,4.000000,4.000000,4.000000,4.000000,4.000000,4.000000,4.000000,4.000000,4.000000,100.000000
1602005355.280183,53.000000,0.000000,4140.000000,4116.410156,4148.717773,4122.563965,4123.077148,4137.436035,4149.230957,4153.846191,4147.179688,4134.871582,4150.769043,4177.436035,4155.384766,4154.358887,0.000000,4.000000,,,,0.000000,4.000000,4.000000,4.000000,4.000000,4.000000,4.000000,4.000000,4.000000,4.000000,4.000000,4.000000,4.000000,4.000000,4.000000,100.000000
1602005355.288065,54.000000,0.000000,4127.179688,4109.230957,4137.436035,4122.563965,4120.512695,4135.897461,4140.512695,4143.077148,4126.666504,4114.358887,4133.846191,4160.512695,4138.974121,4135.384766,0.000000,4.000000,,,,0.000000,4.000000,4.000000,4.000000,4.000000,4.000000,4.000000,4.000000,4.000000,4.000000,4.000000,4.000000,4.000000,4.000000,4.000000,100.000000
1602005355.295947,55.000000,0.000000,4125.128418,4114.358887,4136.922852,4123.077148,4122.051270,4135.897461,4136.922852,4133.333496,4116.922852,4105.128418,4132.307617,4149.230957,4128.717773,4134.871582,0.000000,4.000000,,,,0.000000,4.000000,4.000000,4.000000,4.000000,4.000000,4.000000,4.000000,4.000000,4.000000,4.000000,4.000000,4.000000,4.000000,4.000000,100.000000
1602005355.303830,56.000000,0.000000,4134.871582,4122.051270,4140.512695,4123.589844,4124.615234,4139.487305,4140.512695,4143.589844,4132.820313,4123.589844,4140.512695,4153.846191,4140.512695,4142.051270,0.000000,4.000000,,,,0.000000,4.000000,4.000000,4.000000,4.000000,4.000000,4.000000,4.000000,4.000000,4.000000,4.000000,4.000000,4.000000,4.000000,4.000000,100.000000
1602005355.311712,57.000000,0.000000,4132.307617,4123.077148,4134.358887,4123.589844,4124.615234,4140.000000,4139.487305,4155.384766,4150.256348,4141.538574,4142.051270,4155.384766,4153.333496,4142.051270,0.000000,4.000000,,,,0.000000,4.000000,4.000000,4.000000,4.000000,4.000000,4.000000,4.000000,4.000000,4.000000,4.000000,4.000000,4.000000,4.000000,4.000000,100.000000
1602005355.319594,58.000000,0.000000,4123.077148,4122.563965,4126.153809,4124.615234,4126.153809,4139.487305,4141.538574,4153.846191,4145.641113,4132.307617,4146.153809,4152.307617,4151.794922,4141.538574,0.000000,4.000000,,,,0.000000,4.000000,4.000000,4.000000,4.000000,4.000000,4.000000,4.000000,4.000000,4.000000,4.000000,4.000000,4.000000,4.000000,4.000000,100.000000
1602005355.327377,59.000000,0.000000,4124.102539,4122.051270,4123.077148,4125.641113,4129.230957,4143.589844,4150.769043,4149.230957,4136.922852,4128.205078,4149.230957,4150.769043,4148.205078,4138.974121,0.000000,4.000000,,,,0.000000,4.000000,4.000000,4.000000,4.000000,4.000000,4.000000,4.000000,4.000000,4.000000,4.000000,4.000000,4.000000,4.000000,4.000000,100.000000
1602005355.335259,60.000000,0.000000,4129.743652,4121.025879,4124.102539,4122.051270,4132.307617,4145.128418,4153.333496,4146.153809,4146.666504,4150.769043,4147.179688,4149.230957,4151.282227,4133.846191,0.000000,4.000000,,,,0.000000,4.000000,4.000000,4.000000,4.000000,4.000000,4.000000,4.000000,4.000000,4.000000,4.000000,4.000000,4.000000,4.000000,4.000000,100.000000
1602005355.343141,61.000000,0.000000,4136.410156,4124.615234,4130.769043,4125.641113,4133.846191,4141.025879,4146.153809,4138.974121,4154.871582,4155.897461,4150.256348,4152.307617,4154.871582,4140.512695,0.000000,4.000000,,,,0.000000,4.000000,4.000000,4.000000,4.000000,4.000000,4.000000,4.000000,4.000000,4.000000,4.000000,4.000000,4.000000,4.000000,4.000000,100.000000
1602005355.351023,62.000000,0.000000,4142.563965,4131.282227,4134.358887,4136.922852,4136.410156,4138.461426,4139.487305,4136.922852,4147.179688,4142.563965,4148.717773,4153.333496,4156.410156,4152.820313,0.000000,4.000000,,,,0.000000,4.000000,4.000000,4.000000,4.000000,4.000000,4.000000,4.000000,4.000000,4.000000,4.000000,4.000000,4.000000,4.000000,4.000000,100.000000
1602005355.358905,63.000000,0.000000,4138.974121,4128.717773,4127.692383,4136.922852,4133.333496,4136.922852,4137.436035,4137.436035,4133.333496,4148.717773,4140.000000,4143.077148,4154.358887,4149.230957,0.000000,4.000000,,,,0.000000,4.000000,4.000000,4.000000,4.000000,4.000000,4.000000,4.000000,4.000000,4.000000,4.000000,4.000000,4.000000,4.000000,4.000000,100.000000
1602005355.366787,64.000000,0.000000,4134.871582,4121.025879,4127.692383,4129.230957,4126.666504,4137.436035,4135.384766,4131.282227,4125.128418,4146.666504,4139.487305,4139.487305,4150.256348,4140.000000,815.000000,4.000000,,,,0.000000,4.000000,4.000000,4.000000,4.000000,4.000000,4.000000,4.000000,4.000000,4.000000,4.000000,4.000000,4.000000,4.000000,4.000000,100.000000
1602005355.374569,65.000000,0.000000,4136.922852,4124.615234,4138.461426,4136.922852,4128.717773,4138.974121,4135.384766,4125.128418,4117.436035,4123.077148,4143.589844,4151.282227,4149.743652,4145.641113,799.000000,4.000000,,,,0.000000,4.000000,4.000000,4.000000,4.000000,4.000000,4.000000,4.000000,4.000000,4.000000,4.000000,4.000000,4.000000,4.000000,4.000000,100.000000
1602005355.382452,66.000000,0.000000,4140.512695,4136.922852,4141.025879,4150.256348,4134.871582,4137.436035,4136.410156,4127.179688,4111.794922,4118.461426,4141.538574,4157.436035,4151.282227,4155.384766,854.000000,4.000000,,,,0.000000,4.000000,4.000000,4.000000,4.000000,4.000000,4.000000,4.000000,4.000000,4.000000,4.000000,4.000000,4.000000,4.000000,4.000000,100.000000
1602005355.390334,67.000000,0.000000,4145.641113,4140.000000,4138.974121,4153.333496,4135.384766,4136.410156,4137.436035,4132.307617,4112.820313,4122.563965,4142.051270,4155.384766,4151.794922,4158.461426,824.000000,4.000000,,,,0.000000,4.000000,4.000000,4.000000,4.000000,4.000000,4.000000,4.000000,4.000000,4.000000,4.000000,4.000000,4.000000,4.000000,4.000000,100.000000
1602005355.398216,68.000000,0.000000,4145.641113,4137.948730,4140.000000,4153.333496,4135.897461,4137.948730,4138.461426,4135.384766,4120.000000,4121.538574,4142.051270,4157.436035,4149.230957,4155.384766,810.000000,4.000000,,,,0.000000,4.000000,4.000000,4.000000,4.000000,4.000000,4.000000,4.000000,4.000000,4.000000,4.000000,4.000000,4.000000,4.000000,4.000000,100.000000
