Timestamp,EEG.Counter,EEG.Interpolated,EEG.AF3,EEG.F7,EEG.F3,EEG.FC5,EEG.T7,EEG.P7,EEG.O1,EEG.O2,EEG.P8,EEG.T8,EEG.FC6,EEG.F4,EEG.F8,EEG.AF4,EEG.RawCq,EEG.Battery,MarkerIndex,MarkerType,MarkerValueInt,EEG.MarkerHardware,CQ.AF3,CQ.F7,CQ.F3,CQ.FC5,CQ.T7,CQ.P7,CQ.O1,CQ.O2,CQ.P8,CQ.T8,CQ.FC6,CQ.F4,CQ.F8,CQ.AF4,CQ.Overall
1602005374.753479,73.000000,0.000000,4082.564209,4089.743652,4135.384766,4088.718018,4121.025879,4126.666504,4132.307617,4142.563965,4137.948730,4160.512695,4139.487305,4125.128418,4151.282227,4127.692383,844.000000,4.000000,,,,0.000000,4.000000,4.000000,4.000000,4.000000,4.000000,4.000000,4.000000,4.000000,4.000000,4.000000,4.000000,4.000000,4.000000,4.000000,100.000000
1602005374.761462,74.000000,0.000000,4124.615234,4131.282227,4139.487305,4110.256348,4130.256348,4120.512695,4122.051270,4126.153809,4137.436035,4135.897461,4137.948730,4124.102539,4147.692383,4145.641113,872.000000,4.000000,,,,0.000000,4.000000,4.000000,4.000000,4.000000,4.000000,4.000000,4.000000,4.000000,4.000000,4.000000,4.000000,4.000000,4.000000,4.000000,100.000000
1602005374.769345,75.000000,0.000000,4146.666504,4150.769043,4149.743652,4123.589844,4137.948730,4123.077148,4122.051270,4122.051270,4131.282227,4121.025879,4129.230957,4123.077148,4138.974121,4151.282227,839.000000,4.000000,,,,0.000000,4.000000,4.000000,4.000000,4.000000,4.000000,4.000000,4.000000,4.000000,4.000000,4.000000,4.000000,4.000000,4.000000,4.000000,100.000000
1602005374.777228,76.000000,0.000000,4142.563965,4150.769043,4152.307617,4122.051270,4136.410156,4124.615234,4124.615234,4123.589844,4127.179688,4146.153809,4120.512695,4123.077148,4124.615234,4133.333496,772.000000,4.000000,,,,0.000000,4.000000,4.000000,4.000000,4.000000,4.000000,4.000000,4.000000,4.000000,4.000000,4.000000,4.000000,4.000000,4.000000,4.000000,100.000000
1602005374.785111,77.000000,0.000000,4145.641113,4152.307617,4144.615234,4120.512695,4132.820313,4121.538574,4123.077148,4122.051270,4126.666504,4135.897461,4120.000000,4123.589844,4112.307617,4125.128418,775.000000,4.000000,,,,0.000000,4.000000,4.000000,4.000000,4.000000,4.000000,4.000000,4.000000,4.000000,4.000000,4.000000,4.000000,4.000000,4.000000,4.000000,100.000000
1602005374.792993,78.000000,0.000000,4142.563965,4144.102539,4136.410156,4116.410156,4131.794922,4123.077148,4125.641113,4127.692383,4124.615234,4106.153809,4116.410156,4117.948730,4105.641113,4115.384766,872.000000,4.000000,,,,0.000000,4.000000,4.000000,4.000000,4.000000,4.000000,4.000000,4.000000,4.000000,4.000000,4.000000,4.000000,4.000000,4.000000,4.000000,100.000000
1602005374.800876,79.000000,0.000000,4127.692383,4138.974121,4135.897461,4116.410156,4135.384766,4130.256348,4128.717773,4136.410156,4127.692383,4125.641113,4106.666504,4106.153809,4104.102539,4101.025879,839.000000,4.000000,,,,0.000000,4.000000,4.000000,4.000000,4.000000,4.000000,4.000000,4.000000,4.000000,4.000000,4.000000,4.000000,4.000000,4.000000,4.000000,100.000000
1602005374.808759,80.000000,0.000000,4126.153809,4142.051270,4137.436035,4121.025879,4136.410156,4134.871582,4126.153809,4136.922852,4133.846191,4141.025879,4104.102539,4102.563965,4104.102539,4108.717773,772.000000,4.000000,,,,0.000000,4.000000,4.000000,4.000000,4.000000,4.000000,4.000000,4.000000,4.000000,4.000000,4.000000,4.000000,4.000000,4.000000,4.000000,100.000000
1602005374.816642,81.000000,0.000000,4135.897461,4139.487305,4137.948730,4121.025879,4135.384766,4136.922852,4125.641113,4129.743652,4132.820313,4115.897461,4109.230957,4105.128418,4105.641113,4124.615234,775.000000,4.000000,,,,0.000000,4.000000,4.000000,4.000000,4.000000,4.000000,4.000000,4.000000,4.000000,4.000000,4.000000,4.000000,4.000000,4.000000,4.000000,100.000000
1602005374.824525,82.000000,0.000000,4140.512695,4140.000000,4137.948730,4117.948730,4134.358887,4133.846191,4127.179688,4123.589844,4127.179688,4113.333496,4112.307617,4109.743652,4107.179688,4123.589844,872.000000,4.000000,,,,0.000000,4.000000,4.000000,4.000000,4.000000,4.000000,4.000000,4.000000,4.000000,4.000000,4.000000,4.000000,4.000000,4.000000,4.000000,100.000000
1602005374.832408,83.000000,0.000000,4136.922852,4136.922852,4136.922852,4113.333496,4129.230957,4126.153809,4121.538574,4120.000000,4123.077148,4123.589844,4109.230957,4114.358887,4105.641113,4118.461426,839.000000,4.000000,,,,0.000000,4.000000,4.000000,4.000000,4.000000,4.000000,4.000000,4.000000,4.000000,4.000000,4.000000,4.000000,4.000000,4.000000,4.000000,100.000000
1602005374.840190,84.000000,0.000000,4137.948730,4128.205078,4139.487305,4107.179688,4122.563965,4123.077148,4117.436035,4114.871582,4120.000000,4110.769043,4105.641113,4113.846191,4104.615234,4123.077148,772.000000,4.000000,,,,0.000000,4.000000,4.000000,4.000000,4.000000,4.000000,4.000000,4.000000,4.000000,4.000000,4.000000,4.000000,4.000000,4.000000,4.000000,100.000000
1602005374.848072,85.000000,0.000000,4137.436035,4125.641113,4136.410156,4110.769043,4124.615234,4124.615234,4123.077148,4111.282227,4120.000000,4114.358887,4107.692383,4107.692383,4107.692383,4124.102539,775.000000,4.000000,,,,0.000000,4.000000,4.000000,4.000000,4.000000,4.000000,4.000000,4.000000,4.000000,4.000000,4.000000,4.000000,4.000000,4.000000,4.000000,100.000000
1602005374.855955,86.000000,0.000000,4126.666504,4126.153809,4124.615234,4114.358887,4132.307617,4127.692383,4126.666504,4113.846191,4123.589844,4135.384766,4108.205078,4103.077148,4106.153809,4111.282227,872.000000,4.000000,,,,0.000000,4.000000,4.000000,4.000000,4.000000,4.000000,4.000000,4.000000,4.000000,4.000000,4.000000,4.000000,4.000000,4.000000,4.000000,100.000000
1602005374.863837,87.000000,0.000000,4117.436035,4127.179688,4117.948730,4110.769043,4135.897461,4131.282227,4123.589844,4117.948730,4128.205078,4124.615234,4104.615234,4102.563965,4103.589844,4104.102539,839.000000,4.000000,,,,0.000000,4.000000,4.000000,4.000000,4.000000,4.000000,4.000000,4.000000,4.000000,4.000000,4.000000,4.000000,4.000000,4.000000,4.000000,100.000000
1602005374.871719,88.000000,0.000000,4120.000000,4132.820313,4119.487305,4115.897461,4137.436035,4137.948730,4127.179688,4122.563965,4137.436035,4114.871582,4110.256348,4104.102539,4113.333496,4115.897461,772.000000,4.000000,,,,0.000000,4.000000,4.000000,4.000000,4.000000,4.000000,4.000000,4.000000,4.000000,4.000000,4.000000,4.000000,4.000000,4.000000,4.000000,100.000000
1602005374.879602,89.000000,0.000000,4129.743652,4141.538574,4125.641113,4126.666504,4142.563965,4139.487305,4136.410156,4132.820313,4146.153809,4143.589844,4123.077148,4111.794922,4125.641113,4127.179688,775.000000,4.000000,,,,0.000000,4.000000,4.000000,4.000000,4.000000,4.000000,4.000000,4.000000,4.000000,4.000000,4.000000,4.000000,4.000000,4.000000,4.000000,100.000000
1602005374.887484,90.000000,0.000000,4135.897461,4144.102539,4128.717773,4127.692383,4143.589844,4130.769043,4137.948730,4138.974121,4141.538574,4140.512695,4124.615234,4118.974121,4124.102539,4122.051270,872.000000,4.000000,,,,0.000000,4.000000,4.000000,4.000000,4.000000,4.000000,4.000000,4.000000,4.000000,4.000000,4.000000,4.000000,4.000000,4.000000,4.000000,100.000000
1602005374.895366,91.000000,0.000000,4135.384766,4141.538574,4124.615234,4123.077148,4136.922852,4126.153809,4134.358887,4137.436035,4135.384766,4103.077148,4123.589844,4112.820313,4123.589844,4118.461426,839.000000,4.000000,,,,0.000000,4.000000,4.000000,4.000000,4.000000,4.000000,4.000000,4.000000,4.000000,4.000000,4.000000,4.000000,4.000000,4.000000,4.000000,100.000000
1602005374.903149,92.000000,0.000000,4135.897461,4142.051270,4126.666504,4117.436035,4135.897461,4134.871582,4137.436035,4140.000000,4145.641113,4115.897461,4126.666504,4106.153809,4131.794922,4125.641113,772.000000,4.000000,,,,0.000000,4.000000,4.000000,4.000000,4.000000,4.000000,4.000000,4.000000,4.000000,4.000000,4.000000,4.000000,4.000000,4.000000,4.000000,100.000000
1602005374.911032,93.000000,0.000000,4141.025879,4145.128418,4132.820313,4110.769043,4138.974121,4139.487305,4136.922852,4143.077148,4153.333496,4157.436035,4123.077148,4112.307617,4129.230957,4128.717773,775.000000,4.000000,,,,0.000000,4.000000,4.000000,4.000000,4.000000,4.000000,4.000000,4.000000,4.000000,4.000000,4.000000,4.000000,4.000000,4.000000,4.000000,100.000000
1602005374.918914,94.000000,0.000000,4145.641113,4144.615234,4132.307617,4109.743652,4136.410156,4131.282227,4129.230957,4140.512695,4145.128418,4153.333496,4122.051270,4122.051270,4122.051270,4127.692383,872.000000,4.000000,,,,0.000000,4.000000,4.000000,4.000000,4.000000,4.000000,4.000000,4.000000,4.000000,4.000000,4.000000,4.000000,4.000000,4.000000,4.000000,100.000000
1602005374.926797,95.000000,0.000000,4142.563965,4138.461426,4123.077148,4108.205078,4135.384766,4124.102539,4126.666504,4134.871582,4138.461426,4118.461426,4121.538574,4121.538574,4122.563965,4123.077148,839.000000,4.000000,,,,0.000000,4.000000,4.000000,4.000000,4.000000,4.000000,4.000000,4.000000,4.000000,4.000000,4.000000,4.000000,4.000000,4.000000,4.000000,100.000000
1602005374.934680,96.000000,0.000000,4131.794922,4135.384766,4112.307617,4103.589844,4139.487305,4124.102539,4128.205078,4128.717773,4133.333496,4101.538574,4108.717773,4120.512695,4121.538574,4118.974121,772.000000,4.000000,,,,0.000000,4.000000,4.000000,4.000000,4.000000,4.000000,4.000000,4.000000,4.000000,4.000000,4.000000,4.000000,4.000000,4.000000,4.000000,100.000000
1602005374.942562,97.000000,0.000000,4125.128418,4134.871582,4112.820313,4105.128418,4136.922852,4126.153809,4126.153809,4125.641113,4124.102539,4109.743652,4108.717773,4126.153809,4120.512695,4123.077148,775.000000,4.000000,,,,0.000000,4.000000,4.000000,4.000000,4.000000,4.000000,4.000000,4.000000,4.000000,4.000000,4.000000,4.000000,4.000000,4.000000,4.000000,100.000000
1602005374.950445,98.000000,0.000000,4126.153809,4134.358887,4115.897461,4106.153809,4127.692383,4123.077148,4121.025879,4124.102539,4123.077148,4123.077148,4121.538574,4129.230957,4118.461426,4125.128418,872.000000,4.000000,,,,0.000000,4.000000,4.000000,4.000000,4.000000,4.000000,4.000000,4.000000,4.000000,4.000000,4.000000,4.000000,4.000000,4.000000,4.000000,100.000000
1602005374.958327,99.000000,0.000000,4126.666504,4135.384766,4112.820313,4106.666504,4122.563965,4114.871582,4114.358887,4118.974121,4122.563965,4107.179688,4115.897461,4130.256348,4112.307617,4122.051270,839.000000,4.000000,,,,0.000000,4.000000,4.000000,4.000000,4.000000,4.000000,4.000000,4.000000,4.000000,4.000000,4.000000,4.000000,4.000000,4.000000,4.000000,100.000000
1602005374.966210,100.000000,0.000000,4126.153809,4137.436035,4113.333496,4113.333496,4124.102539,4114.871582,4107.692383,4116.410156,4112.820313,4078.974365,4107.179688,4132.307617,4110.256348,4117.948730,772.000000,4.000000,,,,0.000000,4.000000,4.000000,4.000000,4.000000,4.000000,4.000000,4.000000,4.000000,4.000000,4.000000,4.000000,4.000000,4.000000,4.000000,100.000000
1602005374.973991,101.000000,0.000000,4133.333496,4144.102539,4123.077148,4120.512695,4129.743652,4120.000000,4110.256348,4118.974121,4113.333496,4098.974121,4117.436035,4136.922852,4117.948730,4116.922852,775.000000,4.000000,,,,0.000000,4.000000,4.000000,4.000000,4.000000,4.000000,4.000000,4.000000,4.000000,4.000000,4.000000,4.000000,4.000000,4.000000,4.000000,100.000000
1602005374.981873,102.000000,0.000000,4146.153809,4152.307617,4131.282227,4128.205078,4137.436035,4125.641113,4118.461426,4127.179688,4125.128418,4141.538574,4127.179688,4144.102539,4128.717773,4125.641113,872.000000,4.000000,,,,0.000000,4.000000,4.000000,4.000000,4.000000,4.000000,4.000000,4.000000,4.000000,4.000000,4.000000,4.000000,4.000000,4.000000,4.000000,100.000000
1602005374.989754,103.000000,0.000000,4156.410156,4156.922852,4137.436035,4136.922852,4142.051270,4134.358887,4123.077148,4134.871582,4130.769043,4143.077148,4127.179688,4151.794922,4136.922852,4139.487305,839.000000,4.000000,,,,0.000000,4.000000,4.000000,4.000000,4.000000,4.000000,4.000000,4.000000,4.000000,4.000000,4.000000,4.000000,4.000000,4.000000,4.000000,100.000000
1602005374.997536,104.000000,0.000000,4156.922852,4156.922852,4142.563965,4139.487305,4140.000000,4142.051270,4132.820313,4136.410156,4135.897461,4126.666504,4127.179688,4154.871582,4137.436035,4137.436035,772.000000,4.000000,,,,0.000000,4.000000,4.000000,4.000000,4.000000,4.000000,4.000000,4.000000,4.000000,4.000000,4.000000,4.000000,4.000000,4.000000,4.000000,100.000000
1602005375.005419,105.000000,0.000000,4156.410156,4157.436035,4138.974121,4137.436035,4137.436035,4143.589844,4143.589844,4142.563965,4145.641113,4130.256348,4129.230957,4157.948730,4136.410156,4134.358887,775.000000,4.000000,,,,0.000000,4.000000,4.000000,4.000000,4.000000,4.000000,4.000000,4.000000,4.000000,4.000000,4.000000,4.000000,4.000000,4.000000,4.000000,100.000000
1602005375.013301,106.000000,0.000000,4162.051270,4158.461426,4138.461426,4140.000000,4140.000000,4144.102539,4145.128418,4154.871582,4156.410156,4140.512695,4138.974121,4162.051270,4141.538574,4151.282227,872.000000,4.000000,,,,0.000000,4.000000,4.000000,4.000000,4.000000,4.000000,4.000000,4.000000,4.000000,4.000000,4.000000,4.000000,4.000000,4.000000,4.000000,100.000000
1602005375.021183,107.000000,0.000000,4163.589844,4156.922852,4137.948730,4136.410156,4141.025879,4145.128418,4141.538574,4154.871582,4162.563965,4146.666504,4143.589844,4158.974121,4144.615234,4156.410156,839.000000,4.000000,,,,0.000000,4.000000,4.000000,4.000000,4.000000,4.000000,4.000000,4.000000,4.000000,4.000000,4.000000,4.000000,4.000000,4.000000,4.000000,100.000000
1602005375.029065,108.000000,0.000000,4151.794922,4152.307617,4128.205078,4125.641113,4139.487305,4143.589844,4141.025879,4145.128418,4155.384766,4140.512695,4132.307617,4154.358887,4136.410156,4141.538574,772.000000,4.000000,,,,0.000000,4.000000,4.000000,4.000000,4.000000,4.000000,4.000000,4.000000,4.000000,4.000000,4.000000,4.000000,4.000000,4.000000,4.000000,100.000000
1602005375.036947,109.000000,0.000000,4139.487305,4144.615234,4122.051270,4122.563965,4136.410156,4134.871582,4134.358887,4136.922852,4134.358887,4112.820313,4120.000000,4149.743652,4125.128418,4130.256348,775.000000,4.000000,,,,0.000000,4.000000,4.000000,4.000000,4.000000,4.000000,4.000000,4.000000,4.000000,4.000000,4.000000,4.000000,4.000000,4.000000,4.000000,100.000000
1602005375.044730,110.000000,0.000000,4138.461426,4141.025879,4124.615234,4124.615234,4131.282227,4126.153809,4124.102539,4129.743652,4123.589844,4100.512695,4118.974121,4142.051270,4121.538574,4125.128418,872.000000,4.000000,,,,0.000000,4.000000,4.000000,4.000000,4.000000,4.000000,4.000000,4.000000,4.000000,4.000000,4.000000,4.000000,4.000000,4.000000,4.000000,100.000000
1602005375.052612,111.000000,0.000000,4143.077148,4146.153809,4127.179688,4124.615234,4131.282227,4131.794922,4124.102539,4126.153809,4123.589844,4125.128418,4125.641113,4142.051270,4126.153809,4123.077148,839.000000,4.000000,,,,0.000000,4.000000,4.000000,4.000000,4.000000,4.000000,4.000000,4.000000,4.000000,4.000000,4.000000,4.000000,4.000000,4.000000,4.000000,100.000000
1602005375.060494,112.000000,0.000000,4140.512695,4148.717773,4127.692383,4126.666504,4137.436035,4136.410156,4122.563965,4124.102539,4116.922852,4132.820313,4127.179688,4144.615234,4126.153809,4120.512695,772.000000,4.000000,,,,0.000000,4.000000,4.000000,4.000000,4.000000,4.000000,4.000000,4.000000,4.000000,4.000000,4.000000,4.000000,4.000000,4.000000,4.000000,100.000000
1602005375.068377,113.000000,0.000000,4137.436035,4150.256348,4128.205078,4133.333496,4136.922852,4125.641113,4111.282227,4118.974121,4110.256348,4110.256348,4122.563965,4142.563965,4122.051270,4117.436035,775.000000,4.000000,,,,0.000000,4.000000,4.000000,4.000000,4.000000,4.000000,4.000000,4.000000,4.000000,4.000000,4.000000,4.000000,4.000000,4.000000,4.000000,100.000000
1602005375.076259,114.000000,0.000000,4139.487305,4154.871582,4121.025879,4131.282227,4127.692383,4117.948730,4104.615234,4115.897461,4111.794922,4103.589844,4118.974121,4138.461426,4121.538574,4119.487305,872.000000,4.000000,,,,0.000000,4.000000,4.000000,4.000000,4.000000,4.000000,4.000000,4.000000,4.000000,4.000000,4.000000,4.000000,4.000000,4.000000,4.000000,100.000000
1602005375.084141,115.000000,0.000000,4141.025879,4149.230957,4115.384766,4122.051270,4122.051270,4120.512695,4113.846191,4118.974121,4113.333496,4114.871582,4118.461426,4138.461426,4120.512695,4123.589844,839.000000,4.000000,,,,0.000000,4.000000,4.000000,4.000000,4.000000,4.000000,4.000000,4.000000,4.000000,4.000000,4.000000,4.000000,4.000000,4.000000,4.000000,100.000000
1602005375.092024,116.000000,0.000000,4136.410156,4142.051270,4121.025879,4123.589844,4124.615234,4123.077148,4125.641113,4128.205078,4123.589844,4132.307617,4125.128418,4141.538574,4124.615234,4124.102539,772.000000,4.000000,,,,0.000000,4.000000,4.000000,4.000000,4.000000,4.000000,4.000000,4.000000,4.000000,4.000000,4.000000,4.000000,4.000000,4.000000,4.000000,100.000000
1602005375.099906,117.000000,0.000000,4128.205078,4145.641113,4120.000000,4128.717773,4127.179688,4123.077148,4126.153809,4136.922852,4139.487305,4142.051270,4132.307617,4141.538574,4131.794922,4123.589844,775.000000,4.000000,,,,0.000000,4.000000,4.000000,4.000000,4.000000,4.000000,4.000000,4.000000,4.000000,4.000000,4.000000,4.000000,4.000000,4.000000,4.000000,100.000000
1602005375.107688,118.000000,0.000000,4126.153809,4145.128418,4111.282227,4123.077148,4124.615234,4123.077148,4121.538574,4136.922852,4140.512695,4125.128418,4128.717773,4138.461426,4131.282227,4121.538574,872.000000,4.000000,,,,0.000000,4.000000,4.000000,4.000000,4.000000,4.000000,4.000000,4.000000,4.000000,4.000000,4.000000,4.000000,4.000000,4.000000,4.000000,100.000000
1602005375.115570,119.000000,0.000000,4135.897461,4142.051270,4114.871582,4118.461426,4122.051270,4121.538574,4122.051270,4136.922852,4135.897461,4113.333496,4127.179688,4137.436035,4130.769043,4124.102539,839.000000,4.000000,,,,0.000000,4.000000,4.000000,4.000000,4.000000,4.000000,4.000000,4.000000,4.000000,4.000000,4.000000,4.000000,4.000000,4.000000,4.000000,100.000000
1602005375.123452,120.000000,0.000000,4141.538574,4151.794922,4125.641113,4126.153809,4126.153809,4122.563965,4124.615234,4141.025879,4140.000000,4134.871582,4138.461426,4143.077148,4138.974121,4135.897461,772.000000,4.000000,,,,0.000000,4.000000,4.000000,4.000000,4.000000,4.000000,4.000000,4.000000,4.000000,4.000000,4.000000,4.000000,4.000000,4.000000,4.000000,100.000000
1602005375.131335,121.000000,0.000000,4136.922852,4156.922852,4125.128418,4129.743652,4128.205078,4125.128418,4121.538574,4139.487305,4142.051270,4145.641113,4142.563965,4146.666504,4142.563965,4142.051270,775.000000,4.000000,,,,0.000000,4.000000,4.000000,4.000000,4.000000,4.000000,4.000000,4.000000,4.000000,4.000000,4.000000,4.000000,4.000000,4.000000,4.000000,100.000000
1602005375.139217,122.000000,0.000000,4134.358887,4143.589844,4119.487305,4124.615234,4124.102539,4126.153809,4118.974121,4136.410156,4139.487305,4134.871582,4129.230957,4140.000000,4132.820313,4131.794922,872.000000,4.000000,,,,0.000000,4.000000,4.000000,4.000000,4.000000,4.000000,4.000000,4.000000,4.000000,4.000000,4.000000,4.000000,4.000000,4.000000,4.000000,100.000000
1602005375.147099,123.000000,0.000000,4134.871582,4135.897461,4118.461426,4121.538574,4120.512695,4125.641113,4121.025879,4138.461426,4140.512695,4140.000000,4126.666504,4135.384766,4127.179688,4125.641113,839.000000,4.000000,,,,0.000000,4.000000,4.000000,4.000000,4.000000,4.000000,4.000000,4.000000,4.000000,4.000000,4.000000,4.000000,4.000000,4.000000,4.000000,100.000000
1602005375.154881,124.000000,0.000000,4137.948730,4140.512695,4122.563965,4124.102539,4122.563965,4131.282227,4124.102539,4136.922852,4142.563965,4151.794922,4138.974121,4143.077148,4135.897461,4136.410156,772.000000,4.000000,,,,0.000000,4.000000,4.000000,4.000000,4.000000,4.000000,4.000000,4.000000,4.000000,4.000000,4.000000,4.000000,4.000000,4.000000,4.000000,100.000000
1602005375.162763,125.000000,0.000000,4137.436035,4141.025879,4124.102539,4126.153809,4123.589844,4134.871582,4123.589844,4133.846191,4137.948730,4143.589844,4141.538574,4152.820313,4141.538574,4144.615234,775.000000,4.000000,,,,0.000000,4.000000,4.000000,4.000000,4.000000,4.000000,4.000000,4.000000,4.000000,4.000000,4.000000,4.000000,4.000000,4.000000,4.000000,100.000000
1602005375.170645,126.000000,0.000000,4129.230957,4135.897461,4118.461426,4124.102539,4115.897461,4127.179688,4122.051270,4133.846191,4134.871582,4119.487305,4134.871582,4152.307617,4135.897461,4140.512695,872.000000,4.000000,,,,0.000000,4.000000,4.000000,4.000000,4.000000,4.000000,4.000000,4.000000,4.000000,4.000000,4.000000,4.000000,4.000000,4.000000,4.000000,100.000000
1602005375.178526,127.000000,0.000000,4129.743652,4135.897461,4117.948730,4125.128418,4110.769043,4122.051270,4123.077148,4136.922852,4137.948730,4105.128418,4134.358887,4146.666504,4136.922852,4138.461426,839.000000,4.000000,,,,0.000000,4.000000,4.000000,4.000000,4.000000,4.000000,4.000000,4.000000,4.000000,4.000000,4.000000,4.000000,4.000000,4.000000,4.000000,100.000000
1602005375.186408,128.000000,0.000000,4136.922852,4139.487305,4123.589844,4128.205078,4115.897461,4125.128418,4128.717773,4142.563965,4137.436035,4121.538574,4139.487305,4142.051270,4143.589844,4141.025879,772.000000,4.000000,,,,0.000000,4.000000,4.000000,4.000000,4.000000,4.000000,4.000000,4.000000,4.000000,4.000000,4.000000,4.000000,4.000000,4.000000,4.000000,100.000000
1602005375.194290,0.000000,0.000000,4135.897461,4139.487305,4123.589844,4127.692383,4120.000000,4126.153809,4135.897461,4145.128418,4137.436035,4151.282227,4139.487305,4145.641113,4139.487305,4137.436035,812.000000,4.000000,,,,0.000000,4.000000,4.000000,4.000000,4.000000,4.000000,4.000000,4.000000,4.000000,4.000000,4.000000,4.000000,4.000000,4.000000,4.000000,100.000000
1602005375.202073,1.000000,0.000000,4136.922852,4141.025879,4123.077148,4132.820313,4121.025879,4129.743652,4137.948730,4142.563965,4142.563965,4162.051270,4140.512695,4151.282227,4140.000000,4137.436035,797.000000,4.000000,,,,0.000000,4.000000,4.000000,4.000000,4.000000,4.000000,4.000000,4.000000,4.000000,4.000000,4.000000,4.000000,4.000000,4.000000,4.000000,100.000000
1602005375.209955,2.000000,0.000000,4138.974121,4141.538574,4123.077148,4136.922852,4124.102539,4135.384766,4131.794922,4136.922852,4141.025879,4150.256348,4142.051270,4145.128418,4144.102539,4139.487305,854.000000,4.000000,,,,0.000000,4.000000,4.000000,4.000000,4.000000,4.000000,4.000000,4.000000,4.000000,4.000000,4.000000,4.000000,4.000000,4.000000,4.000000,100.000000
1602005375.217837,3.000000,0.000000,4129.743652,4136.922852,4113.333496,4126.666504,4121.538574,4135.384766,4122.051270,4130.256348,4132.307617,4136.410156,4131.794922,4133.846191,4132.307617,4131.282227,874.000000,4.000000,,,,0.000000,4.000000,4.000000,4.000000,4.000000,4.000000,4.000000,4.000000,4.000000,4.000000,4.000000,4.000000,4.000000,4.000000,4.000000,100.000000
1602005375.225720,4.000000,0.000000,4121.538574,4134.358887,4107.179688,4117.948730,4123.589844,4136.410156,4123.589844,4126.153809,4136.410156,4137.948730,4124.615234,4136.410156,4126.153809,4124.102539,811.000000,4.000000,,,,0.000000,4.000000,4.000000,4.000000,4.000000,4.000000,4.000000,4.000000,4.000000,4.000000,4.000000,4.000000,4.000000,4.000000,4.000000,100.000000
1602005375.233602,5.000000,0.000000,4123.589844,4136.922852,4113.333496,4124.615234,4134.871582,4141.538574,4130.769043,4127.179688,4142.563965,4137.436035,4135.384766,4137.436035,4140.512695,4124.102539,811.000000,4.000000,,,,0.000000,4.000000,4.000000,4.000000,4.000000,4.000000,4.000000,4.000000,4.000000,4.000000,4.000000,4.000000,4.000000,4.000000,4.000000,100.000000
1602005375.241484,6.000000,0.000000,4123.077148,4138.461426,4111.794922,4127.179688,4132.820313,4142.563965,4130.769043,4127.692383,4132.307617,4107.692383,4135.384766,4126.666504,4140.512695,4123.077148,778.000000,4.000000,,,,0.000000,4.000000,4.000000,4.000000,4.000000,4.000000,4.000000,4.000000,4.000000,4.000000,4.000000,4.000000,4.000000,4.000000,4.000000,100.000000
1602005375.249367,7.000000,0.000000,4120.512695,4135.384766,4105.128418,4122.051270,4122.563965,4143.077148,4127.179688,4122.563965,4125.128418,4095.384521,4124.102539,4125.128418,4122.563965,4121.538574,691.000000,4.000000,,,,0.000000,4.000000,4.000000,4.000000,4.000000,4.000000,4.000000,4.000000,4.000000,4.000000,4.000000,4.000000,4.000000,4.000000,4.000000,100.000000
1602005375.257348,8.000000,0.000000,4120.512695,4132.307617,4107.179688,4122.563965,4123.077148,4143.077148,4124.615234,4118.461426,4128.717773,4127.179688,4128.205078,4134.871582,4121.025879,4121.538574,789.000000,4.000000,,,,0.000000,4.000000,4.000000,4.000000,4.000000,4.000000,4.000000,4.000000,4.000000,4.000000,4.000000,4.000000,4.000000,4.000000,4.000000,100.000000
1602005375.265230,9.000000,0.000000,4121.538574,4134.358887,4113.333496,4128.205078,4127.179688,4138.974121,4123.077148,4119.487305,4131.794922,4146.666504,4133.846191,4140.512695,4129.230957,4122.051270,844.000000,4.000000,,,,0.000000,4.000000,4.000000,4.000000,4.000000,4.000000,4.000000,4.000000,4.000000,4.000000,4.000000,4.000000,4.000000,4.000000,4.000000,100.000000
1602005375.273111,10.000000,0.000000,4124.615234,4140.512695,4118.461426,4135.897461,4127.692383,4136.410156,4125.128418,4121.538574,4133.846191,4141.025879,4127.692383,4141.025879,4126.666504,4123.589844,872.000000,4.000000,,,,0.000000,4.000000,4.000000,4.000000,4.000000,4.000000,4.000000,4.000000,4.000000,4.000000,4.000000,4.000000,4.000000,4.000000,4.000000,100.000000
1602005375.280892,11.000000,0.000000,4124.102539,4139.487305,4122.051270,4138.974121,4125.128418,4137.436035,4124.615234,4126.153809,4135.384766,4129.743652,4129.230957,4138.461426,4122.051270,4121.025879,839.000000,4.000000,,,,0.000000,4.000000,4.000000,4.000000,4.000000,4.000000,4.000000,4.000000,4.000000,4.000000,4.000000,4.000000,4.000000,4.000000,4.000000,100.000000
1602005375.288774,12.000000,0.000000,4122.051270,4137.948730,4122.563965,4136.410156,4125.128418,4137.948730,4125.128418,4133.846191,4136.922852,4122.051270,4134.871582,4135.897461,4126.666504,4121.538574,773.000000,4.000000,,,,0.000000,4.000000,4.000000,4.000000,4.000000,4.000000,4.000000,4.000000,4.000000,4.000000,4.000000,4.000000,4.000000,4.000000,4.000000,100.000000
1602005375.296655,13.000000,0.000000,4130.769043,4149.230957,4123.077148,4138.461426,4134.358887,4140.512695,4134.871582,4142.563965,4148.205078,4138.461426,4138.974121,4145.641113,4138.461426,4136.922852,774.000000,4.000000,,,,0.000000,4.000000,4.000000,4.000000,4.000000,4.000000,4.000000,4.000000,4.000000,4.000000,4.000000,4.000000,4.000000,4.000000,4.000000,100.000000
1602005375.304438,14.000000,0.000000,4139.487305,4153.333496,4125.641113,4142.051270,4138.974121,4144.102539,4140.512695,4143.589844,4152.820313,4146.153809,4143.077148,4154.358887,4143.589844,4141.538574,872.000000,4.000000,,,,0.000000,4.000000,4.000000,4.000000,4.000000,4.000000,4.000000,4.000000,4.000000,4.000000,4.000000,4.000000,4.000000,4.000000,4.000000,100.000000
1602005375.312321,15.000000,0.000000,4131.282227,4142.051270,4123.589844,4138.461426,4129.230957,4139.487305,4136.410156,4136.410156,4136.922852,4114.358887,4133.846191,4138.974121,4132.307617,4124.615234,839.000000,4.000000,,,,0.000000,4.000000,4.000000,4.000000,4.000000,4.000000,4.000000,4.000000,4.000000,4.000000,4.000000,4.000000,4.000000,4.000000,4.000000,100.000000
1602005375.320204,16.000000,0.000000,4122.051270,4136.410156,4117.436035,4134.358887,4126.153809,4134.358887,4135.897461,4133.846191,4133.333496,4109.743652,4126.153809,4128.717773,4121.538574,4116.410156,0.000000,4.000000,,,,0.000000,4.000000,4.000000,4.000000,4.000000,4.000000,4.000000,4.000000,4.000000,4.000000,4.000000,4.000000,4.000000,4.000000,4.000000,100.000000
1602005375.328087,17.000000,0.000000,4130.256348,4139.487305,4122.563965,4134.358887,4132.820313,4138.461426,4136.410156,4132.307617,4144.102539,4148.717773,4137.436035,4141.538574,4124.615234,4124.615234,0.000000,4.000000,,,,0.000000,4.000000,4.000000,4.000000,4.000000,4.000000,4.000000,4.000000,4.000000,4.000000,4.000000,4.000000,4.000000,4.000000,4.000000,100.000000
1602005375.335969,18.000000,0.000000,4140.000000,4139.487305,4133.846191,4135.897461,4131.282227,4136.922852,4130.256348,4124.102539,4135.897461,4146.666504,4137.948730,4144.102539,4128.717773,4132.307617,0.000000,4.000000,,,,0.000000,4.000000,4.000000,4.000000,4.000000,4.000000,4.000000,4.000000,4.000000,4.000000,4.000000,4.000000,4.000000,4.000000,4.000000,100.000000
1602005375.343852,19.000000,0.000000,4138.461426,4140.512695,4133.846191,4137.948730,4124.102539,4128.717773,4122.051270,4116.410156,4125.128418,4109.230957,4122.051270,4133.846191,4124.615234,4135.897461,0.000000,4.000000,,,,0.000000,4.000000,4.000000,4.000000,4.000000,4.000000,4.000000,4.000000,4.000000,4.000000,4.000000,4.000000,4.000000,4.000000,4.000000,100.000000
1602005375.351735,20.000000,0.000000,4134.871582,4144.615234,4128.205078,4138.461426,4123.589844,4132.820313,4122.051270,4117.436035,4133.333496,4114.358887,4124.102539,4140.512695,4126.153809,4136.922852,0.000000,4.000000,,,,0.000000,4.000000,4.000000,4.000000,4.000000,4.000000,4.000000,4.000000,4.000000,4.000000,4.000000,4.000000,4.000000,4.000000,4.000000,100.000000
1602005375.359618,21.000000,0.000000,4137.948730,4144.615234,4127.692383,4141.538574,4126.153809,4142.051270,4131.282227,4125.641113,4145.128418,4143.589844,4139.487305,4156.410156,4135.897461,4138.461426,0.000000,4.000000,,,,0.000000,4.000000,4.000000,4.000000,4.000000,4.000000,4.000000,4.000000,4.000000,4.000000,4.000000,4.000000,4.000000,4.000000,4.000000,100.000000
1602005375.367501,22.000000,0.000000,4136.922852,4141.025879,4127.179688,4140.512695,4125.641113,4139.487305,4138.461426,4135.384766,4148.205078,4146.153809,4143.077148,4158.461426,4140.000000,4141.025879,0.000000,4.000000,,,,0.000000,4.000000,4.000000,4.000000,4.000000,4.000000,4.000000,4.000000,4.000000,4.000000,4.000000,4.000000,4.000000,4.000000,4.000000,100.000000
1602005375.375483,23.000000,0.000000,4126.153809,4136.922852,4118.461426,4133.333496,4123.589844,4138.461426,4137.948730,4140.512695,4145.641113,4130.769043,4136.922852,4148.205078,4138.974121,4137.436035,0.000000,4.000000,,,,0.000000,4.000000,4.000000,4.000000,4.000000,4.000000,4.000000,4.000000,4.000000,4.000000,4.000000,4.000000,4.000000,4.000000,4.000000,100.000000
1602005375.383366,24.000000,0.000000,4120.000000,4135.384766,4109.743652,4132.307617,4122.051270,4140.512695,4135.384766,4137.436035,4140.000000,4126.666504,4137.436035,4139.487305,4136.410156,4135.897461,0.000000,4.000000,,,,0.000000,4.000000,4.000000,4.000000,4.000000,4.000000,4.000000,4.000000,4.000000,4.000000,4.000000,4.000000,4.000000,4.000000,4.000000,100.000000
1602005375.391249,25.000000,0.000000,4124.102539,4137.436035,4113.333496,4136.922852,4122.563965,4137.436035,4136.922852,4138.974121,4146.153809,4134.871582,4149.743652,4146.153809,4143.077148,4137.948730,0.000000,4.000000,,,,0.000000,4.000000,4.000000,4.000000,4.000000,4.000000,4.000000,4.000000,4.000000,4.000000,4.000000,4.000000,4.000000,4.000000,4.000000,100.000000
1602005375.399131,26.000000,0.000000,4132.307617,4139.487305,4123.077148,4136.922852,4128.717773,4143.589844,4141.025879,4141.538574,4157.436035,4146.666504,4157.948730,4158.461426,4152.307617,4140.000000,0.000000,4.000000,,,,0.000000,4.000000,4.000000,4.000000,4.000000,4.000000,4.000000,4.000000,4.000000,4.000000,4.000000,4.000000,4.000000,4.000000,4.000000,100.000000
1602005375.407014,27.000000,0.000000,4140.000000,4139.487305,4127.179688,4134.871582,4134.871582,4152.307617,4145.128418,4140.000000,4151.282227,4155.897461,4149.743652,4152.307617,4149.230957,4142.563965,0.000000,4.000000,,,,0.000000,4.000000,4.000000,4.000000,4.000000,4.000000,4.000000,4.000000,4.000000,4.000000,4.000000,4.000000,4.000000,4.000000,4.000000,100.000000
1602005375.414896,28.000000,0.000000,4138.461426,4134.871582,4125.641113,4130.256348,4131.282227,4145.128418,4143.077148,4136.922852,4138.461426,4147.692383,4137.436035,4138.461426,4136.410156,4141.025879,0.000000,4.000000,,,,0.000000,4.000000,4.000000,4.000000,4.000000,4.000000,4.000000,4.000000,4.000000,4.000000,4.000000,4.000000,4.000000,4.000000,4.000000,100.000000
1602005375.422779,29.000000,0.000000,4125.641113,4125.128418,4123.077148,4122.563965,4122.563965,4133.846191,4135.897461,4131.282227,4134.871582,4127.692383,4129.743652,4134.871582,4128.205078,4135.384766,0.000000,4.000000,,,,0.000000,4.000000,4.000000,4.000000,4.000000,4.000000,4.000000,4.000000,4.000000,4.000000,4.000000,4.000000,4.000000,4.000000,4.000000,100.000000
1602005375.430661,30.000000,0.000000,4124.102539,4125.128418,4121.025879,4127.179688,4122.051270,4136.410156,4135.897461,4130.256348,4137.436035,4127.179688,4129.230957,4137.436035,4129.743652,4135.897461,0.000000,4.000000,,,,0.000000,4.000000,4.000000,4.000000,4.000000,4.000000,4.000000,4.000000,4.000000,4.000000,4.000000,4.000000,4.000000,4.000000,4.000000,100.000000
1602005375.438544,31.000000,0.000000,4137.436035,4135.897461,4124.615234,4137.948730,4127.179688,4148.205078,4139.487305,4137.436035,4144.615234,4141.538574,4136.410156,4145.641113,4136.410156,4142.563965,0.000000,4.000000,,,,0.000000,4.000000,4.000000,4.000000,4.000000,4.000000,4.000000,4.000000,4.000000,4.000000,4.000000,4.000000,4.000000,4.000000,4.000000,100.000000
1602005375.446426,32.000000,0.000000,4142.563965,4141.025879,4125.641113,4138.461426,4130.769043,4149.743652,4138.461426,4138.461426,4147.692383,4123.077148,4138.974121,4150.769043,4138.974121,4142.051270,0.000000,4.000000,,,,0.000000,4.000000,4.000000,4.000000,4.000000,4.000000,4.000000,4.000000,4.000000,4.000000,4.000000,4.000000,4.000000,4.000000,4.000000,100.000000
1602005375.454308,33.000000,0.000000,4137.436035,4137.948730,4126.153809,4138.974121,4129.230957,4143.077148,4135.384766,4132.307617,4144.615234,4106.666504,4137.436035,4146.153809,4137.436035,4138.461426,0.000000,4.000000,,,,0.000000,4.000000,4.000000,4.000000,4.000000,4.000000,4.000000,4.000000,4.000000,4.000000,4.000000,4.000000,4.000000,4.000000,4.000000,100.000000
1602005375.462190,34.000000,0.000000,4138.974121,4136.410156,4135.384766,4144.615234,4124.102539,4137.436035,4137.436035,4128.717773,4141.538574,4139.487305,4143.077148,4143.077148,4137.948730,4138.974121,0.000000,4.000000,,,,0.000000,4.000000,4.000000,4.000000,4.000000,4.000000,4.000000,4.000000,4.000000,4.000000,4.000000,4.000000,4.000000,4.000000,4.000000,100.000000
1602005375.470072,35.000000,0.000000,4143.077148,4137.436035,4137.436035,4144.102539,4122.051270,4139.487305,4138.974121,4125.641113,4140.000000,4160.512695,4143.589844,4142.051270,4133.846191,4139.487305,0.000000,4.000000,,,,0.000000,4.000000,4.000000,4.000000,4.000000,4.000000,4.000000,4.000000,4.000000,4.000000,4.000000,4.000000,4.000000,4.000000,4.000000,100.000000
1602005375.477953,36.000000,0.000000,4133.846191,4138.461426,4128.717773,4136.922852,4122.563965,4138.461426,4138.974121,4123.589844,4133.333496,4142.051270,4130.769043,4137.436035,4126.153809,4134.871582,0.000000,4.000000,,,,0.000000,4.000000,4.000000,4.000000,4.000000,4.000000,4.000000,4.000000,4.000000,4.000000,4.000000,4.000000,4.000000,4.000000,4.000000,100.000000
1602005375.485835,37.000000,0.000000,4123.077148,4132.820313,4123.589844,4134.871582,4123.077148,4129.743652,4137.436035,4124.102539,4125.128418,4133.333496,4123.077148,4134.358887,4124.615234,4121.025879,0.000000,4.000000,,,,0.000000,4.000000,4.000000,4.000000,4.000000,4.000000,4.000000,4.000000,4.000000,4.000000,4.000000,4.000000,4.000000,4.000000,4.000000,100.000000
1602005375.493618,38.000000,0.000000,4124.615234,4123.589844,4118.461426,4134.358887,4121.025879,4128.717773,4131.282227,4118.461426,4120.512695,4120.512695,4123.077148,4132.307617,4121.025879,4116.922852,0.000000,4.000000,,,,0.000000,4.000000,4.000000,4.000000,4.000000,4.000000,4.000000,4.000000,4.000000,4.000000,4.000000,4.000000,4.000000,4.000000,4.000000,100.000000
1602005375.501500,39.000000,0.000000,4127.179688,4122.051270,4109.230957,4127.179688,4121.538574,4138.461426,4127.179688,4115.897461,4126.153809,4105.641113,4124.102539,4131.282227,4119.487305,4128.717773,0.000000,4.000000,,,,0.000000,4.000000,4.000000,4.000000,4.000000,4.000000,4.000000,4.000000,4.000000,4.000000,4.000000,4.000000,4.000000,4.000000,4.000000,100.000000
1602005375.509382,40.000000,0.000000,4123.589844,4122.563965,4107.179688,4122.051270,4124.102539,4142.563965,4127.692383,4123.077148,4137.436035,4125.128418,4124.615234,4133.333496,4124.615234,4131.794922,0.000000,4.000000,,,,0.000000,4.000000,4.000000,4.000000,4.000000,4.000000,4.000000,4.000000,4.000000,4.000000,4.000000,4.000000,4.000000,4.000000,4.000000,100.000000
1602005375.517264,41.000000,0.000000,4120.000000,4119.487305,4107.692383,4123.589844,4122.051270,4132.820313,4123.589844,4124.615234,4137.436035,4130.256348,4122.563965,4128.717773,4118.461426,4119.487305,0.000000,4.000000,,,,0.000000,4.000000,4.000000,4.000000,4.000000,4.000000,4.000000,4.000000,4.000000,4.000000,4.000000,4.000000,4.000000,4.000000,4.000000,100.000000
1602005375.525146,42.000000,0.000000,4121.538574,4118.461426,4105.641113,4122.051270,4121.538574,4131.282227,4120.512695,4120.000000,4134.358887,4106.666504,4121.538574,4125.128418,4109.743652,4117.948730,0.000000,4.000000,,,,0.000000,4.000000,4.000000,4.000000,4.000000,4.000000,4.000000,4.000000,4.000000,4.000000,4.000000,4.000000,4.000000,4.000000,4.000000,100.000000
1602005375.533028,43.000000,0.000000,4128.205078,4122.563965,4111.282227,4123.589844,4130.256348,4141.538574,4124.615234,4121.538574,4138.461426,4123.077148,4125.128418,4131.794922,4121.025879,4130.256348,0.000000,4.000000,,,,0.000000,4.000000,4.000000,4.000000,4.000000,4.000000,4.000000,4.000000,4.000000,4.000000,4.000000,4.000000,4.000000,4.000000,4.000000,100.000000
1602005375.541011,44.000000,0.000000,4137.948730,4131.794922,4122.563965,4135.384766,4138.974121,4145.128418,4127.179688,4126.666504,4143.077148,4154.871582,4127.179688,4137.948730,4138.461426,4138.461426,0.000000,4.000000,,,,0.000000,4.000000,4.000000,4.000000,4.000000,4.000000,4.000000,4.000000,4.000000,4.000000,4.000000,4.000000,4.000000,4.000000,4.000000,100.000000
1602005375.548893,45.000000,0.000000,4141.025879,4136.410156,4123.077148,4135.384766,4137.436035,4141.538574,4127.692383,4127.692383,4142.051270,4137.436035,4129.743652,4138.461426,4141.538574,4138.974121,0.000000,4.000000,,,,0.000000,4.000000,4.000000,4.000000,4.000000,4.000000,4.000000,4.000000,4.000000,4.000000,4.000000,4.000000,4.000000,4.000000,4.000000,100.000000
1602005375.556776,46.000000,0.000000,4133.846191,4127.179688,4111.794922,4123.077148,4130.769043,4140.000000,4135.384766,4125.128418,4140.512695,4116.922852,4135.384766,4133.846191,4138.461426,4137.948730,0.000000,4.000000,,,,0.000000,4.000000,4.000000,4.000000,4.000000,4.000000,4.000000,4.000000,4.000000,4.000000,4.000000,4.000000,4.000000,4.000000,4.000000,100.000000
1602005375.564658,47.000000,0.000000,4124.102539,4121.538574,4105.128418,4120.512695,4127.692383,4140.512695,4136.922852,4124.615234,4146.153809,4141.025879,4137.948730,4125.128418,4139.487305,4134.358887,0.000000,4.000000,,,,0.000000,4.000000,4.000000,4.000000,4.000000,4.000000,4.000000,4.000000,4.000000,4.000000,4.000000,4.000000,4.000000,4.000000,4.000000,100.000000
1602005375.572541,48.000000,0.000000,4120.512695,4125.128418,4106.666504,4123.589844,4124.615234,4131.794922,4128.205078,4126.153809,4153.333496,4165.128418,4132.307617,4121.538574,4136.410156,4129.230957,0.000000,4.000000,,,,0.000000,4.000000,4.000000,4.000000,4.000000,4.000000,4.000000,4.000000,4.000000,4.000000,4.000000,4.000000,4.000000,4.000000,4.000000,100.000000
1602005375.580424,49.000000,0.000000,4121.025879,4123.589844,4107.692383,4120.000000,4119.487305,4121.025879,4123.077148,4124.102539,4152.307617,4150.256348,4125.128418,4122.051270,4128.717773,4123.077148,0.000000,4.000000,,,,0.000000,4.000000,4.000000,4.000000,4.000000,4.000000,4.000000,4.000000,4.000000,4.000000,4.000000,4.000000,4.000000,4.000000,4.000000,100.000000
1602005375.588306,50.000000,0.000000,4121.025879,4118.461426,4108.717773,4118.974121,4119.487305,4126.153809,4126.666504,4120.512695,4143.077148,4121.538574,4126.153809,4118.974121,4123.589844,4120.512695,0.000000,4.000000,,,,0.000000,4.000000,4.000000,4.000000,4.000000,4.000000,4.000000,4.000000,4.000000,4.000000,4.000000,4.000000,4.000000,4.000000,4.000000,100.000000
1602005375.596189,51.000000,0.000000,4119.487305,4119.487305,4108.205078,4122.563965,4122.563965,4137.948730,4131.282227,4118.974121,4135.897461,4116.922852,4125.641113,4118.461426,4123.589844,4127.692383,0.000000,4.000000,,,,0.000000,4.000000,4.000000,4.000000,4.000000,4.000000,4.000000,4.000000,4.000000,4.000000,4.000000,4.000000,4.000000,4.000000,4.000000,100.000000
1602005375.604071,52.000000,0.000000,4123.589844,4121.025879,4105.641113,4123.077148,4123.077148,4137.436035,4133.846191,4114.358887,4131.794922,4123.077148,4122.051270,4122.051270,4124.102539,4139.487305,0.000000,4.000000,,,,0.000000,4.000000,4.000000,4.000000,4.000000,4.000000,4.000000,4.000000,4.000000,4.000000,4.000000,4.000000,4.000000,4.000000,4.000000,100.000000
1602005375.612054,53.000000,0.000000,4127.179688,4122.563965,4106.666504,4124.615234,4122.051270,4134.358887,4137.948730,4109.743652,4128.205078,4123.077148,4121.538574,4123.589844,4122.563965,4137.436035,0.000000,4.000000,,,,0.000000,4.000000,4.000000,4.000000,4.000000,4.000000,4.000000,4.000000,4.000000,4.000000,4.000000,4.000000,4.000000,4.000000,4.000000,100.000000
1602005375.619937,54.000000,0.000000,4121.025879,4121.025879,4104.615234,4123.077148,4123.077148,4136.922852,4137.948730,4109.743652,4122.051270,4125.128418,4122.563965,4122.051270,4122.563965,4123.589844,0.000000,4.000000,,,,0.000000,4.000000,4.000000,4.000000,4.000000,4.000000,4.000000,4.000000,4.000000,4.000000,4.000000,4.000000,4.000000,4.000000,4.000000,100.000000
1602005375.627819,55.000000,0.000000,4114.871582,4114.871582,4095.384521,4114.871582,4121.538574,4138.461426,4129.743652,4109.230957,4116.410156,4124.102539,4120.000000,4122.051270,4122.563965,4121.025879,0.000000,4.000000,,,,0.000000,4.000000,4.000000,4.000000,4.000000,4.000000,4.000000,4.000000,4.000000,4.000000,4.000000,4.000000,4.000000,4.000000,4.000000,100.000000
1602005375.635702,56.000000,0.000000,4116.922852,4115.384766,4093.333252,4114.358887,4122.051270,4137.436035,4126.666504,4113.333496,4119.487305,4118.461426,4120.512695,4121.025879,4120.512695,4125.128418,0.000000,4.000000,,,,0.000000,4.000000,4.000000,4.000000,4.000000,4.000000,4.000000,4.000000,4.000000,4.000000,4.000000,4.000000,4.000000,4.000000,4.000000,100.000000
1602005375.643584,57.000000,0.000000,4123.589844,4122.051270,4102.563965,4121.538574,4126.153809,4134.871582,4133.846191,4121.025879,4123.077148,4126.153809,4122.051270,4122.051270,4123.077148,4126.666504,0.000000,4.000000,,,,0.000000,4.000000,4.000000,4.000000,4.000000,4.000000,4.000000,4.000000,4.000000,4.000000,4.000000,4.000000,4.000000,4.000000,4.000000,100.000000
1602005375.651467,58.000000,0.000000,4131.282227,4125.128418,4113.846191,4124.102539,4126.153809,4134.358887,4136.922852,4123.589844,4122.051270,4125.641113,4127.179688,4131.794922,4132.820313,4134.358887,0.000000,4.000000,,,,0.000000,4.000000,4.000000,4.000000,4.000000,4.000000,4.000000,4.000000,4.000000,4.000000,4.000000,4.000000,4.000000,4.000000,4.000000,100.000000
1602005375.659349,59.000000,0.000000,4141.025879,4126.666504,4123.589844,4124.615234,4125.641113,4137.436035,4135.897461,4127.692383,4129.230957,4109.230957,4137.948730,4141.025879,4142.051270,4140.512695,0.000000,4.000000,,,,0.000000,4.000000,4.000000,4.000000,4.000000,4.000000,4.000000,4.000000,4.000000,4.000000,4.000000,4.000000,4.000000,4.000000,4.000000,100.000000
1602005375.667232,60.000000,0.000000,4144.615234,4129.743652,4128.717773,4129.230957,4128.717773,4140.000000,4148.205078,4137.436035,4140.000000,4125.641113,4135.384766,4138.974121,4136.922852,4140.000000,0.000000,4.000000,,,,0.000000,4.000000,4.000000,4.000000,4.000000,4.000000,4.000000,4.000000,4.000000,4.000000,4.000000,4.000000,4.000000,4.000000,4.000000,100.000000
1602005375.675115,61.000000,0.000000,4138.974121,4128.205078,4126.153809,4129.230957,4127.692383,4140.000000,4155.384766,4137.948730,4141.025879,4152.307617,4123.589844,4135.384766,4127.179688,4142.051270,0.000000,4.000000,,,,0.000000,4.000000,4.000000,4.000000,4.000000,4.000000,4.000000,4.000000,4.000000,4.000000,4.000000,4.000000,4.000000,4.000000,4.000000,100.000000
1602005375.682897,62.000000,0.000000,4134.871582,4125.641113,4125.128418,4124.102539,4121.025879,4136.922852,4143.589844,4127.692383,4137.436035,4136.922852,4122.051270,4137.436035,4125.128418,4142.051270,0.000000,4.000000,,,,0.000000,4.000000,4.000000,4.000000,4.000000,4.000000,4.000000,4.000000,4.000000,4.000000,4.000000,4.000000,4.000000,4.000000,4.000000,100.000000
1602005375.690780,63.000000,0.000000,4136.922852,4129.230957,4126.666504,4122.563965,4125.128418,4134.358887,4134.358887,4123.589844,4134.358887,4122.563965,4127.692383,4137.948730,4126.153809,4138.461426,0.000000,4.000000,,,,0.000000,4.000000,4.000000,4.000000,4.000000,4.000000,4.000000,4.000000,4.000000,4.000000,4.000000,4.000000,4.000000,4.000000,4.000000,100.000000
1602005375.698663,64.000000,0.000000,4140.512695,4131.282227,4123.589844,4123.077148,4136.922852,4137.948730,4137.436035,4126.666504,4133.846191,4134.358887,4133.846191,4136.922852,4125.641113,4138.461426,812.000000,4.000000,,,,0.000000,4.000000,4.000000,4.000000,4.000000,4.000000,4.000000,4.000000,4.000000,4.000000,4.000000,4.000000,4.000000,4.000000,4.000000,100.000000
1602005375.706545,65.000000,0.000000,4138.461426,4127.179688,4119.487305,4123.077148,4140.000000,4136.410156,4139.487305,4128.205078,4135.897461,4127.179688,4134.871582,4136.922852,4129.743652,4139.487305,797.000000,4.000000,,,,0.000000,4.000000,4.000000,4.000000,4.000000,4.000000,4.000000,4.000000,4.000000,4.000000,4.000000,4.000000,4.000000,4.000000,4.000000,100.000000
1602005375.714428,66.000000,0.000000,4135.897461,4126.666504,4113.846191,4123.589844,4135.897461,4123.077148,4134.871582,4127.179688,4128.205078,4120.512695,4128.205078,4136.922852,4135.384766,4140.000000,854.000000,4.000000,,,,0.000000,4.000000,4.000000,4.000000,4.000000,4.000000,4.000000,4.000000,4.000000,4.000000,4.000000,4.000000,4.000000,4.000000,4.000000,100.000000
1602005375.722310,67.000000,0.000000,4132.307617,4131.794922,4107.179688,4124.102539,4135.897461,4121.538574,4132.307617,4123.589844,4117.948730,4134.871582,4122.563965,4136.410156,4132.307617,4140.512695,874.000000,4.000000,,,,0.000000,4.000000,4.000000,4.000000,4.000000,4.000000,4.000000,4.000000,4.000000,4.000000,4.000000,4.000000,4.000000,4.000000,4.000000,100.000000
1602005375.730193,68.000000,0.000000,4125.128418,4131.794922,4106.666504,4124.102539,4137.948730,4137.948730,4135.384766,4121.025879,4127.179688,4132.307617,4124.102539,4136.922852,4123.077148,4135.384766,811.000000,4.000000,,,,0.000000,4.000000,4.000000,4.000000,4.000000,4.000000,4.000000,4.000000,4.000000,4.000000,4.000000,4.000000,4.000000,4.000000,4.000000,100.000000
1602005375.738076,69.000000,0.000000,4128.717773,4125.641113,4113.846191,4125.128418,4138.974121,4150.769043,4141.538574,4122.563965,4138.461426,4124.615234,4129.230957,4137.948730,4125.641113,4132.820313,811.000000,4.000000,,,,0.000000,4.000000,4.000000,4.000000,4.000000,4.000000,4.000000,4.000000,4.000000,4.000000,4.000000,4.000000,4.000000,4.000000,4.000000,100.000000
1602005375.745958,70.000000,0.000000,4135.897461,4126.153809,4115.897461,4125.641113,4139.487305,4150.256348,4143.077148,4125.128418,4131.794922,4133.333496,4135.384766,4136.922852,4144.102539,4148.205078,778.000000,4.000000,,,,0.000000,4.000000,4.000000,4.000000,4.000000,4.000000,4.000000,4.000000,4.000000,4.000000,4.000000,4.000000,4.000000,4.000000,4.000000,100.000000
1602005375.753741,71.000000,0.000000,4127.692383,4125.128418,4112.820313,4123.589844,4136.410156,4142.563965,4139.487305,4123.077148,4124.102539,4133.333496,4144.102539,4140.000000,4164.102539,4165.641113,691.000000,4.000000,,,,0.000000,4.000000,4.000000,4.000000,4.000000,4.000000,4.000000,4.000000,4.000000,4.000000,4.000000,4.000000,4.000000,4.000000,4.000000,100.000000
1602005375.761623,72.000000,0.000000,4112.820313,4112.820313,4116.922852,4118.461426,4134.871582,4136.922852,4137.948730,4125.128418,4125.641113,4122.051270,4150.769043,4151.282227,4171.794922,4170.256348,789.000000,4.000000,,,,0.000000,4.000000,4.000000,4.000000,4.000000,4.000000,4.000000,4.000000,4.000000,4.000000,4.000000,4.000000,4.000000,4.000000,4.000000,100.000000
1602005375.769506,73.000000,0.000000,4105.128418,4103.077148,4122.051270,4113.333496,4136.922852,4138.461426,4137.948730,4133.846191,4125.128418,4121.025879,4154.358887,4158.461426,4173.333496,4168.717773,844.000000,4.000000,,,,0.000000,4.000000,4.000000,4.000000,4.000000,4.000000,4.000000,4.000000,4.000000,4.000000,4.000000,4.000000,4.000000,4.000000,4.000000,100.000000
1602005375.777389,74.000000,0.000000,4103.589844,4103.589844,4117.436035,4112.307617,4131.794922,4141.025879,4137.436035,4141.025879,4125.641113,4135.897461,4153.846191,4156.922852,4175.897461,4166.153809,872.000000,4.000000,,,,0.000000,4.000000,4.000000,4.000000,4.000000,4.000000,4.000000,4.000000,4.000000,4.000000,4.000000,4.000000,4.000000,4.000000,4.000000,100.000000
1602005375.785271,75.000000,0.000000,4102.563965,4106.153809,4108.205078,4110.256348,4123.077148,4138.974121,4138.461426,4140.000000,4131.282227,4142.563965,4147.692383,4151.794922,4174.358887,4160.000000,839.000000,4.000000,,,,0.000000,4.000000,4.000000,4.000000,4.000000,4.000000,4.000000,4.000000,4.000000,4.000000,4.000000,4.000000,4.000000,4.000000,4.000000,100.000000
1602005375.793154,76.000000,0.000000,4097.948730,4104.102539,4099.487305,4105.641113,4121.538574,4138.974121,4140.000000,4129.743652,4133.846191,4126.666504,4140.512695,4144.102539,4165.128418,4149.743652,773.000000,4.000000,,,,0.000000,4.000000,4.000000,4.000000,4.000000,4.000000,4.000000,4.000000,4.000000,4.000000,4.000000,4.000000,4.000000,4.000000,4.000000,100.000000
1602005375.801036,77.000000,0.000000,4091.794922,4099.487305,4094.358887,4103.077148,4123.077148,4140.512695,4137.436035,4126.153809,4137.436035,4119.487305,4137.436035,4135.384766,4155.897461,4142.051270,774.000000,4.000000,,,,0.000000,4.000000,4.000000,4.000000,4.000000,4.000000,4.000000,4.000000,4.000000,4.000000,4.000000,4.000000,4.000000,4.000000,4.000000,100.000000
1602005375.808919,78.000000,0.000000,4093.846191,4099.487305,4097.948730,4102.051270,4121.025879,4137.948730,4134.358887,4134.358887,4144.102539,4140.512695,4135.384766,4135.384766,4155.897461,4139.487305,872.000000,4.000000,,,,0.000000,4.000000,4.000000,4.000000,4.000000,4.000000,4.000000,4.000000,4.000000,4.000000,4.000000,4.000000,4.000000,4.000000,4.000000,100.000000
1602005375.816802,79.000000,0.000000,4102.563965,4104.615234,4107.179688,4102.563965,4120.000000,4133.846191,4138.461426,4140.000000,4145.641113,4148.717773,4138.974121,4145.128418,4163.077148,4141.538574,839.000000,4.000000,,,,0.000000,4.000000,4.000000,4.000000,4.000000,4.000000,4.000000,4.000000,4.000000,4.000000,4.000000,4.000000,4.000000,4.000000,4.000000,100.000000
1602005375.824584,80.000000,0.000000,4106.666504,4107.179688,4117.436035,4107.179688,4128.717773,4133.846191,4139.487305,4137.948730,4141.025879,4137.948730,4149.743652,4153.846191,4169.230957,4147.692383,773.000000,4.000000,,,,0.000000,4.000000,4.000000,4.000000,4.000000,4.000000,4.000000,4.000000,4.000000,4.000000,4.000000,4.000000,4.000000,4.000000,4.000000,100.000000
1602005375.832467,81.000000,0.000000,4107.692383,4107.692383,4124.102539,4111.282227,4134.871582,4135.897461,4134.871582,4131.282227,4131.794922,4138.461426,4147.179688,4153.846191,4169.230957,4152.820313,774.000000,4.000000,,,,0.000000,4.000000,4.000000,4.000000,4.000000,4.000000,4.000000,4.000000,4.000000,4.000000,4.000000,4.000000,4.000000,4.000000,4.000000,100.000000
1602005375.840349,82.000000,0.000000,4106.153809,4108.205078,4122.563965,4109.743652,4128.717773,4135.897461,4132.820313,4127.692383,4121.025879,4118.461426,4139.487305,4156.922852,4168.205078,4150.256348,872.000000,4.000000,,,,0.000000,4.000000,4.000000,4.000000,4.000000,4.000000,4.000000,4.000000,4.000000,4.000000,4.000000,4.000000,4.000000,4.000000,4.000000,100.000000
1602005375.848232,83.000000,0.000000,4105.641113,4106.666504,4120.000000,4107.692383,4123.589844,4137.436035,4135.897461,4133.333496,4121.025879,4100.000000,4150.769043,4170.256348,4173.846191,4150.256348,839.000000,4.000000,,,,0.000000,4.000000,4.000000,4.000000,4.000000,4.000000,4.000000,4.000000,4.000000,4.000000,4.000000,4.000000,4.000000,4.000000,4.000000,100.000000
1602005375.856115,84.000000,0.000000,4112.820313,4113.333496,4124.102539,4114.358887,4126.666504,4141.538574,4144.615234,4147.179688,4140.512695,4142.051270,4161.025879,4175.897461,4183.077148,4164.102539,773.000000,4.000000,,,,0.000000,4.000000,4.000000,4.000000,4.000000,4.000000,4.000000,4.000000,4.000000,4.000000,4.000000,4.000000,4.000000,4.000000,4.000000,100.000000
1602005375.863997,85.000000,0.000000,4119.487305,4122.563965,4126.153809,4122.051270,4127.179688,4147.692383,4152.820313,4156.410156,4161.538574,4184.615234,4155.897461,4171.794922,4188.205078,4175.897461,774.000000,4.000000,,,,0.000000,4.000000,4.000000,4.000000,4.000000,4.000000,4.000000,4.000000,4.000000,4.000000,4.000000,4.000000,4.000000,4.000000,4.000000,100.000000
1602005375.871880,86.000000,0.000000,4113.846191,4123.589844,4123.589844,4120.000000,4125.641113,4153.333496,4153.846191,4157.948730,4168.205078,4176.922852,4155.384766,4173.333496,4187.692383,4170.256348,872.000000,4.000000,,,,0.000000,4.000000,4.000000,4.000000,4.000000,4.000000,4.000000,4.000000,4.000000,4.000000,4.000000,4.000000,4.000000,4.000000,4.000000,100.000000
1602005375.879762,87.000000,0.000000,4105.128418,4118.461426,4115.384766,4111.794922,4126.666504,4153.333496,4153.333496,4154.871582,4169.230957,4164.102539,4159.487305,4167.692383,4178.461426,4158.974121,839.000000,4.000000,,,,0.000000,4.000000,4.000000,4.000000,4.000000,4.000000,4.000000,4.000000,4.000000,4.000000,4.000000,4.000000,4.000000,4.000000,4.000000,100.000000
1602005375.887645,88.000000,0.000000,4104.102539,4111.282227,4106.153809,4109.743652,4123.077148,4150.769043,4151.282227,4151.794922,4172.307617,4160.512695,4154.871582,4151.794922,4170.256348,4150.256348,773.000000,4.000000,,,,0.000000,4.000000,4.000000,4.000000,4.000000,4.000000,4.000000,4.000000,4.000000,4.000000,4.000000,4.000000,4.000000,4.000000,4.000000,100.000000
1602005375.895427,89.000000,0.000000,4108.205078,4107.179688,4107.179688,4114.358887,4126.153809,4152.820313,4144.615234,4155.897461,4173.846191,4140.000000,4149.743652,4142.563965,4172.820313,4142.563965,774.000000,4.000000,,,,0.000000,4.000000,4.000000,4.000000,4.000000,4.000000,4.000000,4.000000,4.000000,4.000000,4.000000,4.000000,4.000000,4.000000,4.000000,100.000000
1602005375.903309,90.000000,0.000000,4104.102539,4106.666504,4106.666504,4113.846191,4135.897461,4153.333496,4138.974121,4150.769043,4167.179688,4123.589844,4143.589844,4141.538574,4170.256348,4137.948730,872.000000,4.000000,,,,0.000000,4.000000,4.000000,4.000000,4.000000,4.000000,4.000000,4.000000,4.000000,4.000000,4.000000,4.000000,4.000000,4.000000,4.000000,100.000000
1602005375.911191,91.000000,0.000000,4091.794922,4105.641113,4093.846191,4107.179688,4136.922852,4150.769043,4140.512695,4138.974121,4151.794922,4119.487305,4136.410156,4139.487305,4155.897461,4136.410156,839.000000,4.000000,,,,0.000000,4.000000,4.000000,4.000000,4.000000,4.000000,4.000000,4.000000,4.000000,4.000000,4.000000,4.000000,4.000000,4.000000,4.000000,100.000000
1602005375.919073,92.000000,0.000000,4090.256348,4103.589844,4089.743652,4109.743652,4134.871582,4151.794922,4146.153809,4137.436035,4138.974121,4115.897461,4137.436035,4136.922852,4150.769043,4136.922852,773.000000,4.000000,,,,0.000000,4.000000,4.000000,4.000000,4.000000,4.000000,4.000000,4.000000,4.000000,4.000000,4.000000,4.000000,4.000000,4.000000,4.000000,100.000000
1602005375.926955,93.000000,0.000000,4103.077148,4106.666504,4101.025879,4121.025879,4136.410156,4152.820313,4151.794922,4141.538574,4135.384766,4124.615234,4139.487305,4135.897461,4153.333496,4138.461426,774.000000,4.000000,,,,0.000000,4.000000,4.000000,4.000000,4.000000,4.000000,4.000000,4.000000,4.000000,4.000000,4.000000,4.000000,4.000000,4.000000,4.000000,100.000000
1602005375.934736,94.000000,0.000000,4108.205078,4114.871582,4106.153809,4124.615234,4131.794922,4151.282227,4152.307617,4138.974121,4138.461426,4140.512695,4137.436035,4136.410156,4153.333496,4136.922852,872.000000,4.000000,,,,0.000000,4.000000,4.000000,4.000000,4.000000,4.000000,4.000000,4.000000,4.000000,4.000000,4.000000,4.000000,4.000000,4.000000,4.000000,100.000000
1602005375.942617,95.000000,0.000000,4109.743652,4122.051270,4109.743652,4126.153809,4125.128418,4149.743652,4151.794922,4137.948730,4138.974121,4144.615234,4141.538574,4139.487305,4158.461426,4141.025879,839.000000,4.000000,,,,0.000000,4.000000,4.000000,4.000000,4.000000,4.000000,4.000000,4.000000,4.000000,4.000000,4.000000,4.000000,4.000000,4.000000,4.000000,100.000000
1602005375.950499,96.000000,0.000000,4120.512695,4124.615234,4121.025879,4134.358887,4125.641113,4145.641113,4153.846191,4141.538574,4136.922852,4128.717773,4152.307617,4142.563965,4166.666504,4153.333496,773.000000,4.000000,,,,0.000000,4.000000,4.000000,4.000000,4.000000,4.000000,4.000000,4.000000,4.000000,4.000000,4.000000,4.000000,4.000000,4.000000,4.000000,100.000000
1602005375.958281,97.000000,0.000000,4127.179688,4125.128418,4125.641113,4138.461426,4126.153809,4140.000000,4149.230957,4141.025879,4142.051270,4125.128418,4157.948730,4143.589844,4172.307617,4158.461426,774.000000,4.000000,,,,0.000000,4.000000,4.000000,4.000000,4.000000,4.000000,4.000000,4.000000,4.000000,4.000000,4.000000,4.000000,4.000000,4.000000,4.000000,100.000000
1602005375.966163,98.000000,0.000000,4123.077148,4125.128418,4122.051270,4137.436035,4125.641113,4136.922852,4138.974121,4140.000000,4153.333496,4146.666504,4149.743652,4145.128418,4175.897461,4153.846191,872.000000,4.000000,,,,0.000000,4.000000,4.000000,4.000000,4.000000,4.000000,4.000000,4.000000,4.000000,4.000000,4.000000,4.000000,4.000000,4.000000,4.000000,100.000000
1602005375.974045,99.000000,0.000000,4119.487305,4122.051270,4117.948730,4136.410156,4127.692383,4139.487305,4136.410156,4138.461426,4157.436035,4156.922852,4140.512695,4139.487305,4175.384766,4152.307617,839.000000,4.000000,,,,0.000000,4.000000,4.000000,4.000000,4.000000,4.000000,4.000000,4.000000,4.000000,4.000000,4.000000,4.000000,4.000000,4.000000,4.000000,100.000000
1602005375.981926,100.000000,0.000000,4118.461426,4121.538574,4115.384766,4131.282227,4128.205078,4144.102539,4141.538574,4137.436035,4151.794922,4142.563965,4141.538574,4132.307617,4167.179688,4154.871582,773.000000,4.000000,,,,0.000000,4.000000,4.000000,4.000000,4.000000,4.000000,4.000000,4.000000,4.000000,4.000000,4.000000,4.000000,4.000000,4.000000,4.000000,100.000000
1602005375.989808,101.000000,0.000000,4112.307617,4120.000000,4114.871582,4124.615234,4125.641113,4142.563965,4145.128418,4140.000000,4147.179688,4119.487305,4144.615234,4133.846191,4158.461426,4148.717773,774.000000,4.000000,,,,0.000000,4.000000,4.000000,4.000000,4.000000,4.000000,4.000000,4.000000,4.000000,4.000000,4.000000,4.000000,4.000000,4.000000,4.000000,100.000000
1602005375.997591,102.000000,0.000000,4111.282227,4112.307617,4117.436035,4123.589844,4121.538574,4135.384766,4142.051270,4141.025879,4142.051270,4118.974121,4141.025879,4140.000000,4158.461426,4143.589844,872.000000,4.000000,,,,0.000000,4.000000,4.000000,4.000000,4.000000,4.000000,4.000000,4.000000,4.000000,4.000000,4.000000,4.000000,4.000000,4.000000,4.000000,100.000000
1602005376.005474,103.000000,0.000000,4117.948730,4106.666504,4120.000000,4123.077148,4120.000000,4132.307617,4139.487305,4144.102539,4138.461426,4129.230957,4136.922852,4143.077148,4158.974121,4148.205078,839.000000,4.000000,,,,0.000000,4.000000,4.000000,4.000000,4.000000,4.000000,4.000000,4.000000,4.000000,4.000000,4.000000,4.000000,4.000000,4.000000,4.000000,100.000000
1602005376.013356,104.000000,0.000000,4115.897461,4108.717773,4115.897461,4121.538574,4118.974121,4134.358887,4146.666504,4150.769043,4137.948730,4128.205078,4140.512695,4142.051270,4153.846191,4150.769043,773.000000,4.000000,,,,0.000000,4.000000,4.000000,4.000000,4.000000,4.000000,4.000000,4.000000,4.000000,4.000000,4.000000,4.000000,4.000000,4.000000,4.000000,100.000000
1602005376.021239,105.000000,0.000000,4110.769043,4115.384766,4110.256348,4123.077148,4120.000000,4134.871582,4155.384766,4150.256348,4134.871582,4126.666504,4147.692383,4142.051270,4156.922852,4147.692383,774.000000,4.000000,,,,0.000000,4.000000,4.000000,4.000000,4.000000,4.000000,4.000000,4.000000,4.000000,4.000000,4.000000,4.000000,4.000000,4.000000,4.000000,100.000000
1602005376.029121,106.000000,0.000000,4116.922852,4118.461426,4111.794922,4125.128418,4121.538574,4135.897461,4151.794922,4141.025879,4141.025879,4136.410156,4151.282227,4146.666504,4168.717773,4148.205078,872.000000,4.000000,,,,0.000000,4.000000,4.000000,4.000000,4.000000,4.000000,4.000000,4.000000,4.000000,4.000000,4.000000,4.000000,4.000000,4.000000,4.000000,100.000000
1602005376.037004,107.000000,0.000000,4125.641113,4117.436035,4120.000000,4125.128418,4119.487305,4138.461426,4142.051270,4140.512695,4153.846191,4146.666504,4153.333496,4153.333496,4172.820313,4156.410156,839.000000,4.000000,,,,0.000000,4.000000,4.000000,4.000000,4.000000,4.000000,4.000000,4.000000,4.000000,4.000000,4.000000,4.000000,4.000000,4.000000,4.000000,100.000000
1602005376.044887,108.000000,0.000000,4127.692383,4120.512695,4130.769043,4126.666504,4121.538574,4141.025879,4145.128418,4151.282227,4158.461426,4155.897461,4158.461426,4159.487305,4172.307617,4168.717773,773.000000,4.000000,,,,0.000000,4.000000,4.000000,4.000000,4.000000,4.000000,4.000000,4.000000,4.000000,4.000000,4.000000,4.000000,4.000000,4.000000,4.000000,100.000000
1602005376.052769,109.000000,0.000000,4127.179688,4125.128418,4138.974121,4130.256348,4127.179688,4141.538574,4151.282227,4155.897461,4160.000000,4162.563965,4159.487305,4162.051270,4175.384766,4173.846191,774.000000,4.000000,,,,0.000000,4.000000,4.000000,4.000000,4.000000,4.000000,4.000000,4.000000,4.000000,4.000000,4.000000,4.000000,4.000000,4.000000,4.000000,100.000000
1602005376.060751,110.000000,0.000000,4123.077148,4121.025879,4135.384766,4128.717773,4126.666504,4140.000000,4145.128418,4152.820313,4158.461426,4142.563965,4155.897461,4154.871582,4175.897461,4161.538574,872.000000,4.000000,,,,0.000000,4.000000,4.000000,4.000000,4.000000,4.000000,4.000000,4.000000,4.000000,4.000000,4.000000,4.000000,4.000000,4.000000,4.000000,100.000000
1602005376.068632,111.000000,0.000000,4120.512695,4117.436035,4121.538574,4123.589844,4119.487305,4139.487305,4135.897461,4147.692383,4153.333496,4117.436035,4148.717773,4141.538574,4167.692383,4148.717773,839.000000,4.000000,,,,0.000000,4.000000,4.000000,4.000000,4.000000,4.000000,4.000000,4.000000,4.000000,4.000000,4.000000,4.000000,4.000000,4.000000,4.000000,100.000000
1602005376.076513,112.000000,0.000000,4117.436035,4118.974121,4111.794922,4122.563965,4118.461426,4138.461426,4134.358887,4145.128418,4155.384766,4127.179688,4138.461426,4136.922852,4155.384766,4145.128418,773.000000,4.000000,,,,0.000000,4.000000,4.000000,4.000000,4.000000,4.000000,4.000000,4.000000,4.000000,4.000000,4.000000,4.000000,4.000000,4.000000,4.000000,100.000000
1602005376.084295,113.000000,0.000000,4112.820313,4120.000000,4113.333496,4123.589844,4123.589844,4137.436035,4136.410156,4143.077148,4154.358887,4141.538574,4138.461426,4137.436035,4151.794922,4140.000000,774.000000,4.000000,,,,0.000000,4.000000,4.000000,4.000000,4.000000,4.000000,4.000000,4.000000,4.000000,4.000000,4.000000,4.000000,4.000000,4.000000,4.000000,100.000000
1602005376.092177,114.000000,0.000000,4116.922852,4120.512695,4120.000000,4125.128418,4124.615234,4137.436035,4135.384766,4141.025879,4142.563965,4138.974121,4150.769043,4138.461426,4156.922852,4137.436035,872.000000,4.000000,,,,0.000000,4.000000,4.000000,4.000000,4.000000,4.000000,4.000000,4.000000,4.000000,4.000000,4.000000,4.000000,4.000000,4.000000,4.000000,100.000000
1602005376.100059,115.000000,0.000000,4122.563965,4121.025879,4119.487305,4124.615234,4121.538574,4138.461426,4137.948730,4141.538574,4144.102539,4138.461426,4153.846191,4138.974121,4157.436035,4139.487305,839.000000,4.000000,,,,0.000000,4.000000,4.000000,4.000000,4.000000,4.000000,4.000000,4.000000,4.000000,4.000000,4.000000,4.000000,4.000000,4.000000,4.000000,100.000000
1602005376.107941,116.000000,0.000000,4120.512695,4121.538574,4117.948730,4124.102539,4122.051270,4140.000000,4146.666504,4144.102539,4156.922852,4143.077148,4150.769043,4138.461426,4158.461426,4145.128418,773.000000,4.000000,,,,0.000000,4.000000,4.000000,4.000000,4.000000,4.000000,4.000000,4.000000,4.000000,4.000000,4.000000,4.000000,4.000000,4.000000,4.000000,100.000000
1602005376.115823,117.000000,0.000000,4121.538574,4124.102539,4122.051270,4125.128418,4124.102539,4141.538574,4153.333496,4143.589844,4153.333496,4138.461426,4154.871582,4138.974121,4166.666504,4151.794922,774.000000,4.000000,,,,0.000000,4.000000,4.000000,4.000000,4.000000,4.000000,4.000000,4.000000,4.000000,4.000000,4.000000,4.000000,4.000000,4.000000,4.000000,100.000000
1602005376.123805,118.000000,0.000000,4123.589844,4123.077148,4123.589844,4125.128418,4123.589844,4140.000000,4153.333496,4141.025879,4142.563965,4134.871582,4154.871582,4140.512695,4169.230957,4155.384766,872.000000,4.000000,,,,0.000000,4.000000,4.000000,4.000000,4.000000,4.000000,4.000000,4.000000,4.000000,4.000000,4.000000,4.000000,4.000000,4.000000,4.000000,100.000000
1602005376.131688,119.000000,0.000000,4123.589844,4121.538574,4127.179688,4123.077148,4122.563965,4137.436035,4149.230957,4143.077148,4142.563965,4142.563965,4154.871582,4147.179688,4169.230957,4156.410156,839.000000,4.000000,,,,0.000000,4.000000,4.000000,4.000000,4.000000,4.000000,4.000000,4.000000,4.000000,4.000000,4.000000,4.000000,4.000000,4.000000,4.000000,100.000000
1602005376.139571,120.000000,0.000000,4129.230957,4123.077148,4135.897461,4121.538574,4121.025879,4135.384766,4143.077148,4142.051270,4141.025879,4145.641113,4160.512695,4152.307617,4171.794922,4162.051270,773.000000,4.000000,,,,0.000000,4.000000,4.000000,4.000000,4.000000,4.000000,4.000000,4.000000,4.000000,4.000000,4.000000,4.000000,4.000000,4.000000,4.000000,100.000000
1602005376.147453,121.000000,0.000000,4136.922852,4125.128418,4141.025879,4124.102539,4121.538574,4130.256348,4137.948730,4136.922852,4135.384766,4140.000000,4157.436035,4146.153809,4172.307617,4166.153809,774.000000,4.000000,,,,0.000000,4.000000,4.000000,4.000000,4.000000,4.000000,4.000000,4.000000,4.000000,4.000000,4.000000,4.000000,4.000000,4.000000,4.000000,100.000000
1602005376.155336,122.000000,0.000000,4140.000000,4126.666504,4141.538574,4126.153809,4123.077148,4121.025879,4131.282227,4134.358887,4135.897461,4129.230957,4151.282227,4138.461426,4168.717773,4158.974121,872.000000,4.000000,,,,0.000000,4.000000,4.000000,4.000000,4.000000,4.000000,4.000000,4.000000,4.000000,4.000000,4.000000,4.000000,4.000000,4.000000,4.000000,100.000000
1602005376.163218,123.000000,0.000000,4136.410156,4127.179688,4142.563965,4125.641113,4118.974121,4113.333496,4126.153809,4136.922852,4138.974121,4121.538574,4145.641113,4139.487305,4158.974121,4149.230957,839.000000,4.000000,,,,0.000000,4.000000,4.000000,4.000000,4.000000,4.000000,4.000000,4.000000,4.000000,4.000000,4.000000,4.000000,4.000000,4.000000,4.000000,100.000000
1602005376.171101,124.000000,0.000000,4130.769043,4124.102539,4141.538574,4124.102539,4111.282227,4115.384766,4128.717773,4138.974121,4137.436035,4122.051270,4140.512695,4140.512695,4150.769043,4147.692383,773.000000,4.000000,,,,0.000000,4.000000,4.000000,4.000000,4.000000,4.000000,4.000000,4.000000,4.000000,4.000000,4.000000,4.000000,4.000000,4.000000,4.000000,100.000000
1602005376.178983,125.000000,0.000000,4134.871582,4123.589844,4142.563965,4124.102539,4113.846191,4123.077148,4137.948730,4139.487305,4135.897461,4128.717773,4144.102539,4140.000000,4151.794922,4155.897461,774.000000,4.000000,,,,0.000000,4.000000,4.000000,4.000000,4.000000,4.000000,4.000000,4.000000,4.000000,4.000000,4.000000,4.000000,4.000000,4.000000,4.000000,100.000000
1602005376.186866,126.000000,0.000000,4141.538574,4125.128418,4145.641113,4124.102539,4121.538574,4124.615234,4141.538574,4140.000000,4141.538574,4145.641113,4155.897461,4142.563965,4153.333496,4160.512695,872.000000,4.000000,,,,0.000000,4.000000,4.000000,4.000000,4.000000,4.000000,4.000000,4.000000,4.000000,4.000000,4.000000,4.000000,4.000000,4.000000,4.000000,100.000000
1602005376.194849,127.000000,0.000000,4137.436035,4124.102539,4141.025879,4122.563965,4120.512695,4126.153809,4147.692383,4142.563965,4145.128418,4154.358887,4158.974121,4141.538574,4153.333496,4153.846191,839.000000,4.000000,,,,0.000000,4.000000,4.000000,4.000000,4.000000,4.000000,4.000000,4.000000,4.000000,4.000000,4.000000,4.000000,4.000000,4.000000,4.000000,100.000000
1602005376.202731,128.000000,0.000000,4125.128418,4118.974121,4130.256348,4121.025879,4118.461426,4136.410156,4153.846191,4144.615234,4142.563965,4147.179688,4148.205078,4132.307617,4150.256348,4144.615234,773.000000,4.000000,,,,0.000000,4.000000,4.000000,4.000000,4.000000,4.000000,4.000000,4.000000,4.000000,4.000000,4.000000,4.000000,4.000000,4.000000,4.000000,100.000000
1602005376.210614,0.000000,0.000000,4108.717773,4110.769043,4120.000000,4116.922852,4121.538574,4135.897461,4147.692383,4141.025879,4137.436035,4129.743652,4135.384766,4123.077148,4138.974121,4137.436035,812.000000,4.000000,,,,0.000000,4.000000,4.000000,4.000000,4.000000,4.000000,4.000000,4.000000,4.000000,4.000000,4.000000,4.000000,4.000000,4.000000,4.000000,100.000000
1602005376.218496,1.000000,0.000000,4105.641113,4106.666504,4119.487305,4115.384766,4123.589844,4124.615234,4137.436035,4136.410156,4132.820313,4112.820313,4133.333496,4127.692383,4132.307617,4131.794922,797.000000,4.000000,,,,0.000000,4.000000,4.000000,4.000000,4.000000,4.000000,4.000000,4.000000,4.000000,4.000000,4.000000,4.000000,4.000000,4.000000,4.000000,100.000000
1602005376.226379,2.000000,0.000000,4120.000000,4111.282227,4130.769043,4121.025879,4124.615234,4123.077148,4137.948730,4137.948730,4136.922852,4116.410156,4143.077148,4139.487305,4140.512695,4134.358887,854.000000,4.000000,,,,0.000000,4.000000,4.000000,4.000000,4.000000,4.000000,4.000000,4.000000,4.000000,4.000000,4.000000,4.000000,4.000000,4.000000,4.000000,100.000000
1602005376.234262,3.000000,0.000000,4121.538574,4110.769043,4140.000000,4122.563965,4119.487305,4120.000000,4138.461426,4138.461426,4142.051270,4129.743652,4147.179688,4136.922852,4142.563965,4137.436035,874.000000,4.000000,,,,0.000000,4.000000,4.000000,4.000000,4.000000,4.000000,4.000000,4.000000,4.000000,4.000000,4.000000,4.000000,4.000000,4.000000,4.000000,100.000000
1602005376.242144,4.000000,0.000000,4107.179688,4106.153809,4136.922852,4115.384766,4107.692383,4110.256348,4130.769043,4135.384766,4130.256348,4116.410156,4133.333496,4128.205078,4130.769043,4128.205078,811.000000,4.000000,,,,0.000000,4.000000,4.000000,4.000000,4.000000,4.000000,4.000000,4.000000,4.000000,4.000000,4.000000,4.000000,4.000000,4.000000,4.000000,100.000000
1602005376.250027,5.000000,0.000000,4110.256348,4105.641113,4133.846191,4110.769043,4104.615234,4106.666504,4130.256348,4133.333496,4121.025879,4093.846191,4126.666504,4131.794922,4127.179688,4121.025879,811.000000,4.000000,,,,0.000000,4.000000,4.000000,4.000000,4.000000,4.000000,4.000000,4.000000,4.000000,4.000000,4.000000,4.000000,4.000000,4.000000,4.000000,100.000000
1602005376.258008,6.000000,0.000000,4124.615234,4106.666504,4144.102539,4113.846191,4107.692383,4110.769043,4140.000000,4138.461426,4132.820313,4109.743652,4134.358887,4140.512695,4134.871582,4128.717773,778.000000,4.000000,,,,0.000000,4.000000,4.000000,4.000000,4.000000,4.000000,4.000000,4.000000,4.000000,4.000000,4.000000,4.000000,4.000000,4.000000,4.000000,100.000000
1602005376.265889,7.000000,0.000000,4125.641113,4111.282227,4153.846191,4118.461426,4107.179688,4118.974121,4140.512695,4147.179688,4143.589844,4140.000000,4139.487305,4144.615234,4140.000000,4136.410156,674.000000,4.000000,,,,0.000000,4.000000,4.000000,4.000000,4.000000,4.000000,4.000000,4.000000,4.000000,4.000000,4.000000,4.000000,4.000000,4.000000,4.000000,100.000000
1602005376.273771,8.000000,0.000000,4123.589844,4118.974121,4153.333496,4123.077148,4112.307617,4123.589844,4134.871582,4151.282227,4143.589844,4144.615234,4141.025879,4144.615234,4143.077148,4137.948730,936.000000,4.000000,,,,0.000000,4.000000,4.000000,4.000000,4.000000,4.000000,4.000000,4.000000,4.000000,4.000000,4.000000,4.000000,4.000000,4.000000,4.000000,100.000000
1602005376.281552,9.000000,0.000000,4126.666504,4121.538574,4146.153809,4123.589844,4123.589844,4123.077148,4136.922852,4146.666504,4152.307617,4144.102539,4143.589844,4141.025879,4144.615234,4140.000000,844.000000,4.000000,,,,0.000000,4.000000,4.000000,4.000000,4.000000,4.000000,4.000000,4.000000,4.000000,4.000000,4.000000,4.000000,4.000000,4.000000,4.000000,100.000000
1602005376.289535,10.000000,0.000000,4123.589844,4119.487305,4137.436035,4121.025879,4122.563965,4123.077148,4135.897461,4139.487305,4153.846191,4150.256348,4141.025879,4136.922852,4142.563965,4140.512695,872.000000,4.000000,,,,0.000000,4.000000,4.000000,4.000000,4.000000,4.000000,4.000000,4.000000,4.000000,4.000000,4.000000,4.000000,4.000000,4.000000,4.000000,100.000000
1602005376.297417,11.000000,0.000000,4124.615234,4122.051270,4142.563965,4126.666504,4120.512695,4125.641113,4126.666504,4137.948730,4141.025879,4149.230957,4138.974121,4138.974121,4145.641113,4144.102539,816.000000,4.000000,,,,0.000000,4.000000,4.000000,4.000000,4.000000,4.000000,4.000000,4.000000,4.000000,4.000000,4.000000,4.000000,4.000000,4.000000,4.000000,100.000000
1602005376.305300,12.000000,0.000000,4137.436035,4127.179688,4156.410156,4134.871582,4132.307617,4126.666504,4122.051270,4137.948730,4138.461426,4135.384766,4144.615234,4142.563965,4152.820313,4148.205078,1058.000000,4.000000,,,,0.000000,4.000000,4.000000,4.000000,4.000000,4.000000,4.000000,4.000000,4.000000,4.000000,4.000000,4.000000,4.000000,4.000000,4.000000,100.000000
1602005376.313182,13.000000,0.000000,4134.871582,4125.641113,4150.769043,4129.743652,4135.384766,4128.205078,4125.128418,4134.871582,4133.333496,4121.538574,4135.897461,4137.436035,4144.102539,4144.615234,774.000000,4.000000,,,,0.000000,4.000000,4.000000,4.000000,4.000000,4.000000,4.000000,4.000000,4.000000,4.000000,4.000000,4.000000,4.000000,4.000000,4.000000,100.000000
1602005376.321065,14.000000,0.000000,4121.538574,4120.000000,4137.436035,4122.563965,4126.666504,4130.769043,4133.333496,4134.871582,4122.563965,4122.563965,4122.563965,4130.769043,4134.358887,4139.487305,872.000000,4.000000,,,,0.000000,4.000000,4.000000,4.000000,4.000000,4.000000,4.000000,4.000000,4.000000,4.000000,4.000000,4.000000,4.000000,4.000000,4.000000,100.000000
1602005376.328948,15.000000,0.000000,4127.692383,4118.461426,4146.153809,4124.615234,4124.102539,4129.743652,4143.077148,4138.461426,4128.717773,4122.051270,4130.256348,4134.358887,4136.922852,4137.436035,816.000000,4.000000,,,,0.000000,4.000000,4.000000,4.000000,4.000000,4.000000,4.000000,4.000000,4.000000,4.000000,4.000000,4.000000,4.000000,4.000000,4.000000,100.000000
1602005376.336830,16.000000,0.000000,4136.922852,4122.563965,4152.820313,4126.666504,4125.128418,4127.692383,4146.666504,4141.538574,4138.974121,4109.743652,4139.487305,4140.512695,4138.461426,4138.974121,0.000000,4.000000,,,,0.000000,4.000000,4.000000,4.000000,4.000000,4.000000,4.000000,4.000000,4.000000,4.000000,4.000000,4.000000,4.000000,4.000000,4.000000,100.000000
1602005376.344713,17.000000,0.000000,4126.666504,4123.077148,4142.563965,4126.153809,4123.589844,4126.153809,4143.589844,4139.487305,4140.000000,4118.461426,4138.974121,4134.358887,4138.461426,4142.563965,0.000000,4.000000,,,,0.000000,4.000000,4.000000,4.000000,4.000000,4.000000,4.000000,4.000000,4.000000,4.000000,4.000000,4.000000,4.000000,4.000000,4.000000,100.000000
1602005376.352696,18.000000,0.000000,4115.897461,4117.436035,4136.410156,4127.692383,4122.051270,4122.563965,4140.000000,4136.922852,4138.974121,4139.487305,4136.410156,4124.102539,4138.461426,4134.358887,0.000000,4.000000,,,,0.000000,4.000000,4.000000,4.000000,4.000000,4.000000,4.000000,4.000000,4.000000,4.000000,4.000000,4.000000,4.000000,4.000000,4.000000,100.000000
1602005376.360578,19.000000,0.000000,4117.948730,4113.333496,4134.871582,4124.615234,4120.512695,4118.974121,4139.487305,4137.948730,4130.256348,4128.205078,4130.769043,4120.000000,4128.205078,4119.487305,0.000000,4.000000,,,,0.000000,4.000000,4.000000,4.000000,4.000000,4.000000,4.000000,4.000000,4.000000,4.000000,4.000000,4.000000,4.000000,4.000000,4.000000,100.000000
1602005376.368461,20.000000,0.000000,4121.025879,4116.410156,4127.692383,4120.512695,4120.000000,4121.538574,4136.410156,4135.384766,4120.000000,4111.794922,4120.000000,4113.846191,4120.000000,4118.974121,0.000000,4.000000,,,,0.000000,4.000000,4.000000,4.000000,4.000000,4.000000,4.000000,4.000000,4.000000,4.000000,4.000000,4.000000,4.000000,4.000000,4.000000,100.000000
1602005376.376344,21.000000,0.000000,4113.846191,4121.538574,4121.538574,4120.512695,4122.563965,4124.615234,4127.179688,4124.615234,4123.589844,4123.077148,4120.000000,4104.102539,4122.051270,4120.512695,0.000000,4.000000,,,,0.000000,4.000000,4.000000,4.000000,4.000000,4.000000,4.000000,4.000000,4.000000,4.000000,4.000000,4.000000,4.000000,4.000000,4.000000,100.000000
1602005376.384227,22.000000,0.000000,4107.179688,4120.000000,4120.512695,4122.051270,4124.102539,4127.179688,4118.461426,4120.512695,4122.563965,4126.153809,4126.666504,4101.538574,4123.077148,4113.333496,0.000000,4.000000,,,,0.000000,4.000000,4.000000,4.000000,4.000000,4.000000,4.000000,4.000000,4.000000,4.000000,4.000000,4.000000,4.000000,4.000000,4.000000,100.000000
1602005376.392110,23.000000,0.000000,4117.436035,4121.538574,4121.538574,4123.589844,4126.153809,4134.871582,4120.512695,4125.641113,4115.384766,4114.871582,4125.128418,4107.179688,4120.512695,4110.769043,0.000000,4.000000,,,,0.000000,4.000000,4.000000,4.000000,4.000000,4.000000,4.000000,4.000000,4.000000,4.000000,4.000000,4.000000,4.000000,4.000000,4.000000,100.000000
1602005376.399993,24.000000,0.000000,4123.589844,4124.102539,4123.077148,4123.589844,4126.153809,4137.436035,4121.538574,4123.589844,4119.487305,4113.846191,4117.948730,4108.205078,4119.487305,4110.256348,0.000000,4.000000,,,,0.000000,4.000000,4.000000,4.000000,4.000000,4.000000,4.000000,4.000000,4.000000,4.000000,4.000000,4.000000,4.000000,4.000000,4.000000,100.000000
1602005376.407875,25.000000,0.000000,4112.307617,4120.512695,4123.077148,4122.051270,4124.615234,4133.846191,4119.487305,4119.487305,4125.128418,4101.025879,4120.000000,4107.179688,4121.538574,4107.692383,0.000000,4.000000,,,,0.000000,4.000000,4.000000,4.000000,4.000000,4.000000,4.000000,4.000000,4.000000,4.000000,4.000000,4.000000,4.000000,4.000000,4.000000,100.000000
1602005376.415758,26.000000,0.000000,4109.230957,4113.846191,4122.563965,4121.538574,4129.230957,4138.461426,4128.717773,4124.615234,4125.641113,4083.589844,4123.589844,4110.256348,4121.025879,4108.205078,0.000000,4.000000,,,,0.000000,4.000000,4.000000,4.000000,4.000000,4.000000,4.000000,4.000000,4.000000,4.000000,4.000000,4.000000,4.000000,4.000000,4.000000,100.000000
1602005376.423740,27.000000,0.000000,4109.743652,4109.230957,4121.538574,4116.922852,4127.692383,4140.000000,4136.922852,4126.666504,4121.538574,4096.410156,4111.794922,4110.256348,4109.230957,4103.589844,0.000000,4.000000,,,,0.000000,4.000000,4.000000,4.000000,4.000000,4.000000,4.000000,4.000000,4.000000,4.000000,4.000000,4.000000,4.000000,4.000000,4.000000,100.000000
1602005376.431622,28.000000,0.000000,4109.230957,4106.153809,4129.230957,4116.922852,4120.512695,4127.179688,4131.282227,4122.051270,4115.897461,4120.000000,4107.179688,4112.307617,4102.051270,4105.641113,0.000000,4.000000,,,,0.000000,4.000000,4.000000,4.000000,4.000000,4.000000,4.000000,4.000000,4.000000,4.000000,4.000000,4.000000,4.000000,4.000000,4.000000,100.000000
1602005376.439504,29.000000,0.000000,4116.922852,4107.692383,4139.487305,4122.563965,4120.000000,4116.922852,4125.128418,4123.589844,4127.179688,4125.641113,4125.641113,4123.589844,4115.897461,4121.538574,0.000000,4.000000,,,,0.000000,4.000000,4.000000,4.000000,4.000000,4.000000,4.000000,4.000000,4.000000,4.000000,4.000000,4.000000,4.000000,4.000000,4.000000,100.000000
1602005376.447387,30.000000,0.000000,4125.128418,4115.384766,4138.461426,4123.077148,4122.563965,4118.461426,4125.128418,4126.666504,4137.948730,4124.615234,4131.794922,4127.692383,4126.153809,4127.179688,0.000000,4.000000,,,,0.000000,4.000000,4.000000,4.000000,4.000000,4.000000,4.000000,4.000000,4.000000,4.000000,4.000000,4.000000,4.000000,4.000000,4.000000,100.000000
1602005376.455269,31.000000,0.000000,4122.051270,4121.538574,4134.358887,4119.487305,4121.025879,4120.512695,4123.589844,4121.538574,4127.179688,4125.641113,4123.077148,4121.538574,4121.538574,4121.025879,0.000000,4.000000,,,,0.000000,4.000000,4.000000,4.000000,4.000000,4.000000,4.000000,4.000000,4.000000,4.000000,4.000000,4.000000,4.000000,4.000000,4.000000,100.000000
1602005376.463151,32.000000,0.000000,4122.563965,4122.051270,4136.922852,4123.077148,4122.563965,4122.563965,4121.025879,4121.538574,4125.641113,4122.563965,4132.307617,4128.717773,4127.692383,4121.025879,0.000000,4.000000,,,,0.000000,4.000000,4.000000,4.000000,4.000000,4.000000,4.000000,4.000000,4.000000,4.000000,4.000000,4.000000,4.000000,4.000000,4.000000,100.000000
1602005376.471133,33.000000,0.000000,4132.820313,4123.077148,4141.025879,4132.307617,4129.230957,4130.769043,4127.179688,4133.846191,4141.025879,4124.615234,4154.871582,4142.563965,4147.179688,4130.256348,0.000000,4.000000,,,,0.000000,4.000000,4.000000,4.000000,4.000000,4.000000,4.000000,4.000000,4.000000,4.000000,4.000000,4.000000,4.000000,4.000000,4.000000,100.000000
1602005376.479015,34.000000,0.000000,4136.410156,4127.692383,4142.563965,4135.897461,4136.410156,4138.974121,4135.384766,4144.102539,4143.077148,4140.000000,4159.487305,4143.589844,4155.384766,4142.051270,0.000000,4.000000,,,,0.000000,4.000000,4.000000,4.000000,4.000000,4.000000,4.000000,4.000000,4.000000,4.000000,4.000000,4.000000,4.000000,4.000000,4.000000,100.000000
1602005376.486897,35.000000,0.000000,4127.179688,4126.666504,4140.000000,4128.717773,4140.000000,4138.974121,4137.948730,4139.487305,4137.948730,4145.128418,4146.153809,4141.025879,4145.641113,4143.077148,0.000000,4.000000,,,,0.000000,4.000000,4.000000,4.000000,4.000000,4.000000,4.000000,4.000000,4.000000,4.000000,4.000000,4.000000,4.000000,4.000000,4.000000,100.000000
1602005376.494779,36.000000,0.000000,4119.487305,4120.512695,4133.846191,4120.000000,4130.769043,4134.358887,4136.410156,4128.717773,4134.358887,4123.589844,4134.871582,4138.974121,4134.358887,4134.358887,0.000000,4.000000,,,,0.000000,4.000000,4.000000,4.000000,4.000000,4.000000,4.000000,4.000000,4.000000,4.000000,4.000000,4.000000,4.000000,4.000000,4.000000,100.000000
1602005376.502661,37.000000,0.000000,4121.538574,4120.000000,4135.897461,4122.563965,4122.051270,4133.333496,4140.000000,4128.717773,4129.743652,4115.897461,4140.000000,4137.436035,4135.384766,4134.358887,0.000000,4.000000,,,,0.000000,4.000000,4.000000,4.000000,4.000000,4.000000,4.000000,4.000000,4.000000,4.000000,4.000000,4.000000,4.000000,4.000000,4.000000,100.000000
1602005376.510543,38.000000,0.000000,4124.615234,4123.077148,4138.974121,4127.692383,4126.666504,4137.436035,4143.589844,4133.333496,4132.307617,4137.436035,4149.230957,4138.461426,4141.025879,4142.563965,0.000000,4.000000,,,,0.000000,4.000000,4.000000,4.000000,4.000000,4.000000,4.000000,4.000000,4.000000,4.000000,4.000000,4.000000,4.000000,4.000000,4.000000,100.000000
1602005376.518326,39.000000,0.000000,4125.641113,4124.102539,4135.897461,4126.666504,4131.282227,4133.333496,4138.974121,4131.282227,4138.974121,4135.384766,4143.589844,4131.282227,4139.487305,4141.538574,0.000000,4.000000,,,,0.000000,4.000000,4.000000,4.000000,4.000000,4.000000,4.000000,4.000000,4.000000,4.000000,4.000000,4.000000,4.000000,4.000000,4.000000,100.000000
1602005376.526208,40.000000,0.000000,4129.230957,4126.153809,4136.922852,4130.256348,4130.256348,4123.077148,4137.436035,4133.846191,4140.000000,4121.025879,4142.051270,4125.641113,4137.948730,4137.436035,0.000000,4.000000,,,,0.000000,4.000000,4.000000,4.000000,4.000000,4.000000,4.000000,4.000000,4.000000,4.000000,4.000000,4.000000,4.000000,4.000000,4.000000,100.000000
1602005376.534090,41.000000,0.000000,4135.384766,4130.256348,4142.563965,4137.948730,4135.384766,4127.692383,4141.538574,4142.051270,4141.538574,4145.128418,4150.769043,4135.897461,4142.563965,4138.461426,0.000000,4.000000,,,,0.000000,4.000000,4.000000,4.000000,4.000000,4.000000,4.000000,4.000000,4.000000,4.000000,4.000000,4.000000,4.000000,4.000000,4.000000,100.000000
1602005376.541972,42.000000,0.000000,4133.846191,4127.179688,4142.563965,4134.871582,4135.897461,4134.358887,4142.051270,4136.410156,4137.948730,4164.102539,4145.128418,4140.000000,4141.538574,4142.563965,0.000000,4.000000,,,,0.000000,4.000000,4.000000,4.000000,4.000000,4.000000,4.000000,4.000000,4.000000,4.000000,4.000000,4.000000,4.000000,4.000000,4.000000,100.000000
1602005376.549854,43.000000,0.000000,4122.563965,4120.000000,4133.846191,4122.563965,4123.589844,4125.641113,4137.436035,4123.589844,4125.128418,4137.436035,4130.769043,4129.230957,4130.256348,4141.538574,0.000000,4.000000,,,,0.000000,4.000000,4.000000,4.000000,4.000000,4.000000,4.000000,4.000000,4.000000,4.000000,4.000000,4.000000,4.000000,4.000000,4.000000,100.000000
1602005376.557736,44.000000,0.000000,4116.410156,4120.000000,4126.666504,4117.436035,4122.051270,4119.487305,4133.846191,4125.128418,4120.000000,4115.384766,4133.333496,4125.128418,4124.615234,4129.743652,0.000000,4.000000,,,,0.000000,4.000000,4.000000,4.000000,4.000000,4.000000,4.000000,4.000000,4.000000,4.000000,4.000000,4.000000,4.000000,4.000000,4.000000,100.000000
1602005376.565718,45.000000,0.000000,4122.051270,4123.077148,4127.179688,4122.051270,4130.256348,4121.025879,4135.897461,4129.230957,4127.179688,4125.128418,4138.974121,4128.205078,4126.666504,4122.563965,0.000000,4.000000,,,,0.000000,4.000000,4.000000,4.000000,4.000000,4.000000,4.000000,4.000000,4.000000,4.000000,4.000000,4.000000,4.000000,4.000000,4.000000,100.000000
1602005376.573601,46.000000,0.000000,4123.589844,4121.538574,4128.205078,4123.589844,4127.179688,4116.410156,4137.948730,4125.128418,4120.512695,4124.102539,4128.717773,4124.102539,4123.077148,4122.563965,0.000000,4.000000,,,,0.000000,4.000000,4.000000,4.000000,4.000000,4.000000,4.000000,4.000000,4.000000,4.000000,4.000000,4.000000,4.000000,4.000000,4.000000,100.000000
1602005376.581483,47.000000,0.000000,4117.948730,4117.948730,4125.641113,4121.025879,4122.563965,4113.333496,4136.410156,4121.025879,4104.615234,4086.666748,4121.538574,4125.128418,4120.512695,4121.538574,0.000000,4.000000,,,,0.000000,4.000000,4.000000,4.000000,4.000000,4.000000,4.000000,4.000000,4.000000,4.000000,4.000000,4.000000,4.000000,4.000000,4.000000,100.000000
1602005376.589366,48.000000,0.000000,4120.512695,4119.487305,4126.666504,4120.512695,4125.641113,4122.051270,4136.922852,4123.077148,4111.282227,4062.051270,4124.102539,4135.897461,4121.025879,4122.051270,0.000000,4.000000,,,,0.000000,4.000000,4.000000,4.000000,4.000000,4.000000,4.000000,4.000000,4.000000,4.000000,4.000000,4.000000,4.000000,4.000000,4.000000,100.000000
1602005376.597248,49.000000,0.000000,4123.077148,4121.538574,4128.717773,4118.974121,4124.615234,4124.615234,4137.948730,4124.102539,4123.077148,4093.333252,4120.512695,4140.000000,4114.358887,4124.102539,0.000000,4.000000,,,,0.000000,4.000000,4.000000,4.000000,4.000000,4.000000,4.000000,4.000000,4.000000,4.000000,4.000000,4.000000,4.000000,4.000000,4.000000,100.000000
1602005376.605130,50.000000,0.000000,4115.384766,4120.000000,4124.615234,4111.794922,4124.615234,4122.051270,4129.230957,4120.512695,4113.333496,4120.000000,4113.846191,4134.358887,4111.282227,4121.025879,0.000000,4.000000,,,,0.000000,4.000000,4.000000,4.000000,4.000000,4.000000,4.000000,4.000000,4.000000,4.000000,4.000000,4.000000,4.000000,4.000000,4.000000,100.000000
1602005376.613013,51.000000,0.000000,4110.769043,4120.512695,4122.051270,4107.179688,4132.307617,4124.102539,4116.410156,4120.000000,4109.230957,4104.102539,4120.512695,4133.846191,4119.487305,4122.051270,0.000000,4.000000,,,,0.000000,4.000000,4.000000,4.000000,4.000000,4.000000,4.000000,4.000000,4.000000,4.000000,4.000000,4.000000,4.000000,4.000000,4.000000,100.000000
1602005376.620895,52.000000,0.000000,4113.846191,4121.538574,4126.153809,4114.358887,4133.333496,4128.205078,4124.102539,4123.077148,4117.948730,4104.102539,4131.282227,4140.000000,4124.102539,4128.717773,0.000000,4.000000,,,,0.000000,4.000000,4.000000,4.000000,4.000000,4.000000,4.000000,4.000000,4.000000,4.000000,4.000000,4.000000,4.000000,4.000000,4.000000,100.000000
1602005376.628678,53.000000,0.000000,4111.794922,4120.512695,4125.641113,4122.051270,4128.717773,4128.717773,4136.922852,4124.615234,4122.051270,4124.615234,4127.692383,4142.563965,4122.051270,4128.717773,0.000000,4.000000,,,,0.000000,4.000000,4.000000,4.000000,4.000000,4.000000,4.000000,4.000000,4.000000,4.000000,4.000000,4.000000,4.000000,4.000000,4.000000,100.000000
1602005376.636560,54.000000,0.000000,4105.641113,4121.025879,4120.000000,4118.974121,4128.205078,4124.102539,4133.846191,4123.589844,4116.922852,4111.794922,4123.589844,4139.487305,4119.487305,4124.615234,0.000000,4.000000,,,,0.000000,4.000000,4.000000,4.000000,4.000000,4.000000,4.000000,4.000000,4.000000,4.000000,4.000000,4.000000,4.000000,4.000000,4.000000,100.000000
1602005376.644443,55.000000,0.000000,4106.153809,4123.077148,4118.461426,4114.871582,4127.179688,4122.563965,4128.717773,4122.051270,4115.384766,4083.076904,4128.717773,4136.922852,4122.051270,4123.077148,0.000000,4.000000,,,,0.000000,4.000000,4.000000,4.000000,4.000000,4.000000,4.000000,4.000000,4.000000,4.000000,4.000000,4.000000,4.000000,4.000000,4.000000,100.000000
1602005376.652325,56.000000,0.000000,4111.282227,4122.563965,4122.563965,4120.000000,4123.077148,4121.538574,4133.846191,4123.077148,4118.461426,4092.820557,4130.256348,4135.897461,4131.794922,4123.077148,0.000000,4.000000,,,,0.000000,4.000000,4.000000,4.000000,4.000000,4.000000,4.000000,4.000000,4.000000,4.000000,4.000000,4.000000,4.000000,4.000000,4.000000,100.000000
1602005376.660208,57.000000,0.000000,4111.282227,4122.051270,4125.641113,4122.051270,4121.538574,4117.948730,4137.948730,4132.307617,4125.128418,4125.128418,4126.153809,4140.000000,4136.410156,4125.641113,0.000000,4.000000,,,,0.000000,4.000000,4.000000,4.000000,4.000000,4.000000,4.000000,4.000000,4.000000,4.000000,4.000000,4.000000,4.000000,4.000000,4.000000,100.000000
1602005376.668091,58.000000,0.000000,4110.769043,4119.487305,4124.102539,4115.384766,4120.000000,4116.922852,4133.846191,4138.461426,4124.102539,4133.846191,4125.641113,4143.589844,4128.717773,4124.615234,0.000000,4.000000,,,,0.000000,4.000000,4.000000,4.000000,4.000000,4.000000,4.000000,4.000000,4.000000,4.000000,4.000000,4.000000,4.000000,4.000000,4.000000,100.000000
1602005376.675973,59.000000,0.000000,4115.897461,4117.948730,4121.538574,4111.282227,4118.974121,4120.000000,4125.128418,4130.256348,4115.384766,4120.000000,4126.666504,4138.974121,4122.563965,4116.410156,0.000000,4.000000,,,,0.000000,4.000000,4.000000,4.000000,4.000000,4.000000,4.000000,4.000000,4.000000,4.000000,4.000000,4.000000,4.000000,4.000000,4.000000,100.000000
1602005376.683856,60.000000,0.000000,4121.538574,4119.487305,4121.025879,4113.333496,4122.563965,4122.563965,4117.436035,4120.512695,4110.256348,4111.794922,4122.563965,4140.000000,4122.051270,4112.820313,0.000000,4.000000,,,,0.000000,4.000000,4.000000,4.000000,4.000000,4.000000,4.000000,4.000000,4.000000,4.000000,4.000000,4.000000,4.000000,4.000000,4.000000,100.000000
1602005376.691738,61.000000,0.000000,4121.538574,4120.512695,4122.051270,4117.948730,4125.128418,4122.051270,4115.897461,4120.512695,4102.051270,4101.025879,4118.974121,4163.077148,4124.102539,4122.563965,0.000000,4.000000,,,,0.000000,4.000000,4.000000,4.000000,4.000000,4.000000,4.000000,4.000000,4.000000,4.000000,4.000000,4.000000,4.000000,4.000000,4.000000,100.000000
1602005376.699721,62.000000,0.000000,4125.128418,4128.205078,4124.102539,4122.563965,4130.256348,4122.051270,4118.461426,4120.512695,4102.051270,4080.000000,4128.717773,4194.871582,4131.794922,4136.410156,0.000000,4.000000,,,,0.000000,4.000000,4.000000,4.000000,4.000000,4.000000,4.000000,4.000000,4.000000,4.000000,4.000000,4.000000,4.000000,4.000000,4.000000,100.000000
1602005376.707604,63.000000,0.000000,4132.820313,4141.025879,4128.205078,4124.615234,4137.948730,4123.589844,4126.153809,4121.025879,4116.922852,4097.436035,4141.538574,4207.179688,4142.051270,4144.102539,0.000000,4.000000,,,,0.000000,4.000000,4.000000,4.000000,4.000000,4.000000,4.000000,4.000000,4.000000,4.000000,4.000000,4.000000,4.000000,4.000000,4.000000,100.000000
1602005376.715487,64.000000,0.000000,4127.179688,4133.846191,4124.615234,4122.563965,4133.333496,4123.589844,4133.333496,4119.487305,4115.897461,4132.820313,4133.333496,4201.025879,4137.436035,4135.897461,812.000000,4.000000,,,,0.000000,4.000000,4.000000,4.000000,4.000000,4.000000,4.000000,4.000000,4.000000,4.000000,4.000000,4.000000,4.000000,4.000000,4.000000,100.000000
1602005376.723370,65.000000,0.000000,4117.948730,4122.051270,4120.000000,4119.487305,4123.589844,4117.948730,4128.717773,4114.871582,4098.974121,4112.307617,4121.538574,4198.974121,4127.692383,4123.589844,797.000000,4.000000,,,,0.000000,4.000000,4.000000,4.000000,4.000000,4.000000,4.000000,4.000000,4.000000,4.000000,4.000000,4.000000,4.000000,4.000000,4.000000,100.000000
1602005376.731252,66.000000,0.000000,4129.230957,4131.794922,4129.230957,4123.077148,4126.153809,4110.256348,4125.128418,4116.922852,4098.974121,4088.205078,4132.820313,4201.538574,4132.307617,4128.717773,854.000000,4.000000,,,,0.000000,4.000000,4.000000,4.000000,4.000000,4.000000,4.000000,4.000000,4.000000,4.000000,4.000000,4.000000,4.000000,4.000000,4.000000,100.000000
1602005376.739135,67.000000,0.000000,4141.025879,4138.461426,4135.897461,4126.666504,4130.256348,4111.282227,4128.205078,4123.077148,4111.794922,4116.410156,4144.102539,4200.000000,4140.000000,4139.487305,874.000000,4.000000,,,,0.000000,4.000000,4.000000,4.000000,4.000000,4.000000,4.000000,4.000000,4.000000,4.000000,4.000000,4.000000,4.000000,4.000000,4.000000,100.000000
1602005376.747018,68.000000,0.000000,4136.922852,4130.769043,4132.307617,4123.077148,4126.153809,4115.897461,4126.666504,4126.153809,4108.205078,4122.051270,4138.974121,4205.128418,4142.051270,4138.974121,811.000000,4.000000,,,,0.000000,4.000000,4.000000,4.000000,4.000000,4.000000,4.000000,4.000000,4.000000,4.000000,4.000000,4.000000,4.000000,4.000000,4.000000,100.000000
1602005376.754901,69.000000,0.000000,4135.897461,4132.307617,4135.384766,4122.051270,4128.205078,4120.000000,4124.615234,4130.256348,4104.102539,4096.410156,4143.077148,4216.922852,4149.743652,4139.487305,811.000000,4.000000,,,,0.000000,4.000000,4.000000,4.000000,4.000000,4.000000,4.000000,4.000000,4.000000,4.000000,4.000000,4.000000,4.000000,4.000000,4.000000,100.000000
1602005376.762784,70.000000,0.000000,4143.589844,4140.000000,4144.615234,4127.179688,4136.922852,4122.051270,4132.820313,4135.384766,4115.897461,4113.333496,4151.282227,4220.512695,4154.358887,4146.153809,778.000000,4.000000,,,,0.000000,4.000000,4.000000,4.000000,4.000000,4.000000,4.000000,4.000000,4.000000,4.000000,4.000000,4.000000,4.000000,4.000000,4.000000,100.000000
1602005376.770766,71.000000,0.000000,4144.615234,4138.974121,4148.205078,4127.179688,4137.436035,4122.051270,4138.974121,4135.384766,4126.153809,4138.461426,4144.102539,4215.897461,4145.641113,4146.666504,660.000000,4.000000,,,,0.000000,4.000000,4.000000,4.000000,4.000000,4.000000,4.000000,4.000000,4.000000,4.000000,4.000000,4.000000,4.000000,4.000000,4.000000,100.000000
1602005376.778648,72.000000,0.000000,4134.358887,4130.256348,4144.102539,4122.563965,4132.307617,4124.102539,4134.358887,4132.307617,4124.615234,4124.102539,4137.436035,4213.846191,4136.410156,4137.436035,969.000000,4.000000,,,,0.000000,4.000000,4.000000,4.000000,4.000000,4.000000,4.000000,4.000000,4.000000,4.000000,4.000000,4.000000,4.000000,4.000000,4.000000,100.000000
1602005376.786531,73.000000,0.000000,4122.563965,4124.615234,4131.282227,4122.051270,4126.153809,4126.666504,4128.717773,4126.153809,4114.358887,4107.692383,4134.358887,4201.538574,4129.743652,4126.666504,844.000000,4.000000,,,,0.000000,4.000000,4.000000,4.000000,4.000000,4.000000,4.000000,4.000000,4.000000,4.000000,4.000000,4.000000,4.000000,4.000000,4.000000,100.000000
1602005376.794413,74.000000,0.000000,4117.948730,4129.743652,4121.025879,4124.102539,4125.641113,4122.563965,4125.641113,4120.512695,4109.743652,4104.102539,4129.230957,4184.615234,4126.153809,4123.589844,872.000000,4.000000,,,,0.000000,4.000000,4.000000,4.000000,4.000000,4.000000,4.000000,4.000000,4.000000,4.000000,4.000000,4.000000,4.000000,4.000000,4.000000,100.000000
1602005376.802295,75.000000,0.000000,4123.077148,4140.512695,4125.641113,4126.153809,4132.307617,4120.512695,4122.563965,4120.512695,4117.948730,4091.281982,4132.307617,4188.205078,4134.871582,4128.717773,822.000000,4.000000,,,,0.000000,4.000000,4.000000,4.000000,4.000000,4.000000,4.000000,4.000000,4.000000,4.000000,4.000000,4.000000,4.000000,4.000000,4.000000,100.000000
1602005376.810178,76.000000,0.000000,4124.615234,4140.512695,4128.205078,4126.153809,4133.846191,4126.666504,4125.641113,4121.538574,4121.538574,4088.205078,4137.436035,4198.974121,4142.051270,4128.717773,943.000000,4.000000,,,,0.000000,4.000000,4.000000,4.000000,4.000000,4.000000,4.000000,4.000000,4.000000,4.000000,4.000000,4.000000,4.000000,4.000000,4.000000,100.000000
1602005376.818060,77.000000,0.000000,4118.974121,4132.820313,4123.077148,4123.589844,4127.179688,4132.307617,4134.871582,4120.000000,4112.307617,4115.384766,4133.846191,4198.461426,4139.487305,4125.128418,774.000000,4.000000,,,,0.000000,4.000000,4.000000,4.000000,4.000000,4.000000,4.000000,4.000000,4.000000,4.000000,4.000000,4.000000,4.000000,4.000000,4.000000,100.000000
1602005376.825842,78.000000,0.000000,4117.436035,4128.717773,4121.025879,4120.000000,4123.077148,4133.333496,4138.461426,4121.538574,4107.692383,4141.538574,4133.333496,4191.794922,4135.384766,4121.025879,872.000000,4.000000,,,,0.000000,4.000000,4.000000,4.000000,4.000000,4.000000,4.000000,4.000000,4.000000,4.000000,4.000000,4.000000,4.000000,4.000000,4.000000,100.000000
1602005376.833725,79.000000,0.000000,4122.563965,4132.820313,4123.589844,4119.487305,4126.153809,4134.358887,4138.461426,4130.256348,4112.820313,4132.820313,4137.436035,4191.794922,4134.358887,4119.487305,822.000000,4.000000,,,,0.000000,4.000000,4.000000,4.000000,4.000000,4.000000,4.000000,4.000000,4.000000,4.000000,4.000000,4.000000,4.000000,4.000000,4.000000,100.000000
1602005376.841607,80.000000,0.000000,4128.717773,4140.512695,4127.179688,4127.179688,4128.717773,4137.948730,4141.538574,4137.948730,4114.358887,4121.025879,4136.922852,4195.384766,4139.487305,4132.820313,943.000000,4.000000,,,,0.000000,4.000000,4.000000,4.000000,4.000000,4.000000,4.000000,4.000000,4.000000,4.000000,4.000000,4.000000,4.000000,4.000000,4.000000,100.000000
1602005376.849489,81.000000,0.000000,4128.717773,4140.000000,4124.102539,4130.256348,4126.666504,4137.948730,4142.051270,4138.461426,4109.743652,4129.743652,4140.000000,4190.769043,4142.051270,4138.461426,774.000000,4.000000,,,,0.000000,4.000000,4.000000,4.000000,4.000000,4.000000,4.000000,4.000000,4.000000,4.000000,4.000000,4.000000,4.000000,4.000000,4.000000,100.000000
1602005376.857371,82.000000,0.000000,4129.743652,4137.948730,4119.487305,4125.128418,4124.102539,4131.794922,4141.025879,4137.948730,4114.871582,4134.871582,4146.666504,4181.538574,4140.512695,4129.743652,872.000000,4.000000,,,,0.000000,4.000000,4.000000,4.000000,4.000000,4.000000,4.000000,4.000000,4.000000,4.000000,4.000000,4.000000,4.000000,4.000000,4.000000,100.000000
1602005376.865253,83.000000,0.000000,4138.974121,4141.025879,4128.205078,4125.128418,4124.102539,4126.666504,4143.077148,4141.025879,4125.641113,4116.922852,4146.153809,4184.102539,4140.512695,4130.769043,822.000000,4.000000,,,,0.000000,4.000000,4.000000,4.000000,4.000000,4.000000,4.000000,4.000000,4.000000,4.000000,4.000000,4.000000,4.000000,4.000000,4.000000,100.000000
1602005376.873135,84.000000,0.000000,4143.589844,4133.846191,4141.538574,4127.179688,4124.102539,4126.666504,4140.512695,4135.897461,4122.563965,4092.307617,4136.922852,4191.794922,4133.846191,4134.358887,943.000000,4.000000,,,,0.000000,4.000000,4.000000,4.000000,4.000000,4.000000,4.000000,4.000000,4.000000,4.000000,4.000000,4.000000,4.000000,4.000000,4.000000,100.000000
1602005376.880917,85.000000,0.000000,4133.333496,4120.000000,4137.948730,4122.051270,4115.897461,4126.666504,4134.871582,4123.589844,4107.692383,4092.820557,4128.205078,4185.128418,4118.461426,4124.615234,774.000000,4.000000,,,,0.000000,4.000000,4.000000,4.000000,4.000000,4.000000,4.000000,4.000000,4.000000,4.000000,4.000000,4.000000,4.000000,4.000000,4.000000,100.000000
1602005376.888798,86.000000,0.000000,4122.051270,4117.948730,4124.102539,4117.436035,4112.820313,4124.615234,4130.256348,4119.487305,4103.589844,4109.230957,4123.589844,4174.358887,4112.820313,4112.820313,872.000000,4.000000,,,,0.000000,4.000000,4.000000,4.000000,4.000000,4.000000,4.000000,4.000000,4.000000,4.000000,4.000000,4.000000,4.000000,4.000000,4.000000,100.000000
1602005376.896679,87.000000,0.000000,4117.948730,4122.051270,4115.384766,4118.974121,4117.948730,4125.128418,4126.666504,4122.563965,4113.846191,4124.615234,4121.025879,4171.794922,4119.487305,4108.205078,822.000000,4.000000,,,,0.000000,4.000000,4.000000,4.000000,4.000000,4.000000,4.000000,4.000000,4.000000,4.000000,4.000000,4.000000,4.000000,4.000000,4.000000,100.000000
1602005376.904461,88.000000,0.000000,4114.358887,4121.025879,4111.794922,4121.538574,4118.974121,4128.205078,4127.179688,4122.563965,4116.410156,4125.128418,4127.692383,4170.256348,4118.974121,4107.692383,943.000000,4.000000,,,,0.000000,4.000000,4.000000,4.000000,4.000000,4.000000,4.000000,4.000000,4.000000,4.000000,4.000000,4.000000,4.000000,4.000000,4.000000,100.000000
1602005376.912342,89.000000,0.000000,4117.436035,4125.128418,4117.436035,4123.077148,4116.922852,4132.820313,4133.846191,4122.051270,4109.230957,4107.692383,4134.871582,4168.717773,4118.974121,4115.897461,774.000000,4.000000,,,,0.000000,4.000000,4.000000,4.000000,4.000000,4.000000,4.000000,4.000000,4.000000,4.000000,4.000000,4.000000,4.000000,4.000000,4.000000,100.000000
1602005376.920123,90.000000,0.000000,4130.769043,4135.384766,4130.769043,4129.743652,4120.000000,4135.384766,4139.487305,4130.769043,4115.384766,4106.153809,4137.436035,4172.307617,4131.794922,4130.769043,872.000000,4.000000,,,,0.000000,4.000000,4.000000,4.000000,4.000000,4.000000,4.000000,4.000000,4.000000,4.000000,4.000000,4.000000,4.000000,4.000000,4.000000,100.000000
1602005376.927904,91.000000,0.000000,4143.589844,4142.051270,4142.051270,4137.436035,4126.666504,4137.948730,4148.205078,4148.205078,4133.846191,4138.974121,4150.769043,4188.205078,4146.666504,4142.563965,822.000000,4.000000,,,,0.000000,4.000000,4.000000,4.000000,4.000000,4.000000,4.000000,4.000000,4.000000,4.000000,4.000000,4.000000,4.000000,4.000000,4.000000,100.000000
1602005376.935786,92.000000,0.000000,4142.563965,4138.974121,4142.051270,4134.358887,4124.615234,4136.922852,4153.333496,4158.461426,4132.820313,4152.307617,4156.410156,4200.000000,4147.179688,4144.615234,943.000000,4.000000,,,,0.000000,4.000000,4.000000,4.000000,4.000000,4.000000,4.000000,4.000000,4.000000,4.000000,4.000000,4.000000,4.000000,4.000000,4.000000,100.000000
1602005376.943667,93.000000,0.000000,4130.769043,4128.717773,4133.846191,4122.051270,4116.410156,4125.641113,4145.641113,4149.743652,4118.461426,4116.410156,4135.897461,4188.717773,4131.794922,4130.769043,774.000000,4.000000,,,,0.000000,4.000000,4.000000,4.000000,4.000000,4.000000,4.000000,4.000000,4.000000,4.000000,4.000000,4.000000,4.000000,4.000000,4.000000,100.000000
1602005376.951449,94.000000,0.000000,4125.128418,4122.563965,4126.153809,4119.487305,4115.897461,4120.000000,4136.410156,4139.487305,4121.538574,4101.025879,4126.153809,4168.205078,4124.102539,4120.000000,872.000000,4.000000,,,,0.000000,4.000000,4.000000,4.000000,4.000000,4.000000,4.000000,4.000000,4.000000,4.000000,4.000000,4.000000,4.000000,4.000000,4.000000,100.000000
1602005376.959330,95.000000,0.000000,4124.615234,4123.077148,4117.436035,4122.051270,4122.051270,4127.179688,4137.948730,4135.897461,4127.179688,4124.615234,4135.384766,4157.948730,4126.153809,4122.563965,822.000000,4.000000,,,,0.000000,4.000000,4.000000,4.000000,4.000000,4.000000,4.000000,4.000000,4.000000,4.000000,4.000000,4.000000,4.000000,4.000000,4.000000,100.000000
1602005376.967212,96.000000,0.000000,4113.846191,4122.051270,4106.153809,4118.974121,4121.538574,4128.205078,4136.922852,4123.589844,4112.820313,4124.102539,4127.692383,4151.794922,4115.897461,4122.051270,943.000000,4.000000,,,,0.000000,4.000000,4.000000,4.000000,4.000000,4.000000,4.000000,4.000000,4.000000,4.000000,4.000000,4.000000,4.000000,4.000000,4.000000,100.000000
1602005376.974993,97.000000,0.000000,4105.128418,4120.000000,4102.563965,4118.974121,4118.461426,4125.641113,4127.692383,4109.230957,4097.948730,4102.563965,4117.948730,4147.179688,4107.692383,4117.436035,774.000000,4.000000,,,,0.000000,4.000000,4.000000,4.000000,4.000000,4.000000,4.000000,4.000000,4.000000,4.000000,4.000000,4.000000,4.000000,4.000000,4.000000,100.000000
1602005376.982874,98.000000,0.000000,4109.743652,4120.000000,4104.615234,4120.000000,4121.025879,4131.282227,4124.615234,4108.717773,4098.461426,4106.153809,4124.615234,4151.282227,4113.333496,4120.000000,872.000000,4.000000,,,,0.000000,4.000000,4.000000,4.000000,4.000000,4.000000,4.000000,4.000000,4.000000,4.000000,4.000000,4.000000,4.000000,4.000000,4.000000,100.000000
1602005376.990856,99.000000,0.000000,4112.307617,4115.384766,4106.153809,4112.307617,4116.410156,4131.282227,4124.102539,4110.769043,4096.922852,4114.871582,4122.051270,4150.769043,4112.307617,4120.000000,822.000000,4.000000,,,,0.000000,4.000000,4.000000,4.000000,4.000000,4.000000,4.000000,4.000000,4.000000,4.000000,4.000000,4.000000,4.000000,4.000000,4.000000,100.000000
1602005376.998837,100.000000,0.000000,4106.666504,4107.692383,4106.666504,4106.153809,4106.666504,4128.205078,4121.025879,4110.769043,4090.256348,4097.436035,4114.871582,4141.538574,4104.102539,4113.333496,943.000000,4.000000,,,,0.000000,4.000000,4.000000,4.000000,4.000000,4.000000,4.000000,4.000000,4.000000,4.000000,4.000000,4.000000,4.000000,4.000000,4.000000,100.000000
1602005377.006719,101.000000,0.000000,4105.641113,4105.128418,4106.153809,4106.153809,4105.128418,4124.102539,4121.025879,4116.922852,4091.281982,4093.846191,4118.461426,4137.948730,4104.615234,4106.153809,774.000000,4.000000,,,,0.000000,4.000000,4.000000,4.000000,4.000000,4.000000,4.000000,4.000000,4.000000,4.000000,4.000000,4.000000,4.000000,4.000000,4.000000,100.000000
1602005377.014600,102.000000,0.000000,4109.743652,4110.769043,4110.769043,4108.205078,4105.128418,4116.410156,4127.692383,4124.102539,4102.051270,4109.743652,4122.563965,4141.025879,4105.128418,4104.615234,872.000000,4.000000,,,,0.000000,4.000000,4.000000,4.000000,4.000000,4.000000,4.000000,4.000000,4.000000,4.000000,4.000000,4.000000,4.000000,4.000000,4.000000,100.000000
1602005377.022482,103.000000,0.000000,4121.025879,4120.512695,4120.512695,4113.846191,4106.666504,4118.461426,4138.461426,4126.666504,4111.282227,4097.948730,4123.077148,4145.641113,4105.641113,4113.333496,822.000000,4.000000,,,,0.000000,4.000000,4.000000,4.000000,4.000000,4.000000,4.000000,4.000000,4.000000,4.000000,4.000000,4.000000,4.000000,4.000000,4.000000,100.000000
1602005377.030265,104.000000,0.000000,4134.871582,4127.692383,4126.153809,4122.563965,4111.282227,4122.051270,4140.000000,4128.205078,4108.717773,4084.615479,4125.641113,4150.769043,4115.384766,4124.615234,943.000000,4.000000,,,,0.000000,4.000000,4.000000,4.000000,4.000000,4.000000,4.000000,4.000000,4.000000,4.000000,4.000000,4.000000,4.000000,4.000000,4.000000,100.000000
1602005377.038147,105.000000,0.000000,4138.974121,4132.820313,4126.153809,4125.128418,4112.820313,4113.333496,4130.769043,4125.128418,4105.128418,4107.179688,4127.692383,4151.794922,4122.051270,4124.615234,774.000000,4.000000,,,,0.000000,4.000000,4.000000,4.000000,4.000000,4.000000,4.000000,4.000000,4.000000,4.000000,4.000000,4.000000,4.000000,4.000000,4.000000,100.000000
1602005377.046030,106.000000,0.000000,4138.974121,4136.410156,4127.692383,4124.102539,4115.384766,4111.282227,4123.589844,4123.077148,4109.743652,4133.333496,4126.666504,4152.307617,4122.051270,4126.153809,872.000000,4.000000,,,,0.000000,4.000000,4.000000,4.000000,4.000000,4.000000,4.000000,4.000000,4.000000,4.000000,4.000000,4.000000,4.000000,4.000000,4.000000,100.000000
1602005377.053912,107.000000,0.000000,4138.974121,4136.922852,4126.666504,4123.589844,4120.000000,4120.512695,4125.641113,4123.589844,4110.256348,4131.282227,4128.717773,4161.025879,4125.128418,4137.436035,822.000000,4.000000,,,,0.000000,4.000000,4.000000,4.000000,4.000000,4.000000,4.000000,4.000000,4.000000,4.000000,4.000000,4.000000,4.000000,4.000000,4.000000,100.000000
1602005377.061795,108.000000,0.000000,4141.025879,4135.384766,4124.615234,4124.102539,4121.538574,4127.692383,4131.794922,4116.410156,4102.563965,4118.461426,4132.307617,4171.794922,4130.256348,4144.102539,943.000000,4.000000,,,,0.000000,4.000000,4.000000,4.000000,4.000000,4.000000,4.000000,4.000000,4.000000,4.000000,4.000000,4.000000,4.000000,4.000000,4.000000,100.000000
1602005377.069678,109.000000,0.000000,4138.974121,4130.256348,4124.615234,4124.102539,4120.000000,4134.871582,4134.871582,4108.205078,4103.077148,4118.974121,4129.230957,4168.205078,4128.205078,4137.436035,774.000000,4.000000,,,,0.000000,4.000000,4.000000,4.000000,4.000000,4.000000,4.000000,4.000000,4.000000,4.000000,4.000000,4.000000,4.000000,4.000000,4.000000,100.000000
1602005377.077560,110.000000,0.000000,4125.641113,4122.563965,4122.563965,4115.897461,4118.461426,4137.948730,4134.871582,4112.307617,4107.179688,4122.563965,4125.641113,4156.922852,4118.974121,4128.717773,872.000000,4.000000,,,,0.000000,4.000000,4.000000,4.000000,4.000000,4.000000,4.000000,4.000000,4.000000,4.000000,4.000000,4.000000,4.000000,4.000000,4.000000,100.000000
1602005377.085443,111.000000,0.000000,4125.641113,4121.538574,4120.512695,4109.230957,4118.461426,4136.410156,4137.436035,4122.051270,4108.205078,4115.897461,4127.692383,4153.846191,4120.000000,4131.794922,822.000000,4.000000,,,,0.000000,4.000000,4.000000,4.000000,4.000000,4.000000,4.000000,4.000000,4.000000,4.000000,4.000000,4.000000,4.000000,4.000000,4.000000,100.000000
1602005377.093425,112.000000,0.000000,4135.897461,4124.615234,4121.538574,4115.897461,4121.538574,4142.051270,4140.512695,4124.102539,4113.333496,4107.179688,4127.692383,4157.436035,4123.589844,4138.974121,943.000000,4.000000,,,,0.000000,4.000000,4.000000,4.000000,4.000000,4.000000,4.000000,4.000000,4.000000,4.000000,4.000000,4.000000,4.000000,4.000000,4.000000,100.000000
1602005377.101307,113.000000,0.000000,4127.692383,4123.589844,4120.512695,4117.436035,4120.512695,4142.051270,4138.974121,4122.051270,4115.897461,4105.641113,4124.102539,4153.846191,4114.871582,4129.743652,774.000000,4.000000,,,,0.000000,4.000000,4.000000,4.000000,4.000000,4.000000,4.000000,4.000000,4.000000,4.000000,4.000000,4.000000,4.000000,4.000000,4.000000,100.000000
1602005377.109189,114.000000,0.000000,4117.948730,4122.051270,4118.974121,4112.307617,4116.410156,4130.256348,4136.922852,4124.102539,4115.384766,4113.333496,4123.077148,4149.743652,4110.256348,4122.563965,872.000000,4.000000,,,,0.000000,4.000000,4.000000,4.000000,4.000000,4.000000,4.000000,4.000000,4.000000,4.000000,4.000000,4.000000,4.000000,4.000000,4.000000,100.000000
1602005377.117071,115.000000,0.000000,4130.256348,4125.128418,4122.051270,4118.461426,4120.000000,4128.205078,4139.487305,4129.230957,4120.512695,4130.769043,4124.615234,4151.794922,4120.512695,4135.384766,822.000000,4.000000,,,,0.000000,4.000000,4.000000,4.000000,4.000000,4.000000,4.000000,4.000000,4.000000,4.000000,4.000000,4.000000,4.000000,4.000000,4.000000,100.000000
1602005377.124953,116.000000,0.000000,4140.000000,4128.717773,4126.153809,4126.666504,4124.615234,4136.922852,4141.025879,4128.717773,4122.051270,4137.436035,4128.717773,4153.333496,4126.153809,4142.051270,943.000000,4.000000,,,,0.000000,4.000000,4.000000,4.000000,4.000000,4.000000,4.000000,4.000000,4.000000,4.000000,4.000000,4.000000,4.000000,4.000000,4.000000,100.000000
1602005377.132835,117.000000,0.000000,4134.871582,4130.769043,4127.179688,4123.077148,4125.128418,4141.025879,4143.077148,4124.615234,4116.410156,4123.589844,4136.410156,4151.794922,4128.717773,4136.922852,774.000000,4.000000,,,,0.000000,4.000000,4.000000,4.000000,4.000000,4.000000,4.000000,4.000000,4.000000,4.000000,4.000000,4.000000,4.000000,4.000000,4.000000,100.000000
1602005377.140617,118.000000,0.000000,4133.333496,4128.717773,4124.102539,4120.512695,4123.589844,4136.410156,4141.538574,4122.051270,4114.871582,4116.410156,4138.974121,4150.769043,4135.897461,4138.461426,872.000000,4.000000,,,,0.000000,4.000000,4.000000,4.000000,4.000000,4.000000,4.000000,4.000000,4.000000,4.000000,4.000000,4.000000,4.000000,4.000000,4.000000,100.000000
1602005377.148498,119.000000,0.000000,4136.410156,4126.666504,4123.077148,4122.563965,4122.051270,4132.820313,4136.410156,4119.487305,4118.974121,4134.871582,4134.358887,4150.769043,4138.461426,4142.563965,822.000000,4.000000,,,,0.000000,4.000000,4.000000,4.000000,4.000000,4.000000,4.000000,4.000000,4.000000,4.000000,4.000000,4.000000,4.000000,4.000000,4.000000,100.000000
1602005377.156380,120.000000,0.000000,4138.974121,4129.743652,4129.743652,4122.051270,4123.589844,4137.436035,4137.948730,4122.051270,4129.230957,4148.717773,4135.897461,4153.333496,4140.000000,4137.948730,943.000000,4.000000,,,,0.000000,4.000000,4.000000,4.000000,4.000000,4.000000,4.000000,4.000000,4.000000,4.000000,4.000000,4.000000,4.000000,4.000000,4.000000,100.000000
1602005377.164261,121.000000,0.000000,4137.948730,4132.820313,4136.922852,4124.615234,4125.641113,4136.410156,4139.487305,4122.563965,4135.384766,4136.922852,4142.051270,4155.384766,4141.538574,4134.358887,774.000000,4.000000,,,,0.000000,4.000000,4.000000,4.000000,4.000000,4.000000,4.000000,4.000000,4.000000,4.000000,4.000000,4.000000,4.000000,4.000000,4.000000,100.000000
1602005377.172043,122.000000,0.000000,4138.974121,4135.384766,4136.410156,4127.179688,4123.077148,4128.717773,4133.333496,4119.487305,4129.743652,4131.282227,4142.051270,4154.358887,4138.461426,4144.615234,872.000000,4.000000,,,,0.000000,4.000000,4.000000,4.000000,4.000000,4.000000,4.000000,4.000000,4.000000,4.000000,4.000000,4.000000,4.000000,4.000000,4.000000,100.000000
1602005377.179925,123.000000,0.000000,4135.897461,4124.615234,4137.948730,4123.077148,4122.563965,4135.384766,4134.358887,4128.717773,4133.846191,4153.333496,4141.025879,4156.922852,4135.384766,4152.307617,822.000000,4.000000,,,,0.000000,4.000000,4.000000,4.000000,4.000000,4.000000,4.000000,4.000000,4.000000,4.000000,4.000000,4.000000,4.000000,4.000000,4.000000,100.000000
1602005377.187807,124.000000,0.000000,4123.589844,4113.333496,4141.025879,4119.487305,4127.692383,4143.589844,4142.051270,4138.974121,4141.538574,4161.025879,4141.025879,4160.512695,4127.692383,4136.922852,943.000000,4.000000,,,,0.000000,4.000000,4.000000,4.000000,4.000000,4.000000,4.000000,4.000000,4.000000,4.000000,4.000000,4.000000,4.000000,4.000000,4.000000,100.000000
1602005377.195689,125.000000,0.000000,4135.384766,4129.743652,4142.563965,4128.205078,4129.230957,4131.282227,4138.461426,4127.692383,4127.179688,4128.205078,4131.794922,4156.922852,4117.436035,4130.769043,774.000000,4.000000,,,,0.000000,4.000000,4.000000,4.000000,4.000000,4.000000,4.000000,4.000000,4.000000,4.000000,4.000000,4.000000,4.000000,4.000000,4.000000,100.000000
1602005377.203571,126.000000,0.000000,4175.897461,4154.871582,4150.256348,4137.948730,4126.666504,4117.948730,4127.692383,4112.307617,4103.589844,4106.666504,4124.615234,4153.333496,4115.897461,4154.871582,872.000000,4.000000,,,,0.000000,4.000000,4.000000,4.000000,4.000000,4.000000,4.000000,4.000000,4.000000,4.000000,4.000000,4.000000,4.000000,4.000000,4.000000,100.000000
1602005377.211453,127.000000,0.000000,4211.794922,4163.077148,4156.410156,4144.102539,4124.102539,4117.948730,4124.615234,4109.230957,4096.410156,4109.230957,4126.153809,4156.410156,4112.307617,4171.794922,822.000000,4.000000,,,,0.000000,4.000000,4.000000,4.000000,4.000000,4.000000,4.000000,4.000000,4.000000,4.000000,4.000000,4.000000,4.000000,4.000000,4.000000,100.000000
1602005377.219235,128.000000,0.000000,4243.077148,4171.794922,4156.922852,4150.769043,4121.538574,4117.436035,4124.102539,4108.717773,4101.025879,4114.358887,4126.153809,4159.487305,4098.974121,4176.922852,943.000000,4.000000,,,,0.000000,4.000000,4.000000,4.000000,4.000000,4.000000,4.000000,4.000000,4.000000,4.000000,4.000000,4.000000,4.000000,4.000000,4.000000,100.000000
1602005377.227117,0.000000,0.000000,4278.974121,4192.307617,4164.615234,4155.384766,4125.641113,4116.922852,4121.538574,4106.666504,4105.641113,4122.563965,4122.563965,4157.436035,4093.333252,4195.384766,812.000000,4.000000,,,,0.000000,4.000000,4.000000,4.000000,4.000000,4.000000,4.000000,4.000000,4.000000,4.000000,4.000000,4.000000,4.000000,4.000000,4.000000,100.000000
1602005377.235000,1.000000,0.000000,4302.051270,4201.025879,4171.282227,4159.487305,4130.256348,4121.538574,4121.538574,4110.769043,4106.153809,4126.666504,4121.538574,4157.948730,4091.794922,4212.820313,798.000000,4.000000,,,,0.000000,4.000000,4.000000,4.000000,4.000000,4.000000,4.000000,4.000000,4.000000,4.000000,4.000000,4.000000,4.000000,4.000000,4.000000,100.000000
1602005377.242882,2.000000,0.000000,4317.948730,4200.512695,4168.205078,4166.666504,4127.179688,4123.589844,4121.025879,4117.436035,4106.666504,4118.974121,4121.538574,4165.641113,4091.281982,4216.410156,854.000000,4.000000,,,,0.000000,4.000000,4.000000,4.000000,4.000000,4.000000,4.000000,4.000000,4.000000,4.000000,4.000000,4.000000,4.000000,4.000000,4.000000,100.000000
1602005377.250764,3.000000,0.000000,4339.487305,4202.563965,4172.820313,4170.256348,4122.051270,4123.589844,4120.000000,4121.538574,4109.230957,4105.128418,4122.563965,4170.769043,4092.820557,4224.102539,873.000000,4.000000,,,,0.000000,4.000000,4.000000,4.000000,4.000000,4.000000,4.000000,4.000000,4.000000,4.000000,4.000000,4.000000,4.000000,4.000000,4.000000,100.000000
1602005377.258647,4.000000,0.000000,4349.743652,4204.102539,4182.051270,4169.743652,4122.563965,4130.769043,4128.205078,4121.538574,4107.692383,4100.512695,4124.102539,4171.282227,4083.076904,4231.794922,811.000000,4.000000,,,,0.000000,4.000000,4.000000,4.000000,4.000000,4.000000,4.000000,4.000000,4.000000,4.000000,4.000000,4.000000,4.000000,4.000000,4.000000,100.000000
1602005377.266529,5.000000,0.000000,4343.077148,4197.948730,4177.436035,4166.153809,4123.589844,4138.461426,4139.487305,4122.563965,4106.153809,4110.769043,4115.384766,4170.769043,4072.307617,4224.615234,811.000000,4.000000,,,,0.000000,4.000000,4.000000,4.000000,4.000000,4.000000,4.000000,4.000000,4.000000,4.000000,4.000000,4.000000,4.000000,4.000000,4.000000,100.000000
