Timestamp,EEG.Counter,EEG.Interpolated,EEG.AF3,EEG.F7,EEG.F3,EEG.FC5,EEG.T7,EEG.P7,EEG.O1,EEG.O2,EEG.P8,EEG.T8,EEG.FC6,EEG.F4,EEG.F8,EEG.AF4,EEG.RawCq,EEG.Battery,MarkerIndex,MarkerType,MarkerValueInt,EEG.MarkerHardware,CQ.AF3,CQ.F7,CQ.F3,CQ.FC5,CQ.T7,CQ.P7,CQ.O1,CQ.O2,CQ.P8,CQ.T8,CQ.FC6,CQ.F4,CQ.F8,CQ.AF4,CQ.Overall
1602005395.022421,65.000000,0.000000,4136.410156,4137.436035,4121.538574,4137.436035,4185.128418,4129.230957,4121.025879,4107.179688,4084.615479,4071.281982,4101.538574,4107.692383,4071.794922,4078.461426,797.000000,4.000000,,,,0.000000,4.000000,4.000000,4.000000,4.000000,4.000000,4.000000,4.000000,4.000000,4.000000,4.000000,4.000000,4.000000,4.000000,4.000000,100.000000
1602005395.030204,66.000000,0.000000,4138.461426,4140.512695,4118.461426,4137.436035,4189.230957,4132.820313,4119.487305,4112.307617,4104.615234,4104.102539,4105.128418,4115.384766,4077.948730,4082.051270,855.000000,4.000000,,,,0.000000,4.000000,4.000000,4.000000,4.000000,4.000000,4.000000,4.000000,4.000000,4.000000,4.000000,4.000000,4.000000,4.000000,4.000000,100.000000
1602005395.038086,67.000000,0.000000,4149.743652,4149.743652,4118.461426,4142.563965,4200.512695,4129.743652,4126.666504,4124.615234,4123.077148,4144.615234,4114.358887,4128.205078,4096.410156,4099.487305,873.000000,4.000000,,,,0.000000,4.000000,4.000000,4.000000,4.000000,4.000000,4.000000,4.000000,4.000000,4.000000,4.000000,4.000000,4.000000,4.000000,4.000000,100.000000
1602005395.045969,68.000000,0.000000,4157.436035,4157.948730,4117.948730,4146.153809,4198.974121,4132.820313,4135.384766,4135.384766,4131.282227,4138.974121,4127.692383,4126.666504,4110.256348,4110.256348,804.000000,4.000000,,,,0.000000,4.000000,4.000000,4.000000,4.000000,4.000000,4.000000,4.000000,4.000000,4.000000,4.000000,4.000000,4.000000,4.000000,4.000000,100.000000
1602005395.053851,69.000000,0.000000,4155.384766,4151.282227,4117.436035,4142.563965,4186.153809,4135.897461,4136.410156,4138.974121,4138.461426,4127.179688,4128.717773,4122.051270,4110.769043,4112.307617,818.000000,4.000000,,,,0.000000,4.000000,4.000000,4.000000,4.000000,4.000000,4.000000,4.000000,4.000000,4.000000,4.000000,4.000000,4.000000,4.000000,4.000000,100.000000
1602005395.061733,70.000000,0.000000,4152.820313,4138.974121,4129.743652,4138.461426,4181.538574,4125.641113,4134.871582,4139.487305,4138.974121,4141.025879,4122.051270,4134.871582,4109.743652,4118.461426,772.000000,4.000000,,,,0.000000,4.000000,4.000000,4.000000,4.000000,4.000000,4.000000,4.000000,4.000000,4.000000,4.000000,4.000000,4.000000,4.000000,4.000000,100.000000
1602005395.069616,71.000000,0.000000,4154.358887,4136.922852,4144.615234,4137.436035,4184.615234,4121.538574,4137.436035,4133.846191,4127.692383,4147.692383,4123.077148,4145.128418,4109.743652,4123.589844,686.000000,4.000000,,,,0.000000,4.000000,4.000000,4.000000,4.000000,4.000000,4.000000,4.000000,4.000000,4.000000,4.000000,4.000000,4.000000,4.000000,4.000000,100.000000
1602005395.077498,72.000000,0.000000,4154.358887,4138.461426,4146.666504,4140.000000,4189.230957,4129.743652,4134.871582,4125.641113,4118.974121,4126.153809,4126.666504,4142.051270,4108.205078,4123.077148,788.000000,4.000000,,,,0.000000,4.000000,4.000000,4.000000,4.000000,4.000000,4.000000,4.000000,4.000000,4.000000,4.000000,4.000000,4.000000,4.000000,4.000000,100.000000
1602005395.085380,73.000000,0.000000,4148.717773,4138.461426,4143.077148,4144.615234,4194.871582,4126.666504,4124.615234,4121.025879,4115.897461,4115.384766,4125.641113,4138.461426,4108.717773,4123.589844,843.000000,4.000000,,,,0.000000,4.000000,4.000000,4.000000,4.000000,4.000000,4.000000,4.000000,4.000000,4.000000,4.000000,4.000000,4.000000,4.000000,4.000000,100.000000
1602005395.093263,74.000000,0.000000,4142.051270,4141.025879,4137.436035,4145.641113,4192.307617,4117.948730,4118.461426,4113.333496,4104.102539,4132.820313,4117.948730,4134.358887,4104.615234,4118.974121,879.000000,4.000000,,,,0.000000,4.000000,4.000000,4.000000,4.000000,4.000000,4.000000,4.000000,4.000000,4.000000,4.000000,4.000000,4.000000,4.000000,4.000000,100.000000
1602005395.101044,75.000000,0.000000,4138.461426,4141.025879,4126.666504,4140.000000,4184.615234,4120.512695,4118.974121,4110.256348,4095.384521,4129.230957,4107.692383,4123.077148,4090.769287,4108.205078,838.000000,4.000000,,,,0.000000,4.000000,4.000000,4.000000,4.000000,4.000000,4.000000,4.000000,4.000000,4.000000,4.000000,4.000000,4.000000,4.000000,4.000000,100.000000
1602005395.108926,76.000000,0.000000,4134.871582,4136.410156,4117.948730,4134.871582,4185.641113,4125.128418,4124.615234,4118.461426,4105.128418,4098.974121,4103.077148,4117.436035,4082.051270,4102.051270,781.000000,4.000000,,,,0.000000,4.000000,4.000000,4.000000,4.000000,4.000000,4.000000,4.000000,4.000000,4.000000,4.000000,4.000000,4.000000,4.000000,4.000000,100.000000
1602005395.116807,77.000000,0.000000,4136.410156,4142.051270,4122.051270,4140.000000,4187.692383,4123.077148,4132.820313,4128.717773,4121.025879,4104.615234,4104.615234,4125.641113,4090.769287,4102.563965,775.000000,4.000000,,,,0.000000,4.000000,4.000000,4.000000,4.000000,4.000000,4.000000,4.000000,4.000000,4.000000,4.000000,4.000000,4.000000,4.000000,4.000000,100.000000
1602005395.124789,78.000000,0.000000,4150.256348,4155.384766,4133.333496,4150.256348,4188.717773,4120.000000,4136.922852,4133.846191,4132.307617,4144.615234,4118.461426,4135.384766,4110.256348,4115.384766,879.000000,4.000000,,,,0.000000,4.000000,4.000000,4.000000,4.000000,4.000000,4.000000,4.000000,4.000000,4.000000,4.000000,4.000000,4.000000,4.000000,4.000000,100.000000
1602005395.132672,79.000000,0.000000,4160.000000,4158.461426,4140.000000,4155.384766,4193.846191,4127.692383,4136.922852,4139.487305,4140.000000,4161.538574,4138.974121,4145.128418,4124.102539,4126.666504,838.000000,4.000000,,,,0.000000,4.000000,4.000000,4.000000,4.000000,4.000000,4.000000,4.000000,4.000000,4.000000,4.000000,4.000000,4.000000,4.000000,4.000000,100.000000
1602005395.140554,80.000000,0.000000,4153.846191,4149.230957,4141.025879,4149.743652,4190.769043,4136.922852,4138.461426,4142.563965,4144.102539,4152.307617,4143.077148,4153.846191,4127.692383,4123.589844,781.000000,4.000000,,,,0.000000,4.000000,4.000000,4.000000,4.000000,4.000000,4.000000,4.000000,4.000000,4.000000,4.000000,4.000000,4.000000,4.000000,4.000000,100.000000
1602005395.148436,81.000000,0.000000,4151.794922,4142.051270,4148.205078,4142.051270,4182.051270,4136.922852,4139.487305,4138.974121,4139.487305,4151.282227,4136.410156,4156.922852,4125.128418,4125.641113,775.000000,4.000000,,,,0.000000,4.000000,4.000000,4.000000,4.000000,4.000000,4.000000,4.000000,4.000000,4.000000,4.000000,4.000000,4.000000,4.000000,4.000000,100.000000
1602005395.156319,82.000000,0.000000,4152.820313,4140.000000,4154.358887,4141.025879,4182.563965,4134.871582,4138.461426,4136.410156,4133.846191,4160.512695,4136.922852,4157.436035,4124.102539,4140.512695,879.000000,4.000000,,,,0.000000,4.000000,4.000000,4.000000,4.000000,4.000000,4.000000,4.000000,4.000000,4.000000,4.000000,4.000000,4.000000,4.000000,4.000000,100.000000
1602005395.164201,83.000000,0.000000,4145.128418,4138.974121,4145.641113,4139.487305,4187.179688,4135.897461,4137.948730,4138.461426,4136.410156,4152.820313,4133.333496,4158.974121,4124.615234,4140.000000,838.000000,4.000000,,,,0.000000,4.000000,4.000000,4.000000,4.000000,4.000000,4.000000,4.000000,4.000000,4.000000,4.000000,4.000000,4.000000,4.000000,4.000000,100.000000
1602005395.172083,84.000000,0.000000,4134.871582,4137.436035,4132.820313,4136.922852,4182.563965,4137.436035,4137.436035,4138.974121,4140.512695,4138.974121,4126.153809,4155.897461,4118.974121,4127.179688,781.000000,4.000000,,,,0.000000,4.000000,4.000000,4.000000,4.000000,4.000000,4.000000,4.000000,4.000000,4.000000,4.000000,4.000000,4.000000,4.000000,4.000000,100.000000
1602005395.179966,85.000000,0.000000,4128.717773,4134.871582,4124.615234,4134.358887,4173.846191,4133.333496,4135.897461,4131.282227,4134.871582,4141.025879,4119.487305,4136.410156,4104.615234,4114.358887,775.000000,4.000000,,,,0.000000,4.000000,4.000000,4.000000,4.000000,4.000000,4.000000,4.000000,4.000000,4.000000,4.000000,4.000000,4.000000,4.000000,4.000000,100.000000
1602005395.187748,86.000000,0.000000,4125.641113,4135.384766,4112.307617,4131.282227,4172.307617,4123.077148,4137.948730,4124.102539,4127.179688,4143.077148,4110.256348,4112.820313,4092.307617,4099.487305,879.000000,4.000000,,,,0.000000,4.000000,4.000000,4.000000,4.000000,4.000000,4.000000,4.000000,4.000000,4.000000,4.000000,4.000000,4.000000,4.000000,4.000000,100.000000
1602005395.195631,87.000000,0.000000,4127.179688,4136.922852,4109.230957,4132.820313,4174.358887,4120.512695,4134.871582,4120.512695,4120.512695,4134.358887,4103.077148,4099.487305,4085.641113,4088.718018,838.000000,4.000000,,,,0.000000,4.000000,4.000000,4.000000,4.000000,4.000000,4.000000,4.000000,4.000000,4.000000,4.000000,4.000000,4.000000,4.000000,4.000000,100.000000
1602005395.203514,88.000000,0.000000,4131.794922,4133.846191,4118.461426,4136.922852,4172.820313,4125.641113,4124.615234,4114.871582,4111.794922,4128.717773,4096.922852,4095.384521,4077.948730,4082.564209,781.000000,4.000000,,,,0.000000,4.000000,4.000000,4.000000,4.000000,4.000000,4.000000,4.000000,4.000000,4.000000,4.000000,4.000000,4.000000,4.000000,4.000000,100.000000
1602005395.211396,89.000000,0.000000,4132.820313,4131.282227,4121.025879,4136.410156,4170.769043,4124.615234,4117.948730,4113.333496,4105.128418,4117.436035,4094.871826,4096.410156,4075.897461,4080.000000,775.000000,4.000000,,,,0.000000,4.000000,4.000000,4.000000,4.000000,4.000000,4.000000,4.000000,4.000000,4.000000,4.000000,4.000000,4.000000,4.000000,4.000000,100.000000
1602005395.219279,90.000000,0.000000,4134.871582,4135.384766,4123.077148,4135.897461,4173.333496,4120.512695,4119.487305,4115.897461,4097.436035,4096.922852,4099.487305,4106.666504,4085.641113,4091.794922,879.000000,4.000000,,,,0.000000,4.000000,4.000000,4.000000,4.000000,4.000000,4.000000,4.000000,4.000000,4.000000,4.000000,4.000000,4.000000,4.000000,4.000000,100.000000
1602005395.227161,91.000000,0.000000,4142.051270,4137.436035,4133.846191,4137.948730,4171.794922,4122.051270,4121.538574,4115.384766,4090.256348,4099.487305,4108.717773,4119.487305,4094.358887,4111.282227,838.000000,4.000000,,,,0.000000,4.000000,4.000000,4.000000,4.000000,4.000000,4.000000,4.000000,4.000000,4.000000,4.000000,4.000000,4.000000,4.000000,4.000000,100.000000
1602005395.235044,92.000000,0.000000,4149.743652,4134.871582,4142.051270,4137.948730,4167.692383,4122.563965,4123.077148,4116.922852,4098.974121,4123.589844,4123.589844,4130.256348,4102.563965,4125.641113,781.000000,4.000000,,,,0.000000,4.000000,4.000000,4.000000,4.000000,4.000000,4.000000,4.000000,4.000000,4.000000,4.000000,4.000000,4.000000,4.000000,4.000000,100.000000
1602005395.242927,93.000000,0.000000,4160.000000,4135.897461,4150.769043,4136.922852,4170.256348,4125.128418,4125.128418,4130.256348,4125.128418,4144.102539,4138.461426,4149.743652,4119.487305,4144.102539,775.000000,4.000000,,,,0.000000,4.000000,4.000000,4.000000,4.000000,4.000000,4.000000,4.000000,4.000000,4.000000,4.000000,4.000000,4.000000,4.000000,4.000000,100.000000
1602005395.250809,94.000000,0.000000,4172.307617,4140.000000,4166.666504,4138.974121,4166.153809,4127.179688,4128.205078,4140.512695,4146.153809,4159.487305,4141.538574,4168.717773,4135.384766,4158.974121,879.000000,4.000000,,,,0.000000,4.000000,4.000000,4.000000,4.000000,4.000000,4.000000,4.000000,4.000000,4.000000,4.000000,4.000000,4.000000,4.000000,4.000000,100.000000
1602005395.258791,95.000000,0.000000,4183.589844,4146.666504,4173.333496,4145.128418,4154.871582,4123.589844,4134.358887,4138.974121,4153.333496,4170.769043,4144.615234,4173.333496,4141.538574,4160.000000,838.000000,4.000000,,,,0.000000,4.000000,4.000000,4.000000,4.000000,4.000000,4.000000,4.000000,4.000000,4.000000,4.000000,4.000000,4.000000,4.000000,4.000000,100.000000
1602005395.266672,96.000000,0.000000,4188.205078,4154.358887,4167.692383,4153.333496,4157.948730,4127.692383,4139.487305,4138.974121,4156.922852,4168.717773,4153.846191,4172.820313,4144.102539,4161.538574,781.000000,4.000000,,,,0.000000,4.000000,4.000000,4.000000,4.000000,4.000000,4.000000,4.000000,4.000000,4.000000,4.000000,4.000000,4.000000,4.000000,4.000000,100.000000
1602005395.274553,97.000000,0.000000,4185.128418,4159.487305,4160.000000,4157.436035,4168.717773,4134.871582,4136.410156,4136.410156,4154.871582,4165.128418,4150.256348,4165.641113,4146.666504,4163.589844,775.000000,4.000000,,,,0.000000,4.000000,4.000000,4.000000,4.000000,4.000000,4.000000,4.000000,4.000000,4.000000,4.000000,4.000000,4.000000,4.000000,4.000000,100.000000
1602005395.282535,98.000000,0.000000,4175.897461,4160.000000,4149.230957,4156.922852,4169.230957,4130.256348,4128.205078,4126.666504,4138.974121,4155.384766,4138.974121,4143.077148,4138.461426,4151.282227,879.000000,4.000000,,,,0.000000,4.000000,4.000000,4.000000,4.000000,4.000000,4.000000,4.000000,4.000000,4.000000,4.000000,4.000000,4.000000,4.000000,4.000000,100.000000
1602005395.290417,99.000000,0.000000,4168.205078,4158.461426,4137.948730,4152.820313,4164.615234,4120.512695,4123.077148,4117.948730,4118.974121,4117.436035,4130.769043,4123.077148,4124.102539,4129.743652,838.000000,4.000000,,,,0.000000,4.000000,4.000000,4.000000,4.000000,4.000000,4.000000,4.000000,4.000000,4.000000,4.000000,4.000000,4.000000,4.000000,4.000000,100.000000
1602005395.298298,100.000000,0.000000,4163.077148,4151.794922,4130.769043,4146.666504,4166.153809,4118.461426,4120.000000,4114.871582,4109.743652,4101.025879,4122.563965,4119.487305,4116.922852,4120.000000,781.000000,4.000000,,,,0.000000,4.000000,4.000000,4.000000,4.000000,4.000000,4.000000,4.000000,4.000000,4.000000,4.000000,4.000000,4.000000,4.000000,4.000000,100.000000
1602005395.306180,101.000000,0.000000,4156.922852,4142.563965,4123.589844,4138.974121,4165.641113,4120.512695,4112.820313,4111.282227,4105.641113,4132.307617,4111.794922,4121.025879,4110.769043,4121.025879,775.000000,4.000000,,,,0.000000,4.000000,4.000000,4.000000,4.000000,4.000000,4.000000,4.000000,4.000000,4.000000,4.000000,4.000000,4.000000,4.000000,4.000000,100.000000
1602005395.314061,102.000000,0.000000,4152.307617,4136.410156,4119.487305,4128.717773,4161.538574,4123.077148,4105.641113,4105.128418,4102.563965,4142.563965,4105.128418,4116.922852,4102.563965,4119.487305,879.000000,4.000000,,,,0.000000,4.000000,4.000000,4.000000,4.000000,4.000000,4.000000,4.000000,4.000000,4.000000,4.000000,4.000000,4.000000,4.000000,4.000000,100.000000
1602005395.321844,103.000000,0.000000,4152.820313,4134.871582,4126.666504,4124.102539,4162.563965,4121.538574,4105.128418,4103.077148,4106.666504,4123.589844,4108.717773,4116.922852,4105.128418,4115.897461,838.000000,4.000000,,,,0.000000,4.000000,4.000000,4.000000,4.000000,4.000000,4.000000,4.000000,4.000000,4.000000,4.000000,4.000000,4.000000,4.000000,4.000000,100.000000
1602005395.329726,104.000000,0.000000,4160.512695,4140.000000,4137.436035,4132.820313,4167.692383,4121.025879,4112.820313,4110.769043,4123.077148,4132.307617,4124.615234,4126.666504,4117.948730,4124.615234,781.000000,4.000000,,,,0.000000,4.000000,4.000000,4.000000,4.000000,4.000000,4.000000,4.000000,4.000000,4.000000,4.000000,4.000000,4.000000,4.000000,4.000000,100.000000
1602005395.337609,105.000000,0.000000,4170.769043,4149.230957,4142.563965,4140.000000,4173.333496,4129.230957,4119.487305,4126.666504,4142.563965,4156.410156,4136.410156,4136.922852,4129.230957,4134.358887,775.000000,4.000000,,,,0.000000,4.000000,4.000000,4.000000,4.000000,4.000000,4.000000,4.000000,4.000000,4.000000,4.000000,4.000000,4.000000,4.000000,4.000000,100.000000
1602005395.345491,106.000000,0.000000,4181.025879,4155.384766,4150.769043,4142.051270,4178.461426,4137.436035,4125.641113,4137.436035,4154.871582,4161.025879,4138.461426,4147.179688,4137.948730,4140.512695,879.000000,4.000000,,,,0.000000,4.000000,4.000000,4.000000,4.000000,4.000000,4.000000,4.000000,4.000000,4.000000,4.000000,4.000000,4.000000,4.000000,4.000000,100.000000
1602005395.353373,107.000000,0.000000,4188.205078,4155.897461,4155.384766,4147.179688,4184.615234,4138.974121,4132.307617,4138.974121,4158.974121,4146.666504,4142.563965,4154.871582,4143.589844,4152.820313,838.000000,4.000000,,,,0.000000,4.000000,4.000000,4.000000,4.000000,4.000000,4.000000,4.000000,4.000000,4.000000,4.000000,4.000000,4.000000,4.000000,4.000000,100.000000
1602005395.361256,108.000000,0.000000,4184.615234,4155.897461,4144.615234,4146.666504,4185.641113,4132.307617,4136.410156,4138.974121,4154.358887,4134.871582,4143.589844,4149.743652,4141.025879,4154.871582,781.000000,4.000000,,,,0.000000,4.000000,4.000000,4.000000,4.000000,4.000000,4.000000,4.000000,4.000000,4.000000,4.000000,4.000000,4.000000,4.000000,4.000000,100.000000
1602005395.369138,109.000000,0.000000,4171.794922,4156.410156,4135.384766,4140.000000,4183.589844,4123.589844,4138.461426,4139.487305,4144.102539,4143.077148,4137.948730,4138.461426,4140.000000,4139.487305,775.000000,4.000000,,,,0.000000,4.000000,4.000000,4.000000,4.000000,4.000000,4.000000,4.000000,4.000000,4.000000,4.000000,4.000000,4.000000,4.000000,4.000000,100.000000
1602005395.377020,110.000000,0.000000,4165.641113,4154.871582,4138.461426,4144.102539,4185.128418,4123.077148,4134.871582,4138.461426,4138.461426,4146.153809,4135.897461,4138.974121,4141.538574,4133.846191,879.000000,4.000000,,,,0.000000,4.000000,4.000000,4.000000,4.000000,4.000000,4.000000,4.000000,4.000000,4.000000,4.000000,4.000000,4.000000,4.000000,4.000000,100.000000
1602005395.384803,111.000000,0.000000,4167.692383,4155.897461,4139.487305,4151.282227,4187.692383,4128.205078,4128.205078,4135.384766,4139.487305,4140.000000,4138.461426,4137.948730,4134.358887,4140.000000,838.000000,4.000000,,,,0.000000,4.000000,4.000000,4.000000,4.000000,4.000000,4.000000,4.000000,4.000000,4.000000,4.000000,4.000000,4.000000,4.000000,4.000000,100.000000
1602005395.392685,112.000000,0.000000,4167.179688,4157.436035,4135.897461,4146.666504,4185.128418,4125.128418,4126.153809,4134.871582,4140.000000,4152.307617,4134.358887,4126.666504,4124.615234,4136.410156,781.000000,4.000000,,,,0.000000,4.000000,4.000000,4.000000,4.000000,4.000000,4.000000,4.000000,4.000000,4.000000,4.000000,4.000000,4.000000,4.000000,4.000000,100.000000
1602005395.400568,113.000000,0.000000,4160.000000,4150.769043,4135.897461,4137.948730,4174.358887,4119.487305,4128.205078,4136.410156,4131.282227,4152.820313,4121.538574,4124.102539,4115.897461,4120.512695,775.000000,4.000000,,,,0.000000,4.000000,4.000000,4.000000,4.000000,4.000000,4.000000,4.000000,4.000000,4.000000,4.000000,4.000000,4.000000,4.000000,4.000000,100.000000
1602005395.408450,114.000000,0.000000,4150.256348,4136.922852,4135.384766,4134.871582,4161.538574,4124.615234,4125.641113,4135.897461,4120.512695,4123.589844,4115.384766,4133.333496,4104.615234,4111.282227,879.000000,4.000000,,,,0.000000,4.000000,4.000000,4.000000,4.000000,4.000000,4.000000,4.000000,4.000000,4.000000,4.000000,4.000000,4.000000,4.000000,4.000000,100.000000
1602005395.416332,115.000000,0.000000,4160.000000,4133.333496,4137.436035,4135.897461,4152.820313,4129.230957,4127.179688,4133.846191,4120.000000,4108.717773,4126.666504,4144.615234,4109.743652,4125.128418,838.000000,4.000000,,,,0.000000,4.000000,4.000000,4.000000,4.000000,4.000000,4.000000,4.000000,4.000000,4.000000,4.000000,4.000000,4.000000,4.000000,4.000000,100.000000
1602005395.424215,116.000000,0.000000,4181.025879,4137.436035,4145.128418,4136.410156,4150.769043,4126.666504,4137.436035,4135.897461,4124.615234,4108.717773,4141.538574,4155.384766,4128.205078,4149.230957,781.000000,4.000000,,,,0.000000,4.000000,4.000000,4.000000,4.000000,4.000000,4.000000,4.000000,4.000000,4.000000,4.000000,4.000000,4.000000,4.000000,4.000000,100.000000
1602005395.432097,117.000000,0.000000,4181.538574,4135.384766,4146.666504,4134.871582,4151.282227,4127.692383,4138.461426,4136.410156,4123.589844,4109.743652,4141.025879,4164.102539,4128.205078,4156.922852,775.000000,4.000000,,,,0.000000,4.000000,4.000000,4.000000,4.000000,4.000000,4.000000,4.000000,4.000000,4.000000,4.000000,4.000000,4.000000,4.000000,4.000000,100.000000
1602005395.439979,118.000000,0.000000,4170.769043,4133.846191,4140.000000,4133.846191,4151.794922,4129.743652,4136.922852,4134.358887,4125.128418,4134.358887,4136.410156,4170.769043,4122.563965,4149.743652,879.000000,4.000000,,,,0.000000,4.000000,4.000000,4.000000,4.000000,4.000000,4.000000,4.000000,4.000000,4.000000,4.000000,4.000000,4.000000,4.000000,4.000000,100.000000
1602005395.447961,119.000000,0.000000,4167.179688,4135.897461,4135.897461,4134.871582,4157.436035,4125.641113,4134.871582,4134.358887,4129.743652,4148.717773,4136.922852,4168.205078,4134.358887,4143.589844,838.000000,4.000000,,,,0.000000,4.000000,4.000000,4.000000,4.000000,4.000000,4.000000,4.000000,4.000000,4.000000,4.000000,4.000000,4.000000,4.000000,4.000000,100.000000
1602005395.455843,120.000000,0.000000,4164.102539,4137.436035,4133.846191,4137.436035,4168.717773,4120.000000,4127.179688,4134.358887,4130.256348,4126.666504,4138.974121,4157.948730,4141.025879,4142.051270,781.000000,4.000000,,,,0.000000,4.000000,4.000000,4.000000,4.000000,4.000000,4.000000,4.000000,4.000000,4.000000,4.000000,4.000000,4.000000,4.000000,4.000000,100.000000
1602005395.463726,121.000000,0.000000,4153.333496,4134.871582,4127.692383,4134.358887,4168.205078,4112.820313,4116.922852,4127.692383,4129.743652,4121.538574,4135.384766,4152.307617,4130.769043,4133.846191,775.000000,4.000000,,,,0.000000,4.000000,4.000000,4.000000,4.000000,4.000000,4.000000,4.000000,4.000000,4.000000,4.000000,4.000000,4.000000,4.000000,4.000000,100.000000
1602005395.471608,122.000000,0.000000,4141.025879,4127.179688,4117.948730,4125.128418,4155.384766,4104.615234,4108.205078,4121.025879,4129.743652,4143.077148,4125.128418,4145.641113,4119.487305,4119.487305,879.000000,4.000000,,,,0.000000,4.000000,4.000000,4.000000,4.000000,4.000000,4.000000,4.000000,4.000000,4.000000,4.000000,4.000000,4.000000,4.000000,4.000000,100.000000
1602005395.479490,123.000000,0.000000,4140.000000,4120.512695,4115.384766,4121.025879,4149.743652,4106.153809,4106.666504,4123.589844,4125.641113,4132.307617,4119.487305,4131.282227,4113.333496,4116.922852,838.000000,4.000000,,,,0.000000,4.000000,4.000000,4.000000,4.000000,4.000000,4.000000,4.000000,4.000000,4.000000,4.000000,4.000000,4.000000,4.000000,4.000000,100.000000
1602005395.487372,124.000000,0.000000,4149.230957,4120.000000,4118.974121,4122.051270,4151.282227,4109.230957,4108.717773,4126.153809,4118.974121,4100.512695,4123.589844,4128.717773,4108.205078,4124.102539,781.000000,4.000000,,,,0.000000,4.000000,4.000000,4.000000,4.000000,4.000000,4.000000,4.000000,4.000000,4.000000,4.000000,4.000000,4.000000,4.000000,4.000000,100.000000
1602005395.495254,125.000000,0.000000,4155.897461,4123.589844,4120.512695,4124.615234,4151.282227,4107.179688,4109.743652,4122.563965,4115.384766,4107.692383,4124.102539,4137.948730,4106.153809,4127.179688,775.000000,4.000000,,,,0.000000,4.000000,4.000000,4.000000,4.000000,4.000000,4.000000,4.000000,4.000000,4.000000,4.000000,4.000000,4.000000,4.000000,4.000000,100.000000
1602005395.503236,126.000000,0.000000,4160.512695,4130.769043,4126.153809,4129.230957,4154.358887,4113.846191,4113.846191,4121.538574,4117.948730,4127.692383,4120.000000,4141.538574,4112.307617,4131.794922,879.000000,4.000000,,,,0.000000,4.000000,4.000000,4.000000,4.000000,4.000000,4.000000,4.000000,4.000000,4.000000,4.000000,4.000000,4.000000,4.000000,4.000000,100.000000
1602005395.511118,127.000000,0.000000,4165.641113,4133.333496,4134.871582,4128.717773,4154.871582,4120.000000,4126.153809,4123.589844,4120.000000,4121.025879,4124.102539,4144.102539,4120.512695,4137.948730,838.000000,4.000000,,,,0.000000,4.000000,4.000000,4.000000,4.000000,4.000000,4.000000,4.000000,4.000000,4.000000,4.000000,4.000000,4.000000,4.000000,4.000000,100.000000
1602005395.519000,128.000000,0.000000,4160.512695,4131.794922,4139.487305,4126.153809,4151.282227,4120.000000,4136.922852,4124.615234,4117.948730,4117.948730,4127.692383,4151.794922,4122.051270,4136.922852,781.000000,4.000000,,,,0.000000,4.000000,4.000000,4.000000,4.000000,4.000000,4.000000,4.000000,4.000000,4.000000,4.000000,4.000000,4.000000,4.000000,4.000000,100.000000
1602005395.526882,0.000000,0.000000,4155.384766,4135.897461,4137.948730,4132.307617,4157.436035,4129.230957,4135.384766,4123.589844,4115.897461,4121.538574,4124.102539,4156.410156,4122.563965,4138.974121,805.000000,4.000000,,,,0.000000,4.000000,4.000000,4.000000,4.000000,4.000000,4.000000,4.000000,4.000000,4.000000,4.000000,4.000000,4.000000,4.000000,4.000000,100.000000
1602005395.534765,1.000000,0.000000,4159.487305,4140.000000,4138.974121,4137.948730,4169.743652,4134.358887,4126.666504,4127.692383,4124.102539,4108.717773,4129.230957,4158.461426,4126.153809,4143.077148,797.000000,4.000000,,,,0.000000,4.000000,4.000000,4.000000,4.000000,4.000000,4.000000,4.000000,4.000000,4.000000,4.000000,4.000000,4.000000,4.000000,4.000000,100.000000
1602005395.542647,2.000000,0.000000,4158.974121,4137.948730,4137.948730,4137.436035,4171.794922,4125.128418,4121.025879,4135.384766,4136.410156,4106.153809,4140.000000,4162.563965,4129.230957,4136.410156,855.000000,4.000000,,,,0.000000,4.000000,4.000000,4.000000,4.000000,4.000000,4.000000,4.000000,4.000000,4.000000,4.000000,4.000000,4.000000,4.000000,4.000000,100.000000
1602005395.550529,3.000000,0.000000,4152.820313,4133.846191,4131.282227,4133.846191,4168.205078,4121.025879,4124.102539,4139.487305,4138.974121,4127.179688,4134.358887,4162.563965,4127.179688,4127.692383,873.000000,4.000000,,,,0.000000,4.000000,4.000000,4.000000,4.000000,4.000000,4.000000,4.000000,4.000000,4.000000,4.000000,4.000000,4.000000,4.000000,4.000000,100.000000
1602005395.558311,4.000000,0.000000,4152.307617,4128.205078,4130.256348,4129.743652,4169.230957,4125.641113,4124.102539,4137.436035,4136.922852,4138.974121,4126.666504,4161.025879,4125.128418,4133.846191,804.000000,4.000000,,,,0.000000,4.000000,4.000000,4.000000,4.000000,4.000000,4.000000,4.000000,4.000000,4.000000,4.000000,4.000000,4.000000,4.000000,4.000000,100.000000
1602005395.566194,5.000000,0.000000,4153.333496,4122.051270,4134.358887,4124.102539,4171.794922,4125.641113,4123.077148,4136.410156,4137.436035,4141.025879,4135.384766,4160.000000,4123.589844,4137.948730,818.000000,4.000000,,,,0.000000,4.000000,4.000000,4.000000,4.000000,4.000000,4.000000,4.000000,4.000000,4.000000,4.000000,4.000000,4.000000,4.000000,4.000000,100.000000
1602005395.574076,6.000000,0.000000,4150.256348,4122.051270,4137.436035,4123.077148,4171.282227,4127.179688,4129.743652,4138.461426,4130.769043,4145.128418,4138.461426,4154.871582,4122.051270,4124.615234,772.000000,4.000000,,,,0.000000,4.000000,4.000000,4.000000,4.000000,4.000000,4.000000,4.000000,4.000000,4.000000,4.000000,4.000000,4.000000,4.000000,4.000000,100.000000
1602005395.581958,7.000000,0.000000,4149.230957,4125.128418,4137.948730,4128.205078,4168.205078,4134.358887,4134.871582,4133.333496,4118.461426,4136.922852,4129.743652,4150.256348,4122.051270,4118.461426,686.000000,4.000000,,,,0.000000,4.000000,4.000000,4.000000,4.000000,4.000000,4.000000,4.000000,4.000000,4.000000,4.000000,4.000000,4.000000,4.000000,4.000000,100.000000
1602005395.589841,8.000000,0.000000,4153.333496,4126.666504,4138.974121,4131.282227,4169.230957,4136.410156,4137.948730,4125.128418,4118.974121,4124.102539,4127.179688,4154.871582,4124.102539,4133.333496,788.000000,4.000000,,,,0.000000,4.000000,4.000000,4.000000,4.000000,4.000000,4.000000,4.000000,4.000000,4.000000,4.000000,4.000000,4.000000,4.000000,4.000000,100.000000
1602005395.597723,9.000000,0.000000,4154.358887,4123.077148,4138.461426,4127.692383,4173.333496,4138.461426,4136.410156,4123.077148,4123.589844,4120.512695,4125.128418,4150.256348,4115.384766,4137.948730,843.000000,4.000000,,,,0.000000,4.000000,4.000000,4.000000,4.000000,4.000000,4.000000,4.000000,4.000000,4.000000,4.000000,4.000000,4.000000,4.000000,4.000000,100.000000
1602005395.605605,10.000000,0.000000,4148.205078,4118.461426,4137.948730,4122.563965,4172.820313,4137.948730,4128.205078,4126.153809,4122.051270,4109.230957,4119.487305,4139.487305,4107.179688,4123.589844,877.000000,4.000000,,,,0.000000,4.000000,4.000000,4.000000,4.000000,4.000000,4.000000,4.000000,4.000000,4.000000,4.000000,4.000000,4.000000,4.000000,4.000000,100.000000
1602005395.613488,11.000000,0.000000,4148.205078,4120.512695,4141.025879,4129.743652,4170.769043,4130.256348,4123.589844,4131.282227,4127.179688,4100.000000,4128.205078,4146.153809,4119.487305,4120.512695,838.000000,4.000000,,,,0.000000,4.000000,4.000000,4.000000,4.000000,4.000000,4.000000,4.000000,4.000000,4.000000,4.000000,4.000000,4.000000,4.000000,4.000000,100.000000
1602005395.621470,12.000000,0.000000,4153.333496,4124.615234,4144.102539,4138.461426,4171.794922,4128.717773,4124.615234,4136.922852,4138.974121,4118.974121,4140.512695,4158.461426,4127.692383,4131.282227,781.000000,4.000000,,,,0.000000,4.000000,4.000000,4.000000,4.000000,4.000000,4.000000,4.000000,4.000000,4.000000,4.000000,4.000000,4.000000,4.000000,4.000000,100.000000
1602005395.629353,13.000000,0.000000,4148.205078,4126.153809,4148.717773,4134.358887,4170.769043,4134.871582,4123.589844,4138.974121,4143.589844,4148.717773,4139.487305,4156.922852,4121.025879,4136.410156,775.000000,4.000000,,,,0.000000,4.000000,4.000000,4.000000,4.000000,4.000000,4.000000,4.000000,4.000000,4.000000,4.000000,4.000000,4.000000,4.000000,4.000000,100.000000
1602005395.637235,14.000000,0.000000,4142.563965,4126.153809,4151.282227,4130.256348,4167.692383,4136.922852,4123.589844,4138.974121,4141.025879,4160.000000,4135.897461,4152.820313,4126.153809,4134.871582,877.000000,4.000000,,,,0.000000,4.000000,4.000000,4.000000,4.000000,4.000000,4.000000,4.000000,4.000000,4.000000,4.000000,4.000000,4.000000,4.000000,4.000000,100.000000
1602005395.645118,15.000000,0.000000,4150.256348,4125.128418,4150.769043,4134.358887,4166.153809,4135.897461,4128.205078,4138.974121,4140.000000,4155.384766,4137.436035,4152.820313,4135.897461,4133.846191,838.000000,4.000000,,,,0.000000,4.000000,4.000000,4.000000,4.000000,4.000000,4.000000,4.000000,4.000000,4.000000,4.000000,4.000000,4.000000,4.000000,4.000000,100.000000
1602005395.653001,16.000000,0.000000,4156.922852,4127.179688,4152.307617,4136.922852,4166.666504,4138.461426,4128.717773,4137.436035,4139.487305,4140.512695,4138.974121,4153.333496,4133.333496,4135.384766,0.000000,4.000000,,,,0.000000,4.000000,4.000000,4.000000,4.000000,4.000000,4.000000,4.000000,4.000000,4.000000,4.000000,4.000000,4.000000,4.000000,4.000000,100.000000
1602005395.660883,17.000000,0.000000,4153.333496,4128.717773,4150.769043,4135.897461,4165.128418,4136.922852,4128.717773,4136.922852,4136.922852,4126.153809,4138.461426,4154.871582,4133.846191,4141.025879,0.000000,4.000000,,,,0.000000,4.000000,4.000000,4.000000,4.000000,4.000000,4.000000,4.000000,4.000000,4.000000,4.000000,4.000000,4.000000,4.000000,4.000000,100.000000
1602005395.668766,18.000000,0.000000,4151.282227,4125.641113,4142.563965,4135.384766,4155.897461,4127.179688,4128.717773,4133.333496,4137.436035,4128.205078,4137.436035,4153.333496,4137.436035,4139.487305,0.000000,4.000000,,,,0.000000,4.000000,4.000000,4.000000,4.000000,4.000000,4.000000,4.000000,4.000000,4.000000,4.000000,4.000000,4.000000,4.000000,4.000000,100.000000
1602005395.676648,19.000000,0.000000,4155.384766,4123.077148,4137.436035,4131.282227,4147.692383,4118.461426,4125.641113,4129.743652,4138.974121,4134.871582,4136.410156,4153.333496,4133.846191,4133.333496,0.000000,4.000000,,,,0.000000,4.000000,4.000000,4.000000,4.000000,4.000000,4.000000,4.000000,4.000000,4.000000,4.000000,4.000000,4.000000,4.000000,4.000000,100.000000
1602005395.684531,20.000000,0.000000,4155.384766,4125.128418,4139.487305,4128.717773,4152.820313,4126.153809,4129.230957,4136.410156,4139.487305,4145.641113,4141.025879,4162.051270,4136.410156,4138.461426,0.000000,4.000000,,,,0.000000,4.000000,4.000000,4.000000,4.000000,4.000000,4.000000,4.000000,4.000000,4.000000,4.000000,4.000000,4.000000,4.000000,4.000000,100.000000
1602005395.692313,21.000000,0.000000,4143.589844,4122.051270,4135.384766,4127.692383,4157.436035,4137.436035,4133.333496,4142.051270,4137.948730,4154.871582,4141.538574,4158.974121,4137.436035,4136.922852,0.000000,4.000000,,,,0.000000,4.000000,4.000000,4.000000,4.000000,4.000000,4.000000,4.000000,4.000000,4.000000,4.000000,4.000000,4.000000,4.000000,4.000000,100.000000
1602005395.700196,22.000000,0.000000,4135.384766,4120.512695,4127.179688,4124.615234,4153.846191,4137.436035,4133.333496,4134.358887,4132.820313,4147.692383,4130.769043,4143.589844,4124.102539,4120.512695,0.000000,4.000000,,,,0.000000,4.000000,4.000000,4.000000,4.000000,4.000000,4.000000,4.000000,4.000000,4.000000,4.000000,4.000000,4.000000,4.000000,4.000000,100.000000
1602005395.708078,23.000000,0.000000,4141.025879,4125.641113,4128.717773,4126.153809,4152.820313,4134.358887,4132.307617,4127.692383,4126.153809,4129.230957,4127.692383,4137.436035,4118.974121,4123.589844,0.000000,4.000000,,,,0.000000,4.000000,4.000000,4.000000,4.000000,4.000000,4.000000,4.000000,4.000000,4.000000,4.000000,4.000000,4.000000,4.000000,4.000000,100.000000
1602005395.715961,24.000000,0.000000,4142.563965,4125.128418,4136.410156,4129.230957,4156.410156,4132.820313,4128.205078,4126.153809,4117.948730,4114.358887,4134.358887,4144.615234,4125.128418,4135.897461,0.000000,4.000000,,,,0.000000,4.000000,4.000000,4.000000,4.000000,4.000000,4.000000,4.000000,4.000000,4.000000,4.000000,4.000000,4.000000,4.000000,4.000000,100.000000
1602005395.723843,25.000000,0.000000,4138.461426,4123.077148,4136.922852,4127.692383,4154.358887,4124.615234,4117.436035,4123.077148,4110.256348,4111.794922,4131.794922,4147.179688,4122.563965,4126.153809,0.000000,4.000000,,,,0.000000,4.000000,4.000000,4.000000,4.000000,4.000000,4.000000,4.000000,4.000000,4.000000,4.000000,4.000000,4.000000,4.000000,4.000000,100.000000
1602005395.731725,26.000000,0.000000,4145.128418,4130.769043,4133.846191,4130.256348,4150.769043,4118.461426,4113.846191,4119.487305,4106.153809,4115.384766,4126.666504,4144.102539,4118.461426,4121.538574,0.000000,4.000000,,,,0.000000,4.000000,4.000000,4.000000,4.000000,4.000000,4.000000,4.000000,4.000000,4.000000,4.000000,4.000000,4.000000,4.000000,4.000000,100.000000
1602005395.739608,27.000000,0.000000,4158.974121,4141.538574,4141.538574,4141.025879,4160.512695,4125.641113,4122.563965,4125.641113,4114.358887,4125.641113,4132.820313,4147.692383,4129.743652,4137.436035,0.000000,4.000000,,,,0.000000,4.000000,4.000000,4.000000,4.000000,4.000000,4.000000,4.000000,4.000000,4.000000,4.000000,4.000000,4.000000,4.000000,4.000000,100.000000
1602005395.747490,28.000000,0.000000,4164.615234,4145.128418,4152.820313,4146.153809,4169.230957,4138.461426,4133.333496,4136.410156,4130.769043,4145.128418,4139.487305,4154.871582,4141.538574,4143.077148,0.000000,4.000000,,,,0.000000,4.000000,4.000000,4.000000,4.000000,4.000000,4.000000,4.000000,4.000000,4.000000,4.000000,4.000000,4.000000,4.000000,4.000000,100.000000
1602005395.755372,29.000000,0.000000,4158.461426,4142.563965,4152.820313,4141.538574,4162.563965,4144.615234,4141.025879,4132.307617,4134.871582,4158.974121,4140.000000,4158.461426,4140.512695,4137.948730,0.000000,4.000000,,,,0.000000,4.000000,4.000000,4.000000,4.000000,4.000000,4.000000,4.000000,4.000000,4.000000,4.000000,4.000000,4.000000,4.000000,4.000000,100.000000
1602005395.763154,30.000000,0.000000,4151.794922,4136.410156,4144.615234,4136.922852,4153.846191,4142.563965,4141.538574,4126.666504,4127.692383,4145.641113,4138.974121,4154.871582,4134.871582,4137.948730,0.000000,4.000000,,,,0.000000,4.000000,4.000000,4.000000,4.000000,4.000000,4.000000,4.000000,4.000000,4.000000,4.000000,4.000000,4.000000,4.000000,4.000000,100.000000
1602005395.771035,31.000000,0.000000,4152.820313,4134.871582,4140.000000,4137.436035,4153.333496,4134.358887,4138.974121,4133.846191,4123.589844,4126.153809,4135.897461,4152.820313,4133.846191,4137.948730,0.000000,4.000000,,,,0.000000,4.000000,4.000000,4.000000,4.000000,4.000000,4.000000,4.000000,4.000000,4.000000,4.000000,4.000000,4.000000,4.000000,4.000000,100.000000
1602005395.779016,32.000000,0.000000,4155.897461,4139.487305,4145.128418,4141.538574,4153.333496,4127.179688,4137.948730,4140.000000,4133.333496,4137.948730,4137.948730,4154.871582,4137.948730,4138.974121,0.000000,4.000000,,,,0.000000,4.000000,4.000000,4.000000,4.000000,4.000000,4.000000,4.000000,4.000000,4.000000,4.000000,4.000000,4.000000,4.000000,4.000000,100.000000
1602005395.786897,33.000000,0.000000,4153.333496,4142.051270,4146.666504,4142.051270,4153.333496,4125.641113,4134.358887,4138.461426,4140.512695,4161.538574,4143.077148,4154.358887,4138.461426,4141.025879,0.000000,4.000000,,,,0.000000,4.000000,4.000000,4.000000,4.000000,4.000000,4.000000,4.000000,4.000000,4.000000,4.000000,4.000000,4.000000,4.000000,4.000000,100.000000
1602005395.794679,34.000000,0.000000,4155.384766,4143.589844,4143.077148,4140.000000,4156.922852,4125.641113,4127.692383,4134.871582,4128.717773,4152.820313,4142.563965,4153.333496,4136.410156,4137.948730,0.000000,4.000000,,,,0.000000,4.000000,4.000000,4.000000,4.000000,4.000000,4.000000,4.000000,4.000000,4.000000,4.000000,4.000000,4.000000,4.000000,4.000000,100.000000
1602005395.802562,35.000000,0.000000,4162.563965,4148.205078,4143.589844,4142.051270,4159.487305,4120.512695,4123.077148,4126.666504,4117.948730,4120.000000,4140.000000,4153.333496,4135.897461,4136.922852,0.000000,4.000000,,,,0.000000,4.000000,4.000000,4.000000,4.000000,4.000000,4.000000,4.000000,4.000000,4.000000,4.000000,4.000000,4.000000,4.000000,4.000000,100.000000
1602005395.810444,36.000000,0.000000,4163.589844,4147.692383,4145.641113,4144.615234,4160.512695,4121.025879,4121.538574,4123.077148,4122.563965,4121.025879,4138.974121,4149.230957,4138.461426,4141.025879,0.000000,4.000000,,,,0.000000,4.000000,4.000000,4.000000,4.000000,4.000000,4.000000,4.000000,4.000000,4.000000,4.000000,4.000000,4.000000,4.000000,4.000000,100.000000
1602005395.818327,37.000000,0.000000,4155.897461,4141.025879,4140.512695,4140.000000,4156.410156,4125.641113,4124.102539,4125.128418,4117.436035,4140.000000,4136.410156,4139.487305,4137.436035,4138.974121,0.000000,4.000000,,,,0.000000,4.000000,4.000000,4.000000,4.000000,4.000000,4.000000,4.000000,4.000000,4.000000,4.000000,4.000000,4.000000,4.000000,4.000000,100.000000
1602005395.826209,38.000000,0.000000,4150.769043,4137.948730,4135.384766,4135.897461,4151.282227,4122.563965,4126.666504,4121.538574,4102.051270,4126.153809,4135.384766,4137.948730,4136.410156,4134.871582,0.000000,4.000000,,,,0.000000,4.000000,4.000000,4.000000,4.000000,4.000000,4.000000,4.000000,4.000000,4.000000,4.000000,4.000000,4.000000,4.000000,4.000000,100.000000
1602005395.834091,39.000000,0.000000,4153.846191,4140.512695,4137.948730,4137.436035,4148.717773,4123.589844,4124.102539,4118.974121,4101.538574,4115.897461,4138.461426,4145.641113,4137.948730,4138.461426,0.000000,4.000000,,,,0.000000,4.000000,4.000000,4.000000,4.000000,4.000000,4.000000,4.000000,4.000000,4.000000,4.000000,4.000000,4.000000,4.000000,4.000000,100.000000
1602005395.841974,40.000000,0.000000,4147.692383,4131.794922,4136.922852,4131.794922,4143.077148,4132.307617,4124.615234,4119.487305,4107.692383,4139.487305,4138.974121,4150.256348,4136.922852,4134.871582,0.000000,4.000000,,,,0.000000,4.000000,4.000000,4.000000,4.000000,4.000000,4.000000,4.000000,4.000000,4.000000,4.000000,4.000000,4.000000,4.000000,4.000000,100.000000
1602005395.849856,41.000000,0.000000,4138.461426,4121.025879,4130.769043,4123.589844,4138.461426,4138.974121,4134.871582,4125.641113,4114.358887,4157.948730,4137.436035,4152.307617,4138.974121,4125.641113,0.000000,4.000000,,,,0.000000,4.000000,4.000000,4.000000,4.000000,4.000000,4.000000,4.000000,4.000000,4.000000,4.000000,4.000000,4.000000,4.000000,4.000000,100.000000
1602005395.857838,42.000000,0.000000,4137.436035,4122.563965,4127.179688,4124.102539,4142.051270,4137.948730,4143.077148,4137.436035,4126.153809,4150.256348,4138.974121,4149.743652,4138.974121,4125.641113,0.000000,4.000000,,,,0.000000,4.000000,4.000000,4.000000,4.000000,4.000000,4.000000,4.000000,4.000000,4.000000,4.000000,4.000000,4.000000,4.000000,4.000000,100.000000
1602005395.865721,43.000000,0.000000,4128.717773,4118.974121,4125.641113,4120.512695,4141.025879,4128.205078,4140.000000,4137.436035,4125.641113,4126.666504,4136.410156,4141.538574,4125.128418,4123.589844,0.000000,4.000000,,,,0.000000,4.000000,4.000000,4.000000,4.000000,4.000000,4.000000,4.000000,4.000000,4.000000,4.000000,4.000000,4.000000,4.000000,4.000000,100.000000
1602005395.873604,44.000000,0.000000,4116.922852,4110.256348,4123.589844,4114.358887,4134.871582,4119.487305,4135.897461,4124.615234,4113.846191,4111.794922,4125.641113,4135.897461,4115.384766,4118.974121,0.000000,4.000000,,,,0.000000,4.000000,4.000000,4.000000,4.000000,4.000000,4.000000,4.000000,4.000000,4.000000,4.000000,4.000000,4.000000,4.000000,4.000000,100.000000
1602005395.881486,45.000000,0.000000,4123.589844,4114.358887,4122.051270,4116.922852,4135.897461,4120.000000,4134.358887,4121.538574,4109.230957,4120.512695,4119.487305,4134.871582,4118.974121,4119.487305,0.000000,4.000000,,,,0.000000,4.000000,4.000000,4.000000,4.000000,4.000000,4.000000,4.000000,4.000000,4.000000,4.000000,4.000000,4.000000,4.000000,4.000000,100.000000
1602005395.889369,46.000000,0.000000,4136.922852,4123.077148,4128.205078,4122.051270,4138.974121,4121.025879,4131.282227,4122.563965,4108.205078,4126.666504,4125.641113,4138.461426,4122.051270,4125.128418,0.000000,4.000000,,,,0.000000,4.000000,4.000000,4.000000,4.000000,4.000000,4.000000,4.000000,4.000000,4.000000,4.000000,4.000000,4.000000,4.000000,4.000000,100.000000
1602005395.897251,47.000000,0.000000,4139.487305,4128.205078,4135.897461,4126.153809,4144.102539,4118.974121,4125.128418,4118.974121,4105.128418,4126.666504,4129.230957,4146.666504,4125.641113,4135.384766,0.000000,4.000000,,,,0.000000,4.000000,4.000000,4.000000,4.000000,4.000000,4.000000,4.000000,4.000000,4.000000,4.000000,4.000000,4.000000,4.000000,4.000000,100.000000
1602005395.905134,48.000000,0.000000,4143.589844,4136.922852,4138.461426,4128.717773,4152.307617,4123.589844,4120.512695,4117.948730,4105.641113,4132.307617,4127.179688,4154.871582,4135.384766,4144.102539,0.000000,4.000000,,,,0.000000,4.000000,4.000000,4.000000,4.000000,4.000000,4.000000,4.000000,4.000000,4.000000,4.000000,4.000000,4.000000,4.000000,4.000000,100.000000
1602005395.913017,49.000000,0.000000,4150.769043,4141.025879,4137.436035,4127.179688,4153.333496,4123.589844,4120.512695,4114.871582,4106.666504,4127.692383,4131.794922,4153.846191,4140.000000,4139.487305,0.000000,4.000000,,,,0.000000,4.000000,4.000000,4.000000,4.000000,4.000000,4.000000,4.000000,4.000000,4.000000,4.000000,4.000000,4.000000,4.000000,4.000000,100.000000
1602005395.920899,50.000000,0.000000,4151.794922,4135.897461,4134.358887,4130.256348,4148.205078,4116.410156,4120.512695,4107.692383,4103.077148,4118.974121,4136.922852,4150.769043,4136.922852,4135.384766,0.000000,4.000000,,,,0.000000,4.000000,4.000000,4.000000,4.000000,4.000000,4.000000,4.000000,4.000000,4.000000,4.000000,4.000000,4.000000,4.000000,4.000000,100.000000
1602005395.928881,51.000000,0.000000,4153.333496,4141.025879,4140.000000,4141.538574,4152.307617,4127.179688,4125.128418,4114.358887,4110.769043,4131.282227,4138.461426,4154.871582,4144.102539,4150.769043,0.000000,4.000000,,,,0.000000,4.000000,4.000000,4.000000,4.000000,4.000000,4.000000,4.000000,4.000000,4.000000,4.000000,4.000000,4.000000,4.000000,4.000000,100.000000
1602005395.936762,52.000000,0.000000,4153.333496,4149.230957,4145.641113,4143.589844,4154.871582,4138.974121,4129.230957,4124.102539,4121.025879,4153.333496,4140.000000,4154.358887,4151.282227,4158.974121,0.000000,4.000000,,,,0.000000,4.000000,4.000000,4.000000,4.000000,4.000000,4.000000,4.000000,4.000000,4.000000,4.000000,4.000000,4.000000,4.000000,4.000000,100.000000
1602005395.944644,53.000000,0.000000,4144.102539,4136.922852,4134.358887,4132.307617,4141.538574,4130.256348,4125.641113,4115.897461,4113.846191,4148.717773,4134.871582,4138.461426,4140.512695,4138.461426,0.000000,4.000000,,,,0.000000,4.000000,4.000000,4.000000,4.000000,4.000000,4.000000,4.000000,4.000000,4.000000,4.000000,4.000000,4.000000,4.000000,4.000000,100.000000
1602005395.952526,54.000000,0.000000,4132.307617,4122.563965,4118.461426,4122.563965,4133.333496,4122.563965,4125.641113,4111.282227,4103.589844,4123.589844,4125.128418,4123.589844,4125.128418,4122.563965,0.000000,4.000000,,,,0.000000,4.000000,4.000000,4.000000,4.000000,4.000000,4.000000,4.000000,4.000000,4.000000,4.000000,4.000000,4.000000,4.000000,4.000000,100.000000
1602005395.960507,55.000000,0.000000,4127.692383,4125.128418,4120.000000,4123.077148,4144.102539,4127.692383,4135.384766,4123.589844,4107.692383,4127.692383,4124.102539,4123.077148,4123.589844,4130.256348,0.000000,4.000000,,,,0.000000,4.000000,4.000000,4.000000,4.000000,4.000000,4.000000,4.000000,4.000000,4.000000,4.000000,4.000000,4.000000,4.000000,4.000000,100.000000
1602005395.968388,56.000000,0.000000,4125.641113,4128.717773,4125.128418,4127.179688,4156.410156,4128.205078,4140.512695,4129.230957,4113.846191,4142.051270,4124.615234,4124.102539,4125.128418,4132.820313,0.000000,4.000000,,,,0.000000,4.000000,4.000000,4.000000,4.000000,4.000000,4.000000,4.000000,4.000000,4.000000,4.000000,4.000000,4.000000,4.000000,4.000000,100.000000
1602005395.976270,57.000000,0.000000,4125.128418,4127.179688,4121.538574,4125.128418,4154.871582,4126.666504,4135.897461,4125.641113,4110.256348,4108.717773,4119.487305,4123.077148,4120.512695,4117.948730,0.000000,4.000000,,,,0.000000,4.000000,4.000000,4.000000,4.000000,4.000000,4.000000,4.000000,4.000000,4.000000,4.000000,4.000000,4.000000,4.000000,4.000000,100.000000
1602005395.984151,58.000000,0.000000,4131.794922,4132.820313,4125.128418,4124.102539,4152.307617,4131.794922,4129.743652,4121.025879,4104.615234,4082.051270,4117.948730,4129.230957,4118.974121,4114.871582,0.000000,4.000000,,,,0.000000,4.000000,4.000000,4.000000,4.000000,4.000000,4.000000,4.000000,4.000000,4.000000,4.000000,4.000000,4.000000,4.000000,4.000000,100.000000
1602005395.991933,59.000000,0.000000,4139.487305,4140.000000,4135.897461,4135.384766,4155.897461,4132.307617,4124.102539,4109.743652,4100.512695,4121.025879,4122.051270,4137.436035,4121.025879,4131.794922,0.000000,4.000000,,,,0.000000,4.000000,4.000000,4.000000,4.000000,4.000000,4.000000,4.000000,4.000000,4.000000,4.000000,4.000000,4.000000,4.000000,4.000000,100.000000
1602005395.999816,60.000000,0.000000,4142.051270,4138.974121,4138.461426,4138.974121,4153.333496,4125.128418,4122.563965,4100.000000,4098.461426,4147.692383,4124.615234,4142.051270,4125.128418,4142.051270,0.000000,4.000000,,,,0.000000,4.000000,4.000000,4.000000,4.000000,4.000000,4.000000,4.000000,4.000000,4.000000,4.000000,4.000000,4.000000,4.000000,4.000000,100.000000
1602005396.007698,61.000000,0.000000,4141.538574,4136.410156,4138.461426,4130.256348,4141.025879,4122.051270,4123.077148,4103.077148,4095.897461,4129.743652,4125.128418,4142.051270,4130.769043,4140.000000,0.000000,4.000000,,,,0.000000,4.000000,4.000000,4.000000,4.000000,4.000000,4.000000,4.000000,4.000000,4.000000,4.000000,4.000000,4.000000,4.000000,4.000000,100.000000
1602005396.015580,62.000000,0.000000,4138.974121,4136.410156,4142.563965,4129.743652,4137.948730,4125.641113,4122.563965,4105.641113,4091.794922,4122.051270,4131.282227,4141.025879,4130.256348,4136.922852,0.000000,4.000000,,,,0.000000,4.000000,4.000000,4.000000,4.000000,4.000000,4.000000,4.000000,4.000000,4.000000,4.000000,4.000000,4.000000,4.000000,4.000000,100.000000
1602005396.023462,63.000000,0.000000,4135.897461,4136.410156,4142.051270,4132.307617,4148.205078,4129.743652,4126.666504,4103.589844,4092.820557,4113.333496,4135.384766,4141.025879,4128.717773,4127.692383,0.000000,4.000000,,,,0.000000,4.000000,4.000000,4.000000,4.000000,4.000000,4.000000,4.000000,4.000000,4.000000,4.000000,4.000000,4.000000,4.000000,4.000000,100.000000
1602005396.031344,64.000000,0.000000,4135.384766,4136.410156,4134.358887,4129.743652,4152.307617,4124.102539,4134.358887,4111.794922,4102.051270,4103.077148,4130.256348,4140.512695,4133.846191,4124.102539,805.000000,4.000000,,,,0.000000,4.000000,4.000000,4.000000,4.000000,4.000000,4.000000,4.000000,4.000000,4.000000,4.000000,4.000000,4.000000,4.000000,4.000000,100.000000
1602005396.039226,65.000000,0.000000,4138.461426,4138.974121,4138.974121,4134.358887,4152.307617,4125.641113,4139.487305,4130.769043,4120.512695,4136.410156,4133.846191,4143.077148,4142.051270,4135.384766,797.000000,4.000000,,,,0.000000,4.000000,4.000000,4.000000,4.000000,4.000000,4.000000,4.000000,4.000000,4.000000,4.000000,4.000000,4.000000,4.000000,4.000000,100.000000
1602005396.047008,66.000000,0.000000,4138.461426,4140.512695,4146.153809,4138.461426,4156.922852,4134.358887,4141.538574,4138.461426,4126.666504,4168.205078,4141.538574,4144.102539,4140.000000,4136.410156,855.000000,4.000000,,,,0.000000,4.000000,4.000000,4.000000,4.000000,4.000000,4.000000,4.000000,4.000000,4.000000,4.000000,4.000000,4.000000,4.000000,4.000000,100.000000
1602005396.054889,67.000000,0.000000,4134.871582,4136.410156,4142.563965,4133.333496,4157.436035,4131.282227,4138.461426,4132.307617,4125.128418,4156.410156,4134.871582,4137.436035,4127.179688,4127.179688,873.000000,4.000000,,,,0.000000,4.000000,4.000000,4.000000,4.000000,4.000000,4.000000,4.000000,4.000000,4.000000,4.000000,4.000000,4.000000,4.000000,4.000000,100.000000
1602005396.062771,68.000000,0.000000,4135.384766,4133.333496,4144.615234,4134.358887,4152.820313,4126.666504,4127.692383,4128.205078,4137.948730,4146.153809,4126.153809,4137.948730,4124.615234,4133.333496,804.000000,4.000000,,,,0.000000,4.000000,4.000000,4.000000,4.000000,4.000000,4.000000,4.000000,4.000000,4.000000,4.000000,4.000000,4.000000,4.000000,4.000000,100.000000
1602005396.070653,69.000000,0.000000,4142.051270,4136.922852,4154.358887,4141.025879,4152.820313,4129.230957,4123.077148,4126.153809,4140.512695,4132.820313,4127.692383,4150.769043,4134.871582,4140.000000,818.000000,4.000000,,,,0.000000,4.000000,4.000000,4.000000,4.000000,4.000000,4.000000,4.000000,4.000000,4.000000,4.000000,4.000000,4.000000,4.000000,4.000000,100.000000
1602005396.078634,70.000000,0.000000,4145.641113,4139.487305,4156.922852,4141.025879,4152.307617,4128.205078,4127.179688,4120.512695,4123.077148,4098.461426,4133.333496,4158.461426,4140.000000,4139.487305,772.000000,4.000000,,,,0.000000,4.000000,4.000000,4.000000,4.000000,4.000000,4.000000,4.000000,4.000000,4.000000,4.000000,4.000000,4.000000,4.000000,4.000000,100.000000
1602005396.086515,71.000000,0.000000,4141.025879,4136.410156,4152.307617,4138.974121,4148.205078,4126.666504,4129.230957,4118.974121,4121.025879,4110.769043,4139.487305,4156.410156,4136.410156,4141.538574,686.000000,4.000000,,,,0.000000,4.000000,4.000000,4.000000,4.000000,4.000000,4.000000,4.000000,4.000000,4.000000,4.000000,4.000000,4.000000,4.000000,4.000000,100.000000
1602005396.094397,72.000000,0.000000,4143.077148,4135.384766,4149.230957,4138.974121,4150.769043,4135.384766,4131.794922,4120.000000,4138.461426,4164.615234,4142.051270,4156.922852,4138.974121,4142.563965,788.000000,4.000000,,,,0.000000,4.000000,4.000000,4.000000,4.000000,4.000000,4.000000,4.000000,4.000000,4.000000,4.000000,4.000000,4.000000,4.000000,4.000000,100.000000
1602005396.102178,73.000000,0.000000,4151.282227,4142.563965,4144.615234,4138.974121,4162.051270,4143.589844,4140.000000,4120.000000,4142.563965,4173.333496,4140.512695,4152.820313,4143.589844,4143.077148,843.000000,4.000000,,,,0.000000,4.000000,4.000000,4.000000,4.000000,4.000000,4.000000,4.000000,4.000000,4.000000,4.000000,4.000000,4.000000,4.000000,4.000000,100.000000
1602005396.110161,74.000000,0.000000,4148.205078,4146.153809,4137.948730,4138.461426,4170.769043,4142.051270,4138.974121,4121.025879,4133.333496,4149.230957,4140.512695,4136.922852,4142.563965,4146.153809,877.000000,4.000000,,,,0.000000,4.000000,4.000000,4.000000,4.000000,4.000000,4.000000,4.000000,4.000000,4.000000,4.000000,4.000000,4.000000,4.000000,4.000000,100.000000
1602005396.118043,75.000000,0.000000,4136.922852,4141.025879,4134.871582,4135.384766,4166.666504,4133.333496,4127.179688,4121.025879,4130.256348,4154.358887,4132.307617,4124.615234,4139.487305,4138.974121,838.000000,4.000000,,,,0.000000,4.000000,4.000000,4.000000,4.000000,4.000000,4.000000,4.000000,4.000000,4.000000,4.000000,4.000000,4.000000,4.000000,4.000000,100.000000
1602005396.125926,76.000000,0.000000,4137.436035,4136.922852,4133.846191,4132.820313,4156.410156,4122.563965,4120.000000,4118.974121,4127.179688,4147.692383,4121.025879,4115.897461,4137.436035,4124.615234,781.000000,4.000000,,,,0.000000,4.000000,4.000000,4.000000,4.000000,4.000000,4.000000,4.000000,4.000000,4.000000,4.000000,4.000000,4.000000,4.000000,4.000000,100.000000
1602005396.133808,77.000000,0.000000,4143.077148,4137.948730,4133.333496,4135.897461,4152.307617,4119.487305,4125.128418,4121.025879,4120.000000,4101.538574,4121.025879,4103.077148,4136.410156,4118.974121,775.000000,4.000000,,,,0.000000,4.000000,4.000000,4.000000,4.000000,4.000000,4.000000,4.000000,4.000000,4.000000,4.000000,4.000000,4.000000,4.000000,4.000000,100.000000
1602005396.141691,78.000000,0.000000,4137.436035,4136.410156,4134.358887,4137.948730,4150.769043,4125.641113,4134.358887,4130.769043,4124.615234,4098.461426,4121.025879,4106.153809,4136.410156,4123.589844,877.000000,4.000000,,,,0.000000,4.000000,4.000000,4.000000,4.000000,4.000000,4.000000,4.000000,4.000000,4.000000,4.000000,4.000000,4.000000,4.000000,4.000000,100.000000
1602005396.149574,79.000000,0.000000,4140.512695,4134.871582,4142.051270,4137.436035,4149.230957,4132.820313,4141.025879,4139.487305,4139.487305,4150.256348,4125.641113,4131.794922,4139.487305,4138.461426,838.000000,4.000000,,,,0.000000,4.000000,4.000000,4.000000,4.000000,4.000000,4.000000,4.000000,4.000000,4.000000,4.000000,4.000000,4.000000,4.000000,4.000000,100.000000
1602005396.157456,80.000000,0.000000,4152.307617,4137.436035,4145.641113,4136.922852,4151.794922,4137.948730,4142.563965,4134.871582,4137.436035,4170.769043,4137.948730,4147.179688,4143.077148,4148.205078,781.000000,4.000000,,,,0.000000,4.000000,4.000000,4.000000,4.000000,4.000000,4.000000,4.000000,4.000000,4.000000,4.000000,4.000000,4.000000,4.000000,4.000000,100.000000
1602005396.165339,81.000000,0.000000,4151.794922,4137.948730,4140.000000,4134.358887,4155.384766,4143.077148,4141.538574,4124.102539,4122.563965,4147.692383,4137.436035,4144.102539,4140.000000,4144.102539,775.000000,4.000000,,,,0.000000,4.000000,4.000000,4.000000,4.000000,4.000000,4.000000,4.000000,4.000000,4.000000,4.000000,4.000000,4.000000,4.000000,4.000000,100.000000
1602005396.173221,82.000000,0.000000,4147.692383,4135.384766,4137.948730,4126.153809,4155.384766,4145.641113,4137.948730,4118.974121,4117.436035,4133.846191,4125.641113,4139.487305,4128.205078,4138.461426,877.000000,4.000000,,,,0.000000,4.000000,4.000000,4.000000,4.000000,4.000000,4.000000,4.000000,4.000000,4.000000,4.000000,4.000000,4.000000,4.000000,4.000000,100.000000
1602005396.181004,83.000000,0.000000,4147.179688,4134.358887,4139.487305,4122.051270,4154.871582,4138.461426,4128.205078,4118.461426,4116.922852,4130.769043,4122.563965,4128.717773,4123.589844,4142.563965,838.000000,4.000000,,,,0.000000,4.000000,4.000000,4.000000,4.000000,4.000000,4.000000,4.000000,4.000000,4.000000,4.000000,4.000000,4.000000,4.000000,4.000000,100.000000
1602005396.188887,84.000000,0.000000,4142.563965,4136.410156,4136.410156,4123.589844,4155.897461,4126.666504,4117.948730,4118.461426,4117.436035,4113.846191,4126.666504,4123.589844,4134.358887,4144.102539,781.000000,4.000000,,,,0.000000,4.000000,4.000000,4.000000,4.000000,4.000000,4.000000,4.000000,4.000000,4.000000,4.000000,4.000000,4.000000,4.000000,4.000000,100.000000
1602005396.196769,85.000000,0.000000,4143.077148,4135.384766,4132.820313,4127.179688,4154.358887,4121.025879,4114.358887,4120.000000,4124.102539,4096.922852,4131.794922,4131.282227,4138.461426,4136.922852,775.000000,4.000000,,,,0.000000,4.000000,4.000000,4.000000,4.000000,4.000000,4.000000,4.000000,4.000000,4.000000,4.000000,4.000000,4.000000,4.000000,4.000000,100.000000
1602005396.204652,86.000000,0.000000,4154.358887,4138.461426,4141.538574,4133.333496,4153.333496,4122.051270,4118.461426,4127.179688,4133.333496,4113.846191,4138.461426,4136.922852,4141.025879,4140.512695,877.000000,4.000000,,,,0.000000,4.000000,4.000000,4.000000,4.000000,4.000000,4.000000,4.000000,4.000000,4.000000,4.000000,4.000000,4.000000,4.000000,4.000000,100.000000
1602005396.212534,87.000000,0.000000,4158.461426,4149.230957,4156.922852,4138.974121,4155.384766,4120.512695,4122.563965,4136.922852,4142.051270,4156.922852,4138.461426,4143.589844,4154.358887,4156.410156,838.000000,4.000000,,,,0.000000,4.000000,4.000000,4.000000,4.000000,4.000000,4.000000,4.000000,4.000000,4.000000,4.000000,4.000000,4.000000,4.000000,4.000000,100.000000
1602005396.220417,88.000000,0.000000,4153.846191,4149.230957,4158.461426,4138.974121,4154.358887,4116.410156,4120.000000,4136.410156,4141.538574,4174.358887,4140.512695,4156.410156,4163.589844,4159.487305,781.000000,4.000000,,,,0.000000,4.000000,4.000000,4.000000,4.000000,4.000000,4.000000,4.000000,4.000000,4.000000,4.000000,4.000000,4.000000,4.000000,4.000000,100.000000
1602005396.228300,89.000000,0.000000,4153.846191,4138.974121,4150.769043,4134.871582,4151.794922,4124.102539,4120.512695,4127.179688,4133.846191,4164.615234,4148.205078,4155.897461,4158.974121,4153.333496,775.000000,4.000000,,,,0.000000,4.000000,4.000000,4.000000,4.000000,4.000000,4.000000,4.000000,4.000000,4.000000,4.000000,4.000000,4.000000,4.000000,4.000000,100.000000
1602005396.236182,90.000000,0.000000,4152.307617,4136.410156,4146.153809,4128.717773,4158.974121,4140.512695,4133.333496,4121.025879,4134.358887,4152.307617,4148.717773,4143.589844,4156.410156,4157.436035,877.000000,4.000000,,,,0.000000,4.000000,4.000000,4.000000,4.000000,4.000000,4.000000,4.000000,4.000000,4.000000,4.000000,4.000000,4.000000,4.000000,4.000000,100.000000
1602005396.244065,91.000000,0.000000,4149.230957,4140.512695,4144.615234,4128.717773,4167.692383,4147.179688,4142.563965,4119.487305,4134.871582,4130.769043,4141.538574,4138.974121,4159.487305,4163.589844,838.000000,4.000000,,,,0.000000,4.000000,4.000000,4.000000,4.000000,4.000000,4.000000,4.000000,4.000000,4.000000,4.000000,4.000000,4.000000,4.000000,4.000000,100.000000
1602005396.251846,92.000000,0.000000,4149.743652,4137.948730,4140.512695,4134.358887,4167.692383,4140.000000,4136.922852,4118.974121,4127.692383,4114.871582,4131.282227,4136.410156,4151.794922,4159.487305,781.000000,4.000000,,,,0.000000,4.000000,4.000000,4.000000,4.000000,4.000000,4.000000,4.000000,4.000000,4.000000,4.000000,4.000000,4.000000,4.000000,4.000000,100.000000
1602005396.259727,93.000000,0.000000,4151.282227,4137.436035,4138.461426,4136.922852,4166.666504,4138.461426,4135.897461,4122.563965,4126.153809,4117.948730,4124.102539,4135.897461,4139.487305,4152.820313,775.000000,4.000000,,,,0.000000,4.000000,4.000000,4.000000,4.000000,4.000000,4.000000,4.000000,4.000000,4.000000,4.000000,4.000000,4.000000,4.000000,4.000000,100.000000
1602005396.267608,94.000000,0.000000,4151.794922,4141.538574,4139.487305,4136.922852,4169.230957,4138.974121,4140.512695,4126.666504,4127.179688,4119.487305,4122.051270,4132.820313,4135.384766,4146.666504,877.000000,4.000000,,,,0.000000,4.000000,4.000000,4.000000,4.000000,4.000000,4.000000,4.000000,4.000000,4.000000,4.000000,4.000000,4.000000,4.000000,4.000000,100.000000
1602005396.275389,95.000000,0.000000,4149.743652,4142.563965,4140.000000,4137.948730,4168.717773,4128.717773,4131.794922,4124.102539,4121.538574,4122.563965,4121.025879,4122.051270,4135.384766,4145.641113,838.000000,4.000000,,,,0.000000,4.000000,4.000000,4.000000,4.000000,4.000000,4.000000,4.000000,4.000000,4.000000,4.000000,4.000000,4.000000,4.000000,4.000000,100.000000
1602005396.283172,96.000000,0.000000,4149.230957,4146.153809,4138.461426,4142.563965,4166.153809,4117.436035,4120.512695,4125.641113,4118.461426,4135.384766,4125.641113,4121.538574,4140.512695,4152.307617,781.000000,4.000000,,,,0.000000,4.000000,4.000000,4.000000,4.000000,4.000000,4.000000,4.000000,4.000000,4.000000,4.000000,4.000000,4.000000,4.000000,4.000000,100.000000
1602005396.291054,97.000000,0.000000,4155.897461,4154.358887,4140.512695,4150.769043,4168.205078,4120.000000,4121.538574,4136.410156,4128.717773,4139.487305,4138.461426,4136.410156,4152.307617,4156.922852,775.000000,4.000000,,,,0.000000,4.000000,4.000000,4.000000,4.000000,4.000000,4.000000,4.000000,4.000000,4.000000,4.000000,4.000000,4.000000,4.000000,4.000000,100.000000
1602005396.298936,98.000000,0.000000,4164.102539,4156.922852,4144.102539,4156.410156,4171.282227,4128.717773,4123.077148,4140.512695,4135.897461,4130.769043,4142.051270,4145.641113,4157.948730,4159.487305,877.000000,4.000000,,,,0.000000,4.000000,4.000000,4.000000,4.000000,4.000000,4.000000,4.000000,4.000000,4.000000,4.000000,4.000000,4.000000,4.000000,4.000000,100.000000
1602005396.306818,99.000000,0.000000,4167.179688,4152.820313,4142.563965,4153.846191,4168.717773,4127.692383,4118.461426,4134.358887,4134.871582,4120.000000,4135.384766,4149.230957,4157.948730,4166.153809,838.000000,4.000000,,,,0.000000,4.000000,4.000000,4.000000,4.000000,4.000000,4.000000,4.000000,4.000000,4.000000,4.000000,4.000000,4.000000,4.000000,4.000000,100.000000
1602005396.314700,100.000000,0.000000,4168.205078,4150.256348,4141.025879,4153.333496,4167.179688,4127.179688,4123.077148,4134.358887,4142.563965,4116.922852,4144.615234,4162.563965,4167.692383,4171.282227,781.000000,4.000000,,,,0.000000,4.000000,4.000000,4.000000,4.000000,4.000000,4.000000,4.000000,4.000000,4.000000,4.000000,4.000000,4.000000,4.000000,4.000000,100.000000
1602005396.322582,101.000000,0.000000,4170.256348,4152.307617,4144.102539,4153.846191,4170.256348,4137.436035,4135.384766,4138.974121,4154.358887,4136.410156,4157.436035,4172.820313,4173.333496,4170.256348,775.000000,4.000000,,,,0.000000,4.000000,4.000000,4.000000,4.000000,4.000000,4.000000,4.000000,4.000000,4.000000,4.000000,4.000000,4.000000,4.000000,4.000000,100.000000
1602005396.330464,102.000000,0.000000,4171.794922,4153.846191,4145.128418,4152.820313,4169.743652,4151.282227,4142.563965,4139.487305,4156.410156,4158.461426,4153.333496,4168.717773,4169.230957,4170.769043,877.000000,4.000000,,,,0.000000,4.000000,4.000000,4.000000,4.000000,4.000000,4.000000,4.000000,4.000000,4.000000,4.000000,4.000000,4.000000,4.000000,4.000000,100.000000
1602005396.338446,103.000000,0.000000,4168.205078,4149.743652,4142.051270,4154.871582,4168.717773,4151.282227,4146.666504,4140.512695,4153.846191,4155.897461,4146.153809,4162.051270,4165.641113,4172.820313,838.000000,4.000000,,,,0.000000,4.000000,4.000000,4.000000,4.000000,4.000000,4.000000,4.000000,4.000000,4.000000,4.000000,4.000000,4.000000,4.000000,4.000000,100.000000
1602005396.346329,104.000000,0.000000,4159.487305,4140.000000,4139.487305,4150.256348,4169.230957,4140.000000,4146.153809,4140.512695,4151.282227,4143.077148,4144.615234,4155.897461,4160.000000,4166.153809,781.000000,4.000000,,,,0.000000,4.000000,4.000000,4.000000,4.000000,4.000000,4.000000,4.000000,4.000000,4.000000,4.000000,4.000000,4.000000,4.000000,4.000000,100.000000
1602005396.354211,105.000000,0.000000,4147.692383,4136.410156,4130.769043,4138.974121,4163.077148,4133.333496,4137.948730,4138.974121,4142.563965,4130.256348,4141.538574,4153.333496,4154.871582,4154.358887,775.000000,4.000000,,,,0.000000,4.000000,4.000000,4.000000,4.000000,4.000000,4.000000,4.000000,4.000000,4.000000,4.000000,4.000000,4.000000,4.000000,4.000000,100.000000
1602005396.362093,106.000000,0.000000,4141.538574,4132.820313,4122.563965,4135.897461,4153.333496,4130.256348,4127.179688,4137.436035,4134.358887,4113.846191,4131.794922,4153.333496,4150.769043,4152.307617,877.000000,4.000000,,,,0.000000,4.000000,4.000000,4.000000,4.000000,4.000000,4.000000,4.000000,4.000000,4.000000,4.000000,4.000000,4.000000,4.000000,4.000000,100.000000
1602005396.369975,107.000000,0.000000,4139.487305,4126.153809,4123.077148,4136.922852,4151.794922,4126.666504,4121.538574,4136.922852,4128.205078,4104.615234,4122.563965,4152.820313,4142.051270,4151.794922,838.000000,4.000000,,,,0.000000,4.000000,4.000000,4.000000,4.000000,4.000000,4.000000,4.000000,4.000000,4.000000,4.000000,4.000000,4.000000,4.000000,4.000000,100.000000
1602005396.377857,108.000000,0.000000,4132.307617,4120.000000,4123.589844,4128.717773,4152.820313,4126.666504,4118.461426,4138.461426,4125.128418,4103.589844,4121.025879,4148.717773,4135.384766,4140.512695,781.000000,4.000000,,,,0.000000,4.000000,4.000000,4.000000,4.000000,4.000000,4.000000,4.000000,4.000000,4.000000,4.000000,4.000000,4.000000,4.000000,4.000000,100.000000
1602005396.385739,109.000000,0.000000,4122.563965,4114.358887,4120.000000,4123.077148,4150.769043,4124.615234,4119.487305,4138.974121,4128.205078,4114.871582,4125.128418,4148.205078,4137.948730,4133.846191,775.000000,4.000000,,,,0.000000,4.000000,4.000000,4.000000,4.000000,4.000000,4.000000,4.000000,4.000000,4.000000,4.000000,4.000000,4.000000,4.000000,4.000000,100.000000
1602005396.393522,110.000000,0.000000,4122.563965,4111.282227,4121.538574,4128.717773,4152.307617,4120.512695,4120.512695,4131.282227,4128.717773,4132.820313,4126.666504,4152.307617,4140.000000,4140.000000,877.000000,4.000000,,,,0.000000,4.000000,4.000000,4.000000,4.000000,4.000000,4.000000,4.000000,4.000000,4.000000,4.000000,4.000000,4.000000,4.000000,4.000000,100.000000
1602005396.401404,111.000000,0.000000,4113.333496,4102.563965,4117.436035,4126.153809,4153.333496,4122.051270,4119.487305,4124.102539,4123.077148,4136.410156,4126.666504,4150.256348,4132.820313,4132.820313,838.000000,4.000000,,,,0.000000,4.000000,4.000000,4.000000,4.000000,4.000000,4.000000,4.000000,4.000000,4.000000,4.000000,4.000000,4.000000,4.000000,4.000000,100.000000
1602005396.409286,112.000000,0.000000,4093.333252,4091.794922,4102.563965,4116.922852,4144.102539,4123.077148,4118.461426,4122.051270,4122.051270,4121.538574,4123.077148,4142.563965,4120.000000,4111.282227,781.000000,4.000000,,,,0.000000,4.000000,4.000000,4.000000,4.000000,4.000000,4.000000,4.000000,4.000000,4.000000,4.000000,4.000000,4.000000,4.000000,4.000000,100.000000
1602005396.417169,113.000000,0.000000,4108.205078,4105.641113,4095.897461,4124.102539,4138.974121,4125.641113,4121.025879,4123.589844,4120.512695,4106.153809,4114.358887,4136.922852,4116.922852,4111.794922,775.000000,4.000000,,,,0.000000,4.000000,4.000000,4.000000,4.000000,4.000000,4.000000,4.000000,4.000000,4.000000,4.000000,4.000000,4.000000,4.000000,4.000000,100.000000
1602005396.425051,114.000000,0.000000,4147.179688,4132.307617,4103.589844,4139.487305,4146.666504,4134.871582,4129.743652,4131.282227,4119.487305,4106.153809,4110.256348,4134.871582,4123.077148,4131.794922,877.000000,4.000000,,,,0.000000,4.000000,4.000000,4.000000,4.000000,4.000000,4.000000,4.000000,4.000000,4.000000,4.000000,4.000000,4.000000,4.000000,4.000000,100.000000
1602005396.432933,115.000000,0.000000,4156.922852,4133.333496,4114.871582,4140.512695,4146.153809,4138.974121,4140.000000,4138.974121,4130.256348,4110.256348,4110.256348,4128.717773,4118.461426,4132.307617,838.000000,4.000000,,,,0.000000,4.000000,4.000000,4.000000,4.000000,4.000000,4.000000,4.000000,4.000000,4.000000,4.000000,4.000000,4.000000,4.000000,4.000000,100.000000
1602005396.440816,116.000000,0.000000,4149.230957,4122.051270,4118.974121,4134.871582,4135.897461,4136.410156,4142.563965,4140.512695,4137.436035,4093.846191,4106.153809,4124.615234,4106.666504,4121.025879,781.000000,4.000000,,,,0.000000,4.000000,4.000000,4.000000,4.000000,4.000000,4.000000,4.000000,4.000000,4.000000,4.000000,4.000000,4.000000,4.000000,4.000000,100.000000
1602005396.448698,117.000000,0.000000,4153.846191,4123.589844,4125.641113,4138.461426,4140.512695,4140.512695,4141.538574,4141.025879,4129.743652,4084.615479,4103.077148,4135.384766,4110.256348,4131.794922,775.000000,4.000000,,,,0.000000,4.000000,4.000000,4.000000,4.000000,4.000000,4.000000,4.000000,4.000000,4.000000,4.000000,4.000000,4.000000,4.000000,4.000000,100.000000
1602005396.456680,118.000000,0.000000,4162.051270,4124.102539,4138.461426,4143.589844,4153.333496,4143.589844,4141.025879,4136.922852,4123.589844,4114.358887,4112.307617,4151.794922,4123.589844,4147.692383,877.000000,4.000000,,,,0.000000,4.000000,4.000000,4.000000,4.000000,4.000000,4.000000,4.000000,4.000000,4.000000,4.000000,4.000000,4.000000,4.000000,4.000000,100.000000
1602005396.464561,119.000000,0.000000,4160.000000,4120.512695,4136.410156,4142.051270,4154.358887,4136.922852,4131.794922,4125.641113,4123.077148,4136.410156,4122.051270,4155.897461,4122.563965,4143.589844,838.000000,4.000000,,,,0.000000,4.000000,4.000000,4.000000,4.000000,4.000000,4.000000,4.000000,4.000000,4.000000,4.000000,4.000000,4.000000,4.000000,4.000000,100.000000
1602005396.472443,120.000000,0.000000,4155.384766,4121.025879,4125.128418,4139.487305,4153.846191,4135.384766,4123.077148,4120.512695,4120.512695,4121.538574,4121.025879,4153.333496,4118.461426,4142.051270,781.000000,4.000000,,,,0.000000,4.000000,4.000000,4.000000,4.000000,4.000000,4.000000,4.000000,4.000000,4.000000,4.000000,4.000000,4.000000,4.000000,4.000000,100.000000
1602005396.480325,121.000000,0.000000,4156.922852,4122.051270,4127.179688,4142.051270,4156.410156,4138.461426,4126.153809,4121.538574,4120.000000,4106.153809,4123.077148,4154.871582,4131.282227,4153.846191,775.000000,4.000000,,,,0.000000,4.000000,4.000000,4.000000,4.000000,4.000000,4.000000,4.000000,4.000000,4.000000,4.000000,4.000000,4.000000,4.000000,4.000000,100.000000
1602005396.488107,122.000000,0.000000,4156.410156,4121.538574,4133.846191,4142.563965,4155.384766,4130.769043,4127.179688,4120.000000,4121.025879,4109.743652,4133.333496,4157.948730,4138.461426,4156.410156,877.000000,4.000000,,,,0.000000,4.000000,4.000000,4.000000,4.000000,4.000000,4.000000,4.000000,4.000000,4.000000,4.000000,4.000000,4.000000,4.000000,4.000000,100.000000
1602005396.495989,123.000000,0.000000,4143.589844,4120.512695,4131.282227,4136.922852,4150.769043,4125.128418,4126.666504,4125.128418,4123.589844,4124.615234,4138.974121,4156.410156,4130.769043,4145.641113,838.000000,4.000000,,,,0.000000,4.000000,4.000000,4.000000,4.000000,4.000000,4.000000,4.000000,4.000000,4.000000,4.000000,4.000000,4.000000,4.000000,4.000000,100.000000
1602005396.503872,124.000000,0.000000,4134.871582,4119.487305,4133.333496,4135.897461,4146.666504,4134.871582,4134.358887,4135.384766,4132.307617,4124.615234,4137.948730,4160.000000,4132.307617,4140.512695,781.000000,4.000000,,,,0.000000,4.000000,4.000000,4.000000,4.000000,4.000000,4.000000,4.000000,4.000000,4.000000,4.000000,4.000000,4.000000,4.000000,4.000000,100.000000
1602005396.511754,125.000000,0.000000,4140.000000,4119.487305,4139.487305,4137.948730,4144.102539,4140.512695,4142.563965,4138.461426,4137.436035,4111.794922,4137.436035,4170.769043,4140.000000,4142.563965,775.000000,4.000000,,,,0.000000,4.000000,4.000000,4.000000,4.000000,4.000000,4.000000,4.000000,4.000000,4.000000,4.000000,4.000000,4.000000,4.000000,4.000000,100.000000
1602005396.519636,126.000000,0.000000,4135.384766,4119.487305,4138.461426,4134.358887,4143.077148,4135.384766,4143.589844,4138.974121,4140.512695,4124.102539,4136.410156,4170.769043,4138.461426,4140.000000,877.000000,4.000000,,,,0.000000,4.000000,4.000000,4.000000,4.000000,4.000000,4.000000,4.000000,4.000000,4.000000,4.000000,4.000000,4.000000,4.000000,4.000000,100.000000
1602005396.527519,127.000000,0.000000,4122.051270,4114.358887,4134.358887,4128.717773,4140.512695,4137.948730,4143.077148,4142.563965,4150.769043,4154.358887,4135.897461,4162.563965,4136.410156,4138.461426,838.000000,4.000000,,,,0.000000,4.000000,4.000000,4.000000,4.000000,4.000000,4.000000,4.000000,4.000000,4.000000,4.000000,4.000000,4.000000,4.000000,4.000000,100.000000
1602005396.535401,128.000000,0.000000,4121.025879,4108.717773,4126.153809,4126.666504,4138.974121,4142.051270,4136.410156,4142.563965,4155.384766,4158.461426,4137.436035,4153.846191,4140.000000,4138.461426,781.000000,4.000000,,,,0.000000,4.000000,4.000000,4.000000,4.000000,4.000000,4.000000,4.000000,4.000000,4.000000,4.000000,4.000000,4.000000,4.000000,4.000000,100.000000
1602005396.543284,0.000000,0.000000,4121.025879,4112.307617,4121.025879,4128.717773,4143.589844,4136.922852,4126.153809,4139.487305,4154.358887,4132.307617,4136.922852,4143.077148,4138.974121,4130.256348,805.000000,4.000000,,,,0.000000,4.000000,4.000000,4.000000,4.000000,4.000000,4.000000,4.000000,4.000000,4.000000,4.000000,4.000000,4.000000,4.000000,4.000000,100.000000
1602005396.551066,1.000000,0.000000,4112.820313,4120.512695,4122.563965,4133.846191,4150.769043,4138.461426,4123.077148,4132.307617,4150.769043,4117.948730,4130.769043,4128.717773,4133.333496,4118.461426,797.000000,4.000000,,,,0.000000,4.000000,4.000000,4.000000,4.000000,4.000000,4.000000,4.000000,4.000000,4.000000,4.000000,4.000000,4.000000,4.000000,4.000000,100.000000
1602005396.558948,2.000000,0.000000,4104.102539,4116.410156,4123.077148,4137.948730,4156.410156,4144.615234,4124.102539,4128.717773,4142.051270,4128.205078,4116.410156,4121.025879,4123.589844,4107.692383,855.000000,4.000000,,,,0.000000,4.000000,4.000000,4.000000,4.000000,4.000000,4.000000,4.000000,4.000000,4.000000,4.000000,4.000000,4.000000,4.000000,4.000000,100.000000
1602005396.566830,3.000000,0.000000,4101.025879,4105.128418,4122.051270,4135.384766,4159.487305,4143.077148,4124.102539,4134.358887,4135.897461,4125.641113,4109.230957,4120.000000,4115.384766,4102.051270,873.000000,4.000000,,,,0.000000,4.000000,4.000000,4.000000,4.000000,4.000000,4.000000,4.000000,4.000000,4.000000,4.000000,4.000000,4.000000,4.000000,4.000000,100.000000
1602005396.574712,4.000000,0.000000,4114.358887,4114.358887,4120.000000,4133.846191,4158.974121,4136.922852,4121.538574,4136.922852,4141.538574,4112.820313,4115.897461,4117.948730,4116.922852,4110.256348,804.000000,4.000000,,,,0.000000,4.000000,4.000000,4.000000,4.000000,4.000000,4.000000,4.000000,4.000000,4.000000,4.000000,4.000000,4.000000,4.000000,4.000000,100.000000
1602005396.582594,5.000000,0.000000,4139.487305,4138.461426,4125.641113,4143.077148,4157.948730,4136.922852,4118.461426,4133.333496,4150.256348,4127.692383,4122.563965,4118.461426,4122.563965,4123.589844,818.000000,4.000000,,,,0.000000,4.000000,4.000000,4.000000,4.000000,4.000000,4.000000,4.000000,4.000000,4.000000,4.000000,4.000000,4.000000,4.000000,4.000000,100.000000
1602005396.590476,6.000000,0.000000,4157.948730,4150.769043,4144.102539,4153.333496,4157.948730,4142.051270,4122.051270,4135.897461,4153.846191,4150.769043,4122.563965,4122.051270,4123.077148,4124.615234,772.000000,4.000000,,,,0.000000,4.000000,4.000000,4.000000,4.000000,4.000000,4.000000,4.000000,4.000000,4.000000,4.000000,4.000000,4.000000,4.000000,4.000000,100.000000
1602005396.598358,7.000000,0.000000,4164.102539,4154.871582,4155.384766,4155.897461,4157.948730,4145.128418,4127.179688,4142.563965,4152.820313,4146.153809,4122.563965,4123.589844,4123.589844,4124.615234,686.000000,4.000000,,,,0.000000,4.000000,4.000000,4.000000,4.000000,4.000000,4.000000,4.000000,4.000000,4.000000,4.000000,4.000000,4.000000,4.000000,4.000000,100.000000
1602005396.606341,8.000000,0.000000,4163.077148,4154.871582,4156.410156,4153.846191,4155.897461,4142.563965,4127.692383,4143.589844,4153.846191,4130.769043,4125.641113,4128.717773,4126.666504,4135.897461,788.000000,4.000000,,,,0.000000,4.000000,4.000000,4.000000,4.000000,4.000000,4.000000,4.000000,4.000000,4.000000,4.000000,4.000000,4.000000,4.000000,4.000000,100.000000
1602005396.614224,9.000000,0.000000,4157.436035,4145.641113,4162.051270,4149.230957,4149.230957,4137.948730,4131.794922,4143.077148,4154.871582,4128.205078,4127.179688,4141.025879,4127.179688,4145.128418,843.000000,4.000000,,,,0.000000,4.000000,4.000000,4.000000,4.000000,4.000000,4.000000,4.000000,4.000000,4.000000,4.000000,4.000000,4.000000,4.000000,4.000000,100.000000
1602005396.622106,10.000000,0.000000,4153.846191,4133.846191,4164.102539,4143.589844,4142.051270,4139.487305,4138.461426,4137.948730,4144.615234,4135.897461,4126.153809,4147.692383,4122.563965,4136.922852,877.000000,4.000000,,,,0.000000,4.000000,4.000000,4.000000,4.000000,4.000000,4.000000,4.000000,4.000000,4.000000,4.000000,4.000000,4.000000,4.000000,4.000000,100.000000
1602005396.629989,11.000000,0.000000,4152.820313,4127.179688,4155.384766,4138.974121,4140.512695,4141.538574,4138.461426,4135.384766,4135.897461,4129.743652,4123.589844,4148.205078,4114.871582,4127.179688,838.000000,4.000000,,,,0.000000,4.000000,4.000000,4.000000,4.000000,4.000000,4.000000,4.000000,4.000000,4.000000,4.000000,4.000000,4.000000,4.000000,4.000000,100.000000
1602005396.637871,12.000000,0.000000,4150.256348,4125.128418,4156.410156,4139.487305,4141.538574,4142.051270,4136.410156,4146.153809,4144.615234,4113.333496,4123.589844,4152.820313,4110.769043,4131.794922,781.000000,4.000000,,,,0.000000,4.000000,4.000000,4.000000,4.000000,4.000000,4.000000,4.000000,4.000000,4.000000,4.000000,4.000000,4.000000,4.000000,4.000000,100.000000
1602005396.645754,13.000000,0.000000,4151.794922,4129.230957,4162.563965,4141.025879,4138.974121,4143.589844,4140.000000,4151.794922,4154.871582,4121.538574,4125.128418,4157.436035,4111.794922,4142.051270,774.000000,4.000000,,,,0.000000,4.000000,4.000000,4.000000,4.000000,4.000000,4.000000,4.000000,4.000000,4.000000,4.000000,4.000000,4.000000,4.000000,4.000000,100.000000
1602005396.653637,14.000000,0.000000,4151.794922,4132.820313,4157.948730,4141.025879,4136.922852,4142.051270,4138.974121,4146.153809,4151.794922,4141.538574,4122.051270,4152.820313,4107.692383,4140.512695,877.000000,4.000000,,,,0.000000,4.000000,4.000000,4.000000,4.000000,4.000000,4.000000,4.000000,4.000000,4.000000,4.000000,4.000000,4.000000,4.000000,4.000000,100.000000
1602005396.661519,15.000000,0.000000,4152.307617,4133.333496,4155.384766,4140.000000,4144.615234,4137.948730,4132.307617,4137.948730,4143.077148,4136.922852,4117.948730,4143.589844,4103.077148,4128.717773,838.000000,4.000000,,,,0.000000,4.000000,4.000000,4.000000,4.000000,4.000000,4.000000,4.000000,4.000000,4.000000,4.000000,4.000000,4.000000,4.000000,4.000000,100.000000
1602005396.669402,16.000000,0.000000,4153.333496,4135.897461,4156.922852,4143.589844,4153.333496,4136.922852,4132.820313,4130.256348,4130.769043,4114.871582,4117.436035,4136.410156,4108.717773,4123.589844,0.000000,4.000000,,,,0.000000,4.000000,4.000000,4.000000,4.000000,4.000000,4.000000,4.000000,4.000000,4.000000,4.000000,4.000000,4.000000,4.000000,4.000000,100.000000
1602005396.677184,17.000000,0.000000,4152.820313,4141.538574,4154.358887,4151.282227,4153.333496,4136.922852,4132.820313,4127.692383,4126.153809,4112.307617,4125.128418,4137.436035,4118.974121,4131.794922,0.000000,4.000000,,,,0.000000,4.000000,4.000000,4.000000,4.000000,4.000000,4.000000,4.000000,4.000000,4.000000,4.000000,4.000000,4.000000,4.000000,4.000000,100.000000
1602005396.685067,18.000000,0.000000,4163.589844,4151.794922,4161.025879,4154.871582,4154.871582,4138.461426,4128.717773,4134.871582,4139.487305,4136.922852,4137.948730,4150.256348,4129.743652,4150.256348,0.000000,4.000000,,,,0.000000,4.000000,4.000000,4.000000,4.000000,4.000000,4.000000,4.000000,4.000000,4.000000,4.000000,4.000000,4.000000,4.000000,4.000000,100.000000
1602005396.692949,19.000000,0.000000,4175.384766,4158.974121,4171.282227,4156.922852,4158.974121,4137.948730,4130.256348,4138.974121,4147.692383,4140.000000,4138.974121,4156.922852,4141.538574,4163.589844,0.000000,4.000000,,,,0.000000,4.000000,4.000000,4.000000,4.000000,4.000000,4.000000,4.000000,4.000000,4.000000,4.000000,4.000000,4.000000,4.000000,4.000000,100.000000
1602005396.700831,20.000000,0.000000,4173.846191,4155.897461,4171.282227,4157.436035,4156.922852,4132.307617,4135.384766,4136.922852,4140.000000,4126.153809,4134.358887,4153.333496,4148.205078,4161.538574,0.000000,4.000000,,,,0.000000,4.000000,4.000000,4.000000,4.000000,4.000000,4.000000,4.000000,4.000000,4.000000,4.000000,4.000000,4.000000,4.000000,4.000000,100.000000
1602005396.708714,21.000000,0.000000,4174.358887,4157.436035,4168.717773,4157.436035,4161.538574,4139.487305,4141.538574,4146.666504,4149.230957,4152.820313,4148.205078,4154.871582,4155.897461,4158.461426,0.000000,4.000000,,,,0.000000,4.000000,4.000000,4.000000,4.000000,4.000000,4.000000,4.000000,4.000000,4.000000,4.000000,4.000000,4.000000,4.000000,4.000000,100.000000
1602005396.716596,22.000000,0.000000,4175.384766,4157.948730,4162.051270,4156.922852,4167.692383,4156.410156,4149.743652,4156.410156,4167.692383,4181.538574,4156.922852,4149.743652,4159.487305,4152.307617,0.000000,4.000000,,,,0.000000,4.000000,4.000000,4.000000,4.000000,4.000000,4.000000,4.000000,4.000000,4.000000,4.000000,4.000000,4.000000,4.000000,4.000000,100.000000
1602005396.724478,23.000000,0.000000,4155.897461,4144.615234,4144.615234,4150.769043,4160.512695,4158.974121,4150.256348,4147.692383,4162.563965,4154.358887,4141.025879,4127.179688,4147.692383,4143.589844,0.000000,4.000000,,,,0.000000,4.000000,4.000000,4.000000,4.000000,4.000000,4.000000,4.000000,4.000000,4.000000,4.000000,4.000000,4.000000,4.000000,4.000000,100.000000
1602005396.732361,24.000000,0.000000,4135.897461,4134.358887,4133.846191,4140.000000,4154.871582,4155.384766,4141.025879,4138.461426,4151.282227,4135.384766,4131.794922,4113.846191,4136.410156,4133.333496,0.000000,4.000000,,,,0.000000,4.000000,4.000000,4.000000,4.000000,4.000000,4.000000,4.000000,4.000000,4.000000,4.000000,4.000000,4.000000,4.000000,4.000000,100.000000
1602005396.740343,25.000000,0.000000,4135.384766,4134.871582,4136.410156,4135.384766,4156.410156,4152.820313,4130.769043,4136.922852,4150.256348,4160.000000,4137.948730,4121.025879,4137.436035,4126.153809,0.000000,4.000000,,,,0.000000,4.000000,4.000000,4.000000,4.000000,4.000000,4.000000,4.000000,4.000000,4.000000,4.000000,4.000000,4.000000,4.000000,4.000000,100.000000
1602005396.748225,26.000000,0.000000,4141.538574,4135.897461,4143.077148,4139.487305,4155.897461,4144.102539,4121.538574,4130.769043,4146.153809,4152.820313,4136.410156,4125.128418,4137.948730,4126.153809,0.000000,4.000000,,,,0.000000,4.000000,4.000000,4.000000,4.000000,4.000000,4.000000,4.000000,4.000000,4.000000,4.000000,4.000000,4.000000,4.000000,4.000000,100.000000
1602005396.756107,27.000000,0.000000,4144.615234,4136.410156,4150.256348,4144.102539,4160.000000,4136.410156,4116.410156,4122.051270,4137.436035,4115.897461,4134.358887,4123.589844,4136.922852,4134.871582,0.000000,4.000000,,,,0.000000,4.000000,4.000000,4.000000,4.000000,4.000000,4.000000,4.000000,4.000000,4.000000,4.000000,4.000000,4.000000,4.000000,4.000000,100.000000
1602005396.763989,28.000000,0.000000,4150.256348,4138.974121,4156.922852,4149.230957,4168.205078,4140.000000,4121.025879,4124.615234,4134.871582,4122.051270,4136.922852,4129.743652,4139.487305,4146.153809,0.000000,4.000000,,,,0.000000,4.000000,4.000000,4.000000,4.000000,4.000000,4.000000,4.000000,4.000000,4.000000,4.000000,4.000000,4.000000,4.000000,4.000000,100.000000
1602005396.771871,29.000000,0.000000,4154.358887,4142.563965,4160.512695,4154.358887,4166.666504,4140.000000,4125.641113,4129.743652,4134.358887,4161.538574,4138.974121,4138.461426,4140.000000,4148.205078,0.000000,4.000000,,,,0.000000,4.000000,4.000000,4.000000,4.000000,4.000000,4.000000,4.000000,4.000000,4.000000,4.000000,4.000000,4.000000,4.000000,4.000000,100.000000
1602005396.779753,30.000000,0.000000,4150.256348,4142.563965,4160.512695,4150.256348,4157.948730,4132.820313,4124.615234,4126.666504,4128.717773,4168.205078,4137.948730,4139.487305,4138.461426,4146.153809,0.000000,4.000000,,,,0.000000,4.000000,4.000000,4.000000,4.000000,4.000000,4.000000,4.000000,4.000000,4.000000,4.000000,4.000000,4.000000,4.000000,4.000000,100.000000
1602005396.787635,31.000000,0.000000,4140.000000,4137.436035,4156.410156,4142.051270,4151.794922,4131.794922,4123.077148,4120.512695,4117.948730,4134.871582,4130.256348,4134.358887,4136.922852,4141.025879,0.000000,4.000000,,,,0.000000,4.000000,4.000000,4.000000,4.000000,4.000000,4.000000,4.000000,4.000000,4.000000,4.000000,4.000000,4.000000,4.000000,4.000000,100.000000
1602005396.795417,32.000000,0.000000,4138.461426,4135.384766,4155.897461,4141.538574,4152.307617,4134.358887,4125.641113,4125.128418,4118.461426,4127.179688,4128.717773,4135.897461,4136.922852,4140.000000,0.000000,4.000000,,,,0.000000,4.000000,4.000000,4.000000,4.000000,4.000000,4.000000,4.000000,4.000000,4.000000,4.000000,4.000000,4.000000,4.000000,4.000000,100.000000
1602005396.803299,33.000000,0.000000,4147.692383,4137.436035,4159.487305,4144.615234,4150.256348,4134.871582,4130.256348,4135.897461,4136.922852,4155.897461,4136.922852,4144.615234,4137.436035,4149.230957,0.000000,4.000000,,,,0.000000,4.000000,4.000000,4.000000,4.000000,4.000000,4.000000,4.000000,4.000000,4.000000,4.000000,4.000000,4.000000,4.000000,4.000000,100.000000
1602005396.811181,34.000000,0.000000,4150.256348,4137.436035,4159.487305,4141.538574,4144.615234,4136.922852,4129.743652,4140.000000,4140.000000,4149.230957,4140.000000,4144.615234,4133.333496,4148.205078,0.000000,4.000000,,,,0.000000,4.000000,4.000000,4.000000,4.000000,4.000000,4.000000,4.000000,4.000000,4.000000,4.000000,4.000000,4.000000,4.000000,4.000000,100.000000
1602005396.819063,35.000000,0.000000,4142.563965,4136.410156,4157.436035,4140.000000,4147.692383,4137.436035,4125.128418,4132.820313,4124.615234,4113.333496,4134.358887,4134.358887,4125.128418,4138.461426,0.000000,4.000000,,,,0.000000,4.000000,4.000000,4.000000,4.000000,4.000000,4.000000,4.000000,4.000000,4.000000,4.000000,4.000000,4.000000,4.000000,4.000000,100.000000
1602005396.826945,36.000000,0.000000,4132.820313,4131.794922,4153.846191,4140.512695,4152.820313,4134.871582,4121.025879,4126.153809,4124.102539,4129.743652,4123.589844,4121.538574,4120.512695,4132.820313,0.000000,4.000000,,,,0.000000,4.000000,4.000000,4.000000,4.000000,4.000000,4.000000,4.000000,4.000000,4.000000,4.000000,4.000000,4.000000,4.000000,4.000000,100.000000
1602005396.834827,37.000000,0.000000,4127.692383,4128.205078,4150.769043,4138.461426,4153.333496,4135.897461,4124.102539,4132.307617,4136.922852,4173.846191,4117.948730,4122.563965,4126.153809,4134.871582,0.000000,4.000000,,,,0.000000,4.000000,4.000000,4.000000,4.000000,4.000000,4.000000,4.000000,4.000000,4.000000,4.000000,4.000000,4.000000,4.000000,4.000000,100.000000
1602005396.842609,38.000000,0.000000,4132.820313,4135.897461,4153.846191,4144.615234,4156.922852,4142.563965,4131.282227,4140.512695,4140.512695,4166.666504,4130.769043,4135.897461,4137.436035,4137.436035,0.000000,4.000000,,,,0.000000,4.000000,4.000000,4.000000,4.000000,4.000000,4.000000,4.000000,4.000000,4.000000,4.000000,4.000000,4.000000,4.000000,4.000000,100.000000
1602005396.850491,39.000000,0.000000,4145.641113,4144.102539,4158.461426,4153.333496,4159.487305,4142.563965,4128.717773,4138.974121,4138.461426,4142.563965,4144.102539,4138.974121,4143.077148,4144.102539,0.000000,4.000000,,,,0.000000,4.000000,4.000000,4.000000,4.000000,4.000000,4.000000,4.000000,4.000000,4.000000,4.000000,4.000000,4.000000,4.000000,4.000000,100.000000
1602005396.858373,40.000000,0.000000,4154.358887,4141.538574,4156.922852,4150.769043,4155.897461,4138.974121,4123.589844,4135.897461,4138.974121,4147.179688,4141.025879,4132.820313,4139.487305,4154.358887,0.000000,4.000000,,,,0.000000,4.000000,4.000000,4.000000,4.000000,4.000000,4.000000,4.000000,4.000000,4.000000,4.000000,4.000000,4.000000,4.000000,4.000000,100.000000
1602005396.866255,41.000000,0.000000,4149.230957,4138.461426,4155.897461,4144.615234,4162.563965,4139.487305,4127.692383,4139.487305,4147.692383,4156.922852,4142.051270,4135.897461,4138.974121,4158.461426,0.000000,4.000000,,,,0.000000,4.000000,4.000000,4.000000,4.000000,4.000000,4.000000,4.000000,4.000000,4.000000,4.000000,4.000000,4.000000,4.000000,4.000000,100.000000
1602005396.874137,42.000000,0.000000,4141.025879,4137.948730,4157.436035,4142.563965,4169.230957,4147.692383,4136.922852,4142.051270,4155.897461,4156.410156,4142.563965,4138.461426,4142.051270,4156.410156,0.000000,4.000000,,,,0.000000,4.000000,4.000000,4.000000,4.000000,4.000000,4.000000,4.000000,4.000000,4.000000,4.000000,4.000000,4.000000,4.000000,4.000000,100.000000
1602005396.882020,43.000000,0.000000,4138.974121,4131.794922,4148.205078,4138.461426,4161.025879,4154.358887,4137.948730,4138.461426,4144.615234,4135.384766,4131.282227,4129.230957,4133.846191,4147.692383,0.000000,4.000000,,,,0.000000,4.000000,4.000000,4.000000,4.000000,4.000000,4.000000,4.000000,4.000000,4.000000,4.000000,4.000000,4.000000,4.000000,4.000000,100.000000
1602005396.890002,44.000000,0.000000,4133.333496,4124.615234,4143.077148,4135.897461,4154.358887,4150.256348,4130.256348,4133.846191,4133.333496,4122.563965,4125.641113,4123.589844,4121.025879,4137.948730,0.000000,4.000000,,,,0.000000,4.000000,4.000000,4.000000,4.000000,4.000000,4.000000,4.000000,4.000000,4.000000,4.000000,4.000000,4.000000,4.000000,4.000000,100.000000
1602005396.897884,45.000000,0.000000,4126.153809,4125.128418,4147.179688,4138.974121,4156.922852,4143.077148,4125.128418,4130.769043,4135.897461,4137.948730,4129.230957,4126.153809,4119.487305,4135.897461,0.000000,4.000000,,,,0.000000,4.000000,4.000000,4.000000,4.000000,4.000000,4.000000,4.000000,4.000000,4.000000,4.000000,4.000000,4.000000,4.000000,4.000000,100.000000
1602005396.905766,46.000000,0.000000,4132.307617,4133.846191,4143.589844,4140.000000,4155.384766,4138.974121,4123.589844,4126.153809,4128.717773,4137.436035,4128.717773,4126.153809,4127.692383,4141.538574,0.000000,4.000000,,,,0.000000,4.000000,4.000000,4.000000,4.000000,4.000000,4.000000,4.000000,4.000000,4.000000,4.000000,4.000000,4.000000,4.000000,4.000000,100.000000
1602005396.913648,47.000000,0.000000,4145.641113,4140.000000,4140.000000,4138.974121,4152.307617,4134.871582,4122.051270,4125.641113,4120.000000,4123.589844,4134.358887,4126.153809,4134.358887,4146.666504,0.000000,4.000000,,,,0.000000,4.000000,4.000000,4.000000,4.000000,4.000000,4.000000,4.000000,4.000000,4.000000,4.000000,4.000000,4.000000,4.000000,4.000000,100.000000
1602005396.921530,48.000000,0.000000,4151.282227,4141.025879,4151.794922,4141.538574,4152.307617,4133.333496,4126.153809,4133.333496,4132.820313,4136.922852,4143.589844,4135.384766,4138.974121,4155.384766,0.000000,4.000000,,,,0.000000,4.000000,4.000000,4.000000,4.000000,4.000000,4.000000,4.000000,4.000000,4.000000,4.000000,4.000000,4.000000,4.000000,4.000000,100.000000
1602005396.929412,49.000000,0.000000,4154.358887,4140.512695,4167.179688,4144.615234,4152.820313,4136.922852,4136.410156,4140.000000,4147.179688,4157.948730,4144.102539,4150.769043,4143.077148,4169.743652,0.000000,4.000000,,,,0.000000,4.000000,4.000000,4.000000,4.000000,4.000000,4.000000,4.000000,4.000000,4.000000,4.000000,4.000000,4.000000,4.000000,4.000000,100.000000
1602005396.937294,50.000000,0.000000,4154.871582,4138.461426,4166.666504,4141.538574,4152.820313,4136.410156,4135.897461,4137.436035,4147.179688,4155.384766,4138.461426,4153.846191,4141.538574,4169.230957,0.000000,4.000000,,,,0.000000,4.000000,4.000000,4.000000,4.000000,4.000000,4.000000,4.000000,4.000000,4.000000,4.000000,4.000000,4.000000,4.000000,4.000000,100.000000
1602005396.945076,51.000000,0.000000,4148.717773,4134.358887,4158.974121,4136.922852,4152.820313,4133.846191,4124.102539,4131.794922,4138.974121,4141.025879,4130.769043,4144.102539,4137.948730,4151.794922,0.000000,4.000000,,,,0.000000,4.000000,4.000000,4.000000,4.000000,4.000000,4.000000,4.000000,4.000000,4.000000,4.000000,4.000000,4.000000,4.000000,4.000000,100.000000
1602005396.952958,52.000000,0.000000,4147.692383,4131.794922,4153.333496,4136.410156,4151.794922,4136.922852,4117.436035,4124.615234,4127.179688,4131.282227,4126.153809,4133.846191,4133.846191,4140.512695,0.000000,4.000000,,,,0.000000,4.000000,4.000000,4.000000,4.000000,4.000000,4.000000,4.000000,4.000000,4.000000,4.000000,4.000000,4.000000,4.000000,4.000000,100.000000
1602005396.960840,53.000000,0.000000,4149.230957,4133.846191,4153.333496,4136.922852,4151.282227,4138.461426,4119.487305,4122.563965,4126.666504,4130.256348,4129.743652,4127.692383,4131.282227,4141.538574,0.000000,4.000000,,,,0.000000,4.000000,4.000000,4.000000,4.000000,4.000000,4.000000,4.000000,4.000000,4.000000,4.000000,4.000000,4.000000,4.000000,4.000000,100.000000
1602005396.968722,54.000000,0.000000,4149.743652,4136.922852,4155.897461,4140.000000,4153.333496,4137.948730,4122.563965,4132.307617,4138.974121,4139.487305,4137.436035,4131.282227,4134.358887,4144.615234,0.000000,4.000000,,,,0.000000,4.000000,4.000000,4.000000,4.000000,4.000000,4.000000,4.000000,4.000000,4.000000,4.000000,4.000000,4.000000,4.000000,4.000000,100.000000
1602005396.976604,55.000000,0.000000,4147.179688,4138.461426,4155.897461,4144.102539,4154.871582,4137.436035,4122.563965,4138.974121,4143.077148,4146.666504,4135.897461,4135.897461,4140.512695,4149.743652,0.000000,4.000000,,,,0.000000,4.000000,4.000000,4.000000,4.000000,4.000000,4.000000,4.000000,4.000000,4.000000,4.000000,4.000000,4.000000,4.000000,4.000000,100.000000
1602005396.984486,56.000000,0.000000,4144.615234,4138.461426,4156.922852,4143.589844,4154.871582,4135.384766,4121.025879,4132.307617,4137.436035,4143.589844,4126.666504,4127.179688,4136.410156,4151.282227,0.000000,4.000000,,,,0.000000,4.000000,4.000000,4.000000,4.000000,4.000000,4.000000,4.000000,4.000000,4.000000,4.000000,4.000000,4.000000,4.000000,4.000000,100.000000
1602005396.992468,57.000000,0.000000,4144.102539,4139.487305,4156.410156,4142.051270,4155.384766,4133.846191,4123.077148,4124.615234,4135.384766,4137.948730,4122.051270,4120.512695,4125.641113,4142.563965,0.000000,4.000000,,,,0.000000,4.000000,4.000000,4.000000,4.000000,4.000000,4.000000,4.000000,4.000000,4.000000,4.000000,4.000000,4.000000,4.000000,4.000000,100.000000
1602005397.000351,58.000000,0.000000,4146.153809,4140.512695,4158.461426,4142.051270,4156.410156,4137.436035,4126.153809,4125.641113,4136.410156,4140.512695,4123.589844,4130.769043,4128.205078,4143.077148,0.000000,4.000000,,,,0.000000,4.000000,4.000000,4.000000,4.000000,4.000000,4.000000,4.000000,4.000000,4.000000,4.000000,4.000000,4.000000,4.000000,4.000000,100.000000
1602005397.008233,59.000000,0.000000,4151.282227,4141.025879,4160.000000,4145.641113,4156.410156,4138.974121,4123.077148,4130.256348,4132.820313,4137.948730,4125.128418,4137.436035,4136.922852,4151.282227,0.000000,4.000000,,,,0.000000,4.000000,4.000000,4.000000,4.000000,4.000000,4.000000,4.000000,4.000000,4.000000,4.000000,4.000000,4.000000,4.000000,4.000000,100.000000
1602005397.016116,60.000000,0.000000,4155.897461,4142.563965,4160.512695,4151.282227,4163.077148,4143.077148,4127.179688,4134.871582,4131.794922,4127.179688,4129.230957,4137.948730,4138.974121,4155.897461,0.000000,4.000000,,,,0.000000,4.000000,4.000000,4.000000,4.000000,4.000000,4.000000,4.000000,4.000000,4.000000,4.000000,4.000000,4.000000,4.000000,4.000000,100.000000
1602005397.023999,61.000000,0.000000,4151.794922,4138.974121,4160.000000,4149.743652,4168.717773,4150.769043,4137.948730,4140.000000,4137.948730,4130.769043,4138.461426,4141.025879,4139.487305,4156.410156,0.000000,4.000000,,,,0.000000,4.000000,4.000000,4.000000,4.000000,4.000000,4.000000,4.000000,4.000000,4.000000,4.000000,4.000000,4.000000,4.000000,4.000000,100.000000
1602005397.031881,62.000000,0.000000,4134.871582,4127.692383,4150.769043,4138.461426,4160.512695,4150.256348,4134.358887,4140.512695,4143.077148,4147.179688,4138.974121,4137.436035,4139.487305,4148.717773,0.000000,4.000000,,,,0.000000,4.000000,4.000000,4.000000,4.000000,4.000000,4.000000,4.000000,4.000000,4.000000,4.000000,4.000000,4.000000,4.000000,4.000000,100.000000
1602005397.039764,63.000000,0.000000,4129.230957,4124.102539,4138.461426,4133.333496,4155.384766,4145.128418,4124.615234,4136.922852,4139.487305,4151.282227,4131.282227,4133.333496,4135.897461,4144.102539,0.000000,4.000000,,,,0.000000,4.000000,4.000000,4.000000,4.000000,4.000000,4.000000,4.000000,4.000000,4.000000,4.000000,4.000000,4.000000,4.000000,4.000000,100.000000
1602005397.047646,64.000000,0.000000,4136.922852,4130.256348,4138.974121,4138.974121,4160.000000,4145.128418,4125.641113,4136.410156,4136.410156,4143.589844,4129.743652,4138.461426,4130.769043,4148.205078,806.000000,4.000000,,,,0.000000,4.000000,4.000000,4.000000,4.000000,4.000000,4.000000,4.000000,4.000000,4.000000,4.000000,4.000000,4.000000,4.000000,4.000000,100.000000
1602005397.055529,65.000000,0.000000,4132.820313,4127.692383,4146.153809,4138.974121,4159.487305,4143.589844,4128.205078,4138.461426,4138.974121,4137.948730,4130.256348,4139.487305,4126.153809,4145.128418,799.000000,4.000000,,,,0.000000,4.000000,4.000000,4.000000,4.000000,4.000000,4.000000,4.000000,4.000000,4.000000,4.000000,4.000000,4.000000,4.000000,4.000000,100.000000
1602005397.063412,66.000000,0.000000,4123.589844,4121.025879,4144.102539,4133.846191,4152.820313,4139.487305,4127.179688,4133.846191,4133.846191,4141.025879,4125.128418,4132.820313,4123.077148,4135.384766,855.000000,4.000000,,,,0.000000,4.000000,4.000000,4.000000,4.000000,4.000000,4.000000,4.000000,4.000000,4.000000,4.000000,4.000000,4.000000,4.000000,4.000000,100.000000
1602005397.071193,67.000000,0.000000,4124.102539,4127.692383,4140.512695,4134.871582,4153.333496,4140.512695,4127.692383,4127.179688,4124.615234,4135.384766,4122.051270,4135.897461,4124.102539,4140.512695,873.000000,4.000000,,,,0.000000,4.000000,4.000000,4.000000,4.000000,4.000000,4.000000,4.000000,4.000000,4.000000,4.000000,4.000000,4.000000,4.000000,4.000000,100.000000
1602005397.079074,68.000000,0.000000,4128.205078,4136.410156,4139.487305,4138.461426,4156.410156,4141.538574,4124.615234,4126.153809,4120.512695,4117.948730,4123.077148,4137.436035,4123.589844,4142.563965,804.000000,4.000000,,,,0.000000,4.000000,4.000000,4.000000,4.000000,4.000000,4.000000,4.000000,4.000000,4.000000,4.000000,4.000000,4.000000,4.000000,4.000000,100.000000
1602005397.086956,69.000000,0.000000,4130.256348,4135.897461,4137.948730,4136.410156,4156.410156,4138.461426,4121.025879,4122.051270,4115.897461,4114.871582,4119.487305,4129.230957,4121.025879,4133.333496,818.000000,4.000000,,,,0.000000,4.000000,4.000000,4.000000,4.000000,4.000000,4.000000,4.000000,4.000000,4.000000,4.000000,4.000000,4.000000,4.000000,4.000000,100.000000
1602005397.094737,70.000000,0.000000,4136.410156,4137.948730,4145.641113,4136.922852,4160.512695,4138.461426,4121.025879,4118.974121,4114.871582,4120.000000,4120.000000,4130.769043,4128.717773,4141.538574,772.000000,4.000000,,,,0.000000,4.000000,4.000000,4.000000,4.000000,4.000000,4.000000,4.000000,4.000000,4.000000,4.000000,4.000000,4.000000,4.000000,4.000000,100.000000
1602005397.102519,71.000000,0.000000,4143.077148,4142.051270,4154.871582,4145.641113,4170.256348,4140.512695,4122.563965,4128.717773,4130.256348,4124.102539,4127.179688,4141.025879,4139.487305,4156.922852,713.000000,4.000000,,,,0.000000,4.000000,4.000000,4.000000,4.000000,4.000000,4.000000,4.000000,4.000000,4.000000,4.000000,4.000000,4.000000,4.000000,4.000000,100.000000
1602005397.110401,72.000000,0.000000,4140.512695,4142.563965,4154.358887,4146.666504,4172.820313,4139.487305,4128.205078,4140.000000,4144.102539,4146.666504,4126.666504,4141.025879,4140.512695,4154.871582,788.000000,4.000000,,,,0.000000,4.000000,4.000000,4.000000,4.000000,4.000000,4.000000,4.000000,4.000000,4.000000,4.000000,4.000000,4.000000,4.000000,4.000000,100.000000
1602005397.118283,73.000000,0.000000,4138.461426,4143.077148,4153.846191,4143.077148,4164.102539,4140.512695,4136.922852,4142.051270,4141.025879,4160.512695,4129.230957,4136.922852,4140.000000,4152.820313,843.000000,4.000000,,,,0.000000,4.000000,4.000000,4.000000,4.000000,4.000000,4.000000,4.000000,4.000000,4.000000,4.000000,4.000000,4.000000,4.000000,4.000000,100.000000
1602005397.126164,74.000000,0.000000,4140.512695,4142.563965,4152.307617,4144.102539,4156.410156,4145.641113,4138.974121,4141.025879,4136.922852,4141.025879,4135.384766,4139.487305,4144.102539,4158.461426,877.000000,4.000000,,,,0.000000,4.000000,4.000000,4.000000,4.000000,4.000000,4.000000,4.000000,4.000000,4.000000,4.000000,4.000000,4.000000,4.000000,4.000000,100.000000
1602005397.134046,75.000000,0.000000,4136.410156,4135.897461,4140.512695,4141.538574,4152.820313,4142.563965,4136.410156,4140.512695,4136.410156,4135.384766,4127.179688,4138.461426,4135.897461,4150.769043,838.000000,4.000000,,,,0.000000,4.000000,4.000000,4.000000,4.000000,4.000000,4.000000,4.000000,4.000000,4.000000,4.000000,4.000000,4.000000,4.000000,4.000000,100.000000
1602005397.141928,76.000000,0.000000,4126.666504,4132.820313,4132.307617,4137.436035,4152.307617,4138.974121,4137.436035,4141.025879,4134.871582,4141.538574,4117.948730,4134.871582,4124.102539,4134.871582,806.000000,4.000000,,,,0.000000,4.000000,4.000000,4.000000,4.000000,4.000000,4.000000,4.000000,4.000000,4.000000,4.000000,4.000000,4.000000,4.000000,4.000000,100.000000
1602005397.149910,77.000000,0.000000,4123.077148,4137.948730,4136.922852,4138.461426,4159.487305,4144.102539,4140.000000,4142.563965,4135.384766,4112.307617,4123.589844,4138.461426,4128.717773,4133.333496,805.000000,4.000000,,,,0.000000,4.000000,4.000000,4.000000,4.000000,4.000000,4.000000,4.000000,4.000000,4.000000,4.000000,4.000000,4.000000,4.000000,4.000000,100.000000
1602005397.157792,78.000000,0.000000,4122.563965,4138.974121,4137.948730,4137.948730,4166.666504,4143.077148,4140.512695,4141.538574,4135.384766,4096.922852,4127.179688,4139.487305,4137.436035,4135.897461,877.000000,4.000000,,,,0.000000,4.000000,4.000000,4.000000,4.000000,4.000000,4.000000,4.000000,4.000000,4.000000,4.000000,4.000000,4.000000,4.000000,4.000000,100.000000
1602005397.165674,79.000000,0.000000,4120.512695,4135.384766,4134.871582,4136.922852,4167.179688,4136.922852,4136.410156,4140.000000,4134.871582,4129.743652,4127.179688,4137.436035,4135.897461,4135.384766,838.000000,4.000000,,,,0.000000,4.000000,4.000000,4.000000,4.000000,4.000000,4.000000,4.000000,4.000000,4.000000,4.000000,4.000000,4.000000,4.000000,4.000000,100.000000
1602005397.173557,80.000000,0.000000,4127.692383,4135.384766,4142.563965,4137.436035,4168.205078,4140.000000,4129.230957,4140.000000,4135.897461,4148.205078,4134.358887,4144.615234,4134.871582,4143.589844,806.000000,4.000000,,,,0.000000,4.000000,4.000000,4.000000,4.000000,4.000000,4.000000,4.000000,4.000000,4.000000,4.000000,4.000000,4.000000,4.000000,4.000000,100.000000
1602005397.181439,81.000000,0.000000,4136.410156,4138.461426,4153.333496,4139.487305,4169.230957,4143.589844,4127.179688,4137.948730,4133.846191,4131.794922,4137.436035,4154.358887,4136.922852,4152.307617,805.000000,4.000000,,,,0.000000,4.000000,4.000000,4.000000,4.000000,4.000000,4.000000,4.000000,4.000000,4.000000,4.000000,4.000000,4.000000,4.000000,4.000000,100.000000
1602005397.189321,82.000000,0.000000,4139.487305,4141.025879,4155.897461,4149.230957,4169.230957,4142.051270,4132.820313,4140.000000,4133.846191,4129.743652,4137.436035,4155.384766,4139.487305,4153.333496,877.000000,4.000000,,,,0.000000,4.000000,4.000000,4.000000,4.000000,4.000000,4.000000,4.000000,4.000000,4.000000,4.000000,4.000000,4.000000,4.000000,4.000000,100.000000
1602005397.197203,83.000000,0.000000,4147.692383,4140.512695,4155.897461,4152.820313,4165.128418,4141.538574,4138.461426,4143.077148,4140.000000,4147.179688,4141.025879,4157.436035,4142.051270,4156.922852,838.000000,4.000000,,,,0.000000,4.000000,4.000000,4.000000,4.000000,4.000000,4.000000,4.000000,4.000000,4.000000,4.000000,4.000000,4.000000,4.000000,4.000000,100.000000
1602005397.204986,84.000000,0.000000,4151.794922,4139.487305,4157.948730,4142.051270,4157.948730,4141.538574,4135.384766,4138.974121,4141.025879,4142.563965,4141.538574,4159.487305,4142.563965,4157.436035,806.000000,4.000000,,,,0.000000,4.000000,4.000000,4.000000,4.000000,4.000000,4.000000,4.000000,4.000000,4.000000,4.000000,4.000000,4.000000,4.000000,4.000000,100.000000
1602005397.212868,85.000000,0.000000,4145.641113,4140.000000,4160.000000,4141.538574,4152.820313,4138.974121,4133.846191,4135.897461,4136.410156,4113.333496,4142.051270,4156.922852,4147.692383,4152.820313,805.000000,4.000000,,,,0.000000,4.000000,4.000000,4.000000,4.000000,4.000000,4.000000,4.000000,4.000000,4.000000,4.000000,4.000000,4.000000,4.000000,4.000000,100.000000
1602005397.220751,86.000000,0.000000,4141.538574,4141.538574,4160.512695,4151.794922,4154.871582,4136.922852,4136.922852,4138.461426,4140.512695,4111.282227,4144.102539,4154.358887,4154.358887,4154.358887,877.000000,4.000000,,,,0.000000,4.000000,4.000000,4.000000,4.000000,4.000000,4.000000,4.000000,4.000000,4.000000,4.000000,4.000000,4.000000,4.000000,4.000000,100.000000
1602005397.228633,87.000000,0.000000,4142.051270,4140.512695,4152.820313,4145.641113,4153.846191,4135.384766,4131.282227,4132.820313,4145.641113,4144.615234,4141.538574,4148.205078,4147.692383,4150.769043,838.000000,4.000000,,,,0.000000,4.000000,4.000000,4.000000,4.000000,4.000000,4.000000,4.000000,4.000000,4.000000,4.000000,4.000000,4.000000,4.000000,4.000000,100.000000
1602005397.236516,88.000000,0.000000,4138.461426,4138.461426,4136.922852,4135.384766,4153.333496,4137.436035,4120.512695,4124.615234,4139.487305,4154.871582,4135.897461,4130.256348,4136.922852,4135.897461,806.000000,4.000000,,,,0.000000,4.000000,4.000000,4.000000,4.000000,4.000000,4.000000,4.000000,4.000000,4.000000,4.000000,4.000000,4.000000,4.000000,4.000000,100.000000
1602005397.244399,89.000000,0.000000,4140.000000,4138.974121,4134.358887,4145.128418,4165.128418,4143.077148,4125.641113,4128.717773,4135.384766,4134.358887,4136.410156,4121.538574,4138.461426,4132.820313,805.000000,4.000000,,,,0.000000,4.000000,4.000000,4.000000,4.000000,4.000000,4.000000,4.000000,4.000000,4.000000,4.000000,4.000000,4.000000,4.000000,4.000000,100.000000
1602005397.252281,90.000000,0.000000,4141.025879,4142.563965,4141.538574,4152.820313,4170.256348,4144.615234,4134.871582,4137.948730,4135.897461,4134.871582,4139.487305,4131.282227,4141.025879,4142.051270,877.000000,4.000000,,,,0.000000,4.000000,4.000000,4.000000,4.000000,4.000000,4.000000,4.000000,4.000000,4.000000,4.000000,4.000000,4.000000,4.000000,4.000000,100.000000
1602005397.260164,91.000000,0.000000,4127.692383,4140.000000,4138.461426,4143.077148,4158.461426,4137.436035,4129.230957,4136.922852,4130.256348,4142.563965,4141.025879,4132.820313,4138.974121,4141.538574,838.000000,4.000000,,,,0.000000,4.000000,4.000000,4.000000,4.000000,4.000000,4.000000,4.000000,4.000000,4.000000,4.000000,4.000000,4.000000,4.000000,4.000000,100.000000
1602005397.268046,92.000000,0.000000,4119.487305,4130.256348,4134.358887,4132.307617,4150.256348,4133.846191,4121.538574,4128.205078,4122.051270,4125.641113,4134.358887,4122.051270,4137.436035,4132.307617,806.000000,4.000000,,,,0.000000,4.000000,4.000000,4.000000,4.000000,4.000000,4.000000,4.000000,4.000000,4.000000,4.000000,4.000000,4.000000,4.000000,4.000000,100.000000
1602005397.276027,93.000000,0.000000,4123.589844,4121.538574,4133.333496,4125.641113,4152.820313,4130.769043,4118.974121,4122.051270,4111.794922,4105.641113,4122.563965,4117.436035,4131.794922,4122.051270,805.000000,4.000000,,,,0.000000,4.000000,4.000000,4.000000,4.000000,4.000000,4.000000,4.000000,4.000000,4.000000,4.000000,4.000000,4.000000,4.000000,4.000000,100.000000
1602005397.283909,94.000000,0.000000,4123.589844,4120.512695,4124.102539,4122.563965,4149.743652,4123.589844,4114.358887,4122.563965,4106.153809,4096.410156,4117.436035,4119.487305,4122.051270,4119.487305,877.000000,4.000000,,,,0.000000,4.000000,4.000000,4.000000,4.000000,4.000000,4.000000,4.000000,4.000000,4.000000,4.000000,4.000000,4.000000,4.000000,4.000000,100.000000
1602005397.291890,95.000000,0.000000,4120.000000,4129.743652,4123.077148,4129.743652,4145.641113,4123.077148,4114.871582,4122.563965,4115.384766,4110.769043,4120.512695,4121.025879,4121.025879,4129.230957,838.000000,4.000000,,,,0.000000,4.000000,4.000000,4.000000,4.000000,4.000000,4.000000,4.000000,4.000000,4.000000,4.000000,4.000000,4.000000,4.000000,4.000000,100.000000
1602005397.299771,96.000000,0.000000,4125.641113,4135.897461,4134.871582,4136.410156,4150.256348,4133.846191,4126.153809,4123.077148,4134.358887,4145.641113,4129.743652,4130.769043,4129.230957,4137.948730,806.000000,4.000000,,,,0.000000,4.000000,4.000000,4.000000,4.000000,4.000000,4.000000,4.000000,4.000000,4.000000,4.000000,4.000000,4.000000,4.000000,4.000000,100.000000
1602005397.307653,97.000000,0.000000,4137.436035,4135.384766,4140.512695,4129.743652,4151.794922,4148.205078,4136.410156,4131.282227,4149.743652,4162.051270,4137.948730,4148.717773,4139.487305,4143.589844,805.000000,4.000000,,,,0.000000,4.000000,4.000000,4.000000,4.000000,4.000000,4.000000,4.000000,4.000000,4.000000,4.000000,4.000000,4.000000,4.000000,4.000000,100.000000
1602005397.315634,98.000000,0.000000,4140.512695,4135.384766,4141.025879,4127.179688,4151.282227,4158.974121,4142.563965,4141.538574,4157.948730,4157.436035,4137.948730,4153.846191,4147.692383,4150.256348,877.000000,4.000000,,,,0.000000,4.000000,4.000000,4.000000,4.000000,4.000000,4.000000,4.000000,4.000000,4.000000,4.000000,4.000000,4.000000,4.000000,4.000000,100.000000
1602005397.323515,99.000000,0.000000,4131.282227,4132.307617,4137.436035,4130.256348,4153.846191,4161.538574,4142.563965,4142.563965,4157.948730,4160.000000,4139.487305,4144.615234,4149.230957,4149.743652,838.000000,4.000000,,,,0.000000,4.000000,4.000000,4.000000,4.000000,4.000000,4.000000,4.000000,4.000000,4.000000,4.000000,4.000000,4.000000,4.000000,4.000000,100.000000
1602005397.331496,100.000000,0.000000,4114.871582,4124.102539,4121.025879,4125.641113,4155.384766,4150.769043,4132.820313,4139.487305,4149.743652,4150.769043,4136.922852,4130.769043,4141.538574,4134.871582,806.000000,4.000000,,,,0.000000,4.000000,4.000000,4.000000,4.000000,4.000000,4.000000,4.000000,4.000000,4.000000,4.000000,4.000000,4.000000,4.000000,4.000000,100.000000
1602005397.339377,101.000000,0.000000,4102.563965,4117.436035,4107.179688,4117.436035,4150.769043,4138.461426,4123.077148,4138.974121,4144.615234,4116.410156,4125.641113,4115.897461,4129.743652,4119.487305,805.000000,4.000000,,,,0.000000,4.000000,4.000000,4.000000,4.000000,4.000000,4.000000,4.000000,4.000000,4.000000,4.000000,4.000000,4.000000,4.000000,4.000000,100.000000
1602005397.347258,102.000000,0.000000,4096.410156,4113.333496,4106.153809,4115.384766,4146.153809,4135.897461,4124.102539,4138.974121,4142.051270,4109.230957,4121.025879,4107.179688,4123.589844,4117.948730,877.000000,4.000000,,,,0.000000,4.000000,4.000000,4.000000,4.000000,4.000000,4.000000,4.000000,4.000000,4.000000,4.000000,4.000000,4.000000,4.000000,4.000000,100.000000
1602005397.355040,103.000000,0.000000,4093.333252,4107.692383,4105.128418,4116.922852,4144.102539,4136.922852,4125.641113,4139.487305,4141.538574,4133.846191,4117.948730,4105.641113,4119.487305,4115.897461,838.000000,4.000000,,,,0.000000,4.000000,4.000000,4.000000,4.000000,4.000000,4.000000,4.000000,4.000000,4.000000,4.000000,4.000000,4.000000,4.000000,4.000000,100.000000
1602005397.362922,104.000000,0.000000,4094.358887,4107.179688,4108.205078,4120.512695,4141.538574,4133.846191,4120.512695,4134.871582,4138.974121,4141.538574,4107.179688,4107.179688,4110.256348,4107.179688,806.000000,4.000000,,,,0.000000,4.000000,4.000000,4.000000,4.000000,4.000000,4.000000,4.000000,4.000000,4.000000,4.000000,4.000000,4.000000,4.000000,4.000000,100.000000
1602005397.370804,105.000000,0.000000,4097.948730,4108.717773,4117.436035,4117.436035,4134.358887,4126.153809,4119.487305,4124.615234,4127.179688,4120.512695,4105.128418,4110.769043,4106.666504,4109.230957,805.000000,4.000000,,,,0.000000,4.000000,4.000000,4.000000,4.000000,4.000000,4.000000,4.000000,4.000000,4.000000,4.000000,4.000000,4.000000,4.000000,4.000000,100.000000
1602005397.378686,106.000000,0.000000,4101.025879,4105.641113,4126.153809,4109.743652,4124.102539,4124.102539,4118.974121,4120.000000,4117.436035,4102.051270,4108.205078,4121.025879,4113.846191,4121.025879,877.000000,4.000000,,,,0.000000,4.000000,4.000000,4.000000,4.000000,4.000000,4.000000,4.000000,4.000000,4.000000,4.000000,4.000000,4.000000,4.000000,4.000000,100.000000
1602005397.386568,107.000000,0.000000,4110.769043,4105.128418,4141.025879,4113.846191,4123.077148,4127.179688,4114.871582,4122.051270,4120.512695,4105.641113,4109.230957,4133.333496,4121.538574,4127.692383,838.000000,4.000000,,,,0.000000,4.000000,4.000000,4.000000,4.000000,4.000000,4.000000,4.000000,4.000000,4.000000,4.000000,4.000000,4.000000,4.000000,4.000000,100.000000
1602005397.394550,108.000000,0.000000,4123.077148,4112.307617,4154.871582,4124.615234,4129.743652,4127.692383,4115.897461,4123.077148,4121.025879,4112.307617,4117.436035,4140.000000,4122.051270,4132.820313,806.000000,4.000000,,,,0.000000,4.000000,4.000000,4.000000,4.000000,4.000000,4.000000,4.000000,4.000000,4.000000,4.000000,4.000000,4.000000,4.000000,4.000000,100.000000
1602005397.402432,109.000000,0.000000,4124.615234,4120.000000,4156.410156,4126.666504,4129.230957,4125.641113,4120.000000,4123.589844,4108.717773,4103.077148,4121.538574,4140.000000,4122.051270,4137.436035,805.000000,4.000000,,,,0.000000,4.000000,4.000000,4.000000,4.000000,4.000000,4.000000,4.000000,4.000000,4.000000,4.000000,4.000000,4.000000,4.000000,4.000000,100.000000
1602005397.410315,110.000000,0.000000,4124.615234,4121.538574,4153.846191,4130.769043,4123.077148,4126.153809,4123.077148,4125.128418,4109.230957,4104.615234,4119.487305,4140.000000,4125.128418,4135.897461,877.000000,4.000000,,,,0.000000,4.000000,4.000000,4.000000,4.000000,4.000000,4.000000,4.000000,4.000000,4.000000,4.000000,4.000000,4.000000,4.000000,4.000000,100.000000
1602005397.418197,111.000000,0.000000,4127.179688,4119.487305,4149.230957,4135.384766,4123.077148,4125.128418,4126.666504,4126.153809,4121.538574,4128.717773,4123.077148,4141.025879,4126.153809,4133.846191,838.000000,4.000000,,,,0.000000,4.000000,4.000000,4.000000,4.000000,4.000000,4.000000,4.000000,4.000000,4.000000,4.000000,4.000000,4.000000,4.000000,4.000000,100.000000
1602005397.426080,112.000000,0.000000,4117.436035,4113.333496,4137.948730,4127.179688,4123.589844,4121.538574,4126.153809,4125.128418,4115.384766,4131.282227,4125.641113,4138.974121,4122.051270,4130.256348,806.000000,4.000000,,,,0.000000,4.000000,4.000000,4.000000,4.000000,4.000000,4.000000,4.000000,4.000000,4.000000,4.000000,4.000000,4.000000,4.000000,4.000000,100.000000
1602005397.433962,113.000000,0.000000,4110.769043,4108.205078,4136.922852,4121.025879,4118.974121,4119.487305,4121.538574,4124.102539,4102.563965,4105.641113,4122.563965,4137.436035,4120.000000,4124.615234,805.000000,4.000000,,,,0.000000,4.000000,4.000000,4.000000,4.000000,4.000000,4.000000,4.000000,4.000000,4.000000,4.000000,4.000000,4.000000,4.000000,4.000000,100.000000
1602005397.441844,114.000000,0.000000,4120.000000,4114.871582,4143.077148,4126.153809,4118.461426,4120.512695,4123.589844,4123.589844,4110.769043,4098.974121,4122.051270,4137.436035,4121.538574,4121.025879,877.000000,4.000000,,,,0.000000,4.000000,4.000000,4.000000,4.000000,4.000000,4.000000,4.000000,4.000000,4.000000,4.000000,4.000000,4.000000,4.000000,4.000000,100.000000
1602005397.449727,115.000000,0.000000,4122.051270,4122.563965,4140.000000,4126.153809,4121.538574,4123.077148,4127.179688,4126.153809,4123.077148,4114.871582,4122.563965,4136.410156,4121.025879,4121.025879,838.000000,4.000000,,,,0.000000,4.000000,4.000000,4.000000,4.000000,4.000000,4.000000,4.000000,4.000000,4.000000,4.000000,4.000000,4.000000,4.000000,4.000000,100.000000
1602005397.457609,116.000000,0.000000,4115.384766,4121.025879,4137.948730,4123.077148,4122.563965,4124.615234,4124.102539,4125.128418,4123.589844,4124.615234,4121.538574,4137.436035,4119.487305,4126.153809,806.000000,4.000000,,,,0.000000,4.000000,4.000000,4.000000,4.000000,4.000000,4.000000,4.000000,4.000000,4.000000,4.000000,4.000000,4.000000,4.000000,4.000000,100.000000
1602005397.465391,117.000000,0.000000,4120.000000,4118.974121,4140.512695,4124.615234,4122.051270,4125.128418,4117.436035,4118.461426,4123.077148,4118.461426,4121.538574,4140.000000,4123.077148,4137.948730,805.000000,4.000000,,,,0.000000,4.000000,4.000000,4.000000,4.000000,4.000000,4.000000,4.000000,4.000000,4.000000,4.000000,4.000000,4.000000,4.000000,4.000000,100.000000
1602005397.473272,118.000000,0.000000,4126.153809,4121.538574,4139.487305,4125.128418,4121.538574,4123.589844,4109.743652,4115.384766,4124.102539,4110.256348,4124.102539,4144.102539,4129.743652,4146.153809,877.000000,4.000000,,,,0.000000,4.000000,4.000000,4.000000,4.000000,4.000000,4.000000,4.000000,4.000000,4.000000,4.000000,4.000000,4.000000,4.000000,4.000000,100.000000
1602005397.481154,119.000000,0.000000,4123.077148,4124.615234,4142.563965,4129.230957,4126.666504,4120.512695,4109.230957,4119.487305,4123.589844,4120.512695,4130.769043,4150.256348,4134.871582,4151.794922,838.000000,4.000000,,,,0.000000,4.000000,4.000000,4.000000,4.000000,4.000000,4.000000,4.000000,4.000000,4.000000,4.000000,4.000000,4.000000,4.000000,4.000000,100.000000
1602005397.489036,120.000000,0.000000,4128.205078,4125.641113,4153.846191,4135.384766,4133.333496,4118.461426,4115.384766,4123.589844,4125.641113,4144.102539,4138.974121,4156.410156,4146.666504,4160.512695,806.000000,4.000000,,,,0.000000,4.000000,4.000000,4.000000,4.000000,4.000000,4.000000,4.000000,4.000000,4.000000,4.000000,4.000000,4.000000,4.000000,4.000000,100.000000
1602005397.496917,121.000000,0.000000,4141.025879,4130.769043,4155.897461,4137.436035,4134.358887,4118.461426,4118.461426,4125.128418,4127.179688,4148.717773,4142.051270,4157.948730,4155.384766,4161.538574,805.000000,4.000000,,,,0.000000,4.000000,4.000000,4.000000,4.000000,4.000000,4.000000,4.000000,4.000000,4.000000,4.000000,4.000000,4.000000,4.000000,4.000000,100.000000
1602005397.504699,122.000000,0.000000,4142.051270,4134.358887,4143.077148,4136.410156,4134.871582,4122.051270,4118.974121,4123.589844,4123.077148,4126.153809,4137.436035,4153.333496,4149.230957,4150.256348,877.000000,4.000000,,,,0.000000,4.000000,4.000000,4.000000,4.000000,4.000000,4.000000,4.000000,4.000000,4.000000,4.000000,4.000000,4.000000,4.000000,4.000000,100.000000
1602005397.512580,123.000000,0.000000,4130.256348,4128.205078,4136.922852,4132.307617,4134.871582,4125.641113,4120.512695,4120.512695,4119.487305,4115.897461,4130.256348,4141.025879,4138.461426,4144.102539,838.000000,4.000000,,,,0.000000,4.000000,4.000000,4.000000,4.000000,4.000000,4.000000,4.000000,4.000000,4.000000,4.000000,4.000000,4.000000,4.000000,4.000000,100.000000
1602005397.520362,124.000000,0.000000,4116.922852,4118.974121,4136.922852,4125.641113,4127.692383,4121.538574,4119.487305,4119.487305,4120.000000,4129.230957,4120.000000,4128.205078,4128.205078,4140.000000,806.000000,4.000000,,,,0.000000,4.000000,4.000000,4.000000,4.000000,4.000000,4.000000,4.000000,4.000000,4.000000,4.000000,4.000000,4.000000,4.000000,4.000000,100.000000
1602005397.528245,125.000000,0.000000,4111.282227,4115.897461,4128.205078,4122.051270,4122.563965,4122.051270,4118.974121,4121.538574,4120.000000,4124.615234,4109.230957,4124.102539,4116.410156,4124.615234,805.000000,4.000000,,,,0.000000,4.000000,4.000000,4.000000,4.000000,4.000000,4.000000,4.000000,4.000000,4.000000,4.000000,4.000000,4.000000,4.000000,4.000000,100.000000
1602005397.536127,126.000000,0.000000,4104.102539,4113.333496,4119.487305,4121.538574,4124.102539,4135.384766,4123.077148,4122.051270,4115.897461,4098.461426,4105.128418,4119.487305,4108.205078,4108.205078,877.000000,4.000000,,,,0.000000,4.000000,4.000000,4.000000,4.000000,4.000000,4.000000,4.000000,4.000000,4.000000,4.000000,4.000000,4.000000,4.000000,4.000000,100.000000
