Timestamp,EEG.Counter,EEG.Interpolated,EEG.AF3,EEG.F7,EEG.F3,EEG.FC5,EEG.T7,EEG.P7,EEG.O1,EEG.O2,EEG.P8,EEG.T8,EEG.FC6,EEG.F4,EEG.F8,EEG.AF4,EEG.RawCq,EEG.Battery,MarkerIndex,MarkerType,MarkerValueInt,EEG.MarkerHardware,CQ.AF3,CQ.F7,CQ.F3,CQ.FC5,CQ.T7,CQ.P7,CQ.O1,CQ.O2,CQ.P8,CQ.T8,CQ.FC6,CQ.F4,CQ.F8,CQ.AF4,CQ.Overall
1602005412.185993,50.000000,0.000000,4133.333496,4140.512695,4123.589844,4135.897461,4153.846191,4138.974121,4137.948730,4140.000000,4136.922852,4138.974121,4137.436035,4150.256348,4141.025879,4137.948730,0.000000,4.000000,,,,0.000000,4.000000,4.000000,4.000000,4.000000,4.000000,4.000000,4.000000,4.000000,4.000000,4.000000,4.000000,4.000000,4.000000,4.000000,100.000000
1602005412.193776,51.000000,0.000000,4123.589844,4138.461426,4121.025879,4136.410156,4153.333496,4137.436035,4136.922852,4138.974121,4130.769043,4136.410156,4135.897461,4140.512695,4131.794922,4123.589844,0.000000,4.000000,,,,0.000000,4.000000,4.000000,4.000000,4.000000,4.000000,4.000000,4.000000,4.000000,4.000000,4.000000,4.000000,4.000000,4.000000,4.000000,100.000000
1602005412.201658,52.000000,0.000000,4123.589844,4135.897461,4122.563965,4136.410156,4151.282227,4137.948730,4137.436035,4134.871582,4124.615234,4132.307617,4131.282227,4135.384766,4124.615234,4120.000000,0.000000,4.000000,,,,0.000000,4.000000,4.000000,4.000000,4.000000,4.000000,4.000000,4.000000,4.000000,4.000000,4.000000,4.000000,4.000000,4.000000,4.000000,100.000000
1602005412.209540,53.000000,0.000000,4123.077148,4130.256348,4120.512695,4135.384766,4140.000000,4133.333496,4134.358887,4131.282227,4121.538574,4121.538574,4122.563965,4129.230957,4120.512695,4116.922852,0.000000,4.000000,,,,0.000000,4.000000,4.000000,4.000000,4.000000,4.000000,4.000000,4.000000,4.000000,4.000000,4.000000,4.000000,4.000000,4.000000,4.000000,100.000000
1602005412.217423,54.000000,0.000000,4112.820313,4124.615234,4113.846191,4132.307617,4134.871582,4128.717773,4133.333496,4133.333496,4122.051270,4108.717773,4120.512695,4125.641113,4119.487305,4105.128418,0.000000,4.000000,,,,0.000000,4.000000,4.000000,4.000000,4.000000,4.000000,4.000000,4.000000,4.000000,4.000000,4.000000,4.000000,4.000000,4.000000,4.000000,100.000000
1602005412.225305,55.000000,0.000000,4105.128418,4124.102539,4114.871582,4127.179688,4135.384766,4134.358887,4137.436035,4137.948730,4127.179688,4113.333496,4126.153809,4133.333496,4120.512695,4108.205078,0.000000,4.000000,,,,0.000000,4.000000,4.000000,4.000000,4.000000,4.000000,4.000000,4.000000,4.000000,4.000000,4.000000,4.000000,4.000000,4.000000,4.000000,100.000000
1602005412.233187,56.000000,0.000000,4111.282227,4123.077148,4122.563965,4123.589844,4131.282227,4140.000000,4140.000000,4139.487305,4134.871582,4128.205078,4129.230957,4139.487305,4123.077148,4122.051270,0.000000,4.000000,,,,0.000000,4.000000,4.000000,4.000000,4.000000,4.000000,4.000000,4.000000,4.000000,4.000000,4.000000,4.000000,4.000000,4.000000,4.000000,100.000000
1602005412.241070,57.000000,0.000000,4123.077148,4123.589844,4126.153809,4124.615234,4130.256348,4140.512695,4142.051270,4139.487305,4138.461426,4136.922852,4128.205078,4137.948730,4125.641113,4127.692383,0.000000,4.000000,,,,0.000000,4.000000,4.000000,4.000000,4.000000,4.000000,4.000000,4.000000,4.000000,4.000000,4.000000,4.000000,4.000000,4.000000,4.000000,100.000000
1602005412.248952,58.000000,0.000000,4123.589844,4125.128418,4124.102539,4124.102539,4130.256348,4136.410156,4140.512695,4138.974121,4136.922852,4138.974121,4125.128418,4135.897461,4123.077148,4126.153809,0.000000,4.000000,,,,0.000000,4.000000,4.000000,4.000000,4.000000,4.000000,4.000000,4.000000,4.000000,4.000000,4.000000,4.000000,4.000000,4.000000,4.000000,100.000000
1602005412.256835,59.000000,0.000000,4120.000000,4123.077148,4121.025879,4122.051270,4128.717773,4132.307617,4136.922852,4139.487305,4137.436035,4138.974121,4127.692383,4136.922852,4122.051270,4123.077148,0.000000,4.000000,,,,0.000000,4.000000,4.000000,4.000000,4.000000,4.000000,4.000000,4.000000,4.000000,4.000000,4.000000,4.000000,4.000000,4.000000,4.000000,100.000000
1602005412.264816,60.000000,0.000000,4123.589844,4126.153809,4121.538574,4125.128418,4134.358887,4134.871582,4137.948730,4141.025879,4138.461426,4141.025879,4135.897461,4138.974121,4129.230957,4125.641113,0.000000,4.000000,,,,0.000000,4.000000,4.000000,4.000000,4.000000,4.000000,4.000000,4.000000,4.000000,4.000000,4.000000,4.000000,4.000000,4.000000,4.000000,100.000000
1602005412.272697,61.000000,0.000000,4125.641113,4134.871582,4131.282227,4127.179688,4141.025879,4137.436035,4135.384766,4140.512695,4137.436035,4131.794922,4140.000000,4143.077148,4136.410156,4136.410156,0.000000,4.000000,,,,0.000000,4.000000,4.000000,4.000000,4.000000,4.000000,4.000000,4.000000,4.000000,4.000000,4.000000,4.000000,4.000000,4.000000,4.000000,100.000000
1602005412.280579,62.000000,0.000000,4124.615234,4136.922852,4140.000000,4125.128418,4137.948730,4132.307617,4125.128418,4138.461426,4135.897461,4121.025879,4146.153809,4150.769043,4137.436035,4140.512695,0.000000,4.000000,,,,0.000000,4.000000,4.000000,4.000000,4.000000,4.000000,4.000000,4.000000,4.000000,4.000000,4.000000,4.000000,4.000000,4.000000,4.000000,100.000000
1602005412.288559,63.000000,0.000000,4125.128418,4133.333496,4138.461426,4130.769043,4136.410156,4132.820313,4126.153809,4137.436035,4135.897461,4127.179688,4151.282227,4155.897461,4134.358887,4130.256348,0.000000,4.000000,,,,0.000000,4.000000,4.000000,4.000000,4.000000,4.000000,4.000000,4.000000,4.000000,4.000000,4.000000,4.000000,4.000000,4.000000,4.000000,100.000000
1602005412.296541,64.000000,0.000000,4125.641113,4134.871582,4134.358887,4137.436035,4138.974121,4137.948730,4136.922852,4137.948730,4131.282227,4125.641113,4144.615234,4156.410156,4127.179688,4127.692383,807.000000,4.000000,,,,0.000000,4.000000,4.000000,4.000000,4.000000,4.000000,4.000000,4.000000,4.000000,4.000000,4.000000,4.000000,4.000000,4.000000,4.000000,100.000000
1602005412.304422,65.000000,0.000000,4123.589844,4137.436035,4132.820313,4131.282227,4140.512695,4136.922852,4137.436035,4138.461426,4124.615234,4121.538574,4135.897461,4150.256348,4121.025879,4131.282227,797.000000,4.000000,,,,0.000000,4.000000,4.000000,4.000000,4.000000,4.000000,4.000000,4.000000,4.000000,4.000000,4.000000,4.000000,4.000000,4.000000,4.000000,100.000000
1602005412.312304,66.000000,0.000000,4121.025879,4130.769043,4129.230957,4126.153809,4142.563965,4135.897461,4129.743652,4138.974121,4129.230957,4140.512695,4137.948730,4142.051270,4123.077148,4127.179688,855.000000,4.000000,,,,0.000000,4.000000,4.000000,4.000000,4.000000,4.000000,4.000000,4.000000,4.000000,4.000000,4.000000,4.000000,4.000000,4.000000,4.000000,100.000000
1602005412.320085,67.000000,0.000000,4117.436035,4124.102539,4121.538574,4127.692383,4140.000000,4132.820313,4124.102539,4136.410156,4136.410156,4148.205078,4140.512695,4134.871582,4122.563965,4118.974121,873.000000,4.000000,,,,0.000000,4.000000,4.000000,4.000000,4.000000,4.000000,4.000000,4.000000,4.000000,4.000000,4.000000,4.000000,4.000000,4.000000,4.000000,100.000000
1602005412.327966,68.000000,0.000000,4120.000000,4131.282227,4121.538574,4129.743652,4138.974121,4127.692383,4121.538574,4135.897461,4136.410156,4136.922852,4138.461426,4137.436035,4123.077148,4117.948730,811.000000,4.000000,,,,0.000000,4.000000,4.000000,4.000000,4.000000,4.000000,4.000000,4.000000,4.000000,4.000000,4.000000,4.000000,4.000000,4.000000,4.000000,100.000000
1602005412.335748,69.000000,0.000000,4122.051270,4133.846191,4127.692383,4126.666504,4140.512695,4126.666504,4125.641113,4138.974121,4137.948730,4141.025879,4140.000000,4145.128418,4131.794922,4128.717773,822.000000,4.000000,,,,0.000000,4.000000,4.000000,4.000000,4.000000,4.000000,4.000000,4.000000,4.000000,4.000000,4.000000,4.000000,4.000000,4.000000,4.000000,100.000000
1602005412.343629,70.000000,0.000000,4120.000000,4122.563965,4124.615234,4123.077148,4136.410156,4124.102539,4134.358887,4138.461426,4136.922852,4135.384766,4138.974121,4141.538574,4136.922852,4136.922852,772.000000,4.000000,,,,0.000000,4.000000,4.000000,4.000000,4.000000,4.000000,4.000000,4.000000,4.000000,4.000000,4.000000,4.000000,4.000000,4.000000,4.000000,100.000000
1602005412.351510,71.000000,0.000000,4127.692383,4126.153809,4124.615234,4130.769043,4135.384766,4129.230957,4140.512695,4138.461426,4137.436035,4120.000000,4140.000000,4138.461426,4139.487305,4140.000000,741.000000,4.000000,,,,0.000000,4.000000,4.000000,4.000000,4.000000,4.000000,4.000000,4.000000,4.000000,4.000000,4.000000,4.000000,4.000000,4.000000,4.000000,100.000000
1602005412.359392,72.000000,0.000000,4135.384766,4140.000000,4135.384766,4137.436035,4138.461426,4137.436035,4141.538574,4142.563965,4135.384766,4127.692383,4143.589844,4140.512695,4137.948730,4138.461426,814.000000,4.000000,,,,0.000000,4.000000,4.000000,4.000000,4.000000,4.000000,4.000000,4.000000,4.000000,4.000000,4.000000,4.000000,4.000000,4.000000,4.000000,100.000000
1602005412.367173,73.000000,0.000000,4126.153809,4132.307617,4133.846191,4127.179688,4135.897461,4131.794922,4137.436035,4135.897461,4119.487305,4132.820313,4136.922852,4133.333496,4127.179688,4128.717773,843.000000,4.000000,,,,0.000000,4.000000,4.000000,4.000000,4.000000,4.000000,4.000000,4.000000,4.000000,4.000000,4.000000,4.000000,4.000000,4.000000,4.000000,100.000000
1602005412.375055,74.000000,0.000000,4118.974121,4121.538574,4125.128418,4121.025879,4132.307617,4125.128418,4133.333496,4121.538574,4107.179688,4125.641113,4128.205078,4123.077148,4120.000000,4124.102539,871.000000,4.000000,,,,0.000000,4.000000,4.000000,4.000000,4.000000,4.000000,4.000000,4.000000,4.000000,4.000000,4.000000,4.000000,4.000000,4.000000,4.000000,100.000000
1602005412.382937,75.000000,0.000000,4124.615234,4130.769043,4132.307617,4131.794922,4137.436035,4127.692383,4133.846191,4124.615234,4116.410156,4131.794922,4132.820313,4132.307617,4123.077148,4131.282227,838.000000,4.000000,,,,0.000000,4.000000,4.000000,4.000000,4.000000,4.000000,4.000000,4.000000,4.000000,4.000000,4.000000,4.000000,4.000000,4.000000,4.000000,100.000000
1602005412.390818,76.000000,0.000000,4127.692383,4138.461426,4142.051270,4137.436035,4139.487305,4125.128418,4134.871582,4135.897461,4129.743652,4142.051270,4140.512695,4149.743652,4128.717773,4138.461426,783.000000,4.000000,,,,0.000000,4.000000,4.000000,4.000000,4.000000,4.000000,4.000000,4.000000,4.000000,4.000000,4.000000,4.000000,4.000000,4.000000,4.000000,100.000000
1602005412.398600,77.000000,0.000000,4129.743652,4136.922852,4140.512695,4135.897461,4137.948730,4127.179688,4135.897461,4142.051270,4135.897461,4138.461426,4139.487305,4153.846191,4134.871582,4137.948730,811.000000,4.000000,,,,0.000000,4.000000,4.000000,4.000000,4.000000,4.000000,4.000000,4.000000,4.000000,4.000000,4.000000,4.000000,4.000000,4.000000,4.000000,100.000000
1602005412.406481,78.000000,0.000000,4135.897461,4138.974121,4138.974121,4138.461426,4147.179688,4141.538574,4140.512695,4145.128418,4140.512695,4138.461426,4139.487305,4151.794922,4141.538574,4138.974121,871.000000,4.000000,,,,0.000000,4.000000,4.000000,4.000000,4.000000,4.000000,4.000000,4.000000,4.000000,4.000000,4.000000,4.000000,4.000000,4.000000,4.000000,100.000000
1602005412.414363,79.000000,0.000000,4137.436035,4142.051270,4140.512695,4138.974121,4153.333496,4145.641113,4143.077148,4144.102539,4141.025879,4149.743652,4144.615234,4152.820313,4142.563965,4140.512695,838.000000,4.000000,,,,0.000000,4.000000,4.000000,4.000000,4.000000,4.000000,4.000000,4.000000,4.000000,4.000000,4.000000,4.000000,4.000000,4.000000,4.000000,100.000000
1602005412.422244,80.000000,0.000000,4140.512695,4141.025879,4142.563965,4138.461426,4143.077148,4139.487305,4139.487305,4138.461426,4139.487305,4147.692383,4147.692383,4152.307617,4142.563965,4143.077148,783.000000,4.000000,,,,0.000000,4.000000,4.000000,4.000000,4.000000,4.000000,4.000000,4.000000,4.000000,4.000000,4.000000,4.000000,4.000000,4.000000,4.000000,100.000000
1602005412.430027,81.000000,0.000000,4138.974121,4137.948730,4144.102539,4138.461426,4134.358887,4133.846191,4136.922852,4131.794922,4133.333496,4121.025879,4145.128418,4145.641113,4137.436035,4140.000000,811.000000,4.000000,,,,0.000000,4.000000,4.000000,4.000000,4.000000,4.000000,4.000000,4.000000,4.000000,4.000000,4.000000,4.000000,4.000000,4.000000,4.000000,100.000000
1602005412.437909,82.000000,0.000000,4130.769043,4135.897461,4140.000000,4138.461426,4135.897461,4128.205078,4136.922852,4127.179688,4122.563965,4109.743652,4138.461426,4139.487305,4126.666504,4126.153809,871.000000,4.000000,,,,0.000000,4.000000,4.000000,4.000000,4.000000,4.000000,4.000000,4.000000,4.000000,4.000000,4.000000,4.000000,4.000000,4.000000,4.000000,100.000000
1602005412.445791,83.000000,0.000000,4132.307617,4135.384766,4138.461426,4138.461426,4137.948730,4129.743652,4137.948730,4132.307617,4121.538574,4140.000000,4135.384766,4139.487305,4126.153809,4121.025879,838.000000,4.000000,,,,0.000000,4.000000,4.000000,4.000000,4.000000,4.000000,4.000000,4.000000,4.000000,4.000000,4.000000,4.000000,4.000000,4.000000,4.000000,100.000000
1602005412.453674,84.000000,0.000000,4133.846191,4136.410156,4138.461426,4136.410156,4138.461426,4131.794922,4137.436035,4140.000000,4131.282227,4158.461426,4136.922852,4138.974121,4129.743652,4128.205078,783.000000,4.000000,,,,0.000000,4.000000,4.000000,4.000000,4.000000,4.000000,4.000000,4.000000,4.000000,4.000000,4.000000,4.000000,4.000000,4.000000,4.000000,100.000000
1602005412.461556,85.000000,0.000000,4128.205078,4140.512695,4136.922852,4136.922852,4138.974121,4127.179688,4137.948730,4138.461426,4135.897461,4145.128418,4135.897461,4136.410156,4127.179688,4137.436035,811.000000,4.000000,,,,0.000000,4.000000,4.000000,4.000000,4.000000,4.000000,4.000000,4.000000,4.000000,4.000000,4.000000,4.000000,4.000000,4.000000,4.000000,100.000000
1602005412.469438,86.000000,0.000000,4122.563965,4131.282227,4137.436035,4135.384766,4137.948730,4127.179688,4146.666504,4143.589844,4136.410156,4138.461426,4134.871582,4142.051270,4126.666504,4141.538574,871.000000,4.000000,,,,0.000000,4.000000,4.000000,4.000000,4.000000,4.000000,4.000000,4.000000,4.000000,4.000000,4.000000,4.000000,4.000000,4.000000,4.000000,100.000000
1602005412.477321,87.000000,0.000000,4115.384766,4114.358887,4133.846191,4125.641113,4136.922852,4127.179688,4154.358887,4153.333496,4140.512695,4136.410156,4136.922852,4148.717773,4126.153809,4133.333496,838.000000,4.000000,,,,0.000000,4.000000,4.000000,4.000000,4.000000,4.000000,4.000000,4.000000,4.000000,4.000000,4.000000,4.000000,4.000000,4.000000,4.000000,100.000000
1602005412.485203,88.000000,0.000000,4124.615234,4127.692383,4129.230957,4127.179688,4135.384766,4121.538574,4147.692383,4146.666504,4143.077148,4135.897461,4138.974121,4145.641113,4123.589844,4127.692383,783.000000,4.000000,,,,0.000000,4.000000,4.000000,4.000000,4.000000,4.000000,4.000000,4.000000,4.000000,4.000000,4.000000,4.000000,4.000000,4.000000,4.000000,100.000000
1602005412.493085,89.000000,0.000000,4158.974121,4162.563965,4135.897461,4148.205078,4137.436035,4121.538574,4137.436035,4133.333496,4135.384766,4133.333496,4135.384766,4141.538574,4125.128418,4141.538574,811.000000,4.000000,,,,0.000000,4.000000,4.000000,4.000000,4.000000,4.000000,4.000000,4.000000,4.000000,4.000000,4.000000,4.000000,4.000000,4.000000,4.000000,100.000000
1602005412.500867,90.000000,0.000000,4177.436035,4172.820313,4138.974121,4158.461426,4137.436035,4124.615234,4137.436035,4127.179688,4121.538574,4108.205078,4121.538574,4142.051270,4116.922852,4142.563965,871.000000,4.000000,,,,0.000000,4.000000,4.000000,4.000000,4.000000,4.000000,4.000000,4.000000,4.000000,4.000000,4.000000,4.000000,4.000000,4.000000,4.000000,100.000000
1602005412.508748,91.000000,0.000000,4164.102539,4164.615234,4126.666504,4151.282227,4129.743652,4121.025879,4135.897461,4123.077148,4114.871582,4093.846191,4105.641113,4133.333496,4092.820557,4113.846191,838.000000,4.000000,,,,0.000000,4.000000,4.000000,4.000000,4.000000,4.000000,4.000000,4.000000,4.000000,4.000000,4.000000,4.000000,4.000000,4.000000,4.000000,100.000000
1602005412.516529,92.000000,0.000000,4157.948730,4166.153809,4120.512695,4148.205078,4128.205078,4117.436035,4126.153809,4118.974121,4112.820313,4120.000000,4095.897461,4120.512695,4077.948730,4100.000000,783.000000,4.000000,,,,0.000000,4.000000,4.000000,4.000000,4.000000,4.000000,4.000000,4.000000,4.000000,4.000000,4.000000,4.000000,4.000000,4.000000,4.000000,100.000000
1602005412.524410,93.000000,0.000000,4167.179688,4169.743652,4128.205078,4153.333496,4137.948730,4124.615234,4126.153809,4118.461426,4109.230957,4131.282227,4091.794922,4120.512695,4075.897461,4111.282227,811.000000,4.000000,,,,0.000000,4.000000,4.000000,4.000000,4.000000,4.000000,4.000000,4.000000,4.000000,4.000000,4.000000,4.000000,4.000000,4.000000,4.000000,100.000000
1602005412.532392,94.000000,0.000000,4172.820313,4169.743652,4136.410156,4155.384766,4141.025879,4131.794922,4134.358887,4118.974121,4104.102539,4111.794922,4095.384521,4125.641113,4074.871826,4111.282227,871.000000,4.000000,,,,0.000000,4.000000,4.000000,4.000000,4.000000,4.000000,4.000000,4.000000,4.000000,4.000000,4.000000,4.000000,4.000000,4.000000,4.000000,100.000000
1602005412.540274,95.000000,0.000000,4166.153809,4165.128418,4137.436035,4153.333496,4132.820313,4128.205078,4136.410156,4118.461426,4098.974121,4096.922852,4098.461426,4123.589844,4073.333252,4101.025879,838.000000,4.000000,,,,0.000000,4.000000,4.000000,4.000000,4.000000,4.000000,4.000000,4.000000,4.000000,4.000000,4.000000,4.000000,4.000000,4.000000,4.000000,100.000000
1602005412.548157,96.000000,0.000000,4153.333496,4152.820313,4129.230957,4143.589844,4130.256348,4122.051270,4133.846191,4118.974121,4099.487305,4088.718018,4092.820557,4120.512695,4066.153809,4096.410156,783.000000,4.000000,,,,0.000000,4.000000,4.000000,4.000000,4.000000,4.000000,4.000000,4.000000,4.000000,4.000000,4.000000,4.000000,4.000000,4.000000,4.000000,100.000000
1602005412.556039,97.000000,0.000000,4149.743652,4151.282227,4124.615234,4137.948730,4136.922852,4123.077148,4136.922852,4122.051270,4110.769043,4094.358887,4088.718018,4123.589844,4062.051270,4093.846191,811.000000,4.000000,,,,0.000000,4.000000,4.000000,4.000000,4.000000,4.000000,4.000000,4.000000,4.000000,4.000000,4.000000,4.000000,4.000000,4.000000,4.000000,100.000000
1602005412.563921,98.000000,0.000000,4154.358887,4156.922852,4129.743652,4146.666504,4141.025879,4127.179688,4141.025879,4125.128418,4120.512695,4110.256348,4093.333252,4128.205078,4070.256348,4090.256348,871.000000,4.000000,,,,0.000000,4.000000,4.000000,4.000000,4.000000,4.000000,4.000000,4.000000,4.000000,4.000000,4.000000,4.000000,4.000000,4.000000,4.000000,100.000000
1602005412.571803,99.000000,0.000000,4154.358887,4154.358887,4129.230957,4150.769043,4138.974121,4126.666504,4139.487305,4126.153809,4121.538574,4106.153809,4096.410156,4126.666504,4075.384521,4089.230713,838.000000,4.000000,,,,0.000000,4.000000,4.000000,4.000000,4.000000,4.000000,4.000000,4.000000,4.000000,4.000000,4.000000,4.000000,4.000000,4.000000,4.000000,100.000000
1602005412.579685,100.000000,0.000000,4151.282227,4151.282227,4124.615234,4141.538574,4136.410156,4125.128418,4136.922852,4128.717773,4121.025879,4100.512695,4099.487305,4126.153809,4072.820557,4088.205078,783.000000,4.000000,,,,0.000000,4.000000,4.000000,4.000000,4.000000,4.000000,4.000000,4.000000,4.000000,4.000000,4.000000,4.000000,4.000000,4.000000,4.000000,100.000000
1602005412.587567,101.000000,0.000000,4151.282227,4153.846191,4124.615234,4135.897461,4138.461426,4123.589844,4137.436035,4127.692383,4120.512695,4106.153809,4104.615234,4127.692383,4074.871826,4091.281982,811.000000,4.000000,,,,0.000000,4.000000,4.000000,4.000000,4.000000,4.000000,4.000000,4.000000,4.000000,4.000000,4.000000,4.000000,4.000000,4.000000,4.000000,100.000000
1602005412.595350,102.000000,0.000000,4151.282227,4154.871582,4123.589844,4142.051270,4140.000000,4122.563965,4133.333496,4123.589844,4116.410156,4105.641113,4103.589844,4128.205078,4076.923096,4097.436035,871.000000,4.000000,,,,0.000000,4.000000,4.000000,4.000000,4.000000,4.000000,4.000000,4.000000,4.000000,4.000000,4.000000,4.000000,4.000000,4.000000,4.000000,100.000000
1602005412.603232,103.000000,0.000000,4151.794922,4157.948730,4125.128418,4148.205078,4143.077148,4123.077148,4125.128418,4122.563965,4118.974121,4109.230957,4102.051270,4132.307617,4080.512939,4103.077148,838.000000,4.000000,,,,0.000000,4.000000,4.000000,4.000000,4.000000,4.000000,4.000000,4.000000,4.000000,4.000000,4.000000,4.000000,4.000000,4.000000,4.000000,100.000000
1602005412.611114,104.000000,0.000000,4160.000000,4167.692383,4132.820313,4152.307617,4148.717773,4122.051270,4121.025879,4124.615234,4130.769043,4130.769043,4109.230957,4140.512695,4094.871826,4114.358887,783.000000,4.000000,,,,0.000000,4.000000,4.000000,4.000000,4.000000,4.000000,4.000000,4.000000,4.000000,4.000000,4.000000,4.000000,4.000000,4.000000,4.000000,100.000000
1602005412.618997,105.000000,0.000000,4169.230957,4173.846191,4142.563965,4156.922852,4152.820313,4122.563965,4123.077148,4131.282227,4137.948730,4151.794922,4120.512695,4143.077148,4107.179688,4124.615234,811.000000,4.000000,,,,0.000000,4.000000,4.000000,4.000000,4.000000,4.000000,4.000000,4.000000,4.000000,4.000000,4.000000,4.000000,4.000000,4.000000,4.000000,100.000000
1602005412.626879,106.000000,0.000000,4170.256348,4172.820313,4150.256348,4157.948730,4153.846191,4123.589844,4125.641113,4135.897461,4138.461426,4156.922852,4125.641113,4141.538574,4107.692383,4122.051270,871.000000,4.000000,,,,0.000000,4.000000,4.000000,4.000000,4.000000,4.000000,4.000000,4.000000,4.000000,4.000000,4.000000,4.000000,4.000000,4.000000,4.000000,100.000000
1602005412.634761,107.000000,0.000000,4171.794922,4171.282227,4150.256348,4156.922852,4147.179688,4123.589844,4127.179688,4132.307617,4135.384766,4137.948730,4120.000000,4141.538574,4105.641113,4118.974121,838.000000,4.000000,,,,0.000000,4.000000,4.000000,4.000000,4.000000,4.000000,4.000000,4.000000,4.000000,4.000000,4.000000,4.000000,4.000000,4.000000,4.000000,100.000000
1602005412.642644,108.000000,0.000000,4167.692383,4168.717773,4139.487305,4154.358887,4140.512695,4123.589844,4127.692383,4125.128418,4124.102539,4107.179688,4110.769043,4139.487305,4100.512695,4124.102539,783.000000,4.000000,,,,0.000000,4.000000,4.000000,4.000000,4.000000,4.000000,4.000000,4.000000,4.000000,4.000000,4.000000,4.000000,4.000000,4.000000,4.000000,100.000000
1602005412.650526,109.000000,0.000000,4161.025879,4166.666504,4136.922852,4151.794922,4144.102539,4127.179688,4129.230957,4123.589844,4117.948730,4104.615234,4106.153809,4135.384766,4092.307617,4119.487305,811.000000,4.000000,,,,0.000000,4.000000,4.000000,4.000000,4.000000,4.000000,4.000000,4.000000,4.000000,4.000000,4.000000,4.000000,4.000000,4.000000,4.000000,100.000000
1602005412.658508,110.000000,0.000000,4161.025879,4165.128418,4141.025879,4150.256348,4151.794922,4134.358887,4135.897461,4127.692383,4127.692383,4129.230957,4104.615234,4130.256348,4088.205078,4106.153809,871.000000,4.000000,,,,0.000000,4.000000,4.000000,4.000000,4.000000,4.000000,4.000000,4.000000,4.000000,4.000000,4.000000,4.000000,4.000000,4.000000,4.000000,100.000000
1602005412.666390,111.000000,0.000000,4161.025879,4166.153809,4134.358887,4152.307617,4154.358887,4148.205078,4148.205078,4134.871582,4139.487305,4132.307617,4107.179688,4123.589844,4093.846191,4108.205078,838.000000,4.000000,,,,0.000000,4.000000,4.000000,4.000000,4.000000,4.000000,4.000000,4.000000,4.000000,4.000000,4.000000,4.000000,4.000000,4.000000,4.000000,100.000000
1602005412.674272,112.000000,0.000000,4162.051270,4170.769043,4130.256348,4155.897461,4156.410156,4154.358887,4152.307617,4139.487305,4136.410156,4117.948730,4110.256348,4122.563965,4104.102539,4121.025879,783.000000,4.000000,,,,0.000000,4.000000,4.000000,4.000000,4.000000,4.000000,4.000000,4.000000,4.000000,4.000000,4.000000,4.000000,4.000000,4.000000,4.000000,100.000000
1602005412.682154,113.000000,0.000000,4162.563965,4163.077148,4135.384766,4149.230957,4153.333496,4143.077148,4144.615234,4137.948730,4135.384766,4125.128418,4112.307617,4125.641113,4107.692383,4123.077148,811.000000,4.000000,,,,0.000000,4.000000,4.000000,4.000000,4.000000,4.000000,4.000000,4.000000,4.000000,4.000000,4.000000,4.000000,4.000000,4.000000,4.000000,100.000000
1602005412.690037,114.000000,0.000000,4161.025879,4155.897461,4139.487305,4145.641113,4151.794922,4137.948730,4137.436035,4136.410156,4141.025879,4150.256348,4117.948730,4129.230957,4108.205078,4118.974121,871.000000,4.000000,,,,0.000000,4.000000,4.000000,4.000000,4.000000,4.000000,4.000000,4.000000,4.000000,4.000000,4.000000,4.000000,4.000000,4.000000,4.000000,100.000000
1602005412.697919,115.000000,0.000000,4172.307617,4174.871582,4140.000000,4157.948730,4160.512695,4142.563965,4139.487305,4138.461426,4137.436035,4158.974121,4124.615234,4127.692383,4110.769043,4122.051270,838.000000,4.000000,,,,0.000000,4.000000,4.000000,4.000000,4.000000,4.000000,4.000000,4.000000,4.000000,4.000000,4.000000,4.000000,4.000000,4.000000,4.000000,100.000000
1602005412.705801,116.000000,0.000000,4186.666504,4190.256348,4140.000000,4162.563965,4161.538574,4140.000000,4141.025879,4137.436035,4131.794922,4143.589844,4123.589844,4125.128418,4111.282227,4125.641113,783.000000,4.000000,,,,0.000000,4.000000,4.000000,4.000000,4.000000,4.000000,4.000000,4.000000,4.000000,4.000000,4.000000,4.000000,4.000000,4.000000,4.000000,100.000000
1602005412.713683,117.000000,0.000000,4177.948730,4177.436035,4139.487305,4154.871582,4153.333496,4135.897461,4140.000000,4132.820313,4133.846191,4133.333496,4120.000000,4123.077148,4108.205078,4122.563965,811.000000,4.000000,,,,0.000000,4.000000,4.000000,4.000000,4.000000,4.000000,4.000000,4.000000,4.000000,4.000000,4.000000,4.000000,4.000000,4.000000,4.000000,100.000000
1602005412.721465,118.000000,0.000000,4168.717773,4167.692383,4142.051270,4157.436035,4155.897461,4133.333496,4139.487305,4128.717773,4132.307617,4147.179688,4120.000000,4123.077148,4109.230957,4120.512695,871.000000,4.000000,,,,0.000000,4.000000,4.000000,4.000000,4.000000,4.000000,4.000000,4.000000,4.000000,4.000000,4.000000,4.000000,4.000000,4.000000,4.000000,100.000000
1602005412.729347,119.000000,0.000000,4178.461426,4176.410156,4147.179688,4163.077148,4160.000000,4127.692383,4136.410156,4125.128418,4125.641113,4155.384766,4124.102539,4124.615234,4112.820313,4122.563965,838.000000,4.000000,,,,0.000000,4.000000,4.000000,4.000000,4.000000,4.000000,4.000000,4.000000,4.000000,4.000000,4.000000,4.000000,4.000000,4.000000,4.000000,100.000000
1602005412.737229,120.000000,0.000000,4177.948730,4176.922852,4143.077148,4157.436035,4153.846191,4125.641113,4133.846191,4122.563965,4128.205078,4144.102539,4122.051270,4119.487305,4110.769043,4122.051270,783.000000,4.000000,,,,0.000000,4.000000,4.000000,4.000000,4.000000,4.000000,4.000000,4.000000,4.000000,4.000000,4.000000,4.000000,4.000000,4.000000,4.000000,100.000000
1602005412.745111,121.000000,0.000000,4166.666504,4167.692383,4130.769043,4153.333496,4152.820313,4128.205078,4130.769043,4124.102539,4133.333496,4130.256348,4113.846191,4111.282227,4106.666504,4114.871582,811.000000,4.000000,,,,0.000000,4.000000,4.000000,4.000000,4.000000,4.000000,4.000000,4.000000,4.000000,4.000000,4.000000,4.000000,4.000000,4.000000,4.000000,100.000000
1602005412.752992,122.000000,0.000000,4157.948730,4161.025879,4125.128418,4150.769043,4154.871582,4126.153809,4124.615234,4125.128418,4127.179688,4111.282227,4108.205078,4106.666504,4099.487305,4107.179688,871.000000,4.000000,,,,0.000000,4.000000,4.000000,4.000000,4.000000,4.000000,4.000000,4.000000,4.000000,4.000000,4.000000,4.000000,4.000000,4.000000,4.000000,100.000000
1602005412.760874,123.000000,0.000000,4148.205078,4151.794922,4123.077148,4142.051270,4144.102539,4119.487305,4121.025879,4121.538574,4124.615234,4106.666504,4109.743652,4099.487305,4092.307617,4102.563965,838.000000,4.000000,,,,0.000000,4.000000,4.000000,4.000000,4.000000,4.000000,4.000000,4.000000,4.000000,4.000000,4.000000,4.000000,4.000000,4.000000,4.000000,100.000000
1602005412.768855,124.000000,0.000000,4136.922852,4141.025879,4114.871582,4134.358887,4132.820313,4112.307617,4121.025879,4120.000000,4125.128418,4125.128418,4109.743652,4091.794922,4088.205078,4096.410156,783.000000,4.000000,,,,0.000000,4.000000,4.000000,4.000000,4.000000,4.000000,4.000000,4.000000,4.000000,4.000000,4.000000,4.000000,4.000000,4.000000,4.000000,100.000000
1602005412.776737,125.000000,0.000000,4136.922852,4138.461426,4114.358887,4133.846191,4134.358887,4115.897461,4119.487305,4122.051270,4114.871582,4125.641113,4107.692383,4095.384521,4088.205078,4093.333252,811.000000,4.000000,,,,0.000000,4.000000,4.000000,4.000000,4.000000,4.000000,4.000000,4.000000,4.000000,4.000000,4.000000,4.000000,4.000000,4.000000,4.000000,100.000000
1602005412.784718,126.000000,0.000000,4146.666504,4142.051270,4126.153809,4138.461426,4140.000000,4128.205078,4121.538574,4121.025879,4109.743652,4116.922852,4108.205078,4104.102539,4091.281982,4103.077148,871.000000,4.000000,,,,0.000000,4.000000,4.000000,4.000000,4.000000,4.000000,4.000000,4.000000,4.000000,4.000000,4.000000,4.000000,4.000000,4.000000,4.000000,100.000000
1602005412.792600,127.000000,0.000000,4144.615234,4138.974121,4127.692383,4137.948730,4137.948730,4130.769043,4126.666504,4120.512695,4118.974121,4126.666504,4108.717773,4105.128418,4085.128174,4107.692383,838.000000,4.000000,,,,0.000000,4.000000,4.000000,4.000000,4.000000,4.000000,4.000000,4.000000,4.000000,4.000000,4.000000,4.000000,4.000000,4.000000,4.000000,100.000000
1602005412.800482,128.000000,0.000000,4133.846191,4135.384766,4119.487305,4129.230957,4134.358887,4121.025879,4125.641113,4121.025879,4121.538574,4119.487305,4106.666504,4100.512695,4074.871826,4093.333252,783.000000,4.000000,,,,0.000000,4.000000,4.000000,4.000000,4.000000,4.000000,4.000000,4.000000,4.000000,4.000000,4.000000,4.000000,4.000000,4.000000,4.000000,100.000000
1602005412.808364,0.000000,0.000000,4134.871582,4139.487305,4113.846191,4126.666504,4135.384766,4117.948730,4123.589844,4120.512695,4114.871582,4106.153809,4105.641113,4101.025879,4078.461426,4088.205078,807.000000,4.000000,,,,0.000000,4.000000,4.000000,4.000000,4.000000,4.000000,4.000000,4.000000,4.000000,4.000000,4.000000,4.000000,4.000000,4.000000,4.000000,100.000000
1602005412.816246,1.000000,0.000000,4142.563965,4143.589844,4111.794922,4135.897461,4136.922852,4123.077148,4126.153809,4122.051270,4121.538574,4120.512695,4112.820313,4108.717773,4091.794922,4103.077148,797.000000,4.000000,,,,0.000000,4.000000,4.000000,4.000000,4.000000,4.000000,4.000000,4.000000,4.000000,4.000000,4.000000,4.000000,4.000000,4.000000,4.000000,100.000000
1602005412.824128,2.000000,0.000000,4141.538574,4141.538574,4115.897461,4139.487305,4135.897461,4115.897461,4125.641113,4123.077148,4126.153809,4121.538574,4121.538574,4114.358887,4096.922852,4108.205078,855.000000,4.000000,,,,0.000000,4.000000,4.000000,4.000000,4.000000,4.000000,4.000000,4.000000,4.000000,4.000000,4.000000,4.000000,4.000000,4.000000,4.000000,100.000000
1602005412.831910,3.000000,0.000000,4137.948730,4143.589844,4117.948730,4136.922852,4133.333496,4104.615234,4120.512695,4121.025879,4118.974121,4110.769043,4120.512695,4111.794922,4095.384521,4103.077148,873.000000,4.000000,,,,0.000000,4.000000,4.000000,4.000000,4.000000,4.000000,4.000000,4.000000,4.000000,4.000000,4.000000,4.000000,4.000000,4.000000,4.000000,100.000000
1602005412.839792,4.000000,0.000000,4139.487305,4151.282227,4114.358887,4141.538574,4137.948730,4114.871582,4122.563965,4122.563965,4121.538574,4116.410156,4120.512695,4110.769043,4097.948730,4107.179688,811.000000,4.000000,,,,0.000000,4.000000,4.000000,4.000000,4.000000,4.000000,4.000000,4.000000,4.000000,4.000000,4.000000,4.000000,4.000000,4.000000,4.000000,100.000000
1602005412.847674,5.000000,0.000000,4140.512695,4156.410156,4111.282227,4144.102539,4147.179688,4126.666504,4126.153809,4126.153809,4128.717773,4116.922852,4123.077148,4111.282227,4095.384521,4110.256348,822.000000,4.000000,,,,0.000000,4.000000,4.000000,4.000000,4.000000,4.000000,4.000000,4.000000,4.000000,4.000000,4.000000,4.000000,4.000000,4.000000,4.000000,100.000000
1602005412.855556,6.000000,0.000000,4141.538574,4153.846191,4111.282227,4139.487305,4144.615234,4119.487305,4123.077148,4125.641113,4118.461426,4107.692383,4120.000000,4110.769043,4089.230713,4104.615234,772.000000,4.000000,,,,0.000000,4.000000,4.000000,4.000000,4.000000,4.000000,4.000000,4.000000,4.000000,4.000000,4.000000,4.000000,4.000000,4.000000,4.000000,100.000000
1602005412.863438,7.000000,0.000000,4143.589844,4152.820313,4114.871582,4141.538574,4140.512695,4117.436035,4118.974121,4123.589844,4107.179688,4109.230957,4120.000000,4118.461426,4093.846191,4103.077148,708.000000,4.000000,,,,0.000000,4.000000,4.000000,4.000000,4.000000,4.000000,4.000000,4.000000,4.000000,4.000000,4.000000,4.000000,4.000000,4.000000,4.000000,100.000000
1602005412.871321,8.000000,0.000000,4142.051270,4154.871582,4118.974121,4145.641113,4147.692383,4123.589844,4116.410156,4122.051270,4110.769043,4117.948730,4124.102539,4125.641113,4101.025879,4106.666504,798.000000,4.000000,,,,0.000000,4.000000,4.000000,4.000000,4.000000,4.000000,4.000000,4.000000,4.000000,4.000000,4.000000,4.000000,4.000000,4.000000,4.000000,100.000000
1602005412.879203,9.000000,0.000000,4140.000000,4154.358887,4120.512695,4141.538574,4150.769043,4118.461426,4116.410156,4121.538574,4111.794922,4112.820313,4121.025879,4122.563965,4097.436035,4108.717773,843.000000,4.000000,,,,0.000000,4.000000,4.000000,4.000000,4.000000,4.000000,4.000000,4.000000,4.000000,4.000000,4.000000,4.000000,4.000000,4.000000,4.000000,100.000000
1602005412.887085,10.000000,0.000000,4144.615234,4155.897461,4117.948730,4141.025879,4146.153809,4114.358887,4118.461426,4121.538574,4104.615234,4095.384521,4118.461426,4127.179688,4095.384521,4108.205078,871.000000,4.000000,,,,0.000000,4.000000,4.000000,4.000000,4.000000,4.000000,4.000000,4.000000,4.000000,4.000000,4.000000,4.000000,4.000000,4.000000,4.000000,100.000000
1602005412.894867,11.000000,0.000000,4145.128418,4157.948730,4114.871582,4145.641113,4149.743652,4121.025879,4123.077148,4122.051270,4106.666504,4092.820557,4122.563965,4135.384766,4104.102539,4108.205078,838.000000,4.000000,,,,0.000000,4.000000,4.000000,4.000000,4.000000,4.000000,4.000000,4.000000,4.000000,4.000000,4.000000,4.000000,4.000000,4.000000,4.000000,100.000000
1602005412.902750,12.000000,0.000000,4137.948730,4154.871582,4107.692383,4142.563965,4155.384766,4124.102539,4127.179688,4123.077148,4116.922852,4114.358887,4123.589844,4130.256348,4106.666504,4112.307617,783.000000,4.000000,,,,0.000000,4.000000,4.000000,4.000000,4.000000,4.000000,4.000000,4.000000,4.000000,4.000000,4.000000,4.000000,4.000000,4.000000,4.000000,100.000000
1602005412.910632,13.000000,0.000000,4138.461426,4154.358887,4107.692383,4142.051270,4151.282227,4122.051270,4125.128418,4126.153809,4127.179688,4128.205078,4120.512695,4127.179688,4103.077148,4114.871582,779.000000,4.000000,,,,0.000000,4.000000,4.000000,4.000000,4.000000,4.000000,4.000000,4.000000,4.000000,4.000000,4.000000,4.000000,4.000000,4.000000,4.000000,100.000000
1602005412.918514,14.000000,0.000000,4145.128418,4164.615234,4117.948730,4152.820313,4151.794922,4123.589844,4123.077148,4134.871582,4136.922852,4128.205078,4124.615234,4138.461426,4109.743652,4120.512695,871.000000,4.000000,,,,0.000000,4.000000,4.000000,4.000000,4.000000,4.000000,4.000000,4.000000,4.000000,4.000000,4.000000,4.000000,4.000000,4.000000,4.000000,100.000000
1602005412.926397,15.000000,0.000000,4143.589844,4170.256348,4120.512695,4153.333496,4156.922852,4126.666504,4122.563965,4140.000000,4141.025879,4128.205078,4127.179688,4139.487305,4114.871582,4121.538574,838.000000,4.000000,,,,0.000000,4.000000,4.000000,4.000000,4.000000,4.000000,4.000000,4.000000,4.000000,4.000000,4.000000,4.000000,4.000000,4.000000,4.000000,100.000000
1602005412.934279,16.000000,0.000000,4137.948730,4158.974121,4110.769043,4142.051270,4149.230957,4125.128418,4119.487305,4135.384766,4135.897461,4118.461426,4121.025879,4128.205078,4107.692383,4110.256348,0.000000,4.000000,,,,0.000000,4.000000,4.000000,4.000000,4.000000,4.000000,4.000000,4.000000,4.000000,4.000000,4.000000,4.000000,4.000000,4.000000,4.000000,100.000000
1602005412.942161,17.000000,0.000000,4142.563965,4150.256348,4103.077148,4135.897461,4140.000000,4120.512695,4117.436035,4134.358887,4135.384766,4125.128418,4125.641113,4131.282227,4109.743652,4107.179688,0.000000,4.000000,,,,0.000000,4.000000,4.000000,4.000000,4.000000,4.000000,4.000000,4.000000,4.000000,4.000000,4.000000,4.000000,4.000000,4.000000,4.000000,100.000000
1602005412.950044,18.000000,0.000000,4150.256348,4158.461426,4109.230957,4136.922852,4143.589844,4120.512695,4123.077148,4142.051270,4142.563965,4139.487305,4133.333496,4141.025879,4122.051270,4122.051270,0.000000,4.000000,,,,0.000000,4.000000,4.000000,4.000000,4.000000,4.000000,4.000000,4.000000,4.000000,4.000000,4.000000,4.000000,4.000000,4.000000,4.000000,100.000000
1602005412.958026,19.000000,0.000000,4157.948730,4169.230957,4118.461426,4144.615234,4153.333496,4131.282227,4128.717773,4144.615234,4144.102539,4114.358887,4131.794922,4143.077148,4126.666504,4132.820313,0.000000,4.000000,,,,0.000000,4.000000,4.000000,4.000000,4.000000,4.000000,4.000000,4.000000,4.000000,4.000000,4.000000,4.000000,4.000000,4.000000,4.000000,100.000000
1602005412.965908,20.000000,0.000000,4164.102539,4170.256348,4122.051270,4149.743652,4156.922852,4135.384766,4126.666504,4136.922852,4133.333496,4095.897461,4131.794922,4140.512695,4125.128418,4131.282227,0.000000,4.000000,,,,0.000000,4.000000,4.000000,4.000000,4.000000,4.000000,4.000000,4.000000,4.000000,4.000000,4.000000,4.000000,4.000000,4.000000,4.000000,100.000000
1602005412.973791,21.000000,0.000000,4161.538574,4164.615234,4123.077148,4144.615234,4150.256348,4128.205078,4119.487305,4125.641113,4124.615234,4130.256348,4137.948730,4138.974121,4125.128418,4126.666504,0.000000,4.000000,,,,0.000000,4.000000,4.000000,4.000000,4.000000,4.000000,4.000000,4.000000,4.000000,4.000000,4.000000,4.000000,4.000000,4.000000,4.000000,100.000000
1602005412.981673,22.000000,0.000000,4154.871582,4160.000000,4123.589844,4143.077148,4141.025879,4125.128418,4116.922852,4120.512695,4127.179688,4149.230957,4139.487305,4141.025879,4124.615234,4124.615234,0.000000,4.000000,,,,0.000000,4.000000,4.000000,4.000000,4.000000,4.000000,4.000000,4.000000,4.000000,4.000000,4.000000,4.000000,4.000000,4.000000,4.000000,100.000000
1602005412.989555,23.000000,0.000000,4151.794922,4157.436035,4122.563965,4149.743652,4137.948730,4126.666504,4117.436035,4123.589844,4127.179688,4120.512695,4132.307617,4140.000000,4121.025879,4122.563965,0.000000,4.000000,,,,0.000000,4.000000,4.000000,4.000000,4.000000,4.000000,4.000000,4.000000,4.000000,4.000000,4.000000,4.000000,4.000000,4.000000,4.000000,100.000000
1602005412.997438,24.000000,0.000000,4152.307617,4158.461426,4120.512695,4153.333496,4140.512695,4124.102539,4113.846191,4124.615234,4124.615234,4117.948730,4128.717773,4135.897461,4119.487305,4122.563965,0.000000,4.000000,,,,0.000000,4.000000,4.000000,4.000000,4.000000,4.000000,4.000000,4.000000,4.000000,4.000000,4.000000,4.000000,4.000000,4.000000,4.000000,100.000000
1602005413.005320,25.000000,0.000000,4152.307617,4161.025879,4121.025879,4150.256348,4140.512695,4121.538574,4109.743652,4121.025879,4127.692383,4130.769043,4135.384766,4142.563965,4129.743652,4130.256348,0.000000,4.000000,,,,0.000000,4.000000,4.000000,4.000000,4.000000,4.000000,4.000000,4.000000,4.000000,4.000000,4.000000,4.000000,4.000000,4.000000,4.000000,100.000000
1602005413.013202,26.000000,0.000000,4153.333496,4159.487305,4122.051270,4146.153809,4137.436035,4121.025879,4109.743652,4127.179688,4124.102539,4110.256348,4141.025879,4155.384766,4133.846191,4137.436035,0.000000,4.000000,,,,0.000000,4.000000,4.000000,4.000000,4.000000,4.000000,4.000000,4.000000,4.000000,4.000000,4.000000,4.000000,4.000000,4.000000,4.000000,100.000000
1602005413.021085,27.000000,0.000000,4150.769043,4159.487305,4121.538574,4146.153809,4138.461426,4115.384766,4111.282227,4135.897461,4118.461426,4101.538574,4136.410156,4151.282227,4125.641113,4133.333496,0.000000,4.000000,,,,0.000000,4.000000,4.000000,4.000000,4.000000,4.000000,4.000000,4.000000,4.000000,4.000000,4.000000,4.000000,4.000000,4.000000,4.000000,100.000000
1602005413.028866,28.000000,0.000000,4151.282227,4162.563965,4122.051270,4151.794922,4140.512695,4110.769043,4111.282227,4133.333496,4121.025879,4129.743652,4135.384766,4140.000000,4128.717773,4125.641113,0.000000,4.000000,,,,0.000000,4.000000,4.000000,4.000000,4.000000,4.000000,4.000000,4.000000,4.000000,4.000000,4.000000,4.000000,4.000000,4.000000,4.000000,100.000000
1602005413.036748,29.000000,0.000000,4156.410156,4161.538574,4123.077148,4155.384766,4141.025879,4111.282227,4110.256348,4125.641113,4121.538574,4147.692383,4138.461426,4138.974121,4134.871582,4123.077148,0.000000,4.000000,,,,0.000000,4.000000,4.000000,4.000000,4.000000,4.000000,4.000000,4.000000,4.000000,4.000000,4.000000,4.000000,4.000000,4.000000,4.000000,100.000000
1602005413.044629,30.000000,0.000000,4148.205078,4155.897461,4123.077148,4150.769043,4137.948730,4115.384766,4110.769043,4125.128418,4125.128418,4141.025879,4139.487305,4143.077148,4130.769043,4125.641113,0.000000,4.000000,,,,0.000000,4.000000,4.000000,4.000000,4.000000,4.000000,4.000000,4.000000,4.000000,4.000000,4.000000,4.000000,4.000000,4.000000,4.000000,100.000000
1602005413.052511,31.000000,0.000000,4142.051270,4153.846191,4124.102539,4148.717773,4138.461426,4119.487305,4117.948730,4131.794922,4138.974121,4138.974121,4143.077148,4148.205078,4133.846191,4133.333496,0.000000,4.000000,,,,0.000000,4.000000,4.000000,4.000000,4.000000,4.000000,4.000000,4.000000,4.000000,4.000000,4.000000,4.000000,4.000000,4.000000,4.000000,100.000000
1602005413.060293,32.000000,0.000000,4150.769043,4153.333496,4125.641113,4152.307617,4142.563965,4121.025879,4123.589844,4132.820313,4145.128418,4146.666504,4142.563965,4147.692383,4136.922852,4139.487305,0.000000,4.000000,,,,0.000000,4.000000,4.000000,4.000000,4.000000,4.000000,4.000000,4.000000,4.000000,4.000000,4.000000,4.000000,4.000000,4.000000,4.000000,100.000000
1602005413.068174,33.000000,0.000000,4159.487305,4151.282227,4126.153809,4151.282227,4143.077148,4123.589844,4119.487305,4126.666504,4143.589844,4155.384766,4140.000000,4138.461426,4127.692383,4132.820313,0.000000,4.000000,,,,0.000000,4.000000,4.000000,4.000000,4.000000,4.000000,4.000000,4.000000,4.000000,4.000000,4.000000,4.000000,4.000000,4.000000,4.000000,100.000000
1602005413.076056,34.000000,0.000000,4153.333496,4152.307617,4125.128418,4143.077148,4142.051270,4125.128418,4113.846191,4123.077148,4142.563965,4144.615234,4138.461426,4135.897461,4122.563965,4126.153809,0.000000,4.000000,,,,0.000000,4.000000,4.000000,4.000000,4.000000,4.000000,4.000000,4.000000,4.000000,4.000000,4.000000,4.000000,4.000000,4.000000,4.000000,100.000000
1602005413.083938,35.000000,0.000000,4139.487305,4151.794922,4117.948730,4139.487305,4139.487305,4124.102539,4110.769043,4123.589844,4135.897461,4110.769043,4127.692383,4138.974121,4122.051270,4121.538574,0.000000,4.000000,,,,0.000000,4.000000,4.000000,4.000000,4.000000,4.000000,4.000000,4.000000,4.000000,4.000000,4.000000,4.000000,4.000000,4.000000,4.000000,100.000000
1602005413.091820,36.000000,0.000000,4133.333496,4149.743652,4107.692383,4141.538574,4138.461426,4122.563965,4109.743652,4124.102539,4131.282227,4110.769043,4118.461426,4132.307617,4115.897461,4110.256348,0.000000,4.000000,,,,0.000000,4.000000,4.000000,4.000000,4.000000,4.000000,4.000000,4.000000,4.000000,4.000000,4.000000,4.000000,4.000000,4.000000,4.000000,100.000000
1602005413.099702,37.000000,0.000000,4138.461426,4153.333496,4108.205078,4144.615234,4140.000000,4121.538574,4111.282227,4126.153809,4137.436035,4142.051270,4123.589844,4125.128418,4117.436035,4105.128418,0.000000,4.000000,,,,0.000000,4.000000,4.000000,4.000000,4.000000,4.000000,4.000000,4.000000,4.000000,4.000000,4.000000,4.000000,4.000000,4.000000,4.000000,100.000000
1602005413.107684,38.000000,0.000000,4144.102539,4156.922852,4120.000000,4149.743652,4141.538574,4119.487305,4113.333496,4129.230957,4138.461426,4141.025879,4129.230957,4125.641113,4122.563965,4109.230957,0.000000,4.000000,,,,0.000000,4.000000,4.000000,4.000000,4.000000,4.000000,4.000000,4.000000,4.000000,4.000000,4.000000,4.000000,4.000000,4.000000,4.000000,100.000000
1602005413.115566,39.000000,0.000000,4138.974121,4153.333496,4124.102539,4150.256348,4140.000000,4117.948730,4110.256348,4124.615234,4132.307617,4119.487305,4125.128418,4122.563965,4119.487305,4106.153809,0.000000,4.000000,,,,0.000000,4.000000,4.000000,4.000000,4.000000,4.000000,4.000000,4.000000,4.000000,4.000000,4.000000,4.000000,4.000000,4.000000,4.000000,100.000000
1602005413.123448,40.000000,0.000000,4137.436035,4151.794922,4116.410156,4147.692383,4140.512695,4120.512695,4110.256348,4125.641113,4133.846191,4132.820313,4124.615234,4120.512695,4118.974121,4106.666504,0.000000,4.000000,,,,0.000000,4.000000,4.000000,4.000000,4.000000,4.000000,4.000000,4.000000,4.000000,4.000000,4.000000,4.000000,4.000000,4.000000,4.000000,100.000000
1602005413.131330,41.000000,0.000000,4141.538574,4153.333496,4110.769043,4152.307617,4148.205078,4126.666504,4117.436035,4132.307617,4139.487305,4151.794922,4132.307617,4127.179688,4125.128418,4120.000000,0.000000,4.000000,,,,0.000000,4.000000,4.000000,4.000000,4.000000,4.000000,4.000000,4.000000,4.000000,4.000000,4.000000,4.000000,4.000000,4.000000,4.000000,100.000000
1602005413.139212,42.000000,0.000000,4137.436035,4149.743652,4111.282227,4153.333496,4152.307617,4125.641113,4113.333496,4128.717773,4137.436035,4129.743652,4137.436035,4127.692383,4126.666504,4122.051270,0.000000,4.000000,,,,0.000000,4.000000,4.000000,4.000000,4.000000,4.000000,4.000000,4.000000,4.000000,4.000000,4.000000,4.000000,4.000000,4.000000,4.000000,100.000000
1602005413.147095,43.000000,0.000000,4142.563965,4152.820313,4122.051270,4152.307617,4151.282227,4123.077148,4105.641113,4128.717773,4133.333496,4115.384766,4140.000000,4133.333496,4129.743652,4120.000000,0.000000,4.000000,,,,0.000000,4.000000,4.000000,4.000000,4.000000,4.000000,4.000000,4.000000,4.000000,4.000000,4.000000,4.000000,4.000000,4.000000,4.000000,100.000000
1602005413.154977,44.000000,0.000000,4165.641113,4165.641113,4141.025879,4164.102539,4155.384766,4129.743652,4110.256348,4138.461426,4142.051270,4145.128418,4147.692383,4156.410156,4144.102539,4139.487305,0.000000,4.000000,,,,0.000000,4.000000,4.000000,4.000000,4.000000,4.000000,4.000000,4.000000,4.000000,4.000000,4.000000,4.000000,4.000000,4.000000,4.000000,100.000000
1602005413.162759,45.000000,0.000000,4166.153809,4161.025879,4144.102539,4163.077148,4157.436035,4132.307617,4104.615234,4131.282227,4140.000000,4162.051270,4144.102539,4160.000000,4143.589844,4145.128418,0.000000,4.000000,,,,0.000000,4.000000,4.000000,4.000000,4.000000,4.000000,4.000000,4.000000,4.000000,4.000000,4.000000,4.000000,4.000000,4.000000,4.000000,100.000000
1602005413.170641,46.000000,0.000000,4135.897461,4141.538574,4122.051270,4144.102539,4146.666504,4119.487305,4090.769287,4107.179688,4114.358887,4131.282227,4121.538574,4131.794922,4117.436035,4112.307617,0.000000,4.000000,,,,0.000000,4.000000,4.000000,4.000000,4.000000,4.000000,4.000000,4.000000,4.000000,4.000000,4.000000,4.000000,4.000000,4.000000,4.000000,100.000000
1602005413.178522,47.000000,0.000000,4129.230957,4143.077148,4105.128418,4145.641113,4141.538574,4116.922852,4100.000000,4100.000000,4102.563965,4109.230957,4112.307617,4114.871582,4107.179688,4093.846191,0.000000,4.000000,,,,0.000000,4.000000,4.000000,4.000000,4.000000,4.000000,4.000000,4.000000,4.000000,4.000000,4.000000,4.000000,4.000000,4.000000,4.000000,100.000000
1602005413.186404,48.000000,0.000000,4136.410156,4151.794922,4106.153809,4153.333496,4146.153809,4132.820313,4114.871582,4107.692383,4117.436035,4118.461426,4122.051270,4118.974121,4118.974121,4102.563965,0.000000,4.000000,,,,0.000000,4.000000,4.000000,4.000000,4.000000,4.000000,4.000000,4.000000,4.000000,4.000000,4.000000,4.000000,4.000000,4.000000,4.000000,100.000000
1602005413.194286,49.000000,0.000000,4129.230957,4144.102539,4104.102539,4142.563965,4142.051270,4137.948730,4111.794922,4110.256348,4121.025879,4127.692383,4122.563965,4118.974121,4123.077148,4103.589844,0.000000,4.000000,,,,0.000000,4.000000,4.000000,4.000000,4.000000,4.000000,4.000000,4.000000,4.000000,4.000000,4.000000,4.000000,4.000000,4.000000,4.000000,100.000000
1602005413.202168,50.000000,0.000000,4132.820313,4144.615234,4100.512695,4143.589844,4137.948730,4126.153809,4113.333496,4116.410156,4109.230957,4124.615234,4121.538574,4117.436035,4122.051270,4109.230957,0.000000,4.000000,,,,0.000000,4.000000,4.000000,4.000000,4.000000,4.000000,4.000000,4.000000,4.000000,4.000000,4.000000,4.000000,4.000000,4.000000,4.000000,100.000000
1602005413.210150,51.000000,0.000000,4142.563965,4154.358887,4106.666504,4157.436035,4144.615234,4120.000000,4124.615234,4129.743652,4112.820313,4105.641113,4128.717773,4125.641113,4122.051270,4118.461426,0.000000,4.000000,,,,0.000000,4.000000,4.000000,4.000000,4.000000,4.000000,4.000000,4.000000,4.000000,4.000000,4.000000,4.000000,4.000000,4.000000,4.000000,100.000000
1602005413.218033,52.000000,0.000000,4143.589844,4156.410156,4120.512695,4164.102539,4155.897461,4126.153809,4127.692383,4140.512695,4128.205078,4110.769043,4135.897461,4144.102539,4125.641113,4120.512695,0.000000,4.000000,,,,0.000000,4.000000,4.000000,4.000000,4.000000,4.000000,4.000000,4.000000,4.000000,4.000000,4.000000,4.000000,4.000000,4.000000,4.000000,100.000000
1602005413.225915,53.000000,0.000000,4155.897461,4160.000000,4137.436035,4168.205078,4163.077148,4127.692383,4117.948730,4144.615234,4137.436035,4149.230957,4147.692383,4161.538574,4147.692383,4138.461426,0.000000,4.000000,,,,0.000000,4.000000,4.000000,4.000000,4.000000,4.000000,4.000000,4.000000,4.000000,4.000000,4.000000,4.000000,4.000000,4.000000,4.000000,100.000000
1602005413.233797,54.000000,0.000000,4160.512695,4157.948730,4137.948730,4164.102539,4162.051270,4118.974121,4107.692383,4143.589844,4145.128418,4153.846191,4157.948730,4162.563965,4169.743652,4161.025879,0.000000,4.000000,,,,0.000000,4.000000,4.000000,4.000000,4.000000,4.000000,4.000000,4.000000,4.000000,4.000000,4.000000,4.000000,4.000000,4.000000,4.000000,100.000000
1602005413.241680,55.000000,0.000000,4134.871582,4137.436035,4121.538574,4149.743652,4154.358887,4116.922852,4106.153809,4138.461426,4153.333496,4140.512695,4155.897461,4150.256348,4168.205078,4158.461426,0.000000,4.000000,,,,0.000000,4.000000,4.000000,4.000000,4.000000,4.000000,4.000000,4.000000,4.000000,4.000000,4.000000,4.000000,4.000000,4.000000,4.000000,100.000000
1602005413.249562,56.000000,0.000000,4114.358887,4121.025879,4109.743652,4139.487305,4152.820313,4133.333496,4109.743652,4132.820313,4154.871582,4159.487305,4155.897461,4142.563965,4173.333496,4151.794922,0.000000,4.000000,,,,0.000000,4.000000,4.000000,4.000000,4.000000,4.000000,4.000000,4.000000,4.000000,4.000000,4.000000,4.000000,4.000000,4.000000,4.000000,100.000000
1602005413.257444,57.000000,0.000000,4102.051270,4111.282227,4100.000000,4131.282227,4155.897461,4152.307617,4111.794922,4125.641113,4152.307617,4156.410156,4158.974121,4141.538574,4184.615234,4150.256348,0.000000,4.000000,,,,0.000000,4.000000,4.000000,4.000000,4.000000,4.000000,4.000000,4.000000,4.000000,4.000000,4.000000,4.000000,4.000000,4.000000,4.000000,100.000000
1602005413.265327,58.000000,0.000000,4081.025635,4102.051270,4087.692383,4124.615234,4153.846191,4153.846191,4116.922852,4124.102539,4151.794922,4138.461426,4156.410156,4139.487305,4181.538574,4136.922852,0.000000,4.000000,,,,0.000000,4.000000,4.000000,4.000000,4.000000,4.000000,4.000000,4.000000,4.000000,4.000000,4.000000,4.000000,4.000000,4.000000,4.000000,100.000000
1602005413.273209,59.000000,0.000000,4080.512939,4109.743652,4089.743652,4134.871582,4152.307617,4152.307617,4123.589844,4133.333496,4152.820313,4163.077148,4156.922852,4137.436035,4184.102539,4131.282227,0.000000,4.000000,,,,0.000000,4.000000,4.000000,4.000000,4.000000,4.000000,4.000000,4.000000,4.000000,4.000000,4.000000,4.000000,4.000000,4.000000,4.000000,100.000000
1602005413.280990,60.000000,0.000000,4101.538574,4125.641113,4106.153809,4145.128418,4155.897461,4155.897461,4122.563965,4141.538574,4153.846191,4182.563965,4167.179688,4142.051270,4201.538574,4148.717773,0.000000,4.000000,,,,0.000000,4.000000,4.000000,4.000000,4.000000,4.000000,4.000000,4.000000,4.000000,4.000000,4.000000,4.000000,4.000000,4.000000,4.000000,100.000000
1602005413.288872,61.000000,0.000000,4105.641113,4123.077148,4117.948730,4141.025879,4152.307617,4145.641113,4121.025879,4138.461426,4155.897461,4170.769043,4171.794922,4151.794922,4205.128418,4159.487305,0.000000,4.000000,,,,0.000000,4.000000,4.000000,4.000000,4.000000,4.000000,4.000000,4.000000,4.000000,4.000000,4.000000,4.000000,4.000000,4.000000,4.000000,100.000000
1602005413.296853,62.000000,0.000000,4094.871826,4111.794922,4120.512695,4137.436035,4142.051270,4125.641113,4122.051270,4137.436035,4151.282227,4166.666504,4168.717773,4155.384766,4193.333496,4149.743652,0.000000,4.000000,,,,0.000000,4.000000,4.000000,4.000000,4.000000,4.000000,4.000000,4.000000,4.000000,4.000000,4.000000,4.000000,4.000000,4.000000,4.000000,100.000000
1602005413.304734,63.000000,0.000000,4092.820557,4107.692383,4114.871582,4140.512695,4141.538574,4124.615234,4118.461426,4140.000000,4141.025879,4157.948730,4161.538574,4147.692383,4182.051270,4138.461426,0.000000,4.000000,,,,0.000000,4.000000,4.000000,4.000000,4.000000,4.000000,4.000000,4.000000,4.000000,4.000000,4.000000,4.000000,4.000000,4.000000,4.000000,100.000000
1602005413.312616,64.000000,0.000000,4094.358887,4104.615234,4107.179688,4135.384766,4143.589844,4136.410156,4115.897461,4137.948730,4136.410156,4152.307617,4155.384766,4140.000000,4173.333496,4138.461426,807.000000,4.000000,,,,0.000000,4.000000,4.000000,4.000000,4.000000,4.000000,4.000000,4.000000,4.000000,4.000000,4.000000,4.000000,4.000000,4.000000,4.000000,100.000000
1602005413.320397,65.000000,0.000000,4092.307617,4096.410156,4107.179688,4126.153809,4139.487305,4139.487305,4121.025879,4141.025879,4144.102539,4167.692383,4158.974121,4141.025879,4172.820313,4141.538574,797.000000,4.000000,,,,0.000000,4.000000,4.000000,4.000000,4.000000,4.000000,4.000000,4.000000,4.000000,4.000000,4.000000,4.000000,4.000000,4.000000,4.000000,100.000000
1602005413.328179,66.000000,0.000000,4086.153809,4091.281982,4105.128418,4124.615234,4144.615234,4137.436035,4125.128418,4152.820313,4154.358887,4157.948730,4167.179688,4140.000000,4175.897461,4139.487305,855.000000,4.000000,,,,0.000000,4.000000,4.000000,4.000000,4.000000,4.000000,4.000000,4.000000,4.000000,4.000000,4.000000,4.000000,4.000000,4.000000,4.000000,100.000000
1602005413.336061,67.000000,0.000000,4079.487061,4090.769287,4092.820557,4125.641113,4150.769043,4136.922852,4123.589844,4156.410156,4158.461426,4133.846191,4159.487305,4129.230957,4167.692383,4129.743652,873.000000,4.000000,,,,0.000000,4.000000,4.000000,4.000000,4.000000,4.000000,4.000000,4.000000,4.000000,4.000000,4.000000,4.000000,4.000000,4.000000,4.000000,100.000000
1602005413.343942,68.000000,0.000000,4072.307617,4086.666748,4084.615479,4120.512695,4139.487305,4136.922852,4123.077148,4149.230957,4156.922852,4149.230957,4143.077148,4116.410156,4151.794922,4115.384766,811.000000,4.000000,,,,0.000000,4.000000,4.000000,4.000000,4.000000,4.000000,4.000000,4.000000,4.000000,4.000000,4.000000,4.000000,4.000000,4.000000,4.000000,100.000000
1602005413.351824,69.000000,0.000000,4070.256348,4085.641113,4090.769287,4117.948730,4133.333496,4133.333496,4120.512695,4148.717773,4160.000000,4173.333496,4146.153809,4118.974121,4151.282227,4116.922852,822.000000,4.000000,,,,0.000000,4.000000,4.000000,4.000000,4.000000,4.000000,4.000000,4.000000,4.000000,4.000000,4.000000,4.000000,4.000000,4.000000,4.000000,100.000000
1602005413.359706,70.000000,0.000000,4084.102539,4098.461426,4109.230957,4130.256348,4147.692383,4130.256348,4114.871582,4152.307617,4171.282227,4177.436035,4161.025879,4137.948730,4169.230957,4134.358887,772.000000,4.000000,,,,0.000000,4.000000,4.000000,4.000000,4.000000,4.000000,4.000000,4.000000,4.000000,4.000000,4.000000,4.000000,4.000000,4.000000,4.000000,100.000000
1602005413.367588,71.000000,0.000000,4096.410156,4105.128418,4117.948730,4136.410156,4150.769043,4125.641113,4107.692383,4141.025879,4166.153809,4177.436035,4156.922852,4141.538574,4170.769043,4136.922852,697.000000,4.000000,,,,0.000000,4.000000,4.000000,4.000000,4.000000,4.000000,4.000000,4.000000,4.000000,4.000000,4.000000,4.000000,4.000000,4.000000,4.000000,100.000000
1602005413.375470,72.000000,0.000000,4082.051270,4092.307617,4104.615234,4124.615234,4138.461426,4125.128418,4104.102539,4126.153809,4141.538574,4164.102539,4139.487305,4122.563965,4152.307617,4120.512695,792.000000,4.000000,,,,0.000000,4.000000,4.000000,4.000000,4.000000,4.000000,4.000000,4.000000,4.000000,4.000000,4.000000,4.000000,4.000000,4.000000,4.000000,100.000000
1602005413.383252,73.000000,0.000000,4067.692383,4087.179443,4096.410156,4119.487305,4137.948730,4133.333496,4112.307617,4129.743652,4135.384766,4140.512695,4137.948730,4115.897461,4147.179688,4114.871582,843.000000,4.000000,,,,0.000000,4.000000,4.000000,4.000000,4.000000,4.000000,4.000000,4.000000,4.000000,4.000000,4.000000,4.000000,4.000000,4.000000,4.000000,100.000000
1602005413.391135,74.000000,0.000000,4085.128174,4096.410156,4105.128418,4128.717773,4146.153809,4138.974121,4126.153809,4142.051270,4150.769043,4134.358887,4151.282227,4127.692383,4157.436035,4129.230957,871.000000,4.000000,,,,0.000000,4.000000,4.000000,4.000000,4.000000,4.000000,4.000000,4.000000,4.000000,4.000000,4.000000,4.000000,4.000000,4.000000,4.000000,100.000000
1602005413.399017,75.000000,0.000000,4094.358887,4094.871826,4108.205078,4127.692383,4143.589844,4136.410156,4127.179688,4145.128418,4154.358887,4132.820313,4155.384766,4129.230957,4157.948730,4135.384766,838.000000,4.000000,,,,0.000000,4.000000,4.000000,4.000000,4.000000,4.000000,4.000000,4.000000,4.000000,4.000000,4.000000,4.000000,4.000000,4.000000,4.000000,100.000000
1602005413.406900,76.000000,0.000000,4085.128174,4093.846191,4109.230957,4127.692383,4138.974121,4134.871582,4122.563965,4146.666504,4151.282227,4132.307617,4152.307617,4128.717773,4155.897461,4133.846191,783.000000,4.000000,,,,0.000000,4.000000,4.000000,4.000000,4.000000,4.000000,4.000000,4.000000,4.000000,4.000000,4.000000,4.000000,4.000000,4.000000,4.000000,100.000000
1602005413.414782,77.000000,0.000000,4096.410156,4107.179688,4129.230957,4138.461426,4147.692383,4137.948730,4121.538574,4153.846191,4158.461426,4148.717773,4153.846191,4141.538574,4169.230957,4149.230957,777.000000,4.000000,,,,0.000000,4.000000,4.000000,4.000000,4.000000,4.000000,4.000000,4.000000,4.000000,4.000000,4.000000,4.000000,4.000000,4.000000,4.000000,100.000000
1602005413.422664,78.000000,0.000000,4104.615234,4105.128418,4140.512695,4133.333496,4154.871582,4138.461426,4123.589844,4156.410156,4160.000000,4162.051270,4156.410156,4147.179688,4173.333496,4153.846191,871.000000,4.000000,,,,0.000000,4.000000,4.000000,4.000000,4.000000,4.000000,4.000000,4.000000,4.000000,4.000000,4.000000,4.000000,4.000000,4.000000,4.000000,100.000000
1602005413.430547,79.000000,0.000000,4093.333252,4096.410156,4126.666504,4123.589844,4151.282227,4138.461426,4123.077148,4150.256348,4148.717773,4157.436035,4156.410156,4141.025879,4160.512695,4137.436035,838.000000,4.000000,,,,0.000000,4.000000,4.000000,4.000000,4.000000,4.000000,4.000000,4.000000,4.000000,4.000000,4.000000,4.000000,4.000000,4.000000,4.000000,100.000000
1602005413.438429,80.000000,0.000000,4097.436035,4106.153809,4120.512695,4126.666504,4147.179688,4135.897461,4114.871582,4137.436035,4140.000000,4135.384766,4151.794922,4134.871582,4151.282227,4133.333496,783.000000,4.000000,,,,0.000000,4.000000,4.000000,4.000000,4.000000,4.000000,4.000000,4.000000,4.000000,4.000000,4.000000,4.000000,4.000000,4.000000,4.000000,100.000000
1602005413.446311,81.000000,0.000000,4104.615234,4106.153809,4121.025879,4125.128418,4143.077148,4128.717773,4105.641113,4125.128418,4129.230957,4118.974121,4138.974121,4126.153809,4146.153809,4137.436035,777.000000,4.000000,,,,0.000000,4.000000,4.000000,4.000000,4.000000,4.000000,4.000000,4.000000,4.000000,4.000000,4.000000,4.000000,4.000000,4.000000,4.000000,100.000000
1602005413.454093,82.000000,0.000000,4092.307617,4090.256348,4114.358887,4119.487305,4140.000000,4125.641113,4106.666504,4120.512695,4121.538574,4129.743652,4129.743652,4121.538574,4136.410156,4132.820313,871.000000,4.000000,,,,0.000000,4.000000,4.000000,4.000000,4.000000,4.000000,4.000000,4.000000,4.000000,4.000000,4.000000,4.000000,4.000000,4.000000,4.000000,100.000000
1602005413.461975,83.000000,0.000000,4086.153809,4093.333252,4113.846191,4125.128418,4140.000000,4126.153809,4109.743652,4123.077148,4128.205078,4134.358887,4132.820313,4129.743652,4136.410156,4131.282227,838.000000,4.000000,,,,0.000000,4.000000,4.000000,4.000000,4.000000,4.000000,4.000000,4.000000,4.000000,4.000000,4.000000,4.000000,4.000000,4.000000,4.000000,100.000000
1602005413.469856,84.000000,0.000000,4095.384521,4108.205078,4120.512695,4134.871582,4140.512695,4127.179688,4108.205078,4130.256348,4136.410156,4130.256348,4145.128418,4138.461426,4150.769043,4134.358887,783.000000,4.000000,,,,0.000000,4.000000,4.000000,4.000000,4.000000,4.000000,4.000000,4.000000,4.000000,4.000000,4.000000,4.000000,4.000000,4.000000,4.000000,100.000000
1602005413.477738,85.000000,0.000000,4102.563965,4113.333496,4127.179688,4140.000000,4144.102539,4126.666504,4107.179688,4136.922852,4137.948730,4151.282227,4152.820313,4140.000000,4157.948730,4135.897461,777.000000,4.000000,,,,0.000000,4.000000,4.000000,4.000000,4.000000,4.000000,4.000000,4.000000,4.000000,4.000000,4.000000,4.000000,4.000000,4.000000,4.000000,100.000000
1602005413.485620,86.000000,0.000000,4115.384766,4118.974121,4136.410156,4143.589844,4150.769043,4122.051270,4106.666504,4139.487305,4138.974121,4162.051270,4152.820313,4143.077148,4156.410156,4142.051270,871.000000,4.000000,,,,0.000000,4.000000,4.000000,4.000000,4.000000,4.000000,4.000000,4.000000,4.000000,4.000000,4.000000,4.000000,4.000000,4.000000,4.000000,100.000000
1602005413.493602,87.000000,0.000000,4128.205078,4125.128418,4141.538574,4145.128418,4153.333496,4123.077148,4105.128418,4138.461426,4137.436035,4136.410156,4152.820313,4144.615234,4157.436035,4145.641113,838.000000,4.000000,,,,0.000000,4.000000,4.000000,4.000000,4.000000,4.000000,4.000000,4.000000,4.000000,4.000000,4.000000,4.000000,4.000000,4.000000,4.000000,100.000000
1602005413.501484,88.000000,0.000000,4123.589844,4121.538574,4138.461426,4143.077148,4153.846191,4131.282227,4105.128418,4141.025879,4134.871582,4135.384766,4153.333496,4142.563965,4160.512695,4145.128418,783.000000,4.000000,,,,0.000000,4.000000,4.000000,4.000000,4.000000,4.000000,4.000000,4.000000,4.000000,4.000000,4.000000,4.000000,4.000000,4.000000,4.000000,100.000000
1602005413.509366,89.000000,0.000000,4110.769043,4114.358887,4135.384766,4140.512695,4150.769043,4131.282227,4105.128418,4142.051270,4134.871582,4150.769043,4146.666504,4141.538574,4159.487305,4147.179688,777.000000,4.000000,,,,0.000000,4.000000,4.000000,4.000000,4.000000,4.000000,4.000000,4.000000,4.000000,4.000000,4.000000,4.000000,4.000000,4.000000,4.000000,100.000000
1602005413.517248,90.000000,0.000000,4105.641113,4108.717773,4130.256348,4137.436035,4143.077148,4122.563965,4104.102539,4131.794922,4128.717773,4133.846191,4136.410156,4133.333496,4152.820313,4141.538574,871.000000,4.000000,,,,0.000000,4.000000,4.000000,4.000000,4.000000,4.000000,4.000000,4.000000,4.000000,4.000000,4.000000,4.000000,4.000000,4.000000,4.000000,100.000000
1602005413.525130,91.000000,0.000000,4107.692383,4106.153809,4122.563965,4133.846191,4144.615234,4123.589844,4106.666504,4125.641113,4125.128418,4126.666504,4138.461426,4124.102539,4151.794922,4134.871582,838.000000,4.000000,,,,0.000000,4.000000,4.000000,4.000000,4.000000,4.000000,4.000000,4.000000,4.000000,4.000000,4.000000,4.000000,4.000000,4.000000,4.000000,100.000000
1602005413.533012,92.000000,0.000000,4107.179688,4114.871582,4121.538574,4136.922852,4154.871582,4137.436035,4113.333496,4132.820313,4135.384766,4154.358887,4153.846191,4131.794922,4161.025879,4145.641113,783.000000,4.000000,,,,0.000000,4.000000,4.000000,4.000000,4.000000,4.000000,4.000000,4.000000,4.000000,4.000000,4.000000,4.000000,4.000000,4.000000,4.000000,100.000000
1602005413.540894,93.000000,0.000000,4107.692383,4119.487305,4125.641113,4141.025879,4151.794922,4137.436035,4112.820313,4138.461426,4140.512695,4165.128418,4157.436035,4141.025879,4165.641113,4153.333496,777.000000,4.000000,,,,0.000000,4.000000,4.000000,4.000000,4.000000,4.000000,4.000000,4.000000,4.000000,4.000000,4.000000,4.000000,4.000000,4.000000,4.000000,100.000000
1602005413.548877,94.000000,0.000000,4112.307617,4111.794922,4130.256348,4138.461426,4141.025879,4124.615234,4106.666504,4132.820313,4132.820313,4138.974121,4141.538574,4136.410156,4153.333496,4140.000000,871.000000,4.000000,,,,0.000000,4.000000,4.000000,4.000000,4.000000,4.000000,4.000000,4.000000,4.000000,4.000000,4.000000,4.000000,4.000000,4.000000,4.000000,100.000000
1602005413.556759,95.000000,0.000000,4118.974121,4112.820313,4134.871582,4140.512695,4141.025879,4123.589844,4105.641113,4134.871582,4136.922852,4125.128418,4139.487305,4137.948730,4149.230957,4137.948730,838.000000,4.000000,,,,0.000000,4.000000,4.000000,4.000000,4.000000,4.000000,4.000000,4.000000,4.000000,4.000000,4.000000,4.000000,4.000000,4.000000,4.000000,100.000000
1602005413.564641,96.000000,0.000000,4127.692383,4124.102539,4141.538574,4151.794922,4144.615234,4127.179688,4103.589844,4144.102539,4149.743652,4145.641113,4156.410156,4154.358887,4164.102539,4158.974121,783.000000,4.000000,,,,0.000000,4.000000,4.000000,4.000000,4.000000,4.000000,4.000000,4.000000,4.000000,4.000000,4.000000,4.000000,4.000000,4.000000,4.000000,100.000000
1602005413.572524,97.000000,0.000000,4128.205078,4124.615234,4144.102539,4154.358887,4142.051270,4122.563965,4095.384521,4142.563965,4147.179688,4160.512695,4153.333496,4153.846191,4166.666504,4167.179688,777.000000,4.000000,,,,0.000000,4.000000,4.000000,4.000000,4.000000,4.000000,4.000000,4.000000,4.000000,4.000000,4.000000,4.000000,4.000000,4.000000,4.000000,100.000000
1602005413.580406,98.000000,0.000000,4124.102539,4115.384766,4142.563965,4145.128418,4138.461426,4117.948730,4096.922852,4137.948730,4135.897461,4138.974121,4141.025879,4140.512695,4152.307617,4154.871582,871.000000,4.000000,,,,0.000000,4.000000,4.000000,4.000000,4.000000,4.000000,4.000000,4.000000,4.000000,4.000000,4.000000,4.000000,4.000000,4.000000,4.000000,100.000000
1602005413.588288,99.000000,0.000000,4125.641113,4112.307617,4148.205078,4138.974121,4138.974121,4124.102539,4107.692383,4140.000000,4132.820313,4113.846191,4146.153809,4142.563965,4151.282227,4153.333496,838.000000,4.000000,,,,0.000000,4.000000,4.000000,4.000000,4.000000,4.000000,4.000000,4.000000,4.000000,4.000000,4.000000,4.000000,4.000000,4.000000,4.000000,100.000000
1602005413.596171,100.000000,0.000000,4129.230957,4116.922852,4152.307617,4141.025879,4145.641113,4134.358887,4111.282227,4140.512695,4134.871582,4136.410156,4154.358887,4154.871582,4161.025879,4158.461426,783.000000,4.000000,,,,0.000000,4.000000,4.000000,4.000000,4.000000,4.000000,4.000000,4.000000,4.000000,4.000000,4.000000,4.000000,4.000000,4.000000,4.000000,100.000000
1602005413.604053,101.000000,0.000000,4126.666504,4121.538574,4146.666504,4143.589844,4152.820313,4134.871582,4109.743652,4128.717773,4135.384766,4161.025879,4153.333496,4155.384766,4161.025879,4156.410156,777.000000,4.000000,,,,0.000000,4.000000,4.000000,4.000000,4.000000,4.000000,4.000000,4.000000,4.000000,4.000000,4.000000,4.000000,4.000000,4.000000,4.000000,100.000000
1602005413.611935,102.000000,0.000000,4123.077148,4122.051270,4138.974121,4144.615234,4153.846191,4125.641113,4111.282227,4119.487305,4128.205078,4130.769043,4147.692383,4144.102539,4155.384766,4148.717773,871.000000,4.000000,,,,0.000000,4.000000,4.000000,4.000000,4.000000,4.000000,4.000000,4.000000,4.000000,4.000000,4.000000,4.000000,4.000000,4.000000,4.000000,100.000000
1602005413.619718,103.000000,0.000000,4120.512695,4121.538574,4134.358887,4141.538574,4152.307617,4121.025879,4106.153809,4123.077148,4118.461426,4108.717773,4141.025879,4133.333496,4155.384766,4140.000000,838.000000,4.000000,,,,0.000000,4.000000,4.000000,4.000000,4.000000,4.000000,4.000000,4.000000,4.000000,4.000000,4.000000,4.000000,4.000000,4.000000,4.000000,100.000000
1602005413.627600,104.000000,0.000000,4120.512695,4125.128418,4133.333496,4141.025879,4154.358887,4122.563965,4097.436035,4124.615234,4127.692383,4152.820313,4145.128418,4131.794922,4158.974121,4138.461426,783.000000,4.000000,,,,0.000000,4.000000,4.000000,4.000000,4.000000,4.000000,4.000000,4.000000,4.000000,4.000000,4.000000,4.000000,4.000000,4.000000,4.000000,100.000000
1602005413.635483,105.000000,0.000000,4126.666504,4125.641113,4136.410156,4148.205078,4155.384766,4119.487305,4098.461426,4125.128418,4144.615234,4182.051270,4157.436035,4143.077148,4168.717773,4148.717773,777.000000,4.000000,,,,0.000000,4.000000,4.000000,4.000000,4.000000,4.000000,4.000000,4.000000,4.000000,4.000000,4.000000,4.000000,4.000000,4.000000,4.000000,100.000000
1602005413.643365,106.000000,0.000000,4127.179688,4124.102539,4137.948730,4149.230957,4152.307617,4118.461426,4105.128418,4133.333496,4134.358887,4143.077148,4153.846191,4152.820313,4169.230957,4158.461426,871.000000,4.000000,,,,0.000000,4.000000,4.000000,4.000000,4.000000,4.000000,4.000000,4.000000,4.000000,4.000000,4.000000,4.000000,4.000000,4.000000,4.000000,100.000000
1602005413.651247,107.000000,0.000000,4121.025879,4123.589844,4136.410156,4141.025879,4150.256348,4121.538574,4107.692383,4135.897461,4122.051270,4128.205078,4138.974121,4152.307617,4156.410156,4152.307617,838.000000,4.000000,,,,0.000000,4.000000,4.000000,4.000000,4.000000,4.000000,4.000000,4.000000,4.000000,4.000000,4.000000,4.000000,4.000000,4.000000,4.000000,100.000000
1602005413.659130,108.000000,0.000000,4117.948730,4123.589844,4135.897461,4144.615234,4150.256348,4122.051270,4109.743652,4133.846191,4137.436035,4165.641113,4137.948730,4149.230957,4151.794922,4141.538574,783.000000,4.000000,,,,0.000000,4.000000,4.000000,4.000000,4.000000,4.000000,4.000000,4.000000,4.000000,4.000000,4.000000,4.000000,4.000000,4.000000,4.000000,100.000000
1602005413.667012,109.000000,0.000000,4118.974121,4124.615234,4127.692383,4150.769043,4150.769043,4123.077148,4112.307617,4138.461426,4141.025879,4152.820313,4138.974121,4142.563965,4152.307617,4136.410156,777.000000,4.000000,,,,0.000000,4.000000,4.000000,4.000000,4.000000,4.000000,4.000000,4.000000,4.000000,4.000000,4.000000,4.000000,4.000000,4.000000,4.000000,100.000000
1602005413.674894,110.000000,0.000000,4121.025879,4123.589844,4119.487305,4146.666504,4150.256348,4122.563965,4107.692383,4135.384766,4122.051270,4103.589844,4129.230957,4134.358887,4142.051270,4135.897461,871.000000,4.000000,,,,0.000000,4.000000,4.000000,4.000000,4.000000,4.000000,4.000000,4.000000,4.000000,4.000000,4.000000,4.000000,4.000000,4.000000,4.000000,100.000000
1602005413.682777,111.000000,0.000000,4119.487305,4123.077148,4124.102539,4147.179688,4152.307617,4121.025879,4105.641113,4127.692383,4126.153809,4119.487305,4127.179688,4131.282227,4135.897461,4137.436035,838.000000,4.000000,,,,0.000000,4.000000,4.000000,4.000000,4.000000,4.000000,4.000000,4.000000,4.000000,4.000000,4.000000,4.000000,4.000000,4.000000,4.000000,100.000000
1602005413.690759,112.000000,0.000000,4120.512695,4132.307617,4128.717773,4154.871582,4163.589844,4129.230957,4110.769043,4134.871582,4142.563965,4145.128418,4135.897461,4135.384766,4145.128418,4138.974121,783.000000,4.000000,,,,0.000000,4.000000,4.000000,4.000000,4.000000,4.000000,4.000000,4.000000,4.000000,4.000000,4.000000,4.000000,4.000000,4.000000,4.000000,100.000000
1602005413.698642,113.000000,0.000000,4128.717773,4140.512695,4127.179688,4155.384766,4172.307617,4138.974121,4112.307617,4138.974121,4138.461426,4128.205078,4138.461426,4144.615234,4154.871582,4138.974121,777.000000,4.000000,,,,0.000000,4.000000,4.000000,4.000000,4.000000,4.000000,4.000000,4.000000,4.000000,4.000000,4.000000,4.000000,4.000000,4.000000,4.000000,100.000000
1602005413.706524,114.000000,0.000000,4131.794922,4137.436035,4125.641113,4149.230957,4165.641113,4136.922852,4111.794922,4126.666504,4132.820313,4136.922852,4134.871582,4147.179688,4154.871582,4137.948730,871.000000,4.000000,,,,0.000000,4.000000,4.000000,4.000000,4.000000,4.000000,4.000000,4.000000,4.000000,4.000000,4.000000,4.000000,4.000000,4.000000,4.000000,100.000000
1602005413.714407,115.000000,0.000000,4124.615234,4135.384766,4125.128418,4143.077148,4154.871582,4135.384766,4113.333496,4126.666504,4137.948730,4162.051270,4136.410156,4142.051270,4153.333496,4140.000000,838.000000,4.000000,,,,0.000000,4.000000,4.000000,4.000000,4.000000,4.000000,4.000000,4.000000,4.000000,4.000000,4.000000,4.000000,4.000000,4.000000,4.000000,100.000000
1602005413.722290,116.000000,0.000000,4122.563965,4135.384766,4123.589844,4140.512695,4156.410156,4140.000000,4113.846191,4137.948730,4141.025879,4141.538574,4138.461426,4144.102539,4153.333496,4140.000000,783.000000,4.000000,,,,0.000000,4.000000,4.000000,4.000000,4.000000,4.000000,4.000000,4.000000,4.000000,4.000000,4.000000,4.000000,4.000000,4.000000,4.000000,100.000000
1602005413.730172,117.000000,0.000000,4126.153809,4127.692383,4122.051270,4143.589844,4152.820313,4134.871582,4107.692383,4137.948730,4139.487305,4118.974121,4136.922852,4150.256348,4152.307617,4137.436035,777.000000,4.000000,,,,0.000000,4.000000,4.000000,4.000000,4.000000,4.000000,4.000000,4.000000,4.000000,4.000000,4.000000,4.000000,4.000000,4.000000,4.000000,100.000000
1602005413.738055,118.000000,0.000000,4122.051270,4119.487305,4127.179688,4140.000000,4138.974121,4121.025879,4098.461426,4134.358887,4137.436035,4132.307617,4138.974121,4154.871582,4150.769043,4141.538574,871.000000,4.000000,,,,0.000000,4.000000,4.000000,4.000000,4.000000,4.000000,4.000000,4.000000,4.000000,4.000000,4.000000,4.000000,4.000000,4.000000,4.000000,100.000000
1602005413.745937,119.000000,0.000000,4124.615234,4124.615234,4134.871582,4137.436035,4140.512695,4121.538574,4098.461426,4140.000000,4144.102539,4147.179688,4147.692383,4164.615234,4156.922852,4150.769043,838.000000,4.000000,,,,0.000000,4.000000,4.000000,4.000000,4.000000,4.000000,4.000000,4.000000,4.000000,4.000000,4.000000,4.000000,4.000000,4.000000,4.000000,100.000000
1602005413.753820,120.000000,0.000000,4138.461426,4135.384766,4144.615234,4146.666504,4153.846191,4128.717773,4106.666504,4149.743652,4156.410156,4156.410156,4155.384766,4175.384766,4169.230957,4155.897461,783.000000,4.000000,,,,0.000000,4.000000,4.000000,4.000000,4.000000,4.000000,4.000000,4.000000,4.000000,4.000000,4.000000,4.000000,4.000000,4.000000,4.000000,100.000000
1602005413.761802,121.000000,0.000000,4144.102539,4138.974121,4149.743652,4153.333496,4155.897461,4128.205078,4112.307617,4150.256348,4158.461426,4158.461426,4155.384766,4172.307617,4172.307617,4155.897461,777.000000,4.000000,,,,0.000000,4.000000,4.000000,4.000000,4.000000,4.000000,4.000000,4.000000,4.000000,4.000000,4.000000,4.000000,4.000000,4.000000,4.000000,100.000000
1602005413.769684,122.000000,0.000000,4136.922852,4134.358887,4147.179688,4151.794922,4152.307617,4127.179688,4112.820313,4144.615234,4151.282227,4134.358887,4152.820313,4169.230957,4164.102539,4160.512695,871.000000,4.000000,,,,0.000000,4.000000,4.000000,4.000000,4.000000,4.000000,4.000000,4.000000,4.000000,4.000000,4.000000,4.000000,4.000000,4.000000,4.000000,100.000000
1602005413.777566,123.000000,0.000000,4137.948730,4135.384766,4148.717773,4151.282227,4156.410156,4136.410156,4119.487305,4146.666504,4150.256348,4114.871582,4153.846191,4178.974121,4165.128418,4167.692383,838.000000,4.000000,,,,0.000000,4.000000,4.000000,4.000000,4.000000,4.000000,4.000000,4.000000,4.000000,4.000000,4.000000,4.000000,4.000000,4.000000,4.000000,100.000000
1602005413.785447,124.000000,0.000000,4151.794922,4147.179688,4156.922852,4153.846191,4165.128418,4150.769043,4134.358887,4155.384766,4155.384766,4138.461426,4156.922852,4188.717773,4174.358887,4168.717773,783.000000,4.000000,,,,0.000000,4.000000,4.000000,4.000000,4.000000,4.000000,4.000000,4.000000,4.000000,4.000000,4.000000,4.000000,4.000000,4.000000,4.000000,100.000000
1602005413.793329,125.000000,0.000000,4159.487305,4151.794922,4156.922852,4155.897461,4171.282227,4158.974121,4138.974121,4153.846191,4156.922852,4165.641113,4156.922852,4187.179688,4174.871582,4168.205078,777.000000,4.000000,,,,0.000000,4.000000,4.000000,4.000000,4.000000,4.000000,4.000000,4.000000,4.000000,4.000000,4.000000,4.000000,4.000000,4.000000,4.000000,100.000000
1602005413.801311,126.000000,0.000000,4151.282227,4142.563965,4151.794922,4154.871582,4166.153809,4153.333496,4130.769043,4147.692383,4153.333496,4157.436035,4155.897461,4182.051270,4170.256348,4168.717773,871.000000,4.000000,,,,0.000000,4.000000,4.000000,4.000000,4.000000,4.000000,4.000000,4.000000,4.000000,4.000000,4.000000,4.000000,4.000000,4.000000,4.000000,100.000000
1602005413.809193,127.000000,0.000000,4138.461426,4136.922852,4153.846191,4152.820313,4156.922852,4144.102539,4127.692383,4147.692383,4154.871582,4149.743652,4156.410156,4186.153809,4166.666504,4162.051270,838.000000,4.000000,,,,0.000000,4.000000,4.000000,4.000000,4.000000,4.000000,4.000000,4.000000,4.000000,4.000000,4.000000,4.000000,4.000000,4.000000,4.000000,100.000000
1602005413.817076,128.000000,0.000000,4135.384766,4138.461426,4148.717773,4152.307617,4153.846191,4141.538574,4128.205078,4143.589844,4156.410156,4157.948730,4154.871582,4184.615234,4162.563965,4154.871582,783.000000,4.000000,,,,0.000000,4.000000,4.000000,4.000000,4.000000,4.000000,4.000000,4.000000,4.000000,4.000000,4.000000,4.000000,4.000000,4.000000,4.000000,100.000000
1602005413.824958,0.000000,0.000000,4138.974121,4135.897461,4136.922852,4151.282227,4152.820313,4140.512695,4117.948730,4134.358887,4145.128418,4143.589844,4150.769043,4172.820313,4155.384766,4154.358887,807.000000,4.000000,,,,0.000000,4.000000,4.000000,4.000000,4.000000,4.000000,4.000000,4.000000,4.000000,4.000000,4.000000,4.000000,4.000000,4.000000,4.000000,100.000000
1602005413.832840,1.000000,0.000000,4139.487305,4133.333496,4136.922852,4150.256348,4152.820313,4137.436035,4113.846191,4132.820313,4139.487305,4114.358887,4150.769043,4169.743652,4155.897461,4154.871582,797.000000,4.000000,,,,0.000000,4.000000,4.000000,4.000000,4.000000,4.000000,4.000000,4.000000,4.000000,4.000000,4.000000,4.000000,4.000000,4.000000,4.000000,100.000000
1602005413.840722,2.000000,0.000000,4133.333496,4137.948730,4144.102539,4153.333496,4155.897461,4138.974121,4123.077148,4138.974121,4152.307617,4124.615234,4154.358887,4174.358887,4165.641113,4156.410156,855.000000,4.000000,,,,0.000000,4.000000,4.000000,4.000000,4.000000,4.000000,4.000000,4.000000,4.000000,4.000000,4.000000,4.000000,4.000000,4.000000,4.000000,100.000000
1602005413.848604,3.000000,0.000000,4123.589844,4134.358887,4140.512695,4149.743652,4151.794922,4137.948730,4122.563965,4144.102539,4159.487305,4161.538574,4153.333496,4173.846191,4166.666504,4156.922852,873.000000,4.000000,,,,0.000000,4.000000,4.000000,4.000000,4.000000,4.000000,4.000000,4.000000,4.000000,4.000000,4.000000,4.000000,4.000000,4.000000,4.000000,100.000000
1602005413.856386,4.000000,0.000000,4121.025879,4125.128418,4136.410156,4140.512695,4143.077148,4127.692383,4119.487305,4142.051270,4149.230957,4170.256348,4151.282227,4170.256348,4156.410156,4146.666504,810.000000,4.000000,,,,0.000000,4.000000,4.000000,4.000000,4.000000,4.000000,4.000000,4.000000,4.000000,4.000000,4.000000,4.000000,4.000000,4.000000,4.000000,100.000000
1602005413.864268,5.000000,0.000000,4124.615234,4124.102539,4140.000000,4141.538574,4143.077148,4120.000000,4120.000000,4140.000000,4142.051270,4155.897461,4150.769043,4164.615234,4153.846191,4136.410156,822.000000,4.000000,,,,0.000000,4.000000,4.000000,4.000000,4.000000,4.000000,4.000000,4.000000,4.000000,4.000000,4.000000,4.000000,4.000000,4.000000,4.000000,100.000000
1602005413.872150,6.000000,0.000000,4123.589844,4125.641113,4132.307617,4145.641113,4143.589844,4125.641113,4116.410156,4137.948730,4138.974121,4137.436035,4147.179688,4158.461426,4156.922852,4136.410156,772.000000,4.000000,,,,0.000000,4.000000,4.000000,4.000000,4.000000,4.000000,4.000000,4.000000,4.000000,4.000000,4.000000,4.000000,4.000000,4.000000,4.000000,100.000000
1602005413.880032,7.000000,0.000000,4122.563965,4123.077148,4123.077148,4140.512695,4137.948730,4135.384766,4115.384766,4136.410156,4134.871582,4117.948730,4140.512695,4161.538574,4148.205078,4136.922852,697.000000,4.000000,,,,0.000000,4.000000,4.000000,4.000000,4.000000,4.000000,4.000000,4.000000,4.000000,4.000000,4.000000,4.000000,4.000000,4.000000,4.000000,100.000000
1602005413.887914,8.000000,0.000000,4130.769043,4122.051270,4131.794922,4136.922852,4136.922852,4140.000000,4125.128418,4137.948730,4135.897461,4110.256348,4141.538574,4169.743652,4143.077148,4139.487305,792.000000,4.000000,,,,0.000000,4.000000,4.000000,4.000000,4.000000,4.000000,4.000000,4.000000,4.000000,4.000000,4.000000,4.000000,4.000000,4.000000,4.000000,100.000000
1602005413.895795,9.000000,0.000000,4137.436035,4124.102539,4142.051270,4138.461426,4138.974121,4139.487305,4129.743652,4138.974121,4136.922852,4121.025879,4145.128418,4171.794922,4150.256348,4145.641113,843.000000,4.000000,,,,0.000000,4.000000,4.000000,4.000000,4.000000,4.000000,4.000000,4.000000,4.000000,4.000000,4.000000,4.000000,4.000000,4.000000,4.000000,100.000000
1602005413.903777,10.000000,0.000000,4137.948730,4124.102539,4139.487305,4138.974121,4138.461426,4135.384766,4124.615234,4139.487305,4135.384766,4142.563965,4143.589844,4171.794922,4153.846191,4152.820313,871.000000,4.000000,,,,0.000000,4.000000,4.000000,4.000000,4.000000,4.000000,4.000000,4.000000,4.000000,4.000000,4.000000,4.000000,4.000000,4.000000,4.000000,100.000000
1602005413.911660,11.000000,0.000000,4139.487305,4123.589844,4133.333496,4138.974121,4141.025879,4136.922852,4123.589844,4145.128418,4141.538574,4159.487305,4146.666504,4168.717773,4153.846191,4153.333496,838.000000,4.000000,,,,0.000000,4.000000,4.000000,4.000000,4.000000,4.000000,4.000000,4.000000,4.000000,4.000000,4.000000,4.000000,4.000000,4.000000,4.000000,100.000000
1602005413.919542,12.000000,0.000000,4131.794922,4122.051270,4132.307617,4136.922852,4143.589844,4140.000000,4124.102539,4151.794922,4151.282227,4156.922852,4149.743652,4158.974121,4153.846191,4145.128418,783.000000,4.000000,,,,0.000000,4.000000,4.000000,4.000000,4.000000,4.000000,4.000000,4.000000,4.000000,4.000000,4.000000,4.000000,4.000000,4.000000,4.000000,100.000000
1602005413.927424,13.000000,0.000000,4122.051270,4122.563965,4138.461426,4135.897461,4143.077148,4133.333496,4121.538574,4153.333496,4153.333496,4151.794922,4144.615234,4155.384766,4153.333496,4138.974121,773.000000,4.000000,,,,0.000000,4.000000,4.000000,4.000000,4.000000,4.000000,4.000000,4.000000,4.000000,4.000000,4.000000,4.000000,4.000000,4.000000,4.000000,100.000000
1602005413.935306,14.000000,0.000000,4128.205078,4125.641113,4141.538574,4138.974121,4144.102539,4127.179688,4119.487305,4152.307617,4154.358887,4155.897461,4141.538574,4160.512695,4152.820313,4133.846191,871.000000,4.000000,,,,0.000000,4.000000,4.000000,4.000000,4.000000,4.000000,4.000000,4.000000,4.000000,4.000000,4.000000,4.000000,4.000000,4.000000,4.000000,100.000000
1602005413.943188,15.000000,0.000000,4134.871582,4124.102539,4138.461426,4140.000000,4141.538574,4129.743652,4119.487305,4152.820313,4155.384766,4137.436035,4144.615234,4160.512695,4155.897461,4127.692383,838.000000,4.000000,,,,0.000000,4.000000,4.000000,4.000000,4.000000,4.000000,4.000000,4.000000,4.000000,4.000000,4.000000,4.000000,4.000000,4.000000,4.000000,100.000000
1602005413.951070,16.000000,0.000000,4137.436035,4128.205078,4145.128418,4142.051270,4138.974121,4129.230957,4120.512695,4154.871582,4153.846191,4111.282227,4149.230957,4156.410156,4158.974121,4135.384766,0.000000,4.000000,,,,0.000000,4.000000,4.000000,4.000000,4.000000,4.000000,4.000000,4.000000,4.000000,4.000000,4.000000,4.000000,4.000000,4.000000,4.000000,100.000000
1602005413.958852,17.000000,0.000000,4143.077148,4136.410156,4154.871582,4143.077148,4140.000000,4124.102539,4122.051270,4151.282227,4149.743652,4126.153809,4152.820313,4157.948730,4157.436035,4152.820313,0.000000,4.000000,,,,0.000000,4.000000,4.000000,4.000000,4.000000,4.000000,4.000000,4.000000,4.000000,4.000000,4.000000,4.000000,4.000000,4.000000,4.000000,100.000000
1602005413.966734,18.000000,0.000000,4145.641113,4136.410156,4154.358887,4143.077148,4141.025879,4122.563965,4126.666504,4142.051270,4141.025879,4155.384766,4151.282227,4162.563965,4152.820313,4157.436035,0.000000,4.000000,,,,0.000000,4.000000,4.000000,4.000000,4.000000,4.000000,4.000000,4.000000,4.000000,4.000000,4.000000,4.000000,4.000000,4.000000,4.000000,100.000000
1602005413.974617,19.000000,0.000000,4148.205078,4134.358887,4154.871582,4149.230957,4138.974121,4123.077148,4128.717773,4137.436035,4136.922852,4152.820313,4144.102539,4167.179688,4150.256348,4150.769043,0.000000,4.000000,,,,0.000000,4.000000,4.000000,4.000000,4.000000,4.000000,4.000000,4.000000,4.000000,4.000000,4.000000,4.000000,4.000000,4.000000,4.000000,100.000000
1602005413.982499,20.000000,0.000000,4151.794922,4135.897461,4157.436035,4149.743652,4138.461426,4120.512695,4125.128418,4135.897461,4138.974121,4135.384766,4140.512695,4169.743652,4148.717773,4151.794922,0.000000,4.000000,,,,0.000000,4.000000,4.000000,4.000000,4.000000,4.000000,4.000000,4.000000,4.000000,4.000000,4.000000,4.000000,4.000000,4.000000,4.000000,100.000000
1602005413.990381,21.000000,0.000000,4146.153809,4137.948730,4153.333496,4144.102539,4139.487305,4122.051270,4125.128418,4136.410156,4132.820313,4135.897461,4138.974121,4170.769043,4147.692383,4155.897461,0.000000,4.000000,,,,0.000000,4.000000,4.000000,4.000000,4.000000,4.000000,4.000000,4.000000,4.000000,4.000000,4.000000,4.000000,4.000000,4.000000,4.000000,100.000000
1602005413.998263,22.000000,0.000000,4141.538574,4136.410156,4148.717773,4146.666504,4140.512695,4131.282227,4129.743652,4138.974121,4122.563965,4136.922852,4136.410156,4171.282227,4152.307617,4152.307617,0.000000,4.000000,,,,0.000000,4.000000,4.000000,4.000000,4.000000,4.000000,4.000000,4.000000,4.000000,4.000000,4.000000,4.000000,4.000000,4.000000,4.000000,100.000000
1602005414.006145,23.000000,0.000000,4143.589844,4130.256348,4146.666504,4147.179688,4139.487305,4136.922852,4128.205078,4138.461426,4129.230957,4115.384766,4136.922852,4167.179688,4152.820313,4140.000000,0.000000,4.000000,,,,0.000000,4.000000,4.000000,4.000000,4.000000,4.000000,4.000000,4.000000,4.000000,4.000000,4.000000,4.000000,4.000000,4.000000,4.000000,100.000000
1602005414.014127,24.000000,0.000000,4141.538574,4128.717773,4145.128418,4140.000000,4142.051270,4134.871582,4122.563965,4136.922852,4138.974121,4103.077148,4138.461426,4157.436035,4144.615234,4132.307617,0.000000,4.000000,,,,0.000000,4.000000,4.000000,4.000000,4.000000,4.000000,4.000000,4.000000,4.000000,4.000000,4.000000,4.000000,4.000000,4.000000,4.000000,100.000000
1602005414.022010,25.000000,0.000000,4134.358887,4134.871582,4144.615234,4141.025879,4150.256348,4136.922852,4122.563965,4138.461426,4138.461426,4128.205078,4137.948730,4150.769043,4141.025879,4135.384766,0.000000,4.000000,,,,0.000000,4.000000,4.000000,4.000000,4.000000,4.000000,4.000000,4.000000,4.000000,4.000000,4.000000,4.000000,4.000000,4.000000,4.000000,100.000000
1602005414.029892,26.000000,0.000000,4125.128418,4131.282227,4135.897461,4142.563965,4153.846191,4140.512695,4123.077148,4133.846191,4138.461426,4152.820313,4136.922852,4151.282227,4141.538574,4134.871582,0.000000,4.000000,,,,0.000000,4.000000,4.000000,4.000000,4.000000,4.000000,4.000000,4.000000,4.000000,4.000000,4.000000,4.000000,4.000000,4.000000,4.000000,100.000000
1602005414.037774,27.000000,0.000000,4120.512695,4122.563965,4126.153809,4137.948730,4149.230957,4136.922852,4122.563965,4124.102539,4142.051270,4140.000000,4136.922852,4151.282227,4139.487305,4127.179688,0.000000,4.000000,,,,0.000000,4.000000,4.000000,4.000000,4.000000,4.000000,4.000000,4.000000,4.000000,4.000000,4.000000,4.000000,4.000000,4.000000,4.000000,100.000000
1602005414.045657,28.000000,0.000000,4122.051270,4120.512695,4125.641113,4136.410156,4144.615234,4136.410156,4127.179688,4126.666504,4136.410156,4124.615234,4135.384766,4144.615234,4135.897461,4118.461426,0.000000,4.000000,,,,0.000000,4.000000,4.000000,4.000000,4.000000,4.000000,4.000000,4.000000,4.000000,4.000000,4.000000,4.000000,4.000000,4.000000,4.000000,100.000000
1602005414.053539,29.000000,0.000000,4121.025879,4122.051270,4129.743652,4135.897461,4138.461426,4133.846191,4128.205078,4134.871582,4122.563965,4128.717773,4134.358887,4143.077148,4135.897461,4115.897461,0.000000,4.000000,,,,0.000000,4.000000,4.000000,4.000000,4.000000,4.000000,4.000000,4.000000,4.000000,4.000000,4.000000,4.000000,4.000000,4.000000,4.000000,100.000000
1602005414.061421,30.000000,0.000000,4126.666504,4129.230957,4138.974121,4143.589844,4138.461426,4128.717773,4124.102539,4138.974121,4120.512695,4116.922852,4142.051270,4154.871582,4145.641113,4131.794922,0.000000,4.000000,,,,0.000000,4.000000,4.000000,4.000000,4.000000,4.000000,4.000000,4.000000,4.000000,4.000000,4.000000,4.000000,4.000000,4.000000,4.000000,100.000000
1602005414.069304,31.000000,0.000000,4139.487305,4140.512695,4154.358887,4156.410156,4149.230957,4126.153809,4122.563965,4142.051270,4134.358887,4105.641113,4153.333496,4169.230957,4157.436035,4150.256348,0.000000,4.000000,,,,0.000000,4.000000,4.000000,4.000000,4.000000,4.000000,4.000000,4.000000,4.000000,4.000000,4.000000,4.000000,4.000000,4.000000,4.000000,100.000000
1602005414.077186,32.000000,0.000000,4145.128418,4142.563965,4159.487305,4155.384766,4154.871582,4126.153809,4127.179688,4143.077148,4140.000000,4140.000000,4156.410156,4170.769043,4163.077148,4153.333496,0.000000,4.000000,,,,0.000000,4.000000,4.000000,4.000000,4.000000,4.000000,4.000000,4.000000,4.000000,4.000000,4.000000,4.000000,4.000000,4.000000,4.000000,100.000000
1602005414.084968,33.000000,0.000000,4146.666504,4142.563965,4153.333496,4150.769043,4152.820313,4132.307617,4131.794922,4143.589844,4135.897461,4171.794922,4155.384766,4163.589844,4168.717773,4153.846191,0.000000,4.000000,,,,0.000000,4.000000,4.000000,4.000000,4.000000,4.000000,4.000000,4.000000,4.000000,4.000000,4.000000,4.000000,4.000000,4.000000,4.000000,100.000000
1602005414.092849,34.000000,0.000000,4144.102539,4143.589844,4152.820313,4151.794922,4151.794922,4132.820313,4128.717773,4141.025879,4143.077148,4156.922852,4155.897461,4155.384766,4169.743652,4157.436035,0.000000,4.000000,,,,0.000000,4.000000,4.000000,4.000000,4.000000,4.000000,4.000000,4.000000,4.000000,4.000000,4.000000,4.000000,4.000000,4.000000,4.000000,100.000000
1602005414.100730,35.000000,0.000000,4142.051270,4142.563965,4153.333496,4154.358887,4151.282227,4127.179688,4125.128418,4137.436035,4152.820313,4150.769043,4156.410156,4156.410156,4167.692383,4161.025879,0.000000,4.000000,,,,0.000000,4.000000,4.000000,4.000000,4.000000,4.000000,4.000000,4.000000,4.000000,4.000000,4.000000,4.000000,4.000000,4.000000,4.000000,100.000000
1602005414.108711,36.000000,0.000000,4152.820313,4143.077148,4152.820313,4155.384766,4152.307617,4134.871582,4132.820313,4138.974121,4146.666504,4160.512695,4156.922852,4167.692383,4171.794922,4169.230957,0.000000,4.000000,,,,0.000000,4.000000,4.000000,4.000000,4.000000,4.000000,4.000000,4.000000,4.000000,4.000000,4.000000,4.000000,4.000000,4.000000,4.000000,100.000000
1602005414.116493,37.000000,0.000000,4152.307617,4142.563965,4154.871582,4151.282227,4155.897461,4140.512695,4140.512695,4143.589844,4132.820313,4133.333496,4156.922852,4169.743652,4169.743652,4169.743652,0.000000,4.000000,,,,0.000000,4.000000,4.000000,4.000000,4.000000,4.000000,4.000000,4.000000,4.000000,4.000000,4.000000,4.000000,4.000000,4.000000,4.000000,100.000000
1602005414.124374,38.000000,0.000000,4136.922852,4137.436035,4150.769043,4139.487305,4147.692383,4127.179688,4132.307617,4138.974121,4125.641113,4106.153809,4149.743652,4157.436035,4155.384766,4155.384766,0.000000,4.000000,,,,0.000000,4.000000,4.000000,4.000000,4.000000,4.000000,4.000000,4.000000,4.000000,4.000000,4.000000,4.000000,4.000000,4.000000,4.000000,100.000000
1602005414.132156,39.000000,0.000000,4134.871582,4134.871582,4140.512695,4135.384766,4138.461426,4124.102539,4125.641113,4127.179688,4124.615234,4127.179688,4138.974121,4148.205078,4149.743652,4147.179688,0.000000,4.000000,,,,0.000000,4.000000,4.000000,4.000000,4.000000,4.000000,4.000000,4.000000,4.000000,4.000000,4.000000,4.000000,4.000000,4.000000,4.000000,100.000000
1602005414.140038,40.000000,0.000000,4138.974121,4135.384766,4136.922852,4139.487305,4144.615234,4138.974121,4132.820313,4128.205078,4126.666504,4154.358887,4138.461426,4151.794922,4151.794922,4152.820313,0.000000,4.000000,,,,0.000000,4.000000,4.000000,4.000000,4.000000,4.000000,4.000000,4.000000,4.000000,4.000000,4.000000,4.000000,4.000000,4.000000,4.000000,100.000000
1602005414.147919,41.000000,0.000000,4137.436035,4137.436035,4143.077148,4140.000000,4147.179688,4140.000000,4138.974121,4137.948730,4128.717773,4149.230957,4145.128418,4158.461426,4152.820313,4154.358887,0.000000,4.000000,,,,0.000000,4.000000,4.000000,4.000000,4.000000,4.000000,4.000000,4.000000,4.000000,4.000000,4.000000,4.000000,4.000000,4.000000,4.000000,100.000000
1602005414.155801,42.000000,0.000000,4138.461426,4135.384766,4144.102539,4137.948730,4138.461426,4129.230957,4138.974121,4141.025879,4129.230957,4140.512695,4143.589844,4158.461426,4149.743652,4145.641113,0.000000,4.000000,,,,0.000000,4.000000,4.000000,4.000000,4.000000,4.000000,4.000000,4.000000,4.000000,4.000000,4.000000,4.000000,4.000000,4.000000,4.000000,100.000000
1602005414.163683,43.000000,0.000000,4139.487305,4127.179688,4141.538574,4137.436035,4135.897461,4119.487305,4132.820313,4138.974121,4128.205078,4135.897461,4134.871582,4152.307617,4142.051270,4140.000000,0.000000,4.000000,,,,0.000000,4.000000,4.000000,4.000000,4.000000,4.000000,4.000000,4.000000,4.000000,4.000000,4.000000,4.000000,4.000000,4.000000,4.000000,100.000000
1602005414.171565,44.000000,0.000000,4142.051270,4128.205078,4148.205078,4136.410156,4137.948730,4114.871582,4125.641113,4138.461426,4124.615234,4119.487305,4135.384766,4152.307617,4140.000000,4147.692383,0.000000,4.000000,,,,0.000000,4.000000,4.000000,4.000000,4.000000,4.000000,4.000000,4.000000,4.000000,4.000000,4.000000,4.000000,4.000000,4.000000,4.000000,100.000000
1602005414.179348,45.000000,0.000000,4153.333496,4137.948730,4158.461426,4137.948730,4135.897461,4120.512695,4122.563965,4140.000000,4126.153809,4110.769043,4143.077148,4159.487305,4144.615234,4158.461426,0.000000,4.000000,,,,0.000000,4.000000,4.000000,4.000000,4.000000,4.000000,4.000000,4.000000,4.000000,4.000000,4.000000,4.000000,4.000000,4.000000,4.000000,100.000000
1602005414.187230,46.000000,0.000000,4158.974121,4140.512695,4162.051270,4140.512695,4138.461426,4127.692383,4123.589844,4136.922852,4131.794922,4130.769043,4147.179688,4160.512695,4142.563965,4155.897461,0.000000,4.000000,,,,0.000000,4.000000,4.000000,4.000000,4.000000,4.000000,4.000000,4.000000,4.000000,4.000000,4.000000,4.000000,4.000000,4.000000,4.000000,100.000000
1602005414.195112,47.000000,0.000000,4147.692383,4130.769043,4151.794922,4132.820313,4141.025879,4125.128418,4118.461426,4128.205078,4129.230957,4151.794922,4141.538574,4155.384766,4138.461426,4142.563965,0.000000,4.000000,,,,0.000000,4.000000,4.000000,4.000000,4.000000,4.000000,4.000000,4.000000,4.000000,4.000000,4.000000,4.000000,4.000000,4.000000,4.000000,100.000000
1602005414.202995,48.000000,0.000000,4136.410156,4124.615234,4140.512695,4123.589844,4138.461426,4121.538574,4112.820313,4118.461426,4120.512695,4148.717773,4130.769043,4148.717773,4136.410156,4134.358887,0.000000,4.000000,,,,0.000000,4.000000,4.000000,4.000000,4.000000,4.000000,4.000000,4.000000,4.000000,4.000000,4.000000,4.000000,4.000000,4.000000,4.000000,100.000000
1602005414.210877,49.000000,0.000000,4137.948730,4126.153809,4137.948730,4125.641113,4141.025879,4123.589844,4116.922852,4118.974121,4118.974121,4143.589844,4125.641113,4140.512695,4130.769043,4138.461426,0.000000,4.000000,,,,0.000000,4.000000,4.000000,4.000000,4.000000,4.000000,4.000000,4.000000,4.000000,4.000000,4.000000,4.000000,4.000000,4.000000,4.000000,100.000000
1602005414.218759,50.000000,0.000000,4134.358887,4124.615234,4134.871582,4124.615234,4141.538574,4123.077148,4121.025879,4120.000000,4122.563965,4133.846191,4126.666504,4135.897461,4126.666504,4134.358887,0.000000,4.000000,,,,0.000000,4.000000,4.000000,4.000000,4.000000,4.000000,4.000000,4.000000,4.000000,4.000000,4.000000,4.000000,4.000000,4.000000,4.000000,100.000000
1602005414.226642,51.000000,0.000000,4129.743652,4126.153809,4132.820313,4123.589844,4139.487305,4120.512695,4120.512695,4117.948730,4120.512695,4106.666504,4132.307617,4141.538574,4133.333496,4128.205078,0.000000,4.000000,,,,0.000000,4.000000,4.000000,4.000000,4.000000,4.000000,4.000000,4.000000,4.000000,4.000000,4.000000,4.000000,4.000000,4.000000,4.000000,100.000000
1602005414.234524,52.000000,0.000000,4144.615234,4136.922852,4145.128418,4135.384766,4147.179688,4122.051270,4122.563965,4125.128418,4122.051270,4099.487305,4137.948730,4152.820313,4145.641113,4137.948730,0.000000,4.000000,,,,0.000000,4.000000,4.000000,4.000000,4.000000,4.000000,4.000000,4.000000,4.000000,4.000000,4.000000,4.000000,4.000000,4.000000,4.000000,100.000000
1602005414.242406,53.000000,0.000000,4156.922852,4143.077148,4157.948730,4143.077148,4155.384766,4130.256348,4129.230957,4136.922852,4136.410156,4140.000000,4142.563965,4159.487305,4154.358887,4146.153809,0.000000,4.000000,,,,0.000000,4.000000,4.000000,4.000000,4.000000,4.000000,4.000000,4.000000,4.000000,4.000000,4.000000,4.000000,4.000000,4.000000,4.000000,100.000000
1602005414.250188,54.000000,0.000000,4145.128418,4140.000000,4150.769043,4137.436035,4150.256348,4132.307617,4130.769043,4141.025879,4139.487305,4171.282227,4142.051270,4157.948730,4151.282227,4138.461426,0.000000,4.000000,,,,0.000000,4.000000,4.000000,4.000000,4.000000,4.000000,4.000000,4.000000,4.000000,4.000000,4.000000,4.000000,4.000000,4.000000,4.000000,100.000000
1602005414.258069,55.000000,0.000000,4135.384766,4135.897461,4139.487305,4134.358887,4144.102539,4128.205078,4126.153809,4135.384766,4127.179688,4157.436035,4133.333496,4151.794922,4142.051270,4136.922852,0.000000,4.000000,,,,0.000000,4.000000,4.000000,4.000000,4.000000,4.000000,4.000000,4.000000,4.000000,4.000000,4.000000,4.000000,4.000000,4.000000,4.000000,100.000000
1602005414.265951,56.000000,0.000000,4137.436035,4129.743652,4136.410156,4129.230957,4140.512695,4118.461426,4120.512695,4125.641113,4118.974121,4137.436035,4128.717773,4145.128418,4137.948730,4138.974121,0.000000,4.000000,,,,0.000000,4.000000,4.000000,4.000000,4.000000,4.000000,4.000000,4.000000,4.000000,4.000000,4.000000,4.000000,4.000000,4.000000,4.000000,100.000000
1602005414.273932,57.000000,0.000000,4139.487305,4127.692383,4136.922852,4118.974121,4134.871582,4110.769043,4119.487305,4122.563965,4121.538574,4128.205078,4132.307617,4141.538574,4137.948730,4135.384766,0.000000,4.000000,,,,0.000000,4.000000,4.000000,4.000000,4.000000,4.000000,4.000000,4.000000,4.000000,4.000000,4.000000,4.000000,4.000000,4.000000,4.000000,100.000000
1602005414.281813,58.000000,0.000000,4146.666504,4135.384766,4147.179688,4126.666504,4137.436035,4115.384766,4122.563965,4131.282227,4130.769043,4129.230957,4141.025879,4149.743652,4145.128418,4145.128418,0.000000,4.000000,,,,0.000000,4.000000,4.000000,4.000000,4.000000,4.000000,4.000000,4.000000,4.000000,4.000000,4.000000,4.000000,4.000000,4.000000,4.000000,100.000000
1602005414.289594,59.000000,0.000000,4152.820313,4139.487305,4158.461426,4138.974121,4143.589844,4123.077148,4123.589844,4140.000000,4139.487305,4147.179688,4150.256348,4165.641113,4155.897461,4160.512695,0.000000,4.000000,,,,0.000000,4.000000,4.000000,4.000000,4.000000,4.000000,4.000000,4.000000,4.000000,4.000000,4.000000,4.000000,4.000000,4.000000,4.000000,100.000000
1602005414.297576,60.000000,0.000000,4151.282227,4137.436035,4156.410156,4132.820313,4144.102539,4124.615234,4124.102539,4133.333496,4133.333496,4153.333496,4146.153809,4168.205078,4152.307617,4160.000000,0.000000,4.000000,,,,0.000000,4.000000,4.000000,4.000000,4.000000,4.000000,4.000000,4.000000,4.000000,4.000000,4.000000,4.000000,4.000000,4.000000,4.000000,100.000000
1602005414.305458,61.000000,0.000000,4151.794922,4136.410156,4149.743652,4125.128418,4147.179688,4125.128418,4122.563965,4126.153809,4125.128418,4133.846191,4136.410156,4158.461426,4143.589844,4150.769043,0.000000,4.000000,,,,0.000000,4.000000,4.000000,4.000000,4.000000,4.000000,4.000000,4.000000,4.000000,4.000000,4.000000,4.000000,4.000000,4.000000,4.000000,100.000000
1602005414.313340,62.000000,0.000000,4154.358887,4138.461426,4151.282227,4132.820313,4152.820313,4132.307617,4123.589844,4134.358887,4133.333496,4135.897461,4145.128418,4155.384766,4149.743652,4152.307617,0.000000,4.000000,,,,0.000000,4.000000,4.000000,4.000000,4.000000,4.000000,4.000000,4.000000,4.000000,4.000000,4.000000,4.000000,4.000000,4.000000,4.000000,100.000000
1602005414.321221,63.000000,0.000000,4154.871582,4143.589844,4158.974121,4141.538574,4156.410156,4146.153809,4133.333496,4139.487305,4140.512695,4162.563965,4156.410156,4156.410156,4157.436035,4157.948730,0.000000,4.000000,,,,0.000000,4.000000,4.000000,4.000000,4.000000,4.000000,4.000000,4.000000,4.000000,4.000000,4.000000,4.000000,4.000000,4.000000,4.000000,100.000000
1602005414.329103,64.000000,0.000000,4150.769043,4141.538574,4156.410156,4137.436035,4157.948730,4153.333496,4136.922852,4128.717773,4132.820313,4162.563965,4144.615234,4146.666504,4147.179688,4153.333496,807.000000,4.000000,,,,0.000000,4.000000,4.000000,4.000000,4.000000,4.000000,4.000000,4.000000,4.000000,4.000000,4.000000,4.000000,4.000000,4.000000,4.000000,100.000000
1602005414.337085,65.000000,0.000000,4138.461426,4129.743652,4140.000000,4127.179688,4151.794922,4138.461426,4125.641113,4119.487305,4122.051270,4128.205078,4125.641113,4128.205078,4129.230957,4130.256348,797.000000,4.000000,,,,0.000000,4.000000,4.000000,4.000000,4.000000,4.000000,4.000000,4.000000,4.000000,4.000000,4.000000,4.000000,4.000000,4.000000,4.000000,100.000000
1602005414.344967,66.000000,0.000000,4125.641113,4120.512695,4128.717773,4120.512695,4140.000000,4120.512695,4121.025879,4122.051270,4118.974121,4114.871582,4121.538574,4116.922852,4124.615234,4113.846191,855.000000,4.000000,,,,0.000000,4.000000,4.000000,4.000000,4.000000,4.000000,4.000000,4.000000,4.000000,4.000000,4.000000,4.000000,4.000000,4.000000,4.000000,100.000000
1602005414.352850,67.000000,0.000000,4128.205078,4124.615234,4133.333496,4122.563965,4137.948730,4122.563965,4127.692383,4131.794922,4130.769043,4144.102539,4130.769043,4122.051270,4132.820313,4127.692383,873.000000,4.000000,,,,0.000000,4.000000,4.000000,4.000000,4.000000,4.000000,4.000000,4.000000,4.000000,4.000000,4.000000,4.000000,4.000000,4.000000,4.000000,100.000000
1602005414.360732,68.000000,0.000000,4141.538574,4131.794922,4137.948730,4125.128418,4142.051270,4126.153809,4124.615234,4139.487305,4142.563965,4160.512695,4137.436035,4134.871582,4140.000000,4137.948730,810.000000,4.000000,,,,0.000000,4.000000,4.000000,4.000000,4.000000,4.000000,4.000000,4.000000,4.000000,4.000000,4.000000,4.000000,4.000000,4.000000,4.000000,100.000000
1602005414.368614,69.000000,0.000000,4151.794922,4132.307617,4144.102539,4123.077148,4140.512695,4123.077148,4118.461426,4138.974121,4138.461426,4140.512695,4129.230957,4138.974121,4139.487305,4132.820313,821.000000,4.000000,,,,0.000000,4.000000,4.000000,4.000000,4.000000,4.000000,4.000000,4.000000,4.000000,4.000000,4.000000,4.000000,4.000000,4.000000,4.000000,100.000000
1602005414.376496,70.000000,0.000000,4148.205078,4125.128418,4150.769043,4121.025879,4135.384766,4129.230957,4126.153809,4135.897461,4130.256348,4131.794922,4123.589844,4137.948730,4134.358887,4136.922852,772.000000,4.000000,,,,0.000000,4.000000,4.000000,4.000000,4.000000,4.000000,4.000000,4.000000,4.000000,4.000000,4.000000,4.000000,4.000000,4.000000,4.000000,100.000000
1602005414.384378,71.000000,0.000000,4143.077148,4121.538574,4154.358887,4120.000000,4134.358887,4136.922852,4137.436035,4138.974121,4129.230957,4142.563965,4134.871582,4143.589844,4133.333496,4143.589844,695.000000,4.000000,,,,0.000000,4.000000,4.000000,4.000000,4.000000,4.000000,4.000000,4.000000,4.000000,4.000000,4.000000,4.000000,4.000000,4.000000,4.000000,100.000000
1602005414.392160,72.000000,0.000000,4150.769043,4131.282227,4162.563965,4122.563965,4141.538574,4137.948730,4142.563965,4139.487305,4126.666504,4138.974121,4137.436035,4148.717773,4135.897461,4140.512695,792.000000,4.000000,,,,0.000000,4.000000,4.000000,4.000000,4.000000,4.000000,4.000000,4.000000,4.000000,4.000000,4.000000,4.000000,4.000000,4.000000,4.000000,100.000000
1602005414.400041,73.000000,0.000000,4154.871582,4137.948730,4167.692383,4127.692383,4145.641113,4140.512695,4144.102539,4131.282227,4122.051270,4134.358887,4128.717773,4145.128418,4134.358887,4142.051270,843.000000,4.000000,,,,0.000000,4.000000,4.000000,4.000000,4.000000,4.000000,4.000000,4.000000,4.000000,4.000000,4.000000,4.000000,4.000000,4.000000,4.000000,100.000000
1602005414.407923,74.000000,0.000000,4140.512695,4129.230957,4156.410156,4127.179688,4142.051270,4142.051270,4137.436035,4122.051270,4122.051270,4137.436035,4123.589844,4135.897461,4122.563965,4138.461426,871.000000,4.000000,,,,0.000000,4.000000,4.000000,4.000000,4.000000,4.000000,4.000000,4.000000,4.000000,4.000000,4.000000,4.000000,4.000000,4.000000,4.000000,100.000000
1602005414.415805,75.000000,0.000000,4127.179688,4122.563965,4143.077148,4124.102539,4145.641113,4133.846191,4130.256348,4117.436035,4129.743652,4144.615234,4120.512695,4128.205078,4118.974121,4123.589844,838.000000,4.000000,,,,0.000000,4.000000,4.000000,4.000000,4.000000,4.000000,4.000000,4.000000,4.000000,4.000000,4.000000,4.000000,4.000000,4.000000,4.000000,100.000000
1602005414.423686,76.000000,0.000000,4129.230957,4127.179688,4139.487305,4124.615234,4153.333496,4125.641113,4130.256348,4123.077148,4138.974121,4156.410156,4128.205078,4125.641113,4131.794922,4127.692383,783.000000,4.000000,,,,0.000000,4.000000,4.000000,4.000000,4.000000,4.000000,4.000000,4.000000,4.000000,4.000000,4.000000,4.000000,4.000000,4.000000,4.000000,100.000000
1602005414.431669,77.000000,0.000000,4129.230957,4128.717773,4130.256348,4125.128418,4155.897461,4122.051270,4126.666504,4129.743652,4137.948730,4145.641113,4136.922852,4125.128418,4133.846191,4134.358887,773.000000,4.000000,,,,0.000000,4.000000,4.000000,4.000000,4.000000,4.000000,4.000000,4.000000,4.000000,4.000000,4.000000,4.000000,4.000000,4.000000,4.000000,100.000000
1602005414.439551,78.000000,0.000000,4123.077148,4126.666504,4121.025879,4124.102539,4156.922852,4123.077148,4120.000000,4125.641113,4125.128418,4124.615234,4125.128418,4125.641113,4122.563965,4125.128418,871.000000,4.000000,,,,0.000000,4.000000,4.000000,4.000000,4.000000,4.000000,4.000000,4.000000,4.000000,4.000000,4.000000,4.000000,4.000000,4.000000,4.000000,100.000000
1602005414.447433,79.000000,0.000000,4123.589844,4128.205078,4127.179688,4127.179688,4156.922852,4130.769043,4122.051270,4121.025879,4118.461426,4135.897461,4108.717773,4124.102539,4120.000000,4125.641113,838.000000,4.000000,,,,0.000000,4.000000,4.000000,4.000000,4.000000,4.000000,4.000000,4.000000,4.000000,4.000000,4.000000,4.000000,4.000000,4.000000,4.000000,100.000000
1602005414.455316,80.000000,0.000000,4130.769043,4126.666504,4135.897461,4127.179688,4155.384766,4136.922852,4126.666504,4120.512695,4127.692383,4147.692383,4115.384766,4123.077148,4124.102539,4136.922852,783.000000,4.000000,,,,0.000000,4.000000,4.000000,4.000000,4.000000,4.000000,4.000000,4.000000,4.000000,4.000000,4.000000,4.000000,4.000000,4.000000,4.000000,100.000000
1602005414.463198,81.000000,0.000000,4136.922852,4128.717773,4136.922852,4121.025879,4154.358887,4137.436035,4129.743652,4124.102539,4136.410156,4135.897461,4129.743652,4131.282227,4127.692383,4138.461426,773.000000,4.000000,,,,0.000000,4.000000,4.000000,4.000000,4.000000,4.000000,4.000000,4.000000,4.000000,4.000000,4.000000,4.000000,4.000000,4.000000,4.000000,100.000000
1602005414.471080,82.000000,0.000000,4147.692383,4135.384766,4142.563965,4124.615234,4151.282227,4137.948730,4136.922852,4132.307617,4141.538574,4141.025879,4136.410156,4143.589844,4138.974121,4143.077148,871.000000,4.000000,,,,0.000000,4.000000,4.000000,4.000000,4.000000,4.000000,4.000000,4.000000,4.000000,4.000000,4.000000,4.000000,4.000000,4.000000,4.000000,100.000000
1602005414.478963,83.000000,0.000000,4158.974121,4140.000000,4156.922852,4137.436035,4151.794922,4144.102539,4145.128418,4142.051270,4147.692383,4156.410156,4141.025879,4147.179688,4151.794922,4156.922852,838.000000,4.000000,,,,0.000000,4.000000,4.000000,4.000000,4.000000,4.000000,4.000000,4.000000,4.000000,4.000000,4.000000,4.000000,4.000000,4.000000,4.000000,100.000000
1602005414.486845,84.000000,0.000000,4160.000000,4143.589844,4164.615234,4141.025879,4160.512695,4142.563965,4145.128418,4143.077148,4152.820313,4158.461426,4140.000000,4145.641113,4153.846191,4159.487305,783.000000,4.000000,,,,0.000000,4.000000,4.000000,4.000000,4.000000,4.000000,4.000000,4.000000,4.000000,4.000000,4.000000,4.000000,4.000000,4.000000,4.000000,100.000000
1602005414.494827,85.000000,0.000000,4161.025879,4146.153809,4163.589844,4137.436035,4163.589844,4135.384766,4142.051270,4140.000000,4153.846191,4153.846191,4137.948730,4149.743652,4153.846191,4157.436035,773.000000,4.000000,,,,0.000000,4.000000,4.000000,4.000000,4.000000,4.000000,4.000000,4.000000,4.000000,4.000000,4.000000,4.000000,4.000000,4.000000,4.000000,100.000000
1602005414.502709,86.000000,0.000000,4158.461426,4142.563965,4156.410156,4137.436035,4160.512695,4136.410156,4141.538574,4143.077148,4150.769043,4149.230957,4140.512695,4154.358887,4152.820313,4153.846191,871.000000,4.000000,,,,0.000000,4.000000,4.000000,4.000000,4.000000,4.000000,4.000000,4.000000,4.000000,4.000000,4.000000,4.000000,4.000000,4.000000,4.000000,100.000000
1602005414.510591,87.000000,0.000000,4142.051270,4138.461426,4142.051270,4132.820313,4158.974121,4133.846191,4136.410156,4139.487305,4146.153809,4141.025879,4133.846191,4149.743652,4141.538574,4140.512695,838.000000,4.000000,,,,0.000000,4.000000,4.000000,4.000000,4.000000,4.000000,4.000000,4.000000,4.000000,4.000000,4.000000,4.000000,4.000000,4.000000,4.000000,100.000000
1602005414.518473,88.000000,0.000000,4131.794922,4134.871582,4131.794922,4122.051270,4154.871582,4120.000000,4124.102539,4125.641113,4145.128418,4138.461426,4122.051270,4139.487305,4125.641113,4135.384766,783.000000,4.000000,,,,0.000000,4.000000,4.000000,4.000000,4.000000,4.000000,4.000000,4.000000,4.000000,4.000000,4.000000,4.000000,4.000000,4.000000,4.000000,100.000000
1602005414.526356,89.000000,0.000000,4136.410156,4126.666504,4135.384766,4120.512695,4149.743652,4112.307617,4120.000000,4126.153809,4148.205078,4149.230957,4122.051270,4135.897461,4123.077148,4141.025879,773.000000,4.000000,,,,0.000000,4.000000,4.000000,4.000000,4.000000,4.000000,4.000000,4.000000,4.000000,4.000000,4.000000,4.000000,4.000000,4.000000,4.000000,100.000000
1602005414.534238,90.000000,0.000000,4135.384766,4121.025879,4135.897461,4121.538574,4151.282227,4124.102539,4128.717773,4134.871582,4144.102539,4147.692383,4121.025879,4137.436035,4123.077148,4133.846191,871.000000,4.000000,,,,0.000000,4.000000,4.000000,4.000000,4.000000,4.000000,4.000000,4.000000,4.000000,4.000000,4.000000,4.000000,4.000000,4.000000,4.000000,100.000000
1602005414.542120,91.000000,0.000000,4125.641113,4120.000000,4125.128418,4113.333496,4153.846191,4137.436035,4136.410156,4127.179688,4130.256348,4123.077148,4107.692383,4134.358887,4109.230957,4118.461426,838.000000,4.000000,,,,0.000000,4.000000,4.000000,4.000000,4.000000,4.000000,4.000000,4.000000,4.000000,4.000000,4.000000,4.000000,4.000000,4.000000,4.000000,100.000000
1602005414.549902,92.000000,0.000000,4120.512695,4117.436035,4117.948730,4110.769043,4151.794922,4138.461426,4141.538574,4120.000000,4117.436035,4097.948730,4106.666504,4132.820313,4103.589844,4118.974121,783.000000,4.000000,,,,0.000000,4.000000,4.000000,4.000000,4.000000,4.000000,4.000000,4.000000,4.000000,4.000000,4.000000,4.000000,4.000000,4.000000,4.000000,100.000000
1602005414.557784,93.000000,0.000000,4127.692383,4118.461426,4122.051270,4119.487305,4152.820313,4137.948730,4145.641113,4132.307617,4116.922852,4097.436035,4121.025879,4145.128418,4117.436035,4132.307617,773.000000,4.000000,,,,0.000000,4.000000,4.000000,4.000000,4.000000,4.000000,4.000000,4.000000,4.000000,4.000000,4.000000,4.000000,4.000000,4.000000,4.000000,100.000000
1602005414.565666,94.000000,0.000000,4137.436035,4127.179688,4125.128418,4125.128418,4155.897461,4138.974121,4145.641113,4141.538574,4129.743652,4112.820313,4131.794922,4161.538574,4130.769043,4144.102539,871.000000,4.000000,,,,0.000000,4.000000,4.000000,4.000000,4.000000,4.000000,4.000000,4.000000,4.000000,4.000000,4.000000,4.000000,4.000000,4.000000,4.000000,100.000000
1602005414.573547,95.000000,0.000000,4142.563965,4134.871582,4128.205078,4123.589844,4155.897461,4135.897461,4142.051270,4141.025879,4141.025879,4129.743652,4136.922852,4168.717773,4136.410156,4151.794922,838.000000,4.000000,,,,0.000000,4.000000,4.000000,4.000000,4.000000,4.000000,4.000000,4.000000,4.000000,4.000000,4.000000,4.000000,4.000000,4.000000,4.000000,100.000000
1602005414.581429,96.000000,0.000000,4149.743652,4137.948730,4136.922852,4125.641113,4155.384766,4130.256348,4140.000000,4145.128418,4149.230957,4147.692383,4140.512695,4168.717773,4148.205078,4156.410156,783.000000,4.000000,,,,0.000000,4.000000,4.000000,4.000000,4.000000,4.000000,4.000000,4.000000,4.000000,4.000000,4.000000,4.000000,4.000000,4.000000,4.000000,100.000000
1602005414.589311,97.000000,0.000000,4158.974121,4140.512695,4143.589844,4130.769043,4156.410156,4127.692383,4135.897461,4144.615234,4156.410156,4157.948730,4141.025879,4171.282227,4157.436035,4162.563965,773.000000,4.000000,,,,0.000000,4.000000,4.000000,4.000000,4.000000,4.000000,4.000000,4.000000,4.000000,4.000000,4.000000,4.000000,4.000000,4.000000,4.000000,100.000000
1602005414.597293,98.000000,0.000000,4155.897461,4141.538574,4140.512695,4130.256348,4152.307617,4120.512695,4127.179688,4137.436035,4154.358887,4155.897461,4140.000000,4172.820313,4149.743652,4163.077148,871.000000,4.000000,,,,0.000000,4.000000,4.000000,4.000000,4.000000,4.000000,4.000000,4.000000,4.000000,4.000000,4.000000,4.000000,4.000000,4.000000,4.000000,100.000000
1602005414.605175,99.000000,0.000000,4141.538574,4132.820313,4129.230957,4123.589844,4142.563965,4114.871582,4118.974121,4135.897461,4144.102539,4137.948730,4136.410156,4163.589844,4139.487305,4153.846191,838.000000,4.000000,,,,0.000000,4.000000,4.000000,4.000000,4.000000,4.000000,4.000000,4.000000,4.000000,4.000000,4.000000,4.000000,4.000000,4.000000,4.000000,100.000000
1602005414.613057,100.000000,0.000000,4137.436035,4124.102539,4122.051270,4120.000000,4138.974121,4117.436035,4122.563965,4134.871582,4133.846191,4129.230957,4130.769043,4154.871582,4139.487305,4151.794922,783.000000,4.000000,,,,0.000000,4.000000,4.000000,4.000000,4.000000,4.000000,4.000000,4.000000,4.000000,4.000000,4.000000,4.000000,4.000000,4.000000,4.000000,100.000000
1602005414.620939,101.000000,0.000000,4137.436035,4125.128418,4121.025879,4120.512695,4145.641113,4122.051270,4132.307617,4126.666504,4124.102539,4123.589844,4127.692383,4153.846191,4135.897461,4153.333496,773.000000,4.000000,,,,0.000000,4.000000,4.000000,4.000000,4.000000,4.000000,4.000000,4.000000,4.000000,4.000000,4.000000,4.000000,4.000000,4.000000,4.000000,100.000000
1602005414.628820,102.000000,0.000000,4127.692383,4124.615234,4114.871582,4115.897461,4151.794922,4128.717773,4135.384766,4121.538574,4113.333496,4099.487305,4118.974121,4150.769043,4123.077148,4138.974121,871.000000,4.000000,,,,0.000000,4.000000,4.000000,4.000000,4.000000,4.000000,4.000000,4.000000,4.000000,4.000000,4.000000,4.000000,4.000000,4.000000,4.000000,100.000000
1602005414.636702,103.000000,0.000000,4117.948730,4118.974121,4104.615234,4105.641113,4150.769043,4137.948730,4135.384766,4122.563965,4105.641113,4095.384521,4109.230957,4143.077148,4116.922852,4120.512695,838.000000,4.000000,,,,0.000000,4.000000,4.000000,4.000000,4.000000,4.000000,4.000000,4.000000,4.000000,4.000000,4.000000,4.000000,4.000000,4.000000,4.000000,100.000000
1602005414.644584,104.000000,0.000000,4119.487305,4116.410156,4100.512695,4105.641113,4149.230957,4145.128418,4138.974121,4120.512695,4107.692383,4116.922852,4110.256348,4138.974121,4117.436035,4118.974121,783.000000,4.000000,,,,0.000000,4.000000,4.000000,4.000000,4.000000,4.000000,4.000000,4.000000,4.000000,4.000000,4.000000,4.000000,4.000000,4.000000,4.000000,100.000000
1602005414.652366,105.000000,0.000000,4130.769043,4125.128418,4109.743652,4118.974121,4151.794922,4151.282227,4144.615234,4125.128418,4123.077148,4126.666504,4120.000000,4143.589844,4121.025879,4129.230957,773.000000,4.000000,,,,0.000000,4.000000,4.000000,4.000000,4.000000,4.000000,4.000000,4.000000,4.000000,4.000000,4.000000,4.000000,4.000000,4.000000,4.000000,100.000000
1602005414.660249,106.000000,0.000000,4146.666504,4138.461426,4129.230957,4128.205078,4154.871582,4153.333496,4144.615234,4139.487305,4142.563965,4130.256348,4131.794922,4152.820313,4133.333496,4137.948730,871.000000,4.000000,,,,0.000000,4.000000,4.000000,4.000000,4.000000,4.000000,4.000000,4.000000,4.000000,4.000000,4.000000,4.000000,4.000000,4.000000,4.000000,100.000000
1602005414.668131,107.000000,0.000000,4157.948730,4142.051270,4143.589844,4128.205078,4154.358887,4141.025879,4142.051270,4146.666504,4154.358887,4140.000000,4136.410156,4160.512695,4143.589844,4143.589844,838.000000,4.000000,,,,0.000000,4.000000,4.000000,4.000000,4.000000,4.000000,4.000000,4.000000,4.000000,4.000000,4.000000,4.000000,4.000000,4.000000,4.000000,100.000000
1602005414.676013,108.000000,0.000000,4154.871582,4136.922852,4142.051270,4130.256348,4147.692383,4126.666504,4138.461426,4142.563965,4155.897461,4136.922852,4134.358887,4158.461426,4142.563965,4141.025879,783.000000,4.000000,,,,0.000000,4.000000,4.000000,4.000000,4.000000,4.000000,4.000000,4.000000,4.000000,4.000000,4.000000,4.000000,4.000000,4.000000,4.000000,100.000000
1602005414.683895,109.000000,0.000000,4153.846191,4137.436035,4140.512695,4135.897461,4138.974121,4122.563965,4131.282227,4140.000000,4151.282227,4138.461426,4134.358887,4157.436035,4143.077148,4140.000000,773.000000,4.000000,,,,0.000000,4.000000,4.000000,4.000000,4.000000,4.000000,4.000000,4.000000,4.000000,4.000000,4.000000,4.000000,4.000000,4.000000,4.000000,100.000000
1602005414.691777,110.000000,0.000000,4160.512695,4143.077148,4144.102539,4138.461426,4138.461426,4120.512695,4124.102539,4140.512695,4143.077148,4145.641113,4140.512695,4163.077148,4149.743652,4150.256348,871.000000,4.000000,,,,0.000000,4.000000,4.000000,4.000000,4.000000,4.000000,4.000000,4.000000,4.000000,4.000000,4.000000,4.000000,4.000000,4.000000,4.000000,100.000000
1602005414.699659,111.000000,0.000000,4160.512695,4143.589844,4143.077148,4137.948730,4141.538574,4118.461426,4125.128418,4132.307617,4126.666504,4116.410156,4142.563965,4161.538574,4148.205078,4151.794922,838.000000,4.000000,,,,0.000000,4.000000,4.000000,4.000000,4.000000,4.000000,4.000000,4.000000,4.000000,4.000000,4.000000,4.000000,4.000000,4.000000,4.000000,100.000000
