Timestamp,EEG.Counter,EEG.Interpolated,EEG.AF3,EEG.F7,EEG.F3,EEG.FC5,EEG.T7,EEG.P7,EEG.O1,EEG.O2,EEG.P8,EEG.T8,EEG.FC6,EEG.F4,EEG.F8,EEG.AF4,EEG.RawCq,EEG.Battery,MarkerIndex,MarkerType,MarkerValueInt,EEG.MarkerHardware,CQ.AF3,CQ.F7,CQ.F3,CQ.FC5,CQ.T7,CQ.P7,CQ.O1,CQ.O2,CQ.P8,CQ.T8,CQ.FC6,CQ.F4,CQ.F8,CQ.AF4,CQ.Overall
1602005457.987591,55.000000,0.000000,4141.538574,4156.922852,4127.692383,4132.820313,4155.384766,4147.179688,4140.000000,4142.051270,4145.641113,4110.256348,4120.512695,4134.871582,4105.128418,4118.974121,0.000000,4.000000,,,,0.000000,4.000000,4.000000,4.000000,4.000000,4.000000,4.000000,4.000000,4.000000,4.000000,4.000000,4.000000,4.000000,4.000000,4.000000,100.000000
1602005457.995373,56.000000,0.000000,4149.743652,4154.358887,4135.384766,4135.384766,4153.333496,4141.538574,4137.436035,4138.461426,4135.897461,4108.205078,4123.077148,4138.974121,4105.128418,4121.538574,0.000000,4.000000,,,,0.000000,4.000000,4.000000,4.000000,4.000000,4.000000,4.000000,4.000000,4.000000,4.000000,4.000000,4.000000,4.000000,4.000000,4.000000,100.000000
1602005458.003255,57.000000,0.000000,4155.384766,4162.563965,4140.000000,4143.589844,4154.358887,4132.820313,4129.230957,4139.487305,4136.922852,4116.410156,4125.641113,4150.769043,4108.717773,4127.692383,0.000000,4.000000,,,,0.000000,4.000000,4.000000,4.000000,4.000000,4.000000,4.000000,4.000000,4.000000,4.000000,4.000000,4.000000,4.000000,4.000000,4.000000,100.000000
1602005458.011137,58.000000,0.000000,4157.948730,4169.230957,4140.000000,4143.589844,4152.307617,4122.563965,4126.666504,4133.333496,4128.205078,4110.769043,4124.102539,4151.282227,4108.717773,4126.666504,0.000000,4.000000,,,,0.000000,4.000000,4.000000,4.000000,4.000000,4.000000,4.000000,4.000000,4.000000,4.000000,4.000000,4.000000,4.000000,4.000000,4.000000,100.000000
1602005458.019019,59.000000,0.000000,4149.743652,4158.461426,4135.897461,4137.436035,4141.025879,4119.487305,4129.743652,4125.641113,4115.897461,4101.538574,4120.000000,4138.461426,4099.487305,4120.000000,0.000000,4.000000,,,,0.000000,4.000000,4.000000,4.000000,4.000000,4.000000,4.000000,4.000000,4.000000,4.000000,4.000000,4.000000,4.000000,4.000000,4.000000,100.000000
1602005458.026901,60.000000,0.000000,4142.563965,4152.307617,4134.871582,4138.461426,4140.512695,4123.589844,4128.205078,4132.307617,4121.025879,4105.128418,4120.512695,4135.384766,4096.922852,4119.487305,0.000000,4.000000,,,,0.000000,4.000000,4.000000,4.000000,4.000000,4.000000,4.000000,4.000000,4.000000,4.000000,4.000000,4.000000,4.000000,4.000000,4.000000,100.000000
1602005458.034684,61.000000,0.000000,4146.666504,4156.410156,4137.948730,4139.487305,4151.794922,4131.794922,4125.641113,4138.974121,4127.692383,4112.307617,4121.025879,4138.974121,4104.102539,4121.538574,0.000000,4.000000,,,,0.000000,4.000000,4.000000,4.000000,4.000000,4.000000,4.000000,4.000000,4.000000,4.000000,4.000000,4.000000,4.000000,4.000000,4.000000,100.000000
1602005458.042566,62.000000,0.000000,4155.384766,4156.410156,4140.000000,4135.897461,4153.846191,4138.974121,4129.230957,4136.410156,4127.692383,4111.282227,4121.025879,4138.461426,4107.179688,4119.487305,0.000000,4.000000,,,,0.000000,4.000000,4.000000,4.000000,4.000000,4.000000,4.000000,4.000000,4.000000,4.000000,4.000000,4.000000,4.000000,4.000000,4.000000,100.000000
1602005458.050449,63.000000,0.000000,4158.461426,4155.897461,4145.128418,4136.922852,4151.282227,4142.051270,4136.410156,4137.948730,4133.333496,4106.153809,4127.179688,4144.102539,4113.333496,4126.666504,0.000000,4.000000,,,,0.000000,4.000000,4.000000,4.000000,4.000000,4.000000,4.000000,4.000000,4.000000,4.000000,4.000000,4.000000,4.000000,4.000000,4.000000,100.000000
1602005458.058331,64.000000,0.000000,4156.410156,4158.461426,4148.205078,4137.948730,4154.871582,4142.563965,4138.974121,4143.077148,4138.974121,4111.282227,4131.794922,4155.897461,4122.563965,4140.000000,807.000000,4.000000,,,,0.000000,4.000000,4.000000,4.000000,4.000000,4.000000,4.000000,4.000000,4.000000,4.000000,4.000000,4.000000,4.000000,4.000000,4.000000,100.000000
1602005458.066214,65.000000,0.000000,4155.384766,4157.948730,4140.000000,4135.384766,4155.384766,4142.563965,4138.974121,4142.563965,4134.358887,4121.538574,4127.179688,4156.410156,4120.512695,4136.410156,799.000000,4.000000,,,,0.000000,4.000000,4.000000,4.000000,4.000000,4.000000,4.000000,4.000000,4.000000,4.000000,4.000000,4.000000,4.000000,4.000000,4.000000,100.000000
1602005458.074096,66.000000,0.000000,4153.846191,4154.358887,4132.307617,4135.384766,4149.230957,4138.461426,4138.461426,4132.820313,4122.563965,4112.820313,4121.025879,4146.153809,4106.666504,4121.025879,853.000000,4.000000,,,,0.000000,4.000000,4.000000,4.000000,4.000000,4.000000,4.000000,4.000000,4.000000,4.000000,4.000000,4.000000,4.000000,4.000000,4.000000,100.000000
1602005458.081979,67.000000,0.000000,4149.743652,4158.461426,4135.897461,4138.461426,4148.717773,4137.436035,4136.410156,4124.102539,4113.846191,4105.641113,4121.025879,4138.974121,4104.102539,4119.487305,871.000000,4.000000,,,,0.000000,4.000000,4.000000,4.000000,4.000000,4.000000,4.000000,4.000000,4.000000,4.000000,4.000000,4.000000,4.000000,4.000000,4.000000,100.000000
1602005458.089862,68.000000,0.000000,4143.589844,4168.717773,4137.436035,4141.538574,4152.820313,4137.948730,4131.282227,4130.256348,4118.461426,4123.589844,4124.615234,4137.948730,4115.384766,4125.128418,807.000000,4.000000,,,,0.000000,4.000000,4.000000,4.000000,4.000000,4.000000,4.000000,4.000000,4.000000,4.000000,4.000000,4.000000,4.000000,4.000000,4.000000,100.000000
1602005458.097744,69.000000,0.000000,4145.128418,4168.205078,4135.897461,4141.025879,4152.307617,4127.179688,4125.641113,4140.512695,4130.769043,4126.666504,4127.179688,4135.897461,4118.461426,4119.487305,818.000000,4.000000,,,,0.000000,4.000000,4.000000,4.000000,4.000000,4.000000,4.000000,4.000000,4.000000,4.000000,4.000000,4.000000,4.000000,4.000000,4.000000,100.000000
1602005458.105726,70.000000,0.000000,4152.820313,4160.512695,4140.000000,4137.948730,4148.205078,4118.461426,4127.692383,4140.000000,4141.538574,4113.333496,4127.692383,4136.410156,4115.384766,4118.461426,773.000000,4.000000,,,,0.000000,4.000000,4.000000,4.000000,4.000000,4.000000,4.000000,4.000000,4.000000,4.000000,4.000000,4.000000,4.000000,4.000000,4.000000,100.000000
1602005458.113608,71.000000,0.000000,4148.205078,4160.000000,4142.563965,4138.974121,4144.102539,4123.077148,4134.871582,4138.974121,4147.692383,4131.282227,4125.128418,4138.461426,4117.436035,4124.615234,697.000000,4.000000,,,,0.000000,4.000000,4.000000,4.000000,4.000000,4.000000,4.000000,4.000000,4.000000,4.000000,4.000000,4.000000,4.000000,4.000000,4.000000,100.000000
1602005458.121490,72.000000,0.000000,4138.461426,4156.410156,4138.461426,4139.487305,4140.000000,4125.128418,4132.307617,4141.025879,4148.205078,4147.692383,4123.077148,4137.436035,4117.948730,4117.436035,792.000000,4.000000,,,,0.000000,4.000000,4.000000,4.000000,4.000000,4.000000,4.000000,4.000000,4.000000,4.000000,4.000000,4.000000,4.000000,4.000000,4.000000,100.000000
1602005458.129372,73.000000,0.000000,4137.436035,4142.563965,4135.897461,4130.256348,4134.871582,4120.000000,4123.589844,4132.820313,4142.051270,4126.153809,4121.025879,4134.358887,4108.205078,4106.153809,843.000000,4.000000,,,,0.000000,4.000000,4.000000,4.000000,4.000000,4.000000,4.000000,4.000000,4.000000,4.000000,4.000000,4.000000,4.000000,4.000000,4.000000,100.000000
1602005458.137254,74.000000,0.000000,4141.025879,4137.436035,4139.487305,4124.615234,4131.794922,4119.487305,4121.538574,4125.641113,4137.948730,4118.974121,4121.538574,4135.897461,4105.641113,4114.358887,870.000000,4.000000,,,,0.000000,4.000000,4.000000,4.000000,4.000000,4.000000,4.000000,4.000000,4.000000,4.000000,4.000000,4.000000,4.000000,4.000000,4.000000,100.000000
1602005458.145036,75.000000,0.000000,4142.563965,4146.153809,4145.641113,4135.384766,4137.948730,4123.077148,4123.589844,4131.282227,4141.025879,4143.589844,4125.641113,4138.974121,4113.333496,4127.179688,842.000000,4.000000,,,,0.000000,4.000000,4.000000,4.000000,4.000000,4.000000,4.000000,4.000000,4.000000,4.000000,4.000000,4.000000,4.000000,4.000000,4.000000,100.000000
1602005458.152919,76.000000,0.000000,4142.051270,4152.820313,4146.153809,4142.563965,4145.641113,4125.641113,4123.077148,4132.820313,4141.538574,4147.179688,4128.205078,4138.461426,4113.333496,4123.077148,784.000000,4.000000,,,,0.000000,4.000000,4.000000,4.000000,4.000000,4.000000,4.000000,4.000000,4.000000,4.000000,4.000000,4.000000,4.000000,4.000000,4.000000,100.000000
1602005458.160801,77.000000,0.000000,4136.922852,4150.256348,4140.000000,4135.897461,4145.641113,4122.563965,4122.051270,4125.641113,4135.384766,4117.436035,4124.102539,4133.846191,4107.179688,4115.897461,773.000000,4.000000,,,,0.000000,4.000000,4.000000,4.000000,4.000000,4.000000,4.000000,4.000000,4.000000,4.000000,4.000000,4.000000,4.000000,4.000000,4.000000,100.000000
1602005458.168684,78.000000,0.000000,4133.846191,4148.205078,4136.410156,4133.846191,4146.666504,4121.025879,4123.589844,4126.153809,4133.333496,4101.538574,4120.512695,4129.743652,4104.615234,4117.436035,870.000000,4.000000,,,,0.000000,4.000000,4.000000,4.000000,4.000000,4.000000,4.000000,4.000000,4.000000,4.000000,4.000000,4.000000,4.000000,4.000000,4.000000,100.000000
1602005458.176567,79.000000,0.000000,4140.000000,4156.410156,4138.974121,4140.512695,4154.358887,4126.666504,4123.589844,4131.282227,4137.436035,4111.794922,4123.077148,4128.717773,4108.717773,4122.051270,842.000000,4.000000,,,,0.000000,4.000000,4.000000,4.000000,4.000000,4.000000,4.000000,4.000000,4.000000,4.000000,4.000000,4.000000,4.000000,4.000000,4.000000,100.000000
1602005458.184449,80.000000,0.000000,4145.128418,4160.000000,4145.641113,4141.538574,4157.436035,4128.717773,4122.051270,4126.153809,4141.538574,4128.205078,4124.102539,4130.769043,4110.256348,4123.077148,784.000000,4.000000,,,,0.000000,4.000000,4.000000,4.000000,4.000000,4.000000,4.000000,4.000000,4.000000,4.000000,4.000000,4.000000,4.000000,4.000000,4.000000,100.000000
1602005458.192332,81.000000,0.000000,4141.025879,4152.307617,4149.743652,4136.410156,4151.282227,4125.128418,4123.589844,4123.589844,4140.000000,4127.692383,4121.538574,4134.871582,4106.153809,4122.563965,773.000000,4.000000,,,,0.000000,4.000000,4.000000,4.000000,4.000000,4.000000,4.000000,4.000000,4.000000,4.000000,4.000000,4.000000,4.000000,4.000000,4.000000,100.000000
1602005458.200214,82.000000,0.000000,4143.077148,4149.743652,4151.282227,4136.410156,4143.077148,4123.077148,4123.589844,4126.666504,4138.461426,4116.922852,4121.025879,4137.948730,4106.666504,4120.512695,870.000000,4.000000,,,,0.000000,4.000000,4.000000,4.000000,4.000000,4.000000,4.000000,4.000000,4.000000,4.000000,4.000000,4.000000,4.000000,4.000000,4.000000,100.000000
1602005458.208097,83.000000,0.000000,4151.282227,4149.230957,4152.820313,4137.948730,4138.461426,4125.641113,4115.384766,4126.153809,4142.051270,4126.153809,4122.563965,4144.102539,4107.692383,4123.077148,842.000000,4.000000,,,,0.000000,4.000000,4.000000,4.000000,4.000000,4.000000,4.000000,4.000000,4.000000,4.000000,4.000000,4.000000,4.000000,4.000000,4.000000,100.000000
1602005458.216079,84.000000,0.000000,4154.871582,4144.102539,4155.897461,4131.794922,4138.461426,4124.102539,4110.769043,4124.615234,4144.102539,4140.000000,4125.641113,4153.846191,4112.820313,4133.846191,784.000000,4.000000,,,,0.000000,4.000000,4.000000,4.000000,4.000000,4.000000,4.000000,4.000000,4.000000,4.000000,4.000000,4.000000,4.000000,4.000000,4.000000,100.000000
1602005458.223961,85.000000,0.000000,4154.358887,4142.051270,4158.974121,4126.666504,4137.948730,4120.512695,4116.922852,4123.589844,4140.512695,4131.282227,4127.692383,4155.384766,4121.538574,4137.948730,773.000000,4.000000,,,,0.000000,4.000000,4.000000,4.000000,4.000000,4.000000,4.000000,4.000000,4.000000,4.000000,4.000000,4.000000,4.000000,4.000000,4.000000,100.000000
1602005458.231843,86.000000,0.000000,4149.230957,4141.025879,4155.384766,4127.692383,4134.871582,4126.666504,4120.512695,4121.538574,4137.948730,4115.897461,4123.589844,4143.589844,4117.436035,4125.128418,870.000000,4.000000,,,,0.000000,4.000000,4.000000,4.000000,4.000000,4.000000,4.000000,4.000000,4.000000,4.000000,4.000000,4.000000,4.000000,4.000000,4.000000,100.000000
1602005458.239725,87.000000,0.000000,4137.436035,4135.384766,4144.615234,4124.615234,4137.436035,4137.948730,4119.487305,4121.025879,4138.461426,4112.307617,4120.000000,4130.256348,4106.666504,4118.461426,842.000000,4.000000,,,,0.000000,4.000000,4.000000,4.000000,4.000000,4.000000,4.000000,4.000000,4.000000,4.000000,4.000000,4.000000,4.000000,4.000000,4.000000,100.000000
1602005458.247608,88.000000,0.000000,4131.794922,4134.871582,4137.436035,4120.000000,4143.589844,4139.487305,4123.077148,4122.051270,4136.922852,4109.743652,4119.487305,4123.077148,4105.128418,4121.538574,784.000000,4.000000,,,,0.000000,4.000000,4.000000,4.000000,4.000000,4.000000,4.000000,4.000000,4.000000,4.000000,4.000000,4.000000,4.000000,4.000000,4.000000,100.000000
1602005458.255490,89.000000,0.000000,4135.897461,4139.487305,4139.487305,4121.538574,4142.051270,4137.436035,4126.153809,4122.051270,4136.410156,4104.615234,4114.358887,4122.051270,4107.692383,4117.948730,773.000000,4.000000,,,,0.000000,4.000000,4.000000,4.000000,4.000000,4.000000,4.000000,4.000000,4.000000,4.000000,4.000000,4.000000,4.000000,4.000000,4.000000,100.000000
1602005458.263271,90.000000,0.000000,4136.922852,4137.948730,4141.025879,4124.615234,4137.948730,4138.461426,4123.077148,4122.563965,4134.358887,4115.897461,4109.230957,4124.102539,4106.666504,4113.846191,870.000000,4.000000,,,,0.000000,4.000000,4.000000,4.000000,4.000000,4.000000,4.000000,4.000000,4.000000,4.000000,4.000000,4.000000,4.000000,4.000000,4.000000,100.000000
1602005458.271153,91.000000,0.000000,4135.897461,4134.871582,4138.974121,4124.102539,4138.461426,4132.820313,4119.487305,4120.000000,4127.179688,4124.102539,4107.179688,4121.538574,4105.128418,4116.410156,842.000000,4.000000,,,,0.000000,4.000000,4.000000,4.000000,4.000000,4.000000,4.000000,4.000000,4.000000,4.000000,4.000000,4.000000,4.000000,4.000000,4.000000,100.000000
1602005458.279035,92.000000,0.000000,4136.410156,4134.871582,4142.563965,4122.051270,4136.922852,4120.512695,4117.948730,4115.384766,4121.025879,4109.743652,4106.153809,4124.102539,4104.615234,4117.436035,784.000000,4.000000,,,,0.000000,4.000000,4.000000,4.000000,4.000000,4.000000,4.000000,4.000000,4.000000,4.000000,4.000000,4.000000,4.000000,4.000000,4.000000,100.000000
1602005458.287016,93.000000,0.000000,4137.948730,4134.871582,4150.256348,4123.077148,4133.333496,4112.307617,4119.487305,4118.461426,4128.717773,4106.666504,4112.820313,4135.384766,4106.153809,4120.512695,773.000000,4.000000,,,,0.000000,4.000000,4.000000,4.000000,4.000000,4.000000,4.000000,4.000000,4.000000,4.000000,4.000000,4.000000,4.000000,4.000000,4.000000,100.000000
1602005458.294998,94.000000,0.000000,4149.230957,4137.948730,4160.000000,4131.282227,4134.358887,4114.871582,4121.538574,4126.666504,4141.025879,4119.487305,4127.179688,4143.589844,4115.897461,4132.307617,870.000000,4.000000,,,,0.000000,4.000000,4.000000,4.000000,4.000000,4.000000,4.000000,4.000000,4.000000,4.000000,4.000000,4.000000,4.000000,4.000000,4.000000,100.000000
1602005458.302880,95.000000,0.000000,4161.025879,4143.077148,4165.128418,4139.487305,4136.410156,4121.538574,4123.589844,4128.205078,4141.538574,4111.282227,4130.769043,4143.589844,4124.102539,4141.538574,842.000000,4.000000,,,,0.000000,4.000000,4.000000,4.000000,4.000000,4.000000,4.000000,4.000000,4.000000,4.000000,4.000000,4.000000,4.000000,4.000000,4.000000,100.000000
1602005458.310762,96.000000,0.000000,4150.769043,4140.000000,4157.436035,4136.410156,4133.846191,4121.538574,4123.077148,4123.077148,4141.025879,4104.102539,4122.563965,4138.974121,4121.538574,4136.410156,784.000000,4.000000,,,,0.000000,4.000000,4.000000,4.000000,4.000000,4.000000,4.000000,4.000000,4.000000,4.000000,4.000000,4.000000,4.000000,4.000000,4.000000,100.000000
1602005458.318643,97.000000,0.000000,4132.820313,4131.794922,4144.615234,4127.692383,4136.410156,4124.102539,4122.563965,4124.102539,4150.256348,4134.358887,4122.563965,4135.897461,4119.487305,4128.205078,773.000000,4.000000,,,,0.000000,4.000000,4.000000,4.000000,4.000000,4.000000,4.000000,4.000000,4.000000,4.000000,4.000000,4.000000,4.000000,4.000000,4.000000,100.000000
1602005458.326525,98.000000,0.000000,4135.897461,4137.948730,4140.000000,4126.666504,4144.102539,4133.846191,4127.179688,4130.769043,4157.948730,4158.974121,4127.692383,4136.410156,4125.641113,4127.692383,870.000000,4.000000,,,,0.000000,4.000000,4.000000,4.000000,4.000000,4.000000,4.000000,4.000000,4.000000,4.000000,4.000000,4.000000,4.000000,4.000000,4.000000,100.000000
1602005458.334407,99.000000,0.000000,4139.487305,4140.000000,4139.487305,4127.179688,4143.589844,4137.436035,4126.666504,4128.717773,4156.410156,4145.641113,4124.615234,4138.974121,4127.692383,4126.153809,842.000000,4.000000,,,,0.000000,4.000000,4.000000,4.000000,4.000000,4.000000,4.000000,4.000000,4.000000,4.000000,4.000000,4.000000,4.000000,4.000000,4.000000,100.000000
1602005458.342189,100.000000,0.000000,4121.025879,4119.487305,4134.358887,4118.461426,4139.487305,4136.922852,4123.589844,4122.563965,4151.282227,4130.256348,4120.512695,4138.974121,4121.538574,4117.436035,784.000000,4.000000,,,,0.000000,4.000000,4.000000,4.000000,4.000000,4.000000,4.000000,4.000000,4.000000,4.000000,4.000000,4.000000,4.000000,4.000000,4.000000,100.000000
1602005458.350071,101.000000,0.000000,4121.538574,4122.051270,4138.461426,4122.051270,4145.128418,4136.922852,4124.102539,4123.077148,4145.128418,4138.461426,4123.589844,4137.436035,4121.538574,4122.563965,773.000000,4.000000,,,,0.000000,4.000000,4.000000,4.000000,4.000000,4.000000,4.000000,4.000000,4.000000,4.000000,4.000000,4.000000,4.000000,4.000000,4.000000,100.000000
1602005458.357954,102.000000,0.000000,4149.230957,4157.948730,4151.282227,4138.974121,4155.384766,4130.256348,4117.948730,4121.538574,4139.487305,4141.538574,4120.512695,4138.461426,4123.589844,4133.846191,870.000000,4.000000,,,,0.000000,4.000000,4.000000,4.000000,4.000000,4.000000,4.000000,4.000000,4.000000,4.000000,4.000000,4.000000,4.000000,4.000000,4.000000,100.000000
1602005458.365836,103.000000,0.000000,4164.615234,4173.846191,4154.871582,4143.077148,4153.846191,4121.538574,4106.666504,4118.461426,4135.384766,4107.179688,4113.846191,4139.487305,4113.846191,4126.666504,842.000000,4.000000,,,,0.000000,4.000000,4.000000,4.000000,4.000000,4.000000,4.000000,4.000000,4.000000,4.000000,4.000000,4.000000,4.000000,4.000000,4.000000,100.000000
1602005458.373718,104.000000,0.000000,4165.641113,4167.692383,4149.743652,4145.128418,4150.256348,4121.538574,4106.666504,4122.563965,4134.358887,4089.230713,4117.436035,4140.000000,4104.615234,4118.974121,784.000000,4.000000,,,,0.000000,4.000000,4.000000,4.000000,4.000000,4.000000,4.000000,4.000000,4.000000,4.000000,4.000000,4.000000,4.000000,4.000000,4.000000,100.000000
1602005458.381600,105.000000,0.000000,4165.128418,4167.692383,4149.743652,4152.820313,4153.333496,4129.743652,4115.897461,4124.102539,4137.948730,4125.128418,4123.077148,4138.974121,4108.717773,4123.589844,773.000000,4.000000,,,,0.000000,4.000000,4.000000,4.000000,4.000000,4.000000,4.000000,4.000000,4.000000,4.000000,4.000000,4.000000,4.000000,4.000000,4.000000,100.000000
1602005458.389582,106.000000,0.000000,4157.436035,4162.051270,4153.846191,4146.666504,4154.358887,4132.820313,4122.563965,4121.538574,4138.461426,4147.692383,4120.512695,4137.948730,4108.717773,4121.538574,870.000000,4.000000,,,,0.000000,4.000000,4.000000,4.000000,4.000000,4.000000,4.000000,4.000000,4.000000,4.000000,4.000000,4.000000,4.000000,4.000000,4.000000,100.000000
1602005458.397464,107.000000,0.000000,4156.922852,4156.410156,4153.333496,4141.538574,4150.769043,4127.179688,4120.512695,4122.051270,4135.897461,4129.743652,4121.025879,4143.589844,4104.102539,4116.922852,842.000000,4.000000,,,,0.000000,4.000000,4.000000,4.000000,4.000000,4.000000,4.000000,4.000000,4.000000,4.000000,4.000000,4.000000,4.000000,4.000000,4.000000,100.000000
1602005458.405346,108.000000,0.000000,4170.256348,4166.666504,4160.512695,4153.333496,4152.820313,4123.077148,4111.282227,4124.615234,4142.051270,4126.666504,4131.794922,4151.282227,4114.358887,4130.256348,784.000000,4.000000,,,,0.000000,4.000000,4.000000,4.000000,4.000000,4.000000,4.000000,4.000000,4.000000,4.000000,4.000000,4.000000,4.000000,4.000000,4.000000,100.000000
1602005458.413228,109.000000,0.000000,4175.384766,4172.820313,4171.282227,4157.948730,4156.410156,4124.615234,4113.333496,4125.128418,4146.153809,4142.563965,4137.436035,4152.307617,4126.153809,4139.487305,773.000000,4.000000,,,,0.000000,4.000000,4.000000,4.000000,4.000000,4.000000,4.000000,4.000000,4.000000,4.000000,4.000000,4.000000,4.000000,4.000000,4.000000,100.000000
1602005458.421110,110.000000,0.000000,4171.794922,4169.230957,4167.179688,4152.307617,4153.846191,4123.077148,4122.563965,4126.153809,4135.897461,4137.948730,4129.743652,4153.333496,4123.589844,4135.384766,870.000000,4.000000,,,,0.000000,4.000000,4.000000,4.000000,4.000000,4.000000,4.000000,4.000000,4.000000,4.000000,4.000000,4.000000,4.000000,4.000000,4.000000,100.000000
1602005458.428993,111.000000,0.000000,4172.307617,4170.256348,4156.410156,4152.820313,4152.820313,4125.641113,4124.615234,4127.179688,4131.282227,4121.025879,4125.641113,4155.897461,4121.538574,4138.461426,842.000000,4.000000,,,,0.000000,4.000000,4.000000,4.000000,4.000000,4.000000,4.000000,4.000000,4.000000,4.000000,4.000000,4.000000,4.000000,4.000000,4.000000,100.000000
1602005458.436875,112.000000,0.000000,4168.717773,4167.692383,4153.333496,4150.256348,4155.384766,4136.922852,4128.717773,4128.717773,4135.384766,4094.358887,4126.153809,4147.692383,4123.077148,4137.436035,784.000000,4.000000,,,,0.000000,4.000000,4.000000,4.000000,4.000000,4.000000,4.000000,4.000000,4.000000,4.000000,4.000000,4.000000,4.000000,4.000000,4.000000,100.000000
1602005458.444657,113.000000,0.000000,4152.307617,4151.282227,4143.589844,4137.436035,4153.333496,4138.974121,4136.410156,4124.615234,4124.102539,4077.948730,4113.846191,4135.384766,4108.717773,4115.897461,773.000000,4.000000,,,,0.000000,4.000000,4.000000,4.000000,4.000000,4.000000,4.000000,4.000000,4.000000,4.000000,4.000000,4.000000,4.000000,4.000000,4.000000,100.000000
1602005458.452539,114.000000,0.000000,4135.897461,4136.922852,4132.820313,4129.743652,4149.743652,4132.820313,4136.410156,4119.487305,4112.820313,4100.512695,4103.589844,4135.384766,4093.846191,4103.589844,870.000000,4.000000,,,,0.000000,4.000000,4.000000,4.000000,4.000000,4.000000,4.000000,4.000000,4.000000,4.000000,4.000000,4.000000,4.000000,4.000000,4.000000,100.000000
1602005458.460421,115.000000,0.000000,4134.358887,4138.974121,4135.897461,4134.358887,4154.871582,4138.461426,4136.410156,4128.717773,4129.230957,4127.692383,4113.846191,4141.025879,4100.000000,4114.871582,842.000000,4.000000,,,,0.000000,4.000000,4.000000,4.000000,4.000000,4.000000,4.000000,4.000000,4.000000,4.000000,4.000000,4.000000,4.000000,4.000000,4.000000,100.000000
1602005458.468303,116.000000,0.000000,4137.436035,4142.051270,4133.333496,4136.410156,4157.948730,4141.025879,4135.897461,4136.410156,4143.077148,4124.615234,4116.410156,4142.563965,4103.077148,4115.897461,784.000000,4.000000,,,,0.000000,4.000000,4.000000,4.000000,4.000000,4.000000,4.000000,4.000000,4.000000,4.000000,4.000000,4.000000,4.000000,4.000000,4.000000,100.000000
1602005458.476185,117.000000,0.000000,4134.358887,4141.538574,4123.589844,4133.846191,4152.307617,4127.692383,4127.179688,4130.256348,4136.922852,4115.384766,4104.615234,4139.487305,4096.410156,4106.153809,773.000000,4.000000,,,,0.000000,4.000000,4.000000,4.000000,4.000000,4.000000,4.000000,4.000000,4.000000,4.000000,4.000000,4.000000,4.000000,4.000000,4.000000,100.000000
1602005458.484067,118.000000,0.000000,4137.436035,4150.769043,4131.282227,4136.922852,4152.307617,4126.666504,4122.563965,4129.230957,4142.563965,4116.922852,4106.666504,4138.461426,4102.563965,4108.717773,870.000000,4.000000,,,,0.000000,4.000000,4.000000,4.000000,4.000000,4.000000,4.000000,4.000000,4.000000,4.000000,4.000000,4.000000,4.000000,4.000000,4.000000,100.000000
1602005458.491850,119.000000,0.000000,4142.051270,4152.307617,4141.025879,4135.897461,4155.897461,4137.436035,4125.128418,4130.769043,4150.769043,4095.897461,4113.333496,4141.538574,4106.666504,4110.256348,842.000000,4.000000,,,,0.000000,4.000000,4.000000,4.000000,4.000000,4.000000,4.000000,4.000000,4.000000,4.000000,4.000000,4.000000,4.000000,4.000000,4.000000,100.000000
1602005458.499732,120.000000,0.000000,4134.358887,4135.897461,4131.282227,4123.589844,4152.307617,4138.461426,4126.153809,4125.641113,4139.487305,4071.281982,4107.692383,4146.666504,4095.384521,4104.615234,784.000000,4.000000,,,,0.000000,4.000000,4.000000,4.000000,4.000000,4.000000,4.000000,4.000000,4.000000,4.000000,4.000000,4.000000,4.000000,4.000000,4.000000,100.000000
1602005458.507614,121.000000,0.000000,4134.871582,4136.922852,4129.230957,4120.512695,4151.282227,4134.871582,4130.256348,4129.230957,4136.410156,4097.948730,4110.769043,4153.846191,4096.922852,4113.333496,773.000000,4.000000,,,,0.000000,4.000000,4.000000,4.000000,4.000000,4.000000,4.000000,4.000000,4.000000,4.000000,4.000000,4.000000,4.000000,4.000000,4.000000,100.000000
1602005458.515496,122.000000,0.000000,4150.256348,4151.282227,4141.025879,4129.230957,4153.846191,4140.512695,4135.897461,4138.461426,4146.666504,4140.000000,4123.077148,4161.538574,4109.743652,4129.230957,870.000000,4.000000,,,,0.000000,4.000000,4.000000,4.000000,4.000000,4.000000,4.000000,4.000000,4.000000,4.000000,4.000000,4.000000,4.000000,4.000000,4.000000,100.000000
1602005458.523378,123.000000,0.000000,4151.282227,4146.153809,4143.077148,4130.256348,4152.820313,4149.743652,4144.615234,4137.948730,4143.589844,4137.436035,4123.077148,4167.179688,4107.179688,4128.205078,842.000000,4.000000,,,,0.000000,4.000000,4.000000,4.000000,4.000000,4.000000,4.000000,4.000000,4.000000,4.000000,4.000000,4.000000,4.000000,4.000000,4.000000,100.000000
1602005458.531260,124.000000,0.000000,4146.153809,4135.897461,4145.641113,4127.179688,4151.794922,4151.794922,4151.794922,4137.436035,4135.384766,4112.307617,4121.025879,4169.743652,4104.102539,4126.666504,784.000000,4.000000,,,,0.000000,4.000000,4.000000,4.000000,4.000000,4.000000,4.000000,4.000000,4.000000,4.000000,4.000000,4.000000,4.000000,4.000000,4.000000,100.000000
1602005458.539243,125.000000,0.000000,4148.717773,4140.000000,4153.846191,4128.205078,4149.230957,4143.589844,4145.128418,4138.974121,4135.897461,4112.307617,4123.589844,4171.282227,4106.666504,4131.794922,773.000000,4.000000,,,,0.000000,4.000000,4.000000,4.000000,4.000000,4.000000,4.000000,4.000000,4.000000,4.000000,4.000000,4.000000,4.000000,4.000000,4.000000,100.000000
1602005458.547125,126.000000,0.000000,4147.692383,4141.538574,4148.205078,4124.615234,4140.512695,4134.871582,4133.846191,4134.871582,4136.922852,4112.820313,4121.538574,4170.256348,4101.025879,4126.153809,870.000000,4.000000,,,,0.000000,4.000000,4.000000,4.000000,4.000000,4.000000,4.000000,4.000000,4.000000,4.000000,4.000000,4.000000,4.000000,4.000000,4.000000,100.000000
1602005458.555008,127.000000,0.000000,4145.128418,4135.384766,4137.436035,4118.461426,4137.436035,4132.820313,4136.410156,4134.871582,4138.461426,4090.256348,4118.974121,4169.743652,4100.512695,4120.512695,842.000000,4.000000,,,,0.000000,4.000000,4.000000,4.000000,4.000000,4.000000,4.000000,4.000000,4.000000,4.000000,4.000000,4.000000,4.000000,4.000000,4.000000,100.000000
1602005458.562891,128.000000,0.000000,4148.717773,4138.461426,4141.025879,4123.077148,4141.538574,4131.282227,4142.051270,4141.538574,4143.077148,4089.743652,4124.615234,4173.333496,4110.769043,4127.179688,784.000000,4.000000,,,,0.000000,4.000000,4.000000,4.000000,4.000000,4.000000,4.000000,4.000000,4.000000,4.000000,4.000000,4.000000,4.000000,4.000000,4.000000,100.000000
1602005458.570773,0.000000,0.000000,4140.512695,4142.563965,4136.410156,4125.128418,4141.538574,4126.666504,4136.410156,4142.563965,4140.512695,4118.974121,4122.563965,4165.641113,4106.666504,4117.436035,807.000000,4.000000,,,,0.000000,4.000000,4.000000,4.000000,4.000000,4.000000,4.000000,4.000000,4.000000,4.000000,4.000000,4.000000,4.000000,4.000000,4.000000,100.000000
1602005458.578656,1.000000,0.000000,4121.025879,4131.282227,4115.384766,4113.846191,4133.846191,4124.102539,4132.820313,4135.897461,4135.384766,4129.743652,4107.179688,4141.538574,4089.230713,4090.769287,799.000000,4.000000,,,,0.000000,4.000000,4.000000,4.000000,4.000000,4.000000,4.000000,4.000000,4.000000,4.000000,4.000000,4.000000,4.000000,4.000000,4.000000,100.000000
1602005458.586538,2.000000,0.000000,4116.410156,4120.000000,4109.230957,4112.307617,4131.282227,4130.256348,4137.436035,4136.410156,4137.436035,4124.102539,4105.128418,4134.871582,4089.230713,4090.769287,821.000000,4.000000,,,,0.000000,4.000000,4.000000,4.000000,4.000000,4.000000,4.000000,4.000000,4.000000,4.000000,4.000000,4.000000,4.000000,4.000000,4.000000,100.000000
1602005458.594421,3.000000,0.000000,4123.077148,4124.615234,4120.512695,4124.102539,4134.871582,4134.871582,4135.897461,4136.922852,4138.461426,4123.077148,4117.948730,4149.743652,4101.538574,4108.717773,871.000000,4.000000,,,,0.000000,4.000000,4.000000,4.000000,4.000000,4.000000,4.000000,4.000000,4.000000,4.000000,4.000000,4.000000,4.000000,4.000000,4.000000,100.000000
1602005458.602304,4.000000,0.000000,4124.615234,4128.205078,4124.615234,4121.025879,4130.769043,4128.205078,4126.153809,4128.717773,4132.820313,4113.333496,4123.589844,4153.333496,4105.641113,4108.717773,807.000000,4.000000,,,,0.000000,4.000000,4.000000,4.000000,4.000000,4.000000,4.000000,4.000000,4.000000,4.000000,4.000000,4.000000,4.000000,4.000000,4.000000,100.000000
1602005458.610086,5.000000,0.000000,4122.563965,4122.563965,4121.538574,4112.307617,4122.563965,4124.102539,4122.563965,4125.128418,4134.871582,4106.153809,4122.051270,4150.256348,4105.128418,4106.153809,818.000000,4.000000,,,,0.000000,4.000000,4.000000,4.000000,4.000000,4.000000,4.000000,4.000000,4.000000,4.000000,4.000000,4.000000,4.000000,4.000000,4.000000,100.000000
1602005458.617967,6.000000,0.000000,4125.128418,4121.538574,4126.153809,4118.461426,4128.205078,4128.205078,4125.641113,4127.179688,4140.512695,4112.307617,4126.666504,4158.461426,4107.179688,4118.461426,773.000000,4.000000,,,,0.000000,4.000000,4.000000,4.000000,4.000000,4.000000,4.000000,4.000000,4.000000,4.000000,4.000000,4.000000,4.000000,4.000000,4.000000,100.000000
1602005458.625849,7.000000,0.000000,4133.846191,4128.717773,4133.846191,4123.077148,4136.410156,4126.666504,4123.077148,4129.230957,4136.922852,4112.307617,4132.820313,4163.077148,4111.794922,4127.692383,696.000000,4.000000,,,,0.000000,4.000000,4.000000,4.000000,4.000000,4.000000,4.000000,4.000000,4.000000,4.000000,4.000000,4.000000,4.000000,4.000000,4.000000,100.000000
1602005458.633731,8.000000,0.000000,4139.487305,4135.384766,4135.897461,4119.487305,4136.410156,4127.179688,4123.077148,4133.333496,4141.538574,4123.077148,4133.846191,4158.461426,4118.974121,4125.128418,792.000000,4.000000,,,,0.000000,4.000000,4.000000,4.000000,4.000000,4.000000,4.000000,4.000000,4.000000,4.000000,4.000000,4.000000,4.000000,4.000000,4.000000,100.000000
1602005458.641613,9.000000,0.000000,4143.077148,4138.974121,4137.436035,4124.615234,4142.051270,4137.948730,4132.307617,4137.948730,4152.307617,4144.102539,4136.410156,4155.897461,4121.538574,4123.589844,843.000000,4.000000,,,,0.000000,4.000000,4.000000,4.000000,4.000000,4.000000,4.000000,4.000000,4.000000,4.000000,4.000000,4.000000,4.000000,4.000000,4.000000,100.000000
1602005458.649595,10.000000,0.000000,4142.051270,4140.000000,4134.358887,4128.717773,4153.846191,4141.538574,4136.922852,4138.461426,4148.205078,4136.410156,4138.461426,4155.897461,4120.512695,4130.769043,870.000000,4.000000,,,,0.000000,4.000000,4.000000,4.000000,4.000000,4.000000,4.000000,4.000000,4.000000,4.000000,4.000000,4.000000,4.000000,4.000000,4.000000,100.000000
1602005458.657478,11.000000,0.000000,4136.922852,4141.025879,4129.230957,4125.641113,4155.384766,4138.974121,4134.871582,4137.948730,4138.461426,4117.948730,4133.333496,4155.384766,4120.512695,4134.358887,842.000000,4.000000,,,,0.000000,4.000000,4.000000,4.000000,4.000000,4.000000,4.000000,4.000000,4.000000,4.000000,4.000000,4.000000,4.000000,4.000000,4.000000,100.000000
1602005458.665360,12.000000,0.000000,4134.871582,4140.000000,4125.128418,4124.615234,4144.615234,4137.436035,4135.897461,4137.436035,4138.974121,4121.025879,4122.051270,4155.897461,4114.871582,4126.666504,784.000000,4.000000,,,,0.000000,4.000000,4.000000,4.000000,4.000000,4.000000,4.000000,4.000000,4.000000,4.000000,4.000000,4.000000,4.000000,4.000000,4.000000,100.000000
1602005458.673242,13.000000,0.000000,4137.436035,4140.000000,4124.615234,4127.179688,4137.436035,4136.410156,4138.461426,4136.410156,4142.051270,4124.102539,4122.563965,4155.897461,4111.282227,4122.563965,773.000000,4.000000,,,,0.000000,4.000000,4.000000,4.000000,4.000000,4.000000,4.000000,4.000000,4.000000,4.000000,4.000000,4.000000,4.000000,4.000000,4.000000,100.000000
1602005458.681125,14.000000,0.000000,4135.897461,4142.051270,4126.153809,4127.179688,4140.512695,4136.922852,4139.487305,4141.538574,4141.538574,4121.025879,4133.333496,4156.410156,4120.000000,4127.179688,870.000000,4.000000,,,,0.000000,4.000000,4.000000,4.000000,4.000000,4.000000,4.000000,4.000000,4.000000,4.000000,4.000000,4.000000,4.000000,4.000000,4.000000,100.000000
1602005458.689007,15.000000,0.000000,4133.333496,4140.000000,4124.615234,4123.077148,4142.051270,4133.333496,4137.948730,4138.461426,4138.974121,4126.153809,4131.282227,4155.897461,4124.615234,4129.230957,842.000000,4.000000,,,,0.000000,4.000000,4.000000,4.000000,4.000000,4.000000,4.000000,4.000000,4.000000,4.000000,4.000000,4.000000,4.000000,4.000000,4.000000,100.000000
1602005458.696889,16.000000,0.000000,4143.077148,4142.563965,4127.692383,4126.153809,4137.948730,4125.641113,4130.769043,4125.641113,4134.871582,4135.384766,4127.692383,4152.820313,4124.102539,4131.282227,0.000000,4.000000,,,,0.000000,4.000000,4.000000,4.000000,4.000000,4.000000,4.000000,4.000000,4.000000,4.000000,4.000000,4.000000,4.000000,4.000000,4.000000,100.000000
1602005458.704772,17.000000,0.000000,4155.384766,4153.333496,4136.922852,4136.410156,4140.000000,4123.589844,4122.051270,4125.641113,4138.974121,4138.974121,4137.436035,4151.794922,4133.846191,4140.512695,0.000000,4.000000,,,,0.000000,4.000000,4.000000,4.000000,4.000000,4.000000,4.000000,4.000000,4.000000,4.000000,4.000000,4.000000,4.000000,4.000000,4.000000,100.000000
1602005458.712554,18.000000,0.000000,4158.461426,4157.436035,4141.538574,4138.974121,4146.153809,4126.666504,4121.538574,4134.871582,4145.128418,4140.000000,4143.589844,4153.333496,4143.589844,4146.666504,0.000000,4.000000,,,,0.000000,4.000000,4.000000,4.000000,4.000000,4.000000,4.000000,4.000000,4.000000,4.000000,4.000000,4.000000,4.000000,4.000000,4.000000,100.000000
1602005458.720437,19.000000,0.000000,4157.948730,4153.333496,4138.974121,4134.871582,4141.538574,4129.743652,4124.615234,4137.436035,4141.538574,4137.436035,4133.846191,4153.333496,4135.897461,4143.589844,0.000000,4.000000,,,,0.000000,4.000000,4.000000,4.000000,4.000000,4.000000,4.000000,4.000000,4.000000,4.000000,4.000000,4.000000,4.000000,4.000000,4.000000,100.000000
1602005458.728319,20.000000,0.000000,4153.846191,4151.282227,4134.358887,4129.230957,4134.871582,4125.641113,4124.102539,4133.846191,4134.871582,4126.666504,4123.077148,4148.717773,4121.538574,4134.358887,0.000000,4.000000,,,,0.000000,4.000000,4.000000,4.000000,4.000000,4.000000,4.000000,4.000000,4.000000,4.000000,4.000000,4.000000,4.000000,4.000000,4.000000,100.000000
1602005458.736201,21.000000,0.000000,4147.179688,4151.282227,4131.282227,4125.641113,4135.384766,4118.461426,4128.205078,4136.410156,4138.461426,4116.922852,4122.563965,4147.179688,4119.487305,4124.615234,0.000000,4.000000,,,,0.000000,4.000000,4.000000,4.000000,4.000000,4.000000,4.000000,4.000000,4.000000,4.000000,4.000000,4.000000,4.000000,4.000000,4.000000,100.000000
1602005458.744084,22.000000,0.000000,4144.615234,4152.307617,4134.871582,4133.846191,4137.436035,4125.641113,4135.897461,4141.025879,4143.589844,4124.615234,4125.128418,4151.794922,4124.615234,4122.563965,0.000000,4.000000,,,,0.000000,4.000000,4.000000,4.000000,4.000000,4.000000,4.000000,4.000000,4.000000,4.000000,4.000000,4.000000,4.000000,4.000000,4.000000,100.000000
1602005458.751966,23.000000,0.000000,4144.102539,4155.384766,4138.974121,4141.025879,4140.512695,4141.025879,4138.461426,4141.025879,4140.512695,4137.436035,4125.128418,4150.769043,4123.589844,4122.563965,0.000000,4.000000,,,,0.000000,4.000000,4.000000,4.000000,4.000000,4.000000,4.000000,4.000000,4.000000,4.000000,4.000000,4.000000,4.000000,4.000000,4.000000,100.000000
1602005458.759848,24.000000,0.000000,4141.538574,4152.820313,4133.333496,4131.282227,4148.717773,4144.102539,4138.974121,4141.025879,4138.974121,4138.461426,4126.153809,4142.563965,4123.077148,4122.051270,0.000000,4.000000,,,,0.000000,4.000000,4.000000,4.000000,4.000000,4.000000,4.000000,4.000000,4.000000,4.000000,4.000000,4.000000,4.000000,4.000000,4.000000,100.000000
1602005458.767731,25.000000,0.000000,4135.897461,4145.641113,4123.589844,4122.051270,4150.256348,4139.487305,4134.871582,4136.410156,4134.871582,4127.692383,4124.615234,4137.948730,4121.025879,4120.000000,0.000000,4.000000,,,,0.000000,4.000000,4.000000,4.000000,4.000000,4.000000,4.000000,4.000000,4.000000,4.000000,4.000000,4.000000,4.000000,4.000000,4.000000,100.000000
1602005458.775613,26.000000,0.000000,4124.102539,4136.922852,4113.333496,4120.000000,4140.512695,4138.461426,4123.589844,4125.641113,4123.589844,4123.589844,4114.358887,4133.333496,4108.717773,4110.256348,0.000000,4.000000,,,,0.000000,4.000000,4.000000,4.000000,4.000000,4.000000,4.000000,4.000000,4.000000,4.000000,4.000000,4.000000,4.000000,4.000000,4.000000,100.000000
1602005458.783396,27.000000,0.000000,4117.948730,4135.384766,4110.769043,4122.563965,4136.922852,4138.461426,4120.512695,4121.538574,4120.512695,4131.794922,4111.282227,4131.794922,4107.692383,4105.128418,0.000000,4.000000,,,,0.000000,4.000000,4.000000,4.000000,4.000000,4.000000,4.000000,4.000000,4.000000,4.000000,4.000000,4.000000,4.000000,4.000000,4.000000,100.000000
1602005458.791278,28.000000,0.000000,4124.615234,4144.615234,4117.948730,4132.307617,4142.051270,4141.538574,4130.256348,4126.666504,4127.692383,4125.641113,4121.538574,4137.436035,4120.000000,4110.769043,0.000000,4.000000,,,,0.000000,4.000000,4.000000,4.000000,4.000000,4.000000,4.000000,4.000000,4.000000,4.000000,4.000000,4.000000,4.000000,4.000000,4.000000,100.000000
1602005458.799160,29.000000,0.000000,4135.384766,4152.820313,4126.153809,4138.974121,4142.051270,4142.563965,4134.358887,4127.692383,4134.358887,4112.820313,4123.077148,4138.974121,4124.102539,4118.461426,0.000000,4.000000,,,,0.000000,4.000000,4.000000,4.000000,4.000000,4.000000,4.000000,4.000000,4.000000,4.000000,4.000000,4.000000,4.000000,4.000000,4.000000,100.000000
1602005458.807043,30.000000,0.000000,4147.692383,4152.820313,4134.358887,4137.436035,4137.948730,4132.820313,4130.769043,4128.205078,4135.384766,4123.077148,4117.948730,4141.025879,4120.000000,4128.205078,0.000000,4.000000,,,,0.000000,4.000000,4.000000,4.000000,4.000000,4.000000,4.000000,4.000000,4.000000,4.000000,4.000000,4.000000,4.000000,4.000000,4.000000,100.000000
1602005458.814925,31.000000,0.000000,4152.307617,4153.333496,4144.615234,4138.461426,4137.436035,4124.102539,4129.743652,4134.871582,4132.820313,4134.871582,4126.666504,4150.769043,4123.589844,4136.410156,0.000000,4.000000,,,,0.000000,4.000000,4.000000,4.000000,4.000000,4.000000,4.000000,4.000000,4.000000,4.000000,4.000000,4.000000,4.000000,4.000000,4.000000,100.000000
1602005458.822807,32.000000,0.000000,4146.153809,4154.358887,4149.743652,4138.461426,4136.922852,4120.512695,4126.153809,4136.410156,4127.179688,4124.615234,4138.461426,4157.948730,4133.846191,4136.922852,0.000000,4.000000,,,,0.000000,4.000000,4.000000,4.000000,4.000000,4.000000,4.000000,4.000000,4.000000,4.000000,4.000000,4.000000,4.000000,4.000000,4.000000,100.000000
1602005458.830690,33.000000,0.000000,4145.641113,4150.256348,4151.794922,4135.384766,4136.410156,4120.000000,4123.589844,4134.871582,4126.153809,4122.051270,4138.974121,4159.487305,4142.051270,4141.025879,0.000000,4.000000,,,,0.000000,4.000000,4.000000,4.000000,4.000000,4.000000,4.000000,4.000000,4.000000,4.000000,4.000000,4.000000,4.000000,4.000000,4.000000,100.000000
1602005458.838672,34.000000,0.000000,4156.410156,4151.282227,4154.358887,4138.461426,4138.974121,4123.077148,4129.743652,4137.948730,4129.743652,4143.077148,4141.025879,4161.025879,4144.102539,4149.743652,0.000000,4.000000,,,,0.000000,4.000000,4.000000,4.000000,4.000000,4.000000,4.000000,4.000000,4.000000,4.000000,4.000000,4.000000,4.000000,4.000000,4.000000,100.000000
1602005458.846554,35.000000,0.000000,4153.333496,4156.410156,4144.615234,4138.461426,4140.512695,4127.179688,4131.794922,4133.333496,4127.179688,4145.641113,4142.563965,4159.487305,4140.512695,4145.128418,0.000000,4.000000,,,,0.000000,4.000000,4.000000,4.000000,4.000000,4.000000,4.000000,4.000000,4.000000,4.000000,4.000000,4.000000,4.000000,4.000000,4.000000,100.000000
1602005458.854436,36.000000,0.000000,4138.974121,4148.205078,4127.179688,4128.205078,4140.512695,4129.230957,4123.077148,4122.563965,4124.102539,4119.487305,4132.307617,4150.769043,4139.487305,4137.436035,0.000000,4.000000,,,,0.000000,4.000000,4.000000,4.000000,4.000000,4.000000,4.000000,4.000000,4.000000,4.000000,4.000000,4.000000,4.000000,4.000000,4.000000,100.000000
1602005458.862318,37.000000,0.000000,4134.358887,4137.948730,4117.436035,4121.538574,4138.974121,4127.692383,4116.410156,4121.538574,4128.717773,4118.974121,4121.538574,4140.000000,4135.384766,4136.410156,0.000000,4.000000,,,,0.000000,4.000000,4.000000,4.000000,4.000000,4.000000,4.000000,4.000000,4.000000,4.000000,4.000000,4.000000,4.000000,4.000000,4.000000,100.000000
1602005458.870200,38.000000,0.000000,4135.384766,4144.102539,4118.974121,4126.153809,4137.948730,4123.589844,4116.410156,4124.102539,4137.948730,4143.589844,4123.077148,4134.358887,4129.743652,4130.256348,0.000000,4.000000,,,,0.000000,4.000000,4.000000,4.000000,4.000000,4.000000,4.000000,4.000000,4.000000,4.000000,4.000000,4.000000,4.000000,4.000000,4.000000,100.000000
1602005458.878082,39.000000,0.000000,4140.512695,4153.846191,4128.717773,4132.307617,4141.025879,4123.077148,4120.000000,4123.589844,4138.461426,4140.512695,4122.051270,4135.384766,4126.666504,4128.205078,0.000000,4.000000,,,,0.000000,4.000000,4.000000,4.000000,4.000000,4.000000,4.000000,4.000000,4.000000,4.000000,4.000000,4.000000,4.000000,4.000000,4.000000,100.000000
1602005458.885964,40.000000,0.000000,4151.794922,4154.871582,4137.436035,4136.922852,4145.128418,4131.282227,4125.128418,4122.051270,4134.358887,4127.179688,4119.487305,4143.077148,4125.641113,4135.384766,0.000000,4.000000,,,,0.000000,4.000000,4.000000,4.000000,4.000000,4.000000,4.000000,4.000000,4.000000,4.000000,4.000000,4.000000,4.000000,4.000000,4.000000,100.000000
1602005458.893747,41.000000,0.000000,4153.333496,4153.846191,4140.512695,4142.051270,4142.051270,4134.358887,4126.153809,4122.051270,4135.384766,4145.641113,4123.077148,4152.307617,4132.307617,4138.974121,0.000000,4.000000,,,,0.000000,4.000000,4.000000,4.000000,4.000000,4.000000,4.000000,4.000000,4.000000,4.000000,4.000000,4.000000,4.000000,4.000000,4.000000,100.000000
1602005458.901629,42.000000,0.000000,4144.102539,4151.794922,4138.461426,4140.000000,4135.897461,4124.615234,4120.000000,4121.025879,4133.333496,4141.025879,4124.615234,4149.743652,4134.871582,4135.384766,0.000000,4.000000,,,,0.000000,4.000000,4.000000,4.000000,4.000000,4.000000,4.000000,4.000000,4.000000,4.000000,4.000000,4.000000,4.000000,4.000000,4.000000,100.000000
1602005458.909511,43.000000,0.000000,4141.538574,4145.641113,4136.410156,4135.384766,4135.897461,4121.538574,4117.948730,4120.000000,4123.077148,4106.666504,4121.538574,4137.436035,4126.666504,4133.846191,0.000000,4.000000,,,,0.000000,4.000000,4.000000,4.000000,4.000000,4.000000,4.000000,4.000000,4.000000,4.000000,4.000000,4.000000,4.000000,4.000000,4.000000,100.000000
1602005458.917393,44.000000,0.000000,4143.589844,4140.512695,4136.922852,4136.410156,4137.436035,4126.153809,4119.487305,4121.538574,4118.461426,4109.743652,4120.512695,4136.410156,4117.436035,4134.871582,0.000000,4.000000,,,,0.000000,4.000000,4.000000,4.000000,4.000000,4.000000,4.000000,4.000000,4.000000,4.000000,4.000000,4.000000,4.000000,4.000000,4.000000,100.000000
1602005458.925275,45.000000,0.000000,4142.051270,4140.000000,4143.589844,4135.384766,4135.897461,4124.102539,4117.948730,4124.102539,4123.077148,4127.179688,4128.717773,4143.077148,4124.102539,4135.384766,0.000000,4.000000,,,,0.000000,4.000000,4.000000,4.000000,4.000000,4.000000,4.000000,4.000000,4.000000,4.000000,4.000000,4.000000,4.000000,4.000000,4.000000,100.000000
1602005458.933157,46.000000,0.000000,4149.743652,4141.538574,4152.307617,4131.794922,4135.384766,4122.563965,4118.461426,4129.743652,4124.615234,4124.102539,4138.461426,4144.102539,4136.410156,4140.512695,0.000000,4.000000,,,,0.000000,4.000000,4.000000,4.000000,4.000000,4.000000,4.000000,4.000000,4.000000,4.000000,4.000000,4.000000,4.000000,4.000000,4.000000,100.000000
1602005458.941140,47.000000,0.000000,4156.922852,4143.589844,4147.692383,4133.333496,4138.974121,4126.666504,4121.538574,4132.820313,4120.000000,4128.717773,4137.948730,4145.128418,4139.487305,4147.692383,0.000000,4.000000,,,,0.000000,4.000000,4.000000,4.000000,4.000000,4.000000,4.000000,4.000000,4.000000,4.000000,4.000000,4.000000,4.000000,4.000000,4.000000,100.000000
1602005458.949022,48.000000,0.000000,4153.846191,4148.717773,4138.974121,4137.948730,4148.717773,4127.179688,4124.102539,4129.743652,4121.025879,4142.051270,4142.051270,4149.230957,4143.077148,4154.871582,0.000000,4.000000,,,,0.000000,4.000000,4.000000,4.000000,4.000000,4.000000,4.000000,4.000000,4.000000,4.000000,4.000000,4.000000,4.000000,4.000000,4.000000,100.000000
1602005458.956905,49.000000,0.000000,4149.743652,4150.769043,4137.436035,4137.436035,4152.820313,4125.641113,4126.666504,4126.666504,4126.153809,4132.307617,4152.307617,4152.820313,4148.205078,4153.333496,0.000000,4.000000,,,,0.000000,4.000000,4.000000,4.000000,4.000000,4.000000,4.000000,4.000000,4.000000,4.000000,4.000000,4.000000,4.000000,4.000000,4.000000,100.000000
1602005458.964788,50.000000,0.000000,4145.641113,4143.589844,4137.436035,4134.871582,4144.102539,4124.102539,4127.179688,4126.153809,4124.615234,4120.512695,4144.615234,4148.717773,4144.615234,4143.589844,0.000000,4.000000,,,,0.000000,4.000000,4.000000,4.000000,4.000000,4.000000,4.000000,4.000000,4.000000,4.000000,4.000000,4.000000,4.000000,4.000000,4.000000,100.000000
1602005458.972670,51.000000,0.000000,4137.948730,4137.436035,4134.358887,4135.897461,4136.922852,4123.589844,4128.717773,4122.051270,4120.512695,4134.871582,4133.333496,4140.000000,4133.846191,4136.922852,0.000000,4.000000,,,,0.000000,4.000000,4.000000,4.000000,4.000000,4.000000,4.000000,4.000000,4.000000,4.000000,4.000000,4.000000,4.000000,4.000000,4.000000,100.000000
1602005458.980553,52.000000,0.000000,4136.410156,4138.974121,4136.922852,4137.948730,4136.922852,4126.666504,4133.846191,4120.000000,4128.205078,4149.230957,4144.615234,4142.051270,4133.846191,4139.487305,0.000000,4.000000,,,,0.000000,4.000000,4.000000,4.000000,4.000000,4.000000,4.000000,4.000000,4.000000,4.000000,4.000000,4.000000,4.000000,4.000000,4.000000,100.000000
1602005458.988435,53.000000,0.000000,4145.128418,4138.461426,4147.179688,4136.410156,4135.384766,4124.615234,4131.282227,4128.717773,4145.128418,4152.307617,4154.871582,4154.871582,4146.153809,4151.282227,0.000000,4.000000,,,,0.000000,4.000000,4.000000,4.000000,4.000000,4.000000,4.000000,4.000000,4.000000,4.000000,4.000000,4.000000,4.000000,4.000000,4.000000,100.000000
1602005458.996318,54.000000,0.000000,4151.794922,4136.922852,4154.358887,4136.922852,4131.794922,4121.025879,4122.563965,4144.102539,4156.410156,4162.563965,4152.307617,4168.205078,4153.333496,4162.563965,0.000000,4.000000,,,,0.000000,4.000000,4.000000,4.000000,4.000000,4.000000,4.000000,4.000000,4.000000,4.000000,4.000000,4.000000,4.000000,4.000000,4.000000,100.000000
1602005459.004201,55.000000,0.000000,4163.589844,4148.717773,4158.974121,4143.589844,4136.410156,4131.282227,4127.692383,4154.871582,4160.512695,4173.846191,4160.512695,4178.974121,4157.948730,4170.769043,0.000000,4.000000,,,,0.000000,4.000000,4.000000,4.000000,4.000000,4.000000,4.000000,4.000000,4.000000,4.000000,4.000000,4.000000,4.000000,4.000000,4.000000,100.000000
1602005459.012083,56.000000,0.000000,4171.794922,4160.000000,4163.589844,4145.641113,4142.563965,4139.487305,4138.461426,4151.794922,4156.922852,4153.846191,4166.666504,4182.051270,4160.512695,4175.384766,0.000000,4.000000,,,,0.000000,4.000000,4.000000,4.000000,4.000000,4.000000,4.000000,4.000000,4.000000,4.000000,4.000000,4.000000,4.000000,4.000000,4.000000,100.000000
1602005459.019965,57.000000,0.000000,4154.871582,4149.743652,4152.307617,4138.461426,4138.461426,4132.307617,4137.436035,4140.000000,4143.589844,4125.641113,4153.846191,4170.256348,4149.743652,4166.153809,0.000000,4.000000,,,,0.000000,4.000000,4.000000,4.000000,4.000000,4.000000,4.000000,4.000000,4.000000,4.000000,4.000000,4.000000,4.000000,4.000000,4.000000,100.000000
1602005459.027847,58.000000,0.000000,4137.948730,4138.974121,4137.948730,4134.871582,4138.974121,4131.794922,4141.025879,4135.897461,4132.307617,4135.384766,4145.128418,4163.077148,4137.948730,4152.820313,0.000000,4.000000,,,,0.000000,4.000000,4.000000,4.000000,4.000000,4.000000,4.000000,4.000000,4.000000,4.000000,4.000000,4.000000,4.000000,4.000000,4.000000,100.000000
1602005459.035729,59.000000,0.000000,4148.205078,4148.205078,4147.692383,4138.974121,4153.333496,4143.589844,4155.897461,4140.000000,4134.358887,4154.871582,4154.358887,4171.282227,4146.666504,4160.512695,0.000000,4.000000,,,,0.000000,4.000000,4.000000,4.000000,4.000000,4.000000,4.000000,4.000000,4.000000,4.000000,4.000000,4.000000,4.000000,4.000000,4.000000,100.000000
1602005459.043611,60.000000,0.000000,4160.512695,4158.461426,4159.487305,4142.051270,4156.410156,4146.666504,4156.410156,4138.461426,4143.077148,4153.846191,4158.461426,4174.358887,4158.974121,4169.743652,0.000000,4.000000,,,,0.000000,4.000000,4.000000,4.000000,4.000000,4.000000,4.000000,4.000000,4.000000,4.000000,4.000000,4.000000,4.000000,4.000000,4.000000,100.000000
1602005459.051493,61.000000,0.000000,4154.358887,4150.769043,4153.846191,4141.025879,4143.589844,4141.025879,4143.077148,4134.871582,4144.102539,4153.333496,4151.794922,4169.230957,4153.846191,4162.563965,0.000000,4.000000,,,,0.000000,4.000000,4.000000,4.000000,4.000000,4.000000,4.000000,4.000000,4.000000,4.000000,4.000000,4.000000,4.000000,4.000000,4.000000,100.000000
1602005459.059375,62.000000,0.000000,4151.794922,4142.051270,4152.307617,4138.974121,4138.461426,4136.410156,4137.948730,4137.948730,4138.974121,4161.538574,4151.794922,4170.256348,4148.717773,4162.051270,0.000000,4.000000,,,,0.000000,4.000000,4.000000,4.000000,4.000000,4.000000,4.000000,4.000000,4.000000,4.000000,4.000000,4.000000,4.000000,4.000000,4.000000,100.000000
1602005459.067358,63.000000,0.000000,4156.410156,4144.102539,4157.948730,4136.922852,4138.461426,4128.717773,4132.820313,4139.487305,4141.025879,4154.358887,4152.820313,4172.820313,4152.307617,4169.230957,0.000000,4.000000,,,,0.000000,4.000000,4.000000,4.000000,4.000000,4.000000,4.000000,4.000000,4.000000,4.000000,4.000000,4.000000,4.000000,4.000000,4.000000,100.000000
1602005459.075240,64.000000,0.000000,4155.897461,4149.743652,4155.384766,4137.436035,4136.410156,4121.538574,4122.563965,4138.974121,4158.461426,4146.153809,4154.871582,4171.794922,4157.948730,4168.717773,807.000000,4.000000,,,,0.000000,4.000000,4.000000,4.000000,4.000000,4.000000,4.000000,4.000000,4.000000,4.000000,4.000000,4.000000,4.000000,4.000000,4.000000,100.000000
1602005459.083123,65.000000,0.000000,4154.871582,4148.717773,4154.358887,4140.000000,4137.436035,4124.102539,4121.538574,4142.051270,4172.820313,4165.641113,4160.512695,4171.794922,4160.000000,4164.102539,799.000000,4.000000,,,,0.000000,4.000000,4.000000,4.000000,4.000000,4.000000,4.000000,4.000000,4.000000,4.000000,4.000000,4.000000,4.000000,4.000000,4.000000,100.000000
1602005459.091006,66.000000,0.000000,4153.333496,4141.538574,4151.282227,4135.384766,4140.000000,4133.333496,4123.077148,4142.563965,4166.666504,4175.384766,4160.512695,4167.179688,4156.922852,4160.000000,842.000000,4.000000,,,,0.000000,4.000000,4.000000,4.000000,4.000000,4.000000,4.000000,4.000000,4.000000,4.000000,4.000000,4.000000,4.000000,4.000000,4.000000,100.000000
1602005459.098888,67.000000,0.000000,4146.666504,4136.410156,4141.025879,4125.641113,4140.000000,4137.436035,4123.589844,4136.410156,4151.282227,4161.538574,4153.333496,4158.461426,4155.897461,4154.871582,871.000000,4.000000,,,,0.000000,4.000000,4.000000,4.000000,4.000000,4.000000,4.000000,4.000000,4.000000,4.000000,4.000000,4.000000,4.000000,4.000000,4.000000,100.000000
1602005459.106771,68.000000,0.000000,4141.538574,4131.282227,4136.922852,4122.051270,4139.487305,4136.410156,4130.769043,4131.794922,4142.051270,4154.358887,4147.692383,4150.256348,4150.256348,4148.717773,807.000000,4.000000,,,,0.000000,4.000000,4.000000,4.000000,4.000000,4.000000,4.000000,4.000000,4.000000,4.000000,4.000000,4.000000,4.000000,4.000000,4.000000,100.000000
1602005459.114653,69.000000,0.000000,4135.384766,4123.589844,4135.897461,4123.589844,4138.461426,4138.461426,4137.436035,4125.641113,4133.846191,4150.256348,4143.077148,4145.128418,4136.922852,4138.461426,818.000000,4.000000,,,,0.000000,4.000000,4.000000,4.000000,4.000000,4.000000,4.000000,4.000000,4.000000,4.000000,4.000000,4.000000,4.000000,4.000000,4.000000,100.000000
1602005459.122536,70.000000,0.000000,4126.666504,4119.487305,4125.641113,4119.487305,4137.436035,4135.897461,4138.974121,4116.410156,4116.922852,4134.358887,4136.922852,4140.512695,4130.256348,4133.333496,795.000000,4.000000,,,,0.000000,4.000000,4.000000,4.000000,4.000000,4.000000,4.000000,4.000000,4.000000,4.000000,4.000000,4.000000,4.000000,4.000000,4.000000,100.000000
1602005459.130419,71.000000,0.000000,4125.128418,4124.102539,4116.922852,4118.974121,4137.436035,4126.666504,4138.461426,4113.846191,4106.153809,4116.410156,4138.974121,4137.436035,4134.871582,4141.538574,696.000000,4.000000,,,,0.000000,4.000000,4.000000,4.000000,4.000000,4.000000,4.000000,4.000000,4.000000,4.000000,4.000000,4.000000,4.000000,4.000000,4.000000,100.000000
1602005459.138401,72.000000,0.000000,4135.897461,4132.820313,4123.589844,4128.717773,4142.051270,4123.077148,4132.307617,4119.487305,4113.333496,4114.871582,4149.743652,4142.563965,4143.077148,4149.743652,792.000000,4.000000,,,,0.000000,4.000000,4.000000,4.000000,4.000000,4.000000,4.000000,4.000000,4.000000,4.000000,4.000000,4.000000,4.000000,4.000000,4.000000,100.000000
1602005459.146283,73.000000,0.000000,4149.743652,4146.153809,4136.922852,4137.948730,4150.769043,4124.615234,4127.179688,4130.256348,4131.794922,4132.307617,4156.922852,4151.282227,4152.820313,4155.897461,843.000000,4.000000,,,,0.000000,4.000000,4.000000,4.000000,4.000000,4.000000,4.000000,4.000000,4.000000,4.000000,4.000000,4.000000,4.000000,4.000000,4.000000,100.000000
1602005459.154166,74.000000,0.000000,4156.922852,4151.794922,4141.538574,4139.487305,4154.358887,4123.589844,4126.153809,4139.487305,4147.179688,4155.897461,4157.436035,4156.922852,4158.974121,4157.948730,870.000000,4.000000,,,,0.000000,4.000000,4.000000,4.000000,4.000000,4.000000,4.000000,4.000000,4.000000,4.000000,4.000000,4.000000,4.000000,4.000000,4.000000,100.000000
1602005459.162048,75.000000,0.000000,4155.897461,4143.077148,4139.487305,4136.410156,4148.205078,4123.077148,4120.512695,4138.461426,4153.333496,4167.692383,4155.384766,4156.410156,4155.897461,4157.436035,842.000000,4.000000,,,,0.000000,4.000000,4.000000,4.000000,4.000000,4.000000,4.000000,4.000000,4.000000,4.000000,4.000000,4.000000,4.000000,4.000000,4.000000,100.000000
1602005459.169930,76.000000,0.000000,4152.820313,4137.948730,4140.512695,4129.230957,4138.974121,4129.743652,4115.897461,4134.358887,4152.820313,4164.102539,4155.384766,4160.512695,4153.333496,4162.051270,784.000000,4.000000,,,,0.000000,4.000000,4.000000,4.000000,4.000000,4.000000,4.000000,4.000000,4.000000,4.000000,4.000000,4.000000,4.000000,4.000000,4.000000,100.000000
1602005459.177813,77.000000,0.000000,4151.282227,4139.487305,4141.025879,4120.000000,4136.922852,4137.948730,4121.538574,4135.897461,4153.333496,4153.333496,4155.897461,4166.666504,4156.922852,4167.179688,773.000000,4.000000,,,,0.000000,4.000000,4.000000,4.000000,4.000000,4.000000,4.000000,4.000000,4.000000,4.000000,4.000000,4.000000,4.000000,4.000000,4.000000,100.000000
1602005459.185695,78.000000,0.000000,4152.307617,4137.436035,4138.974121,4121.025879,4141.025879,4143.589844,4134.358887,4141.025879,4163.077148,4153.846191,4156.410156,4169.743652,4162.563965,4168.205078,870.000000,4.000000,,,,0.000000,4.000000,4.000000,4.000000,4.000000,4.000000,4.000000,4.000000,4.000000,4.000000,4.000000,4.000000,4.000000,4.000000,4.000000,100.000000
1602005459.193677,79.000000,0.000000,4153.333496,4135.384766,4139.487305,4125.641113,4141.538574,4143.589844,4144.102539,4142.051270,4169.743652,4161.025879,4157.948730,4168.205078,4161.538574,4165.641113,842.000000,4.000000,,,,0.000000,4.000000,4.000000,4.000000,4.000000,4.000000,4.000000,4.000000,4.000000,4.000000,4.000000,4.000000,4.000000,4.000000,4.000000,100.000000
1602005459.201560,80.000000,0.000000,4148.717773,4134.871582,4138.974121,4122.563965,4136.922852,4141.025879,4145.128418,4138.461426,4155.384766,4149.743652,4152.307617,4158.974121,4152.820313,4157.436035,784.000000,4.000000,,,,0.000000,4.000000,4.000000,4.000000,4.000000,4.000000,4.000000,4.000000,4.000000,4.000000,4.000000,4.000000,4.000000,4.000000,4.000000,100.000000
1602005459.209443,81.000000,0.000000,4138.974121,4134.358887,4137.948730,4125.128418,4141.025879,4138.974121,4143.077148,4137.436035,4141.025879,4142.563965,4143.077148,4152.820313,4150.256348,4150.769043,773.000000,4.000000,,,,0.000000,4.000000,4.000000,4.000000,4.000000,4.000000,4.000000,4.000000,4.000000,4.000000,4.000000,4.000000,4.000000,4.000000,4.000000,100.000000
1602005459.217325,82.000000,0.000000,4137.948730,4137.948730,4140.512695,4136.410156,4151.282227,4138.461426,4142.563965,4138.974121,4144.102539,4158.461426,4138.461426,4154.871582,4151.794922,4155.384766,870.000000,4.000000,,,,0.000000,4.000000,4.000000,4.000000,4.000000,4.000000,4.000000,4.000000,4.000000,4.000000,4.000000,4.000000,4.000000,4.000000,4.000000,100.000000
1602005459.225208,83.000000,0.000000,4139.487305,4140.512695,4134.358887,4140.512695,4154.358887,4135.384766,4136.922852,4136.410156,4142.563965,4144.615234,4136.922852,4155.384766,4143.589844,4154.358887,842.000000,4.000000,,,,0.000000,4.000000,4.000000,4.000000,4.000000,4.000000,4.000000,4.000000,4.000000,4.000000,4.000000,4.000000,4.000000,4.000000,4.000000,100.000000
1602005459.233090,84.000000,0.000000,4134.871582,4137.436035,4123.077148,4133.333496,4151.282227,4126.666504,4125.128418,4129.743652,4130.256348,4112.307617,4138.461426,4151.794922,4136.922852,4138.461426,784.000000,4.000000,,,,0.000000,4.000000,4.000000,4.000000,4.000000,4.000000,4.000000,4.000000,4.000000,4.000000,4.000000,4.000000,4.000000,4.000000,4.000000,100.000000
1602005459.240973,85.000000,0.000000,4139.487305,4134.871582,4122.563965,4128.717773,4149.230957,4122.563965,4117.436035,4129.743652,4129.743652,4117.436035,4136.922852,4153.333496,4136.922852,4135.384766,773.000000,4.000000,,,,0.000000,4.000000,4.000000,4.000000,4.000000,4.000000,4.000000,4.000000,4.000000,4.000000,4.000000,4.000000,4.000000,4.000000,4.000000,100.000000
1602005459.248856,86.000000,0.000000,4142.563965,4131.794922,4126.666504,4128.717773,4146.153809,4130.769043,4116.922852,4130.769043,4131.282227,4131.794922,4126.666504,4155.897461,4129.230957,4141.538574,870.000000,4.000000,,,,0.000000,4.000000,4.000000,4.000000,4.000000,4.000000,4.000000,4.000000,4.000000,4.000000,4.000000,4.000000,4.000000,4.000000,4.000000,100.000000
1602005459.256738,87.000000,0.000000,4127.692383,4123.077148,4123.077148,4123.077148,4141.025879,4135.897461,4126.666504,4123.589844,4123.589844,4118.974121,4118.974121,4152.820313,4118.974121,4137.948730,842.000000,4.000000,,,,0.000000,4.000000,4.000000,4.000000,4.000000,4.000000,4.000000,4.000000,4.000000,4.000000,4.000000,4.000000,4.000000,4.000000,4.000000,100.000000
1602005459.264621,88.000000,0.000000,4124.615234,4119.487305,4118.461426,4119.487305,4138.974121,4138.974121,4138.974121,4120.000000,4121.025879,4116.410156,4123.589844,4152.307617,4121.538574,4132.820313,784.000000,4.000000,,,,0.000000,4.000000,4.000000,4.000000,4.000000,4.000000,4.000000,4.000000,4.000000,4.000000,4.000000,4.000000,4.000000,4.000000,4.000000,100.000000
1602005459.272403,89.000000,0.000000,4135.897461,4124.615234,4121.538574,4122.051270,4137.948730,4149.230957,4142.563965,4128.717773,4122.051270,4130.256348,4127.692383,4154.358887,4127.692383,4138.974121,773.000000,4.000000,,,,0.000000,4.000000,4.000000,4.000000,4.000000,4.000000,4.000000,4.000000,4.000000,4.000000,4.000000,4.000000,4.000000,4.000000,4.000000,100.000000
1602005459.280284,90.000000,0.000000,4120.512695,4111.282227,4121.538574,4117.436035,4138.974121,4154.358887,4145.128418,4141.025879,4120.512695,4121.538574,4123.077148,4154.358887,4126.666504,4133.846191,870.000000,4.000000,,,,0.000000,4.000000,4.000000,4.000000,4.000000,4.000000,4.000000,4.000000,4.000000,4.000000,4.000000,4.000000,4.000000,4.000000,4.000000,100.000000
1602005459.288166,91.000000,0.000000,4106.666504,4095.897461,4116.922852,4111.282227,4134.871582,4143.077148,4147.179688,4143.077148,4123.589844,4110.256348,4122.563965,4155.384766,4120.512695,4123.077148,842.000000,4.000000,,,,0.000000,4.000000,4.000000,4.000000,4.000000,4.000000,4.000000,4.000000,4.000000,4.000000,4.000000,4.000000,4.000000,4.000000,4.000000,100.000000
1602005459.296047,92.000000,0.000000,4136.922852,4114.871582,4120.512695,4121.025879,4126.666504,4125.641113,4135.897461,4137.948730,4125.641113,4124.615234,4131.282227,4161.025879,4123.077148,4144.102539,784.000000,4.000000,,,,0.000000,4.000000,4.000000,4.000000,4.000000,4.000000,4.000000,4.000000,4.000000,4.000000,4.000000,4.000000,4.000000,4.000000,4.000000,100.000000
1602005459.303830,93.000000,0.000000,4186.153809,4143.077148,4138.461426,4137.948730,4128.205078,4110.769043,4122.563965,4136.410156,4122.563965,4127.179688,4138.461426,4167.179688,4135.897461,4179.487305,773.000000,4.000000,,,,0.000000,4.000000,4.000000,4.000000,4.000000,4.000000,4.000000,4.000000,4.000000,4.000000,4.000000,4.000000,4.000000,4.000000,4.000000,100.000000
1602005459.311712,94.000000,0.000000,4226.153809,4155.384766,4154.871582,4145.641113,4136.410156,4104.102539,4121.538574,4133.333496,4117.948730,4112.307617,4136.410156,4168.205078,4135.897461,4198.974121,870.000000,4.000000,,,,0.000000,4.000000,4.000000,4.000000,4.000000,4.000000,4.000000,4.000000,4.000000,4.000000,4.000000,4.000000,4.000000,4.000000,4.000000,100.000000
1602005459.319595,95.000000,0.000000,4269.743652,4164.615234,4162.051270,4153.333496,4136.922852,4106.666504,4122.051270,4125.641113,4107.692383,4107.692383,4132.820313,4171.794922,4125.128418,4218.974121,842.000000,4.000000,,,,0.000000,4.000000,4.000000,4.000000,4.000000,4.000000,4.000000,4.000000,4.000000,4.000000,4.000000,4.000000,4.000000,4.000000,4.000000,100.000000
1602005459.327477,96.000000,0.000000,4314.871582,4172.307617,4166.666504,4163.589844,4134.358887,4109.230957,4118.461426,4117.948730,4091.281982,4095.897461,4130.256348,4174.358887,4118.461426,4244.615234,784.000000,4.000000,,,,0.000000,4.000000,4.000000,4.000000,4.000000,4.000000,4.000000,4.000000,4.000000,4.000000,4.000000,4.000000,4.000000,4.000000,4.000000,100.000000
1602005459.335359,97.000000,0.000000,4361.538574,4177.436035,4169.230957,4168.205078,4134.358887,4110.769043,4116.922852,4111.794922,4087.179443,4076.410156,4128.205078,4176.922852,4114.358887,4265.641113,773.000000,4.000000,,,,0.000000,4.000000,4.000000,4.000000,4.000000,4.000000,4.000000,4.000000,4.000000,4.000000,4.000000,4.000000,4.000000,4.000000,4.000000,100.000000
1602005459.343242,98.000000,0.000000,4407.692383,4186.666504,4176.410156,4171.282227,4129.230957,4114.871582,4118.974121,4109.230957,4096.410156,4084.615479,4131.282227,4184.615234,4111.282227,4293.846191,870.000000,4.000000,,,,0.000000,4.000000,4.000000,4.000000,4.000000,4.000000,4.000000,4.000000,4.000000,4.000000,4.000000,4.000000,4.000000,4.000000,4.000000,100.000000
1602005459.351124,99.000000,0.000000,4438.461426,4185.641113,4184.615234,4169.743652,4121.538574,4111.794922,4123.589844,4110.256348,4093.333252,4098.461426,4124.615234,4186.153809,4103.589844,4317.948730,842.000000,4.000000,,,,0.000000,4.000000,4.000000,4.000000,4.000000,4.000000,4.000000,4.000000,4.000000,4.000000,4.000000,4.000000,4.000000,4.000000,4.000000,100.000000
1602005459.359106,100.000000,0.000000,4460.000000,4180.000000,4185.641113,4168.717773,4121.025879,4112.820313,4127.692383,4113.846191,4089.230713,4091.281982,4109.230957,4182.563965,4090.769287,4326.153809,784.000000,4.000000,,,,0.000000,4.000000,4.000000,4.000000,4.000000,4.000000,4.000000,4.000000,4.000000,4.000000,4.000000,4.000000,4.000000,4.000000,4.000000,100.000000
1602005459.366988,101.000000,0.000000,4474.871582,4187.179688,4190.769043,4172.307617,4123.589844,4117.436035,4126.153809,4120.000000,4102.051270,4085.641113,4112.820313,4190.769043,4090.769287,4335.384766,773.000000,4.000000,,,,0.000000,4.000000,4.000000,4.000000,4.000000,4.000000,4.000000,4.000000,4.000000,4.000000,4.000000,4.000000,4.000000,4.000000,4.000000,100.000000
1602005459.374870,102.000000,0.000000,4472.820313,4184.615234,4202.563965,4168.717773,4119.487305,4113.846191,4123.077148,4131.794922,4109.230957,4092.307617,4120.512695,4193.846191,4095.384521,4336.922852,870.000000,4.000000,,,,0.000000,4.000000,4.000000,4.000000,4.000000,4.000000,4.000000,4.000000,4.000000,4.000000,4.000000,4.000000,4.000000,4.000000,4.000000,100.000000
1602005459.382752,103.000000,0.000000,4463.589844,4173.846191,4202.051270,4160.512695,4111.282227,4112.820313,4123.589844,4139.487305,4102.051270,4094.871826,4113.846191,4183.589844,4090.256348,4329.230957,842.000000,4.000000,,,,0.000000,4.000000,4.000000,4.000000,4.000000,4.000000,4.000000,4.000000,4.000000,4.000000,4.000000,4.000000,4.000000,4.000000,4.000000,100.000000
1602005459.390635,104.000000,0.000000,4449.230957,4170.769043,4190.769043,4155.897461,4108.717773,4119.487305,4124.102539,4136.922852,4107.692383,4082.564209,4111.282227,4182.051270,4087.692383,4321.538574,784.000000,4.000000,,,,0.000000,4.000000,4.000000,4.000000,4.000000,4.000000,4.000000,4.000000,4.000000,4.000000,4.000000,4.000000,4.000000,4.000000,4.000000,100.000000
1602005459.398517,105.000000,0.000000,4428.205078,4165.128418,4185.641113,4153.846191,4111.282227,4122.563965,4123.077148,4130.256348,4114.871582,4073.846191,4115.384766,4184.615234,4088.718018,4305.128418,773.000000,4.000000,,,,0.000000,4.000000,4.000000,4.000000,4.000000,4.000000,4.000000,4.000000,4.000000,4.000000,4.000000,4.000000,4.000000,4.000000,4.000000,100.000000
1602005459.406399,106.000000,0.000000,4409.743652,4153.846191,4185.641113,4150.769043,4112.307617,4118.974121,4121.538574,4123.589844,4103.589844,4089.230713,4114.358887,4175.384766,4085.128174,4294.871582,870.000000,4.000000,,,,0.000000,4.000000,4.000000,4.000000,4.000000,4.000000,4.000000,4.000000,4.000000,4.000000,4.000000,4.000000,4.000000,4.000000,4.000000,100.000000
1602005459.414181,107.000000,0.000000,4396.410156,4148.717773,4186.153809,4150.256348,4110.256348,4115.897461,4118.974121,4121.025879,4098.974121,4106.153809,4117.436035,4174.358887,4086.153809,4295.897461,842.000000,4.000000,,,,0.000000,4.000000,4.000000,4.000000,4.000000,4.000000,4.000000,4.000000,4.000000,4.000000,4.000000,4.000000,4.000000,4.000000,4.000000,100.000000
1602005459.422063,108.000000,0.000000,4380.000000,4146.666504,4184.102539,4148.205078,4108.717773,4112.820313,4120.000000,4124.102539,4110.256348,4109.230957,4125.128418,4184.102539,4092.307617,4288.717773,784.000000,4.000000,,,,0.000000,4.000000,4.000000,4.000000,4.000000,4.000000,4.000000,4.000000,4.000000,4.000000,4.000000,4.000000,4.000000,4.000000,4.000000,100.000000
1602005459.429945,109.000000,0.000000,4357.948730,4140.000000,4170.769043,4140.512695,4109.230957,4111.282227,4122.051270,4124.102539,4112.307617,4102.563965,4124.615234,4180.000000,4092.307617,4276.922852,773.000000,4.000000,,,,0.000000,4.000000,4.000000,4.000000,4.000000,4.000000,4.000000,4.000000,4.000000,4.000000,4.000000,4.000000,4.000000,4.000000,4.000000,100.000000
1602005459.437826,110.000000,0.000000,4331.794922,4135.384766,4157.436035,4135.384766,4111.282227,4109.230957,4120.512695,4118.974121,4105.128418,4095.384521,4123.077148,4169.230957,4090.769287,4265.128418,870.000000,4.000000,,,,0.000000,4.000000,4.000000,4.000000,4.000000,4.000000,4.000000,4.000000,4.000000,4.000000,4.000000,4.000000,4.000000,4.000000,4.000000,100.000000
1602005459.445708,111.000000,0.000000,4312.820313,4136.922852,4161.025879,4136.410156,4117.436035,4112.307617,4122.051270,4118.461426,4108.205078,4103.589844,4123.589844,4174.358887,4092.307617,4250.769043,842.000000,4.000000,,,,0.000000,4.000000,4.000000,4.000000,4.000000,4.000000,4.000000,4.000000,4.000000,4.000000,4.000000,4.000000,4.000000,4.000000,4.000000,100.000000
1602005459.453590,112.000000,0.000000,4306.153809,4138.974121,4169.230957,4140.000000,4118.974121,4117.436035,4126.666504,4120.000000,4112.307617,4105.128418,4125.128418,4185.128418,4094.871826,4247.692383,784.000000,4.000000,,,,0.000000,4.000000,4.000000,4.000000,4.000000,4.000000,4.000000,4.000000,4.000000,4.000000,4.000000,4.000000,4.000000,4.000000,4.000000,100.000000
1602005459.461372,113.000000,0.000000,4296.922852,4137.948730,4169.230957,4141.025879,4113.846191,4109.230957,4120.512695,4120.512695,4106.666504,4095.384521,4125.641113,4184.102539,4094.358887,4248.205078,773.000000,4.000000,,,,0.000000,4.000000,4.000000,4.000000,4.000000,4.000000,4.000000,4.000000,4.000000,4.000000,4.000000,4.000000,4.000000,4.000000,4.000000,100.000000
1602005459.469253,114.000000,0.000000,4289.230957,4136.922852,4168.717773,4138.974121,4115.384766,4106.153809,4110.256348,4122.051270,4106.153809,4107.179688,4121.025879,4177.948730,4093.333252,4236.922852,870.000000,4.000000,,,,0.000000,4.000000,4.000000,4.000000,4.000000,4.000000,4.000000,4.000000,4.000000,4.000000,4.000000,4.000000,4.000000,4.000000,4.000000,100.000000
1602005459.477035,115.000000,0.000000,4286.666504,4137.948730,4166.666504,4138.974121,4120.000000,4116.410156,4109.743652,4125.641113,4114.871582,4114.871582,4120.000000,4173.846191,4088.718018,4227.179688,842.000000,4.000000,,,,0.000000,4.000000,4.000000,4.000000,4.000000,4.000000,4.000000,4.000000,4.000000,4.000000,4.000000,4.000000,4.000000,4.000000,4.000000,100.000000
1602005459.484917,116.000000,0.000000,4269.743652,4128.717773,4156.922852,4138.974121,4113.333496,4119.487305,4113.846191,4132.307617,4120.000000,4100.512695,4121.025879,4168.717773,4078.461426,4215.897461,784.000000,4.000000,,,,0.000000,4.000000,4.000000,4.000000,4.000000,4.000000,4.000000,4.000000,4.000000,4.000000,4.000000,4.000000,4.000000,4.000000,4.000000,100.000000
1602005459.492799,117.000000,0.000000,4250.256348,4122.051270,4150.256348,4138.461426,4110.256348,4116.922852,4117.948730,4138.461426,4122.563965,4102.563965,4121.538574,4165.128418,4078.974365,4198.974121,773.000000,4.000000,,,,0.000000,4.000000,4.000000,4.000000,4.000000,4.000000,4.000000,4.000000,4.000000,4.000000,4.000000,4.000000,4.000000,4.000000,4.000000,100.000000
1602005459.500681,118.000000,0.000000,4247.179688,4133.846191,4155.897461,4141.025879,4121.538574,4122.563965,4129.230957,4142.051270,4130.769043,4109.743652,4125.641113,4166.153809,4093.333252,4198.461426,870.000000,4.000000,,,,0.000000,4.000000,4.000000,4.000000,4.000000,4.000000,4.000000,4.000000,4.000000,4.000000,4.000000,4.000000,4.000000,4.000000,4.000000,100.000000
1602005459.508563,119.000000,0.000000,4243.589844,4138.461426,4153.846191,4141.025879,4125.128418,4126.666504,4138.461426,4135.897461,4128.717773,4110.256348,4129.230957,4164.615234,4096.410156,4199.487305,842.000000,4.000000,,,,0.000000,4.000000,4.000000,4.000000,4.000000,4.000000,4.000000,4.000000,4.000000,4.000000,4.000000,4.000000,4.000000,4.000000,4.000000,100.000000
1602005459.516345,120.000000,0.000000,4224.102539,4125.641113,4140.512695,4136.922852,4117.948730,4127.692383,4134.871582,4125.128418,4113.846191,4124.615234,4121.025879,4153.333496,4085.128174,4180.512695,784.000000,4.000000,,,,0.000000,4.000000,4.000000,4.000000,4.000000,4.000000,4.000000,4.000000,4.000000,4.000000,4.000000,4.000000,4.000000,4.000000,4.000000,100.000000
1602005459.524228,121.000000,0.000000,4202.563965,4118.461426,4128.205078,4130.769043,4118.461426,4129.743652,4129.743652,4120.000000,4108.205078,4120.000000,4108.205078,4138.461426,4075.897461,4162.563965,773.000000,4.000000,,,,0.000000,4.000000,4.000000,4.000000,4.000000,4.000000,4.000000,4.000000,4.000000,4.000000,4.000000,4.000000,4.000000,4.000000,4.000000,100.000000
1602005459.532111,122.000000,0.000000,4194.871582,4121.538574,4125.641113,4125.128418,4122.563965,4127.179688,4122.563965,4115.897461,4111.794922,4102.563965,4105.128418,4133.846191,4073.333252,4163.589844,870.000000,4.000000,,,,0.000000,4.000000,4.000000,4.000000,4.000000,4.000000,4.000000,4.000000,4.000000,4.000000,4.000000,4.000000,4.000000,4.000000,4.000000,100.000000
1602005459.539993,123.000000,0.000000,4200.512695,4123.077148,4130.256348,4128.717773,4123.077148,4122.563965,4112.307617,4109.230957,4108.205078,4108.205078,4105.128418,4136.922852,4074.358887,4168.205078,842.000000,4.000000,,,,0.000000,4.000000,4.000000,4.000000,4.000000,4.000000,4.000000,4.000000,4.000000,4.000000,4.000000,4.000000,4.000000,4.000000,4.000000,100.000000
1602005459.547876,124.000000,0.000000,4202.051270,4121.538574,4135.897461,4135.897461,4120.000000,4122.051270,4110.256348,4112.307617,4101.538574,4093.333252,4108.205078,4140.000000,4078.461426,4163.589844,784.000000,4.000000,,,,0.000000,4.000000,4.000000,4.000000,4.000000,4.000000,4.000000,4.000000,4.000000,4.000000,4.000000,4.000000,4.000000,4.000000,4.000000,100.000000
1602005459.555758,125.000000,0.000000,4201.538574,4125.128418,4146.153809,4138.974121,4120.512695,4131.282227,4119.487305,4129.230957,4107.692383,4071.281982,4118.974121,4153.333496,4087.692383,4166.666504,773.000000,4.000000,,,,0.000000,4.000000,4.000000,4.000000,4.000000,4.000000,4.000000,4.000000,4.000000,4.000000,4.000000,4.000000,4.000000,4.000000,4.000000,100.000000
1602005459.563641,126.000000,0.000000,4207.179688,4132.307617,4156.410156,4138.974121,4123.077148,4135.384766,4124.102539,4142.563965,4127.692383,4110.256348,4130.256348,4170.769043,4096.922852,4181.538574,870.000000,4.000000,,,,0.000000,4.000000,4.000000,4.000000,4.000000,4.000000,4.000000,4.000000,4.000000,4.000000,4.000000,4.000000,4.000000,4.000000,4.000000,100.000000
1602005459.571523,127.000000,0.000000,4207.692383,4129.743652,4151.794922,4133.846191,4118.974121,4128.205078,4123.589844,4143.589844,4136.922852,4152.820313,4130.256348,4173.333496,4094.871826,4183.589844,842.000000,4.000000,,,,0.000000,4.000000,4.000000,4.000000,4.000000,4.000000,4.000000,4.000000,4.000000,4.000000,4.000000,4.000000,4.000000,4.000000,4.000000,100.000000
1602005459.579406,128.000000,0.000000,4195.384766,4121.538574,4140.512695,4122.563965,4114.358887,4127.692383,4131.282227,4141.538574,4126.666504,4132.820313,4124.615234,4165.128418,4091.281982,4168.717773,784.000000,4.000000,,,,0.000000,4.000000,4.000000,4.000000,4.000000,4.000000,4.000000,4.000000,4.000000,4.000000,4.000000,4.000000,4.000000,4.000000,4.000000,100.000000
1602005459.587388,0.000000,0.000000,4183.077148,4121.538574,4136.410156,4120.000000,4118.974121,4137.436035,4141.025879,4140.512695,4121.025879,4109.230957,4124.102539,4157.436035,4091.281982,4157.948730,807.000000,4.000000,,,,0.000000,4.000000,4.000000,4.000000,4.000000,4.000000,4.000000,4.000000,4.000000,4.000000,4.000000,4.000000,4.000000,4.000000,4.000000,100.000000
1602005459.595271,1.000000,0.000000,4172.820313,4120.512695,4125.128418,4123.589844,4123.589844,4138.461426,4140.512695,4132.820313,4116.922852,4111.794922,4116.922852,4144.102539,4081.538574,4150.256348,799.000000,4.000000,,,,0.000000,4.000000,4.000000,4.000000,4.000000,4.000000,4.000000,4.000000,4.000000,4.000000,4.000000,4.000000,4.000000,4.000000,4.000000,100.000000
1602005459.603153,2.000000,0.000000,4156.410156,4110.256348,4109.230957,4116.922852,4118.974121,4134.871582,4136.922852,4121.025879,4106.153809,4095.384521,4108.717773,4131.794922,4075.384521,4138.974121,845.000000,4.000000,,,,0.000000,4.000000,4.000000,4.000000,4.000000,4.000000,4.000000,4.000000,4.000000,4.000000,4.000000,4.000000,4.000000,4.000000,4.000000,100.000000
1602005459.611035,3.000000,0.000000,4148.205078,4109.743652,4117.436035,4111.794922,4119.487305,4138.974121,4134.871582,4120.000000,4107.692383,4073.333252,4112.820313,4135.897461,4082.051270,4138.974121,871.000000,4.000000,,,,0.000000,4.000000,4.000000,4.000000,4.000000,4.000000,4.000000,4.000000,4.000000,4.000000,4.000000,4.000000,4.000000,4.000000,4.000000,100.000000
1602005459.618918,4.000000,0.000000,4167.692383,4125.128418,4137.948730,4118.974121,4130.256348,4137.948730,4126.153809,4124.615234,4118.461426,4094.871826,4122.563965,4152.307617,4093.333252,4155.384766,807.000000,4.000000,,,,0.000000,4.000000,4.000000,4.000000,4.000000,4.000000,4.000000,4.000000,4.000000,4.000000,4.000000,4.000000,4.000000,4.000000,4.000000,100.000000
1602005459.626800,5.000000,0.000000,4197.948730,4141.025879,4150.256348,4132.307617,4137.948730,4135.384766,4116.922852,4124.102539,4125.641113,4137.948730,4133.846191,4165.641113,4111.282227,4178.461426,818.000000,4.000000,,,,0.000000,4.000000,4.000000,4.000000,4.000000,4.000000,4.000000,4.000000,4.000000,4.000000,4.000000,4.000000,4.000000,4.000000,4.000000,100.000000
1602005459.634682,6.000000,0.000000,4208.717773,4145.128418,4156.410156,4140.512695,4137.436035,4138.974121,4122.563965,4123.589844,4132.307617,4145.641113,4143.077148,4169.230957,4125.128418,4194.871582,787.000000,4.000000,,,,0.000000,4.000000,4.000000,4.000000,4.000000,4.000000,4.000000,4.000000,4.000000,4.000000,4.000000,4.000000,4.000000,4.000000,4.000000,100.000000
1602005459.642565,7.000000,0.000000,4198.974121,4136.410156,4149.743652,4134.358887,4128.205078,4133.333496,4129.230957,4122.051270,4125.128418,4123.589844,4132.307617,4158.461426,4110.769043,4185.641113,696.000000,4.000000,,,,0.000000,4.000000,4.000000,4.000000,4.000000,4.000000,4.000000,4.000000,4.000000,4.000000,4.000000,4.000000,4.000000,4.000000,4.000000,100.000000
1602005459.650347,8.000000,0.000000,4187.179688,4123.589844,4139.487305,4122.051270,4114.358887,4122.051270,4123.077148,4117.436035,4112.307617,4110.769043,4111.794922,4144.615234,4086.666748,4164.102539,792.000000,4.000000,,,,0.000000,4.000000,4.000000,4.000000,4.000000,4.000000,4.000000,4.000000,4.000000,4.000000,4.000000,4.000000,4.000000,4.000000,4.000000,100.000000
1602005459.658230,9.000000,0.000000,4182.051270,4123.077148,4145.641113,4122.563965,4110.769043,4119.487305,4123.589844,4118.461426,4117.948730,4100.000000,4114.871582,4146.666504,4091.794922,4160.512695,843.000000,4.000000,,,,0.000000,4.000000,4.000000,4.000000,4.000000,4.000000,4.000000,4.000000,4.000000,4.000000,4.000000,4.000000,4.000000,4.000000,4.000000,100.000000
1602005459.666112,10.000000,0.000000,4185.641113,4133.333496,4152.820313,4133.846191,4121.538574,4124.102539,4135.897461,4127.692383,4127.692383,4098.461426,4127.179688,4156.410156,4108.717773,4164.102539,870.000000,4.000000,,,,0.000000,4.000000,4.000000,4.000000,4.000000,4.000000,4.000000,4.000000,4.000000,4.000000,4.000000,4.000000,4.000000,4.000000,4.000000,100.000000
1602005459.673994,11.000000,0.000000,4184.102539,4135.384766,4143.077148,4135.384766,4127.179688,4131.794922,4140.512695,4136.410156,4130.769043,4128.205078,4127.179688,4156.922852,4108.717773,4157.948730,842.000000,4.000000,,,,0.000000,4.000000,4.000000,4.000000,4.000000,4.000000,4.000000,4.000000,4.000000,4.000000,4.000000,4.000000,4.000000,4.000000,4.000000,100.000000
1602005459.681877,12.000000,0.000000,4168.717773,4126.153809,4135.384766,4126.666504,4125.128418,4134.871582,4137.436035,4139.487305,4137.948730,4150.769043,4126.666504,4149.230957,4101.538574,4150.256348,784.000000,4.000000,,,,0.000000,4.000000,4.000000,4.000000,4.000000,4.000000,4.000000,4.000000,4.000000,4.000000,4.000000,4.000000,4.000000,4.000000,4.000000,100.000000
1602005459.689759,13.000000,0.000000,4158.461426,4123.077148,4139.487305,4122.563965,4127.692383,4130.256348,4136.922852,4137.948730,4140.000000,4138.974121,4127.179688,4143.589844,4102.051270,4151.282227,773.000000,4.000000,,,,0.000000,4.000000,4.000000,4.000000,4.000000,4.000000,4.000000,4.000000,4.000000,4.000000,4.000000,4.000000,4.000000,4.000000,4.000000,100.000000
1602005459.697641,14.000000,0.000000,4163.077148,4124.615234,4139.487305,4124.615234,4128.717773,4128.717773,4134.358887,4137.436035,4137.948730,4130.769043,4123.077148,4142.563965,4108.205078,4155.384766,870.000000,4.000000,,,,0.000000,4.000000,4.000000,4.000000,4.000000,4.000000,4.000000,4.000000,4.000000,4.000000,4.000000,4.000000,4.000000,4.000000,4.000000,100.000000
1602005459.705524,15.000000,0.000000,4167.692383,4124.102539,4134.358887,4124.102539,4124.615234,4131.794922,4126.666504,4137.436035,4138.974121,4137.948730,4121.025879,4133.333496,4104.615234,4150.769043,842.000000,4.000000,,,,0.000000,4.000000,4.000000,4.000000,4.000000,4.000000,4.000000,4.000000,4.000000,4.000000,4.000000,4.000000,4.000000,4.000000,4.000000,100.000000
1602005459.713506,16.000000,0.000000,4164.615234,4130.769043,4133.846191,4123.589844,4122.563965,4128.205078,4122.051270,4131.794922,4131.794922,4121.538574,4121.538574,4124.102539,4101.025879,4141.025879,0.000000,4.000000,,,,0.000000,4.000000,4.000000,4.000000,4.000000,4.000000,4.000000,4.000000,4.000000,4.000000,4.000000,4.000000,4.000000,4.000000,4.000000,100.000000
1602005459.721389,17.000000,0.000000,4160.512695,4138.461426,4137.948730,4133.333496,4123.077148,4122.563965,4120.000000,4124.102539,4121.025879,4093.333252,4121.025879,4130.769043,4104.615234,4138.461426,0.000000,4.000000,,,,0.000000,4.000000,4.000000,4.000000,4.000000,4.000000,4.000000,4.000000,4.000000,4.000000,4.000000,4.000000,4.000000,4.000000,4.000000,100.000000
1602005459.729271,18.000000,0.000000,4158.461426,4132.820313,4141.025879,4139.487305,4122.563965,4119.487305,4123.077148,4123.077148,4118.461426,4106.153809,4120.512695,4140.000000,4107.179688,4142.563965,0.000000,4.000000,,,,0.000000,4.000000,4.000000,4.000000,4.000000,4.000000,4.000000,4.000000,4.000000,4.000000,4.000000,4.000000,4.000000,4.000000,4.000000,100.000000
1602005459.737154,19.000000,0.000000,4157.948730,4126.153809,4139.487305,4134.871582,4122.051270,4119.487305,4131.282227,4132.820313,4128.717773,4142.563965,4120.000000,4138.461426,4105.128418,4139.487305,0.000000,4.000000,,,,0.000000,4.000000,4.000000,4.000000,4.000000,4.000000,4.000000,4.000000,4.000000,4.000000,4.000000,4.000000,4.000000,4.000000,4.000000,100.000000
1602005459.745037,20.000000,0.000000,4156.922852,4129.743652,4139.487305,4131.794922,4123.077148,4125.128418,4142.563965,4141.538574,4138.974121,4145.641113,4128.717773,4138.974121,4108.717773,4137.948730,0.000000,4.000000,,,,0.000000,4.000000,4.000000,4.000000,4.000000,4.000000,4.000000,4.000000,4.000000,4.000000,4.000000,4.000000,4.000000,4.000000,4.000000,100.000000
1602005459.752919,21.000000,0.000000,4154.871582,4127.692383,4140.000000,4130.256348,4122.563965,4126.666504,4148.717773,4143.589844,4137.948730,4134.871582,4137.436035,4144.102539,4114.358887,4148.205078,0.000000,4.000000,,,,0.000000,4.000000,4.000000,4.000000,4.000000,4.000000,4.000000,4.000000,4.000000,4.000000,4.000000,4.000000,4.000000,4.000000,4.000000,100.000000
1602005459.760802,22.000000,0.000000,4152.820313,4121.538574,4137.436035,4125.128418,4122.563965,4117.948730,4144.102539,4143.077148,4136.922852,4131.794922,4132.820313,4144.615234,4112.820313,4156.410156,0.000000,4.000000,,,,0.000000,4.000000,4.000000,4.000000,4.000000,4.000000,4.000000,4.000000,4.000000,4.000000,4.000000,4.000000,4.000000,4.000000,4.000000,100.000000
1602005459.768684,23.000000,0.000000,4154.358887,4129.743652,4137.948730,4126.666504,4125.641113,4123.077148,4139.487305,4140.512695,4139.487305,4112.307617,4126.666504,4143.589844,4111.282227,4155.897461,0.000000,4.000000,,,,0.000000,4.000000,4.000000,4.000000,4.000000,4.000000,4.000000,4.000000,4.000000,4.000000,4.000000,4.000000,4.000000,4.000000,4.000000,100.000000
1602005459.776567,24.000000,0.000000,4150.769043,4137.436035,4138.974121,4129.743652,4128.717773,4134.871582,4140.512695,4136.922852,4132.307617,4103.077148,4123.077148,4141.025879,4107.692383,4150.769043,0.000000,4.000000,,,,0.000000,4.000000,4.000000,4.000000,4.000000,4.000000,4.000000,4.000000,4.000000,4.000000,4.000000,4.000000,4.000000,4.000000,4.000000,100.000000
1602005459.784450,25.000000,0.000000,4140.512695,4130.256348,4135.897461,4124.102539,4125.128418,4129.743652,4138.974121,4134.358887,4123.589844,4130.256348,4116.410156,4130.769043,4101.538574,4142.563965,0.000000,4.000000,,,,0.000000,4.000000,4.000000,4.000000,4.000000,4.000000,4.000000,4.000000,4.000000,4.000000,4.000000,4.000000,4.000000,4.000000,4.000000,100.000000
1602005459.792232,26.000000,0.000000,4134.871582,4123.077148,4133.333496,4121.025879,4121.538574,4124.102539,4134.871582,4136.410156,4130.769043,4141.025879,4116.922852,4122.563965,4100.000000,4134.871582,0.000000,4.000000,,,,0.000000,4.000000,4.000000,4.000000,4.000000,4.000000,4.000000,4.000000,4.000000,4.000000,4.000000,4.000000,4.000000,4.000000,4.000000,100.000000
1602005459.800114,27.000000,0.000000,4135.897461,4127.179688,4135.384766,4125.641113,4124.615234,4132.307617,4138.974121,4137.948730,4139.487305,4131.282227,4125.128418,4127.692383,4106.153809,4134.358887,0.000000,4.000000,,,,0.000000,4.000000,4.000000,4.000000,4.000000,4.000000,4.000000,4.000000,4.000000,4.000000,4.000000,4.000000,4.000000,4.000000,4.000000,100.000000
1602005459.807996,28.000000,0.000000,4136.922852,4133.846191,4139.487305,4128.717773,4125.641113,4132.307617,4142.051270,4138.461426,4140.000000,4138.461426,4130.769043,4138.461426,4115.384766,4137.948730,0.000000,4.000000,,,,0.000000,4.000000,4.000000,4.000000,4.000000,4.000000,4.000000,4.000000,4.000000,4.000000,4.000000,4.000000,4.000000,4.000000,4.000000,100.000000
1602005459.815878,29.000000,0.000000,4139.487305,4133.333496,4143.589844,4128.205078,4120.512695,4121.025879,4137.436035,4144.615234,4141.025879,4131.282227,4137.436035,4145.128418,4121.025879,4143.077148,0.000000,4.000000,,,,0.000000,4.000000,4.000000,4.000000,4.000000,4.000000,4.000000,4.000000,4.000000,4.000000,4.000000,4.000000,4.000000,4.000000,4.000000,100.000000
1602005459.823760,30.000000,0.000000,4150.256348,4135.384766,4150.256348,4132.307617,4120.512695,4122.051270,4144.102539,4153.846191,4147.179688,4112.307617,4149.743652,4157.948730,4131.282227,4157.948730,0.000000,4.000000,,,,0.000000,4.000000,4.000000,4.000000,4.000000,4.000000,4.000000,4.000000,4.000000,4.000000,4.000000,4.000000,4.000000,4.000000,4.000000,100.000000
1602005459.831642,31.000000,0.000000,4157.436035,4143.077148,4158.461426,4140.000000,4128.205078,4126.153809,4152.307617,4153.846191,4153.846191,4136.922852,4157.436035,4172.307617,4145.128418,4174.871582,0.000000,4.000000,,,,0.000000,4.000000,4.000000,4.000000,4.000000,4.000000,4.000000,4.000000,4.000000,4.000000,4.000000,4.000000,4.000000,4.000000,4.000000,100.000000
1602005459.839525,32.000000,0.000000,4157.436035,4144.615234,4161.025879,4142.051270,4127.179688,4121.025879,4144.102539,4146.666504,4148.717773,4163.077148,4152.820313,4170.256348,4144.102539,4173.846191,0.000000,4.000000,,,,0.000000,4.000000,4.000000,4.000000,4.000000,4.000000,4.000000,4.000000,4.000000,4.000000,4.000000,4.000000,4.000000,4.000000,4.000000,100.000000
1602005459.847507,33.000000,0.000000,4152.307617,4130.769043,4158.974121,4133.333496,4120.512695,4119.487305,4133.333496,4142.051270,4136.410156,4141.025879,4138.974121,4156.922852,4129.230957,4160.512695,0.000000,4.000000,,,,0.000000,4.000000,4.000000,4.000000,4.000000,4.000000,4.000000,4.000000,4.000000,4.000000,4.000000,4.000000,4.000000,4.000000,4.000000,100.000000
1602005459.855389,34.000000,0.000000,4144.102539,4118.974121,4153.846191,4124.615234,4118.974121,4120.512695,4130.256348,4133.333496,4133.333496,4125.128418,4127.692383,4143.077148,4115.897461,4146.666504,0.000000,4.000000,,,,0.000000,4.000000,4.000000,4.000000,4.000000,4.000000,4.000000,4.000000,4.000000,4.000000,4.000000,4.000000,4.000000,4.000000,4.000000,100.000000
1602005459.863271,35.000000,0.000000,4132.820313,4122.051270,4146.666504,4124.615234,4121.025879,4121.538574,4127.179688,4123.077148,4131.282227,4125.128418,4122.051270,4130.769043,4110.256348,4138.461426,0.000000,4.000000,,,,0.000000,4.000000,4.000000,4.000000,4.000000,4.000000,4.000000,4.000000,4.000000,4.000000,4.000000,4.000000,4.000000,4.000000,4.000000,100.000000
1602005459.871153,36.000000,0.000000,4125.128418,4124.102539,4138.974121,4128.205078,4122.563965,4124.615234,4122.051270,4121.538574,4125.128418,4096.922852,4122.563965,4129.230957,4107.179688,4140.000000,0.000000,4.000000,,,,0.000000,4.000000,4.000000,4.000000,4.000000,4.000000,4.000000,4.000000,4.000000,4.000000,4.000000,4.000000,4.000000,4.000000,4.000000,100.000000
1602005459.879035,37.000000,0.000000,4128.205078,4122.563965,4136.410156,4130.256348,4122.051270,4128.717773,4124.102539,4122.051270,4127.692383,4092.820557,4124.102539,4133.333496,4108.717773,4144.102539,0.000000,4.000000,,,,0.000000,4.000000,4.000000,4.000000,4.000000,4.000000,4.000000,4.000000,4.000000,4.000000,4.000000,4.000000,4.000000,4.000000,4.000000,100.000000
1602005459.886917,38.000000,0.000000,4132.820313,4125.128418,4145.641113,4133.846191,4122.051270,4134.871582,4132.307617,4124.102539,4135.384766,4132.820313,4120.512695,4134.871582,4112.307617,4142.563965,0.000000,4.000000,,,,0.000000,4.000000,4.000000,4.000000,4.000000,4.000000,4.000000,4.000000,4.000000,4.000000,4.000000,4.000000,4.000000,4.000000,4.000000,100.000000
1602005459.894899,39.000000,0.000000,4145.128418,4137.436035,4156.410156,4142.051270,4126.666504,4135.384766,4136.922852,4133.333496,4138.974121,4145.641113,4126.666504,4140.000000,4123.589844,4152.307617,0.000000,4.000000,,,,0.000000,4.000000,4.000000,4.000000,4.000000,4.000000,4.000000,4.000000,4.000000,4.000000,4.000000,4.000000,4.000000,4.000000,4.000000,100.000000
1602005459.902781,40.000000,0.000000,4154.358887,4141.538574,4158.461426,4145.128418,4130.256348,4125.128418,4136.922852,4140.512695,4137.436035,4134.871582,4134.358887,4144.615234,4125.641113,4155.897461,0.000000,4.000000,,,,0.000000,4.000000,4.000000,4.000000,4.000000,4.000000,4.000000,4.000000,4.000000,4.000000,4.000000,4.000000,4.000000,4.000000,4.000000,100.000000
1602005459.910663,41.000000,0.000000,4137.436035,4126.153809,4155.384766,4141.025879,4125.641113,4118.974121,4134.871582,4135.384766,4135.384766,4136.410156,4124.102539,4138.461426,4104.615234,4128.717773,0.000000,4.000000,,,,0.000000,4.000000,4.000000,4.000000,4.000000,4.000000,4.000000,4.000000,4.000000,4.000000,4.000000,4.000000,4.000000,4.000000,4.000000,100.000000
1602005459.918546,42.000000,0.000000,4121.538574,4119.487305,4150.256348,4135.897461,4122.563965,4121.538574,4130.256348,4127.692383,4133.846191,4117.436035,4115.384766,4135.384766,4099.487305,4121.538574,0.000000,4.000000,,,,0.000000,4.000000,4.000000,4.000000,4.000000,4.000000,4.000000,4.000000,4.000000,4.000000,4.000000,4.000000,4.000000,4.000000,4.000000,100.000000
1602005459.926428,43.000000,0.000000,4121.538574,4123.589844,4141.025879,4131.282227,4126.666504,4122.563965,4127.692383,4125.128418,4135.897461,4100.512695,4129.230957,4138.974121,4125.128418,4141.538574,0.000000,4.000000,,,,0.000000,4.000000,4.000000,4.000000,4.000000,4.000000,4.000000,4.000000,4.000000,4.000000,4.000000,4.000000,4.000000,4.000000,4.000000,100.000000
1602005459.934310,44.000000,0.000000,4109.230957,4116.410156,4130.769043,4124.102539,4131.794922,4127.179688,4134.358887,4129.743652,4138.974121,4133.333496,4138.461426,4141.538574,4141.538574,4134.871582,0.000000,4.000000,,,,0.000000,4.000000,4.000000,4.000000,4.000000,4.000000,4.000000,4.000000,4.000000,4.000000,4.000000,4.000000,4.000000,4.000000,4.000000,100.000000
1602005459.942192,45.000000,0.000000,4086.666748,4109.743652,4125.641113,4120.512695,4135.384766,4138.461426,4138.461426,4137.436035,4140.512695,4158.461426,4131.282227,4139.487305,4139.487305,4118.974121,0.000000,4.000000,,,,0.000000,4.000000,4.000000,4.000000,4.000000,4.000000,4.000000,4.000000,4.000000,4.000000,4.000000,4.000000,4.000000,4.000000,4.000000,100.000000
1602005459.949974,46.000000,0.000000,4075.384521,4114.871582,4123.077148,4123.077148,4135.897461,4143.077148,4135.384766,4135.384766,4140.000000,4140.512695,4128.205078,4131.282227,4141.025879,4121.025879,0.000000,4.000000,,,,0.000000,4.000000,4.000000,4.000000,4.000000,4.000000,4.000000,4.000000,4.000000,4.000000,4.000000,4.000000,4.000000,4.000000,4.000000,100.000000
1602005459.957856,47.000000,0.000000,4059.487061,4107.692383,4120.000000,4116.410156,4128.205078,4138.974121,4133.333496,4124.615234,4131.794922,4127.692383,4129.230957,4125.128418,4139.487305,4112.820313,0.000000,4.000000,,,,0.000000,4.000000,4.000000,4.000000,4.000000,4.000000,4.000000,4.000000,4.000000,4.000000,4.000000,4.000000,4.000000,4.000000,4.000000,100.000000
1602005459.965738,48.000000,0.000000,4045.641113,4091.281982,4113.333496,4105.128418,4121.538574,4131.794922,4135.384766,4120.000000,4118.974121,4113.333496,4122.051270,4124.615234,4128.205078,4101.538574,0.000000,4.000000,,,,0.000000,4.000000,4.000000,4.000000,4.000000,4.000000,4.000000,4.000000,4.000000,4.000000,4.000000,4.000000,4.000000,4.000000,4.000000,100.000000
1602005459.973620,49.000000,0.000000,4052.820557,4090.256348,4109.743652,4107.179688,4121.025879,4125.641113,4136.922852,4122.563965,4117.948730,4096.410156,4118.461426,4123.077148,4127.179688,4106.153809,0.000000,4.000000,,,,0.000000,4.000000,4.000000,4.000000,4.000000,4.000000,4.000000,4.000000,4.000000,4.000000,4.000000,4.000000,4.000000,4.000000,4.000000,100.000000
1602005459.981501,50.000000,0.000000,4061.538574,4095.384521,4117.436035,4112.307617,4123.589844,4121.025879,4132.820313,4125.128418,4132.307617,4125.128418,4125.128418,4126.666504,4134.871582,4109.743652,0.000000,4.000000,,,,0.000000,4.000000,4.000000,4.000000,4.000000,4.000000,4.000000,4.000000,4.000000,4.000000,4.000000,4.000000,4.000000,4.000000,4.000000,100.000000
1602005459.989484,51.000000,0.000000,4061.025635,4098.461426,4124.615234,4111.794922,4129.230957,4120.000000,4128.205078,4127.179688,4141.538574,4163.077148,4125.641113,4136.922852,4138.461426,4107.692383,0.000000,4.000000,,,,0.000000,4.000000,4.000000,4.000000,4.000000,4.000000,4.000000,4.000000,4.000000,4.000000,4.000000,4.000000,4.000000,4.000000,4.000000,100.000000
1602005459.997366,52.000000,0.000000,4060.000000,4102.563965,4123.589844,4115.897461,4131.794922,4123.077148,4131.794922,4126.153809,4137.436035,4150.769043,4126.153809,4138.974121,4135.897461,4107.179688,0.000000,4.000000,,,,0.000000,4.000000,4.000000,4.000000,4.000000,4.000000,4.000000,4.000000,4.000000,4.000000,4.000000,4.000000,4.000000,4.000000,4.000000,100.000000
1602005460.005248,53.000000,0.000000,4064.102539,4104.102539,4122.563965,4122.563965,4132.307617,4127.179688,4136.410156,4128.205078,4134.358887,4127.692383,4136.922852,4135.384766,4135.897461,4107.692383,0.000000,4.000000,,,,0.000000,4.000000,4.000000,4.000000,4.000000,4.000000,4.000000,4.000000,4.000000,4.000000,4.000000,4.000000,4.000000,4.000000,4.000000,100.000000
1602005460.013131,54.000000,0.000000,4067.692383,4106.666504,4123.589844,4121.025879,4134.358887,4126.666504,4134.871582,4134.871582,4138.974121,4136.922852,4137.948730,4135.897461,4139.487305,4115.384766,0.000000,4.000000,,,,0.000000,4.000000,4.000000,4.000000,4.000000,4.000000,4.000000,4.000000,4.000000,4.000000,4.000000,4.000000,4.000000,4.000000,4.000000,100.000000
1602005460.021013,55.000000,0.000000,4068.718018,4109.230957,4123.077148,4120.512695,4137.948730,4129.230957,4135.897461,4137.948730,4143.077148,4143.077148,4124.615234,4137.948730,4138.974121,4115.384766,0.000000,4.000000,,,,0.000000,4.000000,4.000000,4.000000,4.000000,4.000000,4.000000,4.000000,4.000000,4.000000,4.000000,4.000000,4.000000,4.000000,4.000000,100.000000
1602005460.028895,56.000000,0.000000,4069.230713,4106.666504,4121.538574,4123.589844,4138.974121,4134.358887,4136.922852,4138.461426,4138.974121,4128.205078,4125.128418,4141.538574,4140.000000,4107.179688,0.000000,4.000000,,,,0.000000,4.000000,4.000000,4.000000,4.000000,4.000000,4.000000,4.000000,4.000000,4.000000,4.000000,4.000000,4.000000,4.000000,4.000000,100.000000
1602005460.036778,57.000000,0.000000,4066.666748,4111.794922,4122.563965,4124.615234,4141.025879,4137.436035,4139.487305,4142.051270,4141.025879,4125.641113,4141.025879,4146.666504,4142.051270,4109.230957,0.000000,4.000000,,,,0.000000,4.000000,4.000000,4.000000,4.000000,4.000000,4.000000,4.000000,4.000000,4.000000,4.000000,4.000000,4.000000,4.000000,4.000000,100.000000
1602005460.044660,58.000000,0.000000,4068.718018,4122.563965,4123.077148,4125.641113,4147.179688,4140.000000,4149.743652,4145.128418,4149.743652,4144.615234,4140.000000,4145.128418,4140.512695,4112.820313,0.000000,4.000000,,,,0.000000,4.000000,4.000000,4.000000,4.000000,4.000000,4.000000,4.000000,4.000000,4.000000,4.000000,4.000000,4.000000,4.000000,4.000000,100.000000
1602005460.052442,59.000000,0.000000,4073.846191,4116.410156,4117.436035,4125.641113,4150.769043,4142.563965,4149.743652,4143.589844,4142.563965,4152.820313,4126.666504,4140.512695,4137.436035,4107.692383,0.000000,4.000000,,,,0.000000,4.000000,4.000000,4.000000,4.000000,4.000000,4.000000,4.000000,4.000000,4.000000,4.000000,4.000000,4.000000,4.000000,4.000000,100.000000
1602005460.060324,60.000000,0.000000,4071.794922,4110.769043,4109.230957,4122.563965,4152.307617,4147.179688,4138.974121,4136.922852,4124.615234,4132.307617,4121.025879,4139.487305,4135.384766,4104.615234,0.000000,4.000000,,,,0.000000,4.000000,4.000000,4.000000,4.000000,4.000000,4.000000,4.000000,4.000000,4.000000,4.000000,4.000000,4.000000,4.000000,4.000000,100.000000
1602005460.068206,61.000000,0.000000,4066.153809,4118.974121,4108.205078,4122.051270,4151.794922,4153.333496,4136.410156,4130.769043,4118.461426,4120.000000,4123.589844,4138.461426,4134.871582,4107.179688,0.000000,4.000000,,,,0.000000,4.000000,4.000000,4.000000,4.000000,4.000000,4.000000,4.000000,4.000000,4.000000,4.000000,4.000000,4.000000,4.000000,4.000000,100.000000
1602005460.076088,62.000000,0.000000,4067.179443,4117.948730,4109.230957,4122.563965,4150.769043,4155.897461,4141.538574,4133.846191,4126.153809,4123.589844,4124.102539,4137.436035,4136.410156,4106.153809,0.000000,4.000000,,,,0.000000,4.000000,4.000000,4.000000,4.000000,4.000000,4.000000,4.000000,4.000000,4.000000,4.000000,4.000000,4.000000,4.000000,4.000000,100.000000
1602005460.083970,63.000000,0.000000,4066.666748,4107.692383,4106.666504,4123.077148,4153.333496,4155.384766,4141.538574,4140.000000,4136.922852,4115.897461,4123.077148,4133.846191,4135.384766,4098.461426,0.000000,4.000000,,,,0.000000,4.000000,4.000000,4.000000,4.000000,4.000000,4.000000,4.000000,4.000000,4.000000,4.000000,4.000000,4.000000,4.000000,4.000000,100.000000
1602005460.091852,64.000000,0.000000,4056.410156,4110.256348,4098.974121,4123.589844,4151.282227,4154.358887,4138.461426,4137.948730,4140.000000,4110.256348,4121.025879,4124.102539,4130.769043,4090.769287,807.000000,4.000000,,,,0.000000,4.000000,4.000000,4.000000,4.000000,4.000000,4.000000,4.000000,4.000000,4.000000,4.000000,4.000000,4.000000,4.000000,4.000000,100.000000
1602005460.099634,65.000000,0.000000,4050.769287,4120.512695,4090.256348,4122.051270,4144.102539,4152.820313,4137.948730,4135.384766,4136.922852,4123.589844,4122.051270,4124.102539,4130.769043,4088.718018,799.000000,4.000000,,,,0.000000,4.000000,4.000000,4.000000,4.000000,4.000000,4.000000,4.000000,4.000000,4.000000,4.000000,4.000000,4.000000,4.000000,4.000000,100.000000
1602005460.107516,66.000000,0.000000,4061.025635,4124.615234,4094.358887,4123.589844,4146.153809,4151.794922,4137.436035,4138.974121,4145.641113,4145.641113,4132.820313,4135.897461,4142.563965,4092.307617,847.000000,4.000000,,,,0.000000,4.000000,4.000000,4.000000,4.000000,4.000000,4.000000,4.000000,4.000000,4.000000,4.000000,4.000000,4.000000,4.000000,4.000000,100.000000
1602005460.115398,67.000000,0.000000,4068.718018,4122.051270,4105.128418,4129.743652,4149.743652,4146.666504,4135.897461,4141.538574,4155.897461,4152.820313,4140.512695,4142.051270,4149.743652,4094.358887,871.000000,4.000000,,,,0.000000,4.000000,4.000000,4.000000,4.000000,4.000000,4.000000,4.000000,4.000000,4.000000,4.000000,4.000000,4.000000,4.000000,4.000000,100.000000
1602005460.123280,68.000000,0.000000,4067.692383,4123.589844,4107.692383,4131.282227,4142.563965,4136.410156,4133.846191,4138.461426,4146.666504,4148.205078,4136.922852,4144.102539,4146.666504,4098.974121,807.000000,4.000000,,,,0.000000,4.000000,4.000000,4.000000,4.000000,4.000000,4.000000,4.000000,4.000000,4.000000,4.000000,4.000000,4.000000,4.000000,4.000000,100.000000
1602005460.131162,69.000000,0.000000,4065.641113,4123.077148,4106.666504,4129.743652,4136.922852,4133.333496,4136.922852,4137.948730,4136.922852,4147.179688,4136.922852,4154.358887,4149.230957,4106.153809,818.000000,4.000000,,,,0.000000,4.000000,4.000000,4.000000,4.000000,4.000000,4.000000,4.000000,4.000000,4.000000,4.000000,4.000000,4.000000,4.000000,4.000000,100.000000
1602005460.139044,70.000000,0.000000,4061.025635,4109.743652,4108.205078,4128.205078,4137.948730,4135.897461,4140.512695,4142.051270,4142.051270,4141.025879,4142.563965,4161.025879,4150.256348,4104.102539,783.000000,4.000000,,,,0.000000,4.000000,4.000000,4.000000,4.000000,4.000000,4.000000,4.000000,4.000000,4.000000,4.000000,4.000000,4.000000,4.000000,4.000000,100.000000
1602005460.146827,71.000000,0.000000,4060.512939,4106.666504,4109.230957,4126.666504,4137.436035,4136.922852,4138.974121,4143.589844,4142.563965,4127.692383,4139.487305,4158.974121,4142.051270,4100.512695,696.000000,4.000000,,,,0.000000,4.000000,4.000000,4.000000,4.000000,4.000000,4.000000,4.000000,4.000000,4.000000,4.000000,4.000000,4.000000,4.000000,4.000000,100.000000
1602005460.154709,72.000000,0.000000,4071.281982,4117.436035,4104.615234,4123.589844,4134.871582,4137.948730,4136.410156,4141.025879,4134.358887,4122.563965,4131.282227,4156.410156,4135.897461,4102.051270,792.000000,4.000000,,,,0.000000,4.000000,4.000000,4.000000,4.000000,4.000000,4.000000,4.000000,4.000000,4.000000,4.000000,4.000000,4.000000,4.000000,4.000000,100.000000
1602005460.162591,73.000000,0.000000,4076.410156,4116.922852,4101.025879,4121.025879,4130.769043,4139.487305,4137.436035,4139.487305,4134.871582,4128.717773,4131.282227,4155.897461,4136.410156,4102.051270,843.000000,4.000000,,,,0.000000,4.000000,4.000000,4.000000,4.000000,4.000000,4.000000,4.000000,4.000000,4.000000,4.000000,4.000000,4.000000,4.000000,4.000000,100.000000
1602005460.170473,74.000000,0.000000,4074.871826,4113.846191,4108.717773,4122.563965,4126.153809,4141.538574,4137.948730,4140.512695,4140.000000,4128.205078,4131.794922,4154.358887,4133.846191,4098.974121,870.000000,4.000000,,,,0.000000,4.000000,4.000000,4.000000,4.000000,4.000000,4.000000,4.000000,4.000000,4.000000,4.000000,4.000000,4.000000,4.000000,4.000000,100.000000
1602005460.178355,75.000000,0.000000,4080.512939,4122.051270,4120.000000,4127.179688,4125.128418,4138.974121,4135.384766,4137.948730,4139.487305,4128.717773,4130.256348,4154.358887,4132.307617,4101.025879,841.000000,4.000000,,,,0.000000,4.000000,4.000000,4.000000,4.000000,4.000000,4.000000,4.000000,4.000000,4.000000,4.000000,4.000000,4.000000,4.000000,4.000000,100.000000
1602005460.186237,76.000000,0.000000,4087.179443,4123.077148,4122.563965,4127.692383,4124.102539,4129.743652,4134.871582,4142.051270,4141.538574,4149.230957,4133.846191,4157.948730,4137.948730,4107.692383,784.000000,4.000000,,,,0.000000,4.000000,4.000000,4.000000,4.000000,4.000000,4.000000,4.000000,4.000000,4.000000,4.000000,4.000000,4.000000,4.000000,4.000000,100.000000
1602005460.194219,77.000000,0.000000,4089.743652,4119.487305,4128.717773,4128.205078,4124.615234,4126.153809,4137.436035,4152.307617,4151.794922,4155.897461,4143.077148,4166.153809,4141.025879,4109.743652,772.000000,4.000000,,,,0.000000,4.000000,4.000000,4.000000,4.000000,4.000000,4.000000,4.000000,4.000000,4.000000,4.000000,4.000000,4.000000,4.000000,4.000000,100.000000
1602005460.202101,78.000000,0.000000,4092.307617,4123.589844,4140.000000,4134.358887,4127.179688,4126.153809,4139.487305,4151.282227,4157.436035,4132.820313,4146.153809,4168.717773,4142.051270,4105.641113,870.000000,4.000000,,,,0.000000,4.000000,4.000000,4.000000,4.000000,4.000000,4.000000,4.000000,4.000000,4.000000,4.000000,4.000000,4.000000,4.000000,4.000000,100.000000
1602005460.209983,79.000000,0.000000,4098.461426,4127.179688,4143.077148,4137.948730,4126.153809,4117.436035,4138.974121,4142.051270,4148.717773,4125.641113,4142.051270,4166.666504,4147.692383,4107.179688,841.000000,4.000000,,,,0.000000,4.000000,4.000000,4.000000,4.000000,4.000000,4.000000,4.000000,4.000000,4.000000,4.000000,4.000000,4.000000,4.000000,4.000000,100.000000
1602005460.217866,80.000000,0.000000,4108.205078,4127.692383,4140.512695,4135.384766,4123.589844,4112.307617,4135.897461,4141.025879,4139.487305,4145.641113,4141.538574,4168.205078,4149.230957,4117.948730,784.000000,4.000000,,,,0.000000,4.000000,4.000000,4.000000,4.000000,4.000000,4.000000,4.000000,4.000000,4.000000,4.000000,4.000000,4.000000,4.000000,4.000000,100.000000
1602005460.225748,81.000000,0.000000,4105.128418,4125.641113,4140.512695,4129.743652,4122.051270,4118.974121,4128.205078,4142.563965,4137.948730,4147.179688,4143.589844,4167.179688,4143.077148,4119.487305,772.000000,4.000000,,,,0.000000,4.000000,4.000000,4.000000,4.000000,4.000000,4.000000,4.000000,4.000000,4.000000,4.000000,4.000000,4.000000,4.000000,4.000000,100.000000
1602005460.233630,82.000000,0.000000,4091.281982,4123.589844,4138.461426,4124.102539,4122.051270,4123.589844,4120.000000,4135.897461,4131.794922,4126.153809,4139.487305,4157.436035,4134.871582,4109.743652,870.000000,4.000000,,,,0.000000,4.000000,4.000000,4.000000,4.000000,4.000000,4.000000,4.000000,4.000000,4.000000,4.000000,4.000000,4.000000,4.000000,4.000000,100.000000
1602005460.241411,83.000000,0.000000,4089.743652,4123.077148,4132.307617,4124.102539,4124.102539,4123.077148,4118.461426,4128.205078,4119.487305,4124.615234,4131.794922,4149.743652,4128.717773,4098.974121,841.000000,4.000000,,,,0.000000,4.000000,4.000000,4.000000,4.000000,4.000000,4.000000,4.000000,4.000000,4.000000,4.000000,4.000000,4.000000,4.000000,4.000000,100.000000
1602005460.249293,84.000000,0.000000,4090.769287,4121.538574,4125.128418,4125.641113,4123.589844,4121.025879,4120.512695,4123.077148,4109.230957,4127.179688,4127.179688,4149.230957,4122.563965,4091.281982,784.000000,4.000000,,,,0.000000,4.000000,4.000000,4.000000,4.000000,4.000000,4.000000,4.000000,4.000000,4.000000,4.000000,4.000000,4.000000,4.000000,4.000000,100.000000
1602005460.257175,85.000000,0.000000,4081.538574,4120.000000,4119.487305,4122.563965,4122.051270,4121.538574,4121.025879,4119.487305,4104.102539,4105.641113,4125.128418,4150.256348,4120.512695,4090.256348,772.000000,4.000000,,,,0.000000,4.000000,4.000000,4.000000,4.000000,4.000000,4.000000,4.000000,4.000000,4.000000,4.000000,4.000000,4.000000,4.000000,4.000000,100.000000
1602005460.265156,86.000000,0.000000,4078.461426,4120.512695,4119.487305,4122.051270,4129.230957,4132.307617,4125.128418,4123.077148,4107.692383,4093.333252,4125.128418,4148.717773,4129.743652,4097.436035,870.000000,4.000000,,,,0.000000,4.000000,4.000000,4.000000,4.000000,4.000000,4.000000,4.000000,4.000000,4.000000,4.000000,4.000000,4.000000,4.000000,4.000000,100.000000
1602005460.272938,87.000000,0.000000,4082.564209,4125.641113,4119.487305,4127.692383,4136.410156,4140.512695,4130.256348,4132.820313,4121.025879,4113.333496,4130.256348,4145.641113,4137.948730,4097.948730,841.000000,4.000000,,,,0.000000,4.000000,4.000000,4.000000,4.000000,4.000000,4.000000,4.000000,4.000000,4.000000,4.000000,4.000000,4.000000,4.000000,4.000000,100.000000
1602005460.280821,88.000000,0.000000,4082.051270,4129.230957,4112.820313,4130.769043,4137.948730,4137.436035,4134.871582,4144.615234,4137.436035,4138.461426,4136.922852,4140.512695,4139.487305,4090.256348,784.000000,4.000000,,,,0.000000,4.000000,4.000000,4.000000,4.000000,4.000000,4.000000,4.000000,4.000000,4.000000,4.000000,4.000000,4.000000,4.000000,4.000000,100.000000
1602005460.288703,89.000000,0.000000,4078.974365,4127.692383,4106.153809,4125.641113,4137.948730,4137.948730,4146.153809,4154.871582,4152.820313,4146.153809,4139.487305,4142.051270,4143.589844,4094.871826,772.000000,4.000000,,,,0.000000,4.000000,4.000000,4.000000,4.000000,4.000000,4.000000,4.000000,4.000000,4.000000,4.000000,4.000000,4.000000,4.000000,4.000000,100.000000
1602005460.296585,90.000000,0.000000,4077.948730,4123.077148,4104.615234,4121.025879,4133.846191,4142.051270,4150.769043,4154.358887,4157.948730,4153.333496,4140.000000,4150.256348,4155.897461,4107.179688,870.000000,4.000000,,,,0.000000,4.000000,4.000000,4.000000,4.000000,4.000000,4.000000,4.000000,4.000000,4.000000,4.000000,4.000000,4.000000,4.000000,4.000000,100.000000
1602005460.304468,91.000000,0.000000,4076.923096,4120.512695,4105.641113,4121.025879,4126.666504,4138.974121,4141.025879,4144.615234,4146.153809,4160.512695,4138.974121,4151.282227,4154.871582,4109.230957,841.000000,4.000000,,,,0.000000,4.000000,4.000000,4.000000,4.000000,4.000000,4.000000,4.000000,4.000000,4.000000,4.000000,4.000000,4.000000,4.000000,4.000000,100.000000
1602005460.312350,92.000000,0.000000,4075.384521,4120.512695,4106.153809,4121.025879,4127.692383,4135.384766,4131.282227,4138.461426,4137.436035,4143.589844,4137.436035,4143.589844,4138.974121,4105.128418,784.000000,4.000000,,,,0.000000,4.000000,4.000000,4.000000,4.000000,4.000000,4.000000,4.000000,4.000000,4.000000,4.000000,4.000000,4.000000,4.000000,4.000000,100.000000
1602005460.320232,93.000000,0.000000,4077.948730,4121.538574,4107.179688,4121.538574,4135.897461,4137.436035,4126.153809,4138.461426,4139.487305,4128.205078,4137.948730,4142.051270,4140.000000,4105.128418,772.000000,4.000000,,,,0.000000,4.000000,4.000000,4.000000,4.000000,4.000000,4.000000,4.000000,4.000000,4.000000,4.000000,4.000000,4.000000,4.000000,4.000000,100.000000
1602005460.328115,94.000000,0.000000,4083.076904,4122.563965,4106.153809,4125.128418,4137.948730,4135.897461,4122.563965,4140.000000,4138.461426,4143.589844,4140.000000,4149.743652,4151.282227,4108.717773,870.000000,4.000000,,,,0.000000,4.000000,4.000000,4.000000,4.000000,4.000000,4.000000,4.000000,4.000000,4.000000,4.000000,4.000000,4.000000,4.000000,4.000000,100.000000
1602005460.336097,95.000000,0.000000,4090.769287,4123.589844,4111.282227,4127.179688,4137.436035,4134.871582,4128.717773,4148.205078,4142.563965,4154.358887,4143.077148,4158.974121,4157.948730,4116.410156,841.000000,4.000000,,,,0.000000,4.000000,4.000000,4.000000,4.000000,4.000000,4.000000,4.000000,4.000000,4.000000,4.000000,4.000000,4.000000,4.000000,4.000000,100.000000
1602005460.343979,96.000000,0.000000,4095.384521,4125.128418,4122.051270,4126.666504,4139.487305,4136.410156,4141.025879,4157.436035,4155.897461,4142.563965,4151.794922,4172.307617,4164.615234,4125.128418,784.000000,4.000000,,,,0.000000,4.000000,4.000000,4.000000,4.000000,4.000000,4.000000,4.000000,4.000000,4.000000,4.000000,4.000000,4.000000,4.000000,4.000000,100.000000
1602005460.351862,97.000000,0.000000,4094.358887,4124.615234,4127.179688,4127.179688,4136.922852,4136.410156,4143.077148,4155.384766,4152.307617,4141.538574,4152.820313,4177.948730,4164.615234,4125.641113,772.000000,4.000000,,,,0.000000,4.000000,4.000000,4.000000,4.000000,4.000000,4.000000,4.000000,4.000000,4.000000,4.000000,4.000000,4.000000,4.000000,4.000000,100.000000
1602005460.359744,98.000000,0.000000,4099.487305,4122.563965,4126.153809,4126.666504,4127.692383,4135.897461,4139.487305,4146.666504,4137.436035,4146.666504,4141.025879,4165.641113,4153.846191,4122.051270,870.000000,4.000000,,,,0.000000,4.000000,4.000000,4.000000,4.000000,4.000000,4.000000,4.000000,4.000000,4.000000,4.000000,4.000000,4.000000,4.000000,4.000000,100.000000
1602005460.367626,99.000000,0.000000,4104.102539,4123.589844,4126.153809,4126.153809,4122.563965,4138.974121,4140.512695,4140.512695,4134.358887,4125.641113,4133.846191,4154.871582,4145.641113,4122.563965,841.000000,4.000000,,,,0.000000,4.000000,4.000000,4.000000,4.000000,4.000000,4.000000,4.000000,4.000000,4.000000,4.000000,4.000000,4.000000,4.000000,4.000000,100.000000
1602005460.375509,100.000000,0.000000,4101.025879,4123.077148,4125.641113,4128.205078,4126.666504,4145.128418,4140.512695,4141.538574,4143.589844,4117.948730,4136.410156,4153.846191,4144.102539,4121.025879,784.000000,4.000000,,,,0.000000,4.000000,4.000000,4.000000,4.000000,4.000000,4.000000,4.000000,4.000000,4.000000,4.000000,4.000000,4.000000,4.000000,4.000000,100.000000
1602005460.383391,101.000000,0.000000,4096.922852,4119.487305,4120.000000,4125.641113,4123.589844,4146.666504,4136.922852,4148.717773,4152.307617,4148.205078,4137.436035,4153.333496,4140.000000,4112.820313,772.000000,4.000000,,,,0.000000,4.000000,4.000000,4.000000,4.000000,4.000000,4.000000,4.000000,4.000000,4.000000,4.000000,4.000000,4.000000,4.000000,4.000000,100.000000
1602005460.391274,102.000000,0.000000,4094.358887,4118.461426,4115.384766,4123.077148,4118.974121,4145.128418,4135.384766,4152.307617,4157.436035,4158.461426,4141.538574,4152.307617,4145.128418,4108.717773,870.000000,4.000000,,,,0.000000,4.000000,4.000000,4.000000,4.000000,4.000000,4.000000,4.000000,4.000000,4.000000,4.000000,4.000000,4.000000,4.000000,4.000000,100.000000
1602005460.399256,103.000000,0.000000,4095.384521,4123.589844,4113.333496,4132.307617,4130.256348,4145.641113,4139.487305,4152.820313,4158.974121,4135.384766,4144.615234,4149.230957,4154.871582,4111.282227,841.000000,4.000000,,,,0.000000,4.000000,4.000000,4.000000,4.000000,4.000000,4.000000,4.000000,4.000000,4.000000,4.000000,4.000000,4.000000,4.000000,4.000000,100.000000
1602005460.407138,104.000000,0.000000,4094.358887,4125.128418,4114.358887,4136.922852,4138.461426,4147.692383,4140.512695,4150.256348,4153.846191,4136.410156,4142.051270,4143.077148,4152.820313,4111.282227,784.000000,4.000000,,,,0.000000,4.000000,4.000000,4.000000,4.000000,4.000000,4.000000,4.000000,4.000000,4.000000,4.000000,4.000000,4.000000,4.000000,4.000000,100.000000
1602005460.415020,105.000000,0.000000,4091.281982,4120.512695,4115.897461,4128.205078,4128.205078,4141.025879,4131.282227,4141.538574,4143.077148,4149.230957,4140.512695,4138.974121,4143.589844,4106.153809,772.000000,4.000000,,,,0.000000,4.000000,4.000000,4.000000,4.000000,4.000000,4.000000,4.000000,4.000000,4.000000,4.000000,4.000000,4.000000,4.000000,4.000000,100.000000
1602005460.422902,106.000000,0.000000,4095.384521,4118.974121,4120.512695,4127.692383,4120.000000,4128.205078,4121.538574,4135.384766,4134.871582,4127.179688,4133.846191,4137.436035,4136.922852,4102.563965,870.000000,4.000000,,,,0.000000,4.000000,4.000000,4.000000,4.000000,4.000000,4.000000,4.000000,4.000000,4.000000,4.000000,4.000000,4.000000,4.000000,4.000000,100.000000
1602005460.430784,107.000000,0.000000,4106.153809,4122.563965,4125.128418,4139.487305,4130.256348,4127.692383,4123.077148,4135.897461,4135.384766,4116.410156,4124.615234,4137.436035,4137.436035,4107.179688,841.000000,4.000000,,,,0.000000,4.000000,4.000000,4.000000,4.000000,4.000000,4.000000,4.000000,4.000000,4.000000,4.000000,4.000000,4.000000,4.000000,4.000000,100.000000
1602005460.438666,108.000000,0.000000,4108.205078,4124.615234,4122.051270,4141.538574,4137.948730,4136.922852,4130.256348,4134.871582,4135.384766,4138.974121,4124.615234,4141.538574,4140.512695,4107.692383,784.000000,4.000000,,,,0.000000,4.000000,4.000000,4.000000,4.000000,4.000000,4.000000,4.000000,4.000000,4.000000,4.000000,4.000000,4.000000,4.000000,4.000000,100.000000
1602005460.446448,109.000000,0.000000,4100.512695,4121.538574,4119.487305,4135.897461,4129.743652,4137.948730,4129.230957,4124.615234,4127.692383,4135.384766,4121.025879,4137.948730,4134.871582,4100.000000,772.000000,4.000000,,,,0.000000,4.000000,4.000000,4.000000,4.000000,4.000000,4.000000,4.000000,4.000000,4.000000,4.000000,4.000000,4.000000,4.000000,4.000000,100.000000
1602005460.454329,110.000000,0.000000,4091.281982,4116.410156,4117.948730,4135.384766,4120.512695,4133.333496,4126.153809,4118.461426,4118.974121,4101.538574,4110.256348,4125.641113,4123.077148,4096.410156,870.000000,4.000000,,,,0.000000,4.000000,4.000000,4.000000,4.000000,4.000000,4.000000,4.000000,4.000000,4.000000,4.000000,4.000000,4.000000,4.000000,4.000000,100.000000
1602005460.462210,111.000000,0.000000,4094.358887,4119.487305,4119.487305,4136.922852,4126.153809,4138.974121,4131.282227,4125.641113,4124.615234,4104.615234,4117.948730,4126.666504,4127.179688,4109.230957,841.000000,4.000000,,,,0.000000,4.000000,4.000000,4.000000,4.000000,4.000000,4.000000,4.000000,4.000000,4.000000,4.000000,4.000000,4.000000,4.000000,4.000000,100.000000
1602005460.469992,112.000000,0.000000,4109.743652,4129.743652,4129.743652,4141.025879,4137.436035,4147.179688,4136.410156,4135.384766,4146.666504,4138.461426,4138.461426,4139.487305,4142.563965,4122.563965,784.000000,4.000000,,,,0.000000,4.000000,4.000000,4.000000,4.000000,4.000000,4.000000,4.000000,4.000000,4.000000,4.000000,4.000000,4.000000,4.000000,4.000000,100.000000
1602005460.477874,113.000000,0.000000,4113.333496,4129.743652,4136.922852,4139.487305,4136.922852,4143.077148,4136.410156,4141.538574,4157.436035,4146.153809,4143.077148,4143.077148,4149.743652,4124.102539,772.000000,4.000000,,,,0.000000,4.000000,4.000000,4.000000,4.000000,4.000000,4.000000,4.000000,4.000000,4.000000,4.000000,4.000000,4.000000,4.000000,4.000000,100.000000
1602005460.485755,114.000000,0.000000,4106.153809,4122.563965,4137.436035,4134.871582,4133.846191,4137.948730,4134.871582,4147.179688,4152.307617,4141.025879,4139.487305,4138.974121,4152.307617,4123.589844,870.000000,4.000000,,,,0.000000,4.000000,4.000000,4.000000,4.000000,4.000000,4.000000,4.000000,4.000000,4.000000,4.000000,4.000000,4.000000,4.000000,4.000000,100.000000
1602005460.493738,115.000000,0.000000,4107.179688,4123.589844,4137.948730,4138.974121,4136.922852,4140.000000,4136.410156,4147.179688,4153.846191,4156.410156,4142.051270,4137.948730,4151.794922,4121.025879,841.000000,4.000000,,,,0.000000,4.000000,4.000000,4.000000,4.000000,4.000000,4.000000,4.000000,4.000000,4.000000,4.000000,4.000000,4.000000,4.000000,4.000000,100.000000
1602005460.501620,116.000000,0.000000,4103.077148,4124.615234,4135.384766,4142.563965,4137.436035,4141.538574,4135.897461,4140.512695,4154.358887,4163.077148,4140.512695,4138.974121,4141.538574,4112.307617,784.000000,4.000000,,,,0.000000,4.000000,4.000000,4.000000,4.000000,4.000000,4.000000,4.000000,4.000000,4.000000,4.000000,4.000000,4.000000,4.000000,4.000000,100.000000
