Timestamp,EEG.Counter,EEG.Interpolated,EEG.AF3,EEG.F7,EEG.F3,EEG.FC5,EEG.T7,EEG.P7,EEG.O1,EEG.O2,EEG.P8,EEG.T8,EEG.FC6,EEG.F4,EEG.F8,EEG.AF4,EEG.RawCq,EEG.Battery,MarkerIndex,MarkerType,MarkerValueInt,EEG.MarkerHardware,CQ.AF3,CQ.F7,CQ.F3,CQ.FC5,CQ.T7,CQ.P7,CQ.O1,CQ.O2,CQ.P8,CQ.T8,CQ.FC6,CQ.F4,CQ.F8,CQ.AF4,CQ.Overall
1602005474.111330,37.000000,0.000000,4141.538574,4138.461426,4155.897461,4127.692383,4131.794922,4151.282227,4154.358887,4142.051270,4152.307617,4155.384766,4140.512695,4154.358887,4137.948730,4136.922852,0.000000,4.000000,,,,0.000000,4.000000,4.000000,4.000000,4.000000,4.000000,4.000000,4.000000,4.000000,4.000000,4.000000,4.000000,4.000000,4.000000,4.000000,100.000000
1602005474.119313,38.000000,0.000000,4138.974121,4139.487305,4159.487305,4132.307617,4136.922852,4152.820313,4150.769043,4141.538574,4155.384766,4142.563965,4151.794922,4161.538574,4141.025879,4143.589844,0.000000,4.000000,,,,0.000000,4.000000,4.000000,4.000000,4.000000,4.000000,4.000000,4.000000,4.000000,4.000000,4.000000,4.000000,4.000000,4.000000,4.000000,100.000000
1602005474.127195,39.000000,0.000000,4137.436035,4137.948730,4154.871582,4132.307617,4127.179688,4140.512695,4143.077148,4134.358887,4149.230957,4137.436035,4152.820313,4167.692383,4141.538574,4139.487305,0.000000,4.000000,,,,0.000000,4.000000,4.000000,4.000000,4.000000,4.000000,4.000000,4.000000,4.000000,4.000000,4.000000,4.000000,4.000000,4.000000,4.000000,100.000000
1602005474.135078,40.000000,0.000000,4142.051270,4137.948730,4154.871582,4127.692383,4123.077148,4134.871582,4136.410156,4127.179688,4142.051270,4157.436035,4144.102539,4170.256348,4144.615234,4138.461426,0.000000,4.000000,,,,0.000000,4.000000,4.000000,4.000000,4.000000,4.000000,4.000000,4.000000,4.000000,4.000000,4.000000,4.000000,4.000000,4.000000,4.000000,100.000000
1602005474.142960,41.000000,0.000000,4135.897461,4137.948730,4154.871582,4123.589844,4125.128418,4137.948730,4134.358887,4122.051270,4137.948730,4150.256348,4135.897461,4153.846191,4131.794922,4134.871582,0.000000,4.000000,,,,0.000000,4.000000,4.000000,4.000000,4.000000,4.000000,4.000000,4.000000,4.000000,4.000000,4.000000,4.000000,4.000000,4.000000,4.000000,100.000000
1602005474.150843,42.000000,0.000000,4126.153809,4134.871582,4148.717773,4123.077148,4124.102539,4134.358887,4133.846191,4121.538574,4133.333496,4121.025879,4135.897461,4135.384766,4116.922852,4124.102539,0.000000,4.000000,,,,0.000000,4.000000,4.000000,4.000000,4.000000,4.000000,4.000000,4.000000,4.000000,4.000000,4.000000,4.000000,4.000000,4.000000,4.000000,100.000000
1602005474.158726,43.000000,0.000000,4125.128418,4133.846191,4146.153809,4124.102539,4126.666504,4134.871582,4134.871582,4129.743652,4138.461426,4124.102539,4137.948730,4133.846191,4127.179688,4121.025879,0.000000,4.000000,,,,0.000000,4.000000,4.000000,4.000000,4.000000,4.000000,4.000000,4.000000,4.000000,4.000000,4.000000,4.000000,4.000000,4.000000,4.000000,100.000000
1602005474.166608,44.000000,0.000000,4125.128418,4136.922852,4150.256348,4127.179688,4128.717773,4141.025879,4139.487305,4137.948730,4150.769043,4146.153809,4138.974121,4136.410156,4137.436035,4121.538574,0.000000,4.000000,,,,0.000000,4.000000,4.000000,4.000000,4.000000,4.000000,4.000000,4.000000,4.000000,4.000000,4.000000,4.000000,4.000000,4.000000,4.000000,100.000000
1602005474.174491,45.000000,0.000000,4128.205078,4137.436035,4153.333496,4132.307617,4125.128418,4132.307617,4136.922852,4137.436035,4152.307617,4144.102539,4140.512695,4135.897461,4129.230957,4124.102539,0.000000,4.000000,,,,0.000000,4.000000,4.000000,4.000000,4.000000,4.000000,4.000000,4.000000,4.000000,4.000000,4.000000,4.000000,4.000000,4.000000,4.000000,100.000000
1602005474.182373,46.000000,0.000000,4137.948730,4135.897461,4153.333496,4130.256348,4122.051270,4128.205078,4130.769043,4135.384766,4144.615234,4128.205078,4141.025879,4138.461426,4126.153809,4136.922852,0.000000,4.000000,,,,0.000000,4.000000,4.000000,4.000000,4.000000,4.000000,4.000000,4.000000,4.000000,4.000000,4.000000,4.000000,4.000000,4.000000,4.000000,100.000000
1602005474.190356,47.000000,0.000000,4135.897461,4131.282227,4153.333496,4126.153809,4123.589844,4138.974121,4130.769043,4136.410156,4141.025879,4124.102539,4135.384766,4142.563965,4128.205078,4137.948730,0.000000,4.000000,,,,0.000000,4.000000,4.000000,4.000000,4.000000,4.000000,4.000000,4.000000,4.000000,4.000000,4.000000,4.000000,4.000000,4.000000,4.000000,100.000000
1602005474.198238,48.000000,0.000000,4121.538574,4122.563965,4152.307617,4125.128418,4124.615234,4134.358887,4137.436035,4135.384766,4136.410156,4123.589844,4126.153809,4142.563965,4122.051270,4118.974121,0.000000,4.000000,,,,0.000000,4.000000,4.000000,4.000000,4.000000,4.000000,4.000000,4.000000,4.000000,4.000000,4.000000,4.000000,4.000000,4.000000,4.000000,100.000000
1602005474.206120,49.000000,0.000000,4123.589844,4123.077148,4154.871582,4131.282227,4121.025879,4120.512695,4141.025879,4134.871582,4131.794922,4118.974121,4127.179688,4144.615234,4117.948730,4118.461426,0.000000,4.000000,,,,0.000000,4.000000,4.000000,4.000000,4.000000,4.000000,4.000000,4.000000,4.000000,4.000000,4.000000,4.000000,4.000000,4.000000,4.000000,100.000000
1602005474.214003,50.000000,0.000000,4144.102539,4138.461426,4163.589844,4140.512695,4124.102539,4124.102539,4140.512695,4136.410156,4134.871582,4133.333496,4140.000000,4155.384766,4127.692383,4141.025879,0.000000,4.000000,,,,0.000000,4.000000,4.000000,4.000000,4.000000,4.000000,4.000000,4.000000,4.000000,4.000000,4.000000,4.000000,4.000000,4.000000,4.000000,100.000000
1602005474.221885,51.000000,0.000000,4146.666504,4141.025879,4157.948730,4138.461426,4129.743652,4118.974121,4137.948730,4130.256348,4132.820313,4145.128418,4143.077148,4157.948730,4129.230957,4143.589844,0.000000,4.000000,,,,0.000000,4.000000,4.000000,4.000000,4.000000,4.000000,4.000000,4.000000,4.000000,4.000000,4.000000,4.000000,4.000000,4.000000,4.000000,100.000000
1602005474.229767,52.000000,0.000000,4125.128418,4120.512695,4137.436035,4120.512695,4117.436035,4082.564209,4133.333496,4120.512695,4110.769043,4121.538574,4132.820313,4143.077148,4115.384766,4126.666504,0.000000,4.000000,,,,0.000000,4.000000,4.000000,4.000000,4.000000,4.000000,4.000000,4.000000,4.000000,4.000000,4.000000,4.000000,4.000000,4.000000,4.000000,100.000000
1602005474.237650,53.000000,0.000000,4113.846191,4110.769043,4128.717773,4111.794922,4105.641113,4069.743652,4131.282227,4124.615234,4103.589844,4104.615234,4132.307617,4135.897461,4112.307617,4125.128418,0.000000,4.000000,,,,0.000000,4.000000,4.000000,4.000000,4.000000,4.000000,4.000000,4.000000,4.000000,4.000000,4.000000,4.000000,4.000000,4.000000,4.000000,100.000000
1602005474.245532,54.000000,0.000000,4127.179688,4127.692383,4137.948730,4121.025879,4124.102539,4106.666504,4134.358887,4145.128418,4129.230957,4129.230957,4142.563965,4146.153809,4132.307617,4138.461426,0.000000,4.000000,,,,0.000000,4.000000,4.000000,4.000000,4.000000,4.000000,4.000000,4.000000,4.000000,4.000000,4.000000,4.000000,4.000000,4.000000,4.000000,100.000000
1602005474.253314,55.000000,0.000000,4141.025879,4142.051270,4142.563965,4130.769043,4145.128418,4138.461426,4144.615234,4154.358887,4140.000000,4145.641113,4144.102539,4148.205078,4144.102539,4144.615234,0.000000,4.000000,,,,0.000000,4.000000,4.000000,4.000000,4.000000,4.000000,4.000000,4.000000,4.000000,4.000000,4.000000,4.000000,4.000000,4.000000,4.000000,100.000000
1602005474.261195,56.000000,0.000000,4141.538574,4140.000000,4134.871582,4128.717773,4141.538574,4143.077148,4153.333496,4143.589844,4122.051270,4135.384766,4136.922852,4138.461426,4137.948730,4136.410156,0.000000,4.000000,,,,0.000000,4.000000,4.000000,4.000000,4.000000,4.000000,4.000000,4.000000,4.000000,4.000000,4.000000,4.000000,4.000000,4.000000,4.000000,100.000000
1602005474.269077,57.000000,0.000000,4138.974121,4137.436035,4132.307617,4122.563965,4135.897461,4149.743652,4151.282227,4134.871582,4123.077148,4136.922852,4136.922852,4133.846191,4137.948730,4128.205078,0.000000,4.000000,,,,0.000000,4.000000,4.000000,4.000000,4.000000,4.000000,4.000000,4.000000,4.000000,4.000000,4.000000,4.000000,4.000000,4.000000,4.000000,100.000000
1602005474.276858,58.000000,0.000000,4138.461426,4139.487305,4133.846191,4123.589844,4141.538574,4158.974121,4143.589844,4136.922852,4141.025879,4143.077148,4142.051270,4131.794922,4141.538574,4130.769043,0.000000,4.000000,,,,0.000000,4.000000,4.000000,4.000000,4.000000,4.000000,4.000000,4.000000,4.000000,4.000000,4.000000,4.000000,4.000000,4.000000,4.000000,100.000000
1602005474.284640,59.000000,0.000000,4135.897461,4138.974121,4130.769043,4126.153809,4144.615234,4154.871582,4141.538574,4136.410156,4137.436035,4130.769043,4140.000000,4122.563965,4137.436035,4136.922852,0.000000,4.000000,,,,0.000000,4.000000,4.000000,4.000000,4.000000,4.000000,4.000000,4.000000,4.000000,4.000000,4.000000,4.000000,4.000000,4.000000,4.000000,100.000000
1602005474.292521,60.000000,0.000000,4135.384766,4138.974121,4131.794922,4126.153809,4143.077148,4151.282227,4144.102539,4133.846191,4133.846191,4136.922852,4142.563965,4121.538574,4134.871582,4136.410156,0.000000,4.000000,,,,0.000000,4.000000,4.000000,4.000000,4.000000,4.000000,4.000000,4.000000,4.000000,4.000000,4.000000,4.000000,4.000000,4.000000,4.000000,100.000000
1602005474.300303,61.000000,0.000000,4135.384766,4138.974121,4135.897461,4124.102539,4140.512695,4147.692383,4143.077148,4136.410156,4148.717773,4155.897461,4150.769043,4127.692383,4136.410156,4132.307617,0.000000,4.000000,,,,0.000000,4.000000,4.000000,4.000000,4.000000,4.000000,4.000000,4.000000,4.000000,4.000000,4.000000,4.000000,4.000000,4.000000,4.000000,100.000000
1602005474.308184,62.000000,0.000000,4134.871582,4135.897461,4141.025879,4125.128418,4138.461426,4135.384766,4143.589844,4140.000000,4155.384766,4153.333496,4153.846191,4132.820313,4137.948730,4136.922852,0.000000,4.000000,,,,0.000000,4.000000,4.000000,4.000000,4.000000,4.000000,4.000000,4.000000,4.000000,4.000000,4.000000,4.000000,4.000000,4.000000,4.000000,100.000000
1602005474.315967,63.000000,0.000000,4145.128418,4139.487305,4150.769043,4129.743652,4138.461426,4133.846191,4151.282227,4140.512695,4152.820313,4154.871582,4153.846191,4145.128418,4141.025879,4149.743652,0.000000,4.000000,,,,0.000000,4.000000,4.000000,4.000000,4.000000,4.000000,4.000000,4.000000,4.000000,4.000000,4.000000,4.000000,4.000000,4.000000,4.000000,100.000000
1602005474.323849,64.000000,0.000000,4156.922852,4146.666504,4158.974121,4136.410156,4141.025879,4140.000000,4154.358887,4140.000000,4154.871582,4168.205078,4157.436035,4157.948730,4142.563965,4160.000000,813.000000,4.000000,,,,0.000000,4.000000,4.000000,4.000000,4.000000,4.000000,4.000000,4.000000,4.000000,4.000000,4.000000,4.000000,4.000000,4.000000,4.000000,100.000000
1602005474.331731,65.000000,0.000000,4154.871582,4144.615234,4157.436035,4140.512695,4142.051270,4138.461426,4143.589844,4139.487305,4152.820313,4165.641113,4152.820313,4152.307617,4140.512695,4154.871582,789.000000,4.000000,,,,0.000000,4.000000,4.000000,4.000000,4.000000,4.000000,4.000000,4.000000,4.000000,4.000000,4.000000,4.000000,4.000000,4.000000,4.000000,100.000000
1602005474.339614,66.000000,0.000000,4149.743652,4140.512695,4154.871582,4136.410156,4139.487305,4133.846191,4134.871582,4136.410156,4140.512695,4151.794922,4137.948730,4144.102539,4136.410156,4144.615234,853.000000,4.000000,,,,0.000000,4.000000,4.000000,4.000000,4.000000,4.000000,4.000000,4.000000,4.000000,4.000000,4.000000,4.000000,4.000000,4.000000,4.000000,100.000000
1602005474.347496,67.000000,0.000000,4152.307617,4143.589844,4155.897461,4132.820313,4141.025879,4136.410156,4141.538574,4134.358887,4132.820313,4134.358887,4140.000000,4152.307617,4134.871582,4149.230957,873.000000,4.000000,,,,0.000000,4.000000,4.000000,4.000000,4.000000,4.000000,4.000000,4.000000,4.000000,4.000000,4.000000,4.000000,4.000000,4.000000,4.000000,100.000000
1602005474.355378,68.000000,0.000000,4155.897461,4144.615234,4156.922852,4135.897461,4145.641113,4142.051270,4152.307617,4137.948730,4129.743652,4117.948730,4154.358887,4158.974121,4137.948730,4158.974121,806.000000,4.000000,,,,0.000000,4.000000,4.000000,4.000000,4.000000,4.000000,4.000000,4.000000,4.000000,4.000000,4.000000,4.000000,4.000000,4.000000,4.000000,100.000000
1602005474.363261,69.000000,0.000000,4155.897461,4142.051270,4158.461426,4139.487305,4144.102539,4135.384766,4153.846191,4138.974121,4121.025879,4125.641113,4152.820313,4151.794922,4138.461426,4158.461426,818.000000,4.000000,,,,0.000000,4.000000,4.000000,4.000000,4.000000,4.000000,4.000000,4.000000,4.000000,4.000000,4.000000,4.000000,4.000000,4.000000,4.000000,100.000000
1602005474.371143,70.000000,0.000000,4147.692383,4141.025879,4155.384766,4138.974121,4136.922852,4122.051270,4145.641113,4134.871582,4119.487305,4141.025879,4138.974121,4144.102539,4130.256348,4148.717773,819.000000,4.000000,,,,0.000000,4.000000,4.000000,4.000000,4.000000,4.000000,4.000000,4.000000,4.000000,4.000000,4.000000,4.000000,4.000000,4.000000,4.000000,100.000000
1602005474.379125,71.000000,0.000000,4142.563965,4140.512695,4152.307617,4137.948730,4136.922852,4120.000000,4141.025879,4134.871582,4133.846191,4143.589844,4135.897461,4138.461426,4123.589844,4138.974121,694.000000,4.000000,,,,0.000000,4.000000,4.000000,4.000000,4.000000,4.000000,4.000000,4.000000,4.000000,4.000000,4.000000,4.000000,4.000000,4.000000,4.000000,100.000000
1602005474.387008,72.000000,0.000000,4151.794922,4143.589844,4155.384766,4140.000000,4142.051270,4122.563965,4138.974121,4139.487305,4147.692383,4152.307617,4147.692383,4137.436035,4130.256348,4141.538574,790.000000,4.000000,,,,0.000000,4.000000,4.000000,4.000000,4.000000,4.000000,4.000000,4.000000,4.000000,4.000000,4.000000,4.000000,4.000000,4.000000,4.000000,100.000000
1602005474.394890,73.000000,0.000000,4155.384766,4143.077148,4151.282227,4138.974121,4135.897461,4110.256348,4133.333496,4140.512695,4153.846191,4158.974121,4155.384766,4141.538574,4139.487305,4149.743652,839.000000,4.000000,,,,0.000000,4.000000,4.000000,4.000000,4.000000,4.000000,4.000000,4.000000,4.000000,4.000000,4.000000,4.000000,4.000000,4.000000,4.000000,100.000000
1602005474.402772,74.000000,0.000000,4146.666504,4135.897461,4140.512695,4134.871582,4127.692383,4099.487305,4131.794922,4139.487305,4163.077148,4154.871582,4153.333496,4146.153809,4140.000000,4149.230957,873.000000,4.000000,,,,0.000000,4.000000,4.000000,4.000000,4.000000,4.000000,4.000000,4.000000,4.000000,4.000000,4.000000,4.000000,4.000000,4.000000,4.000000,100.000000
1602005474.410655,75.000000,0.000000,4151.794922,4142.563965,4142.563965,4140.000000,4133.846191,4111.794922,4135.897461,4144.615234,4174.358887,4153.333496,4154.358887,4150.256348,4142.051270,4156.922852,836.000000,4.000000,,,,0.000000,4.000000,4.000000,4.000000,4.000000,4.000000,4.000000,4.000000,4.000000,4.000000,4.000000,4.000000,4.000000,4.000000,4.000000,100.000000
1602005474.418537,76.000000,0.000000,4153.846191,4144.615234,4154.358887,4143.589844,4142.563965,4127.692383,4139.487305,4152.820313,4175.384766,4155.384766,4160.512695,4155.384766,4148.717773,4170.769043,782.000000,4.000000,,,,0.000000,4.000000,4.000000,4.000000,4.000000,4.000000,4.000000,4.000000,4.000000,4.000000,4.000000,4.000000,4.000000,4.000000,4.000000,100.000000
1602005474.426420,77.000000,0.000000,4129.743652,4119.487305,4149.230957,4129.743652,4140.000000,4130.256348,4146.666504,4151.282227,4166.666504,4154.358887,4153.846191,4155.384766,4141.025879,4153.846191,773.000000,4.000000,,,,0.000000,4.000000,4.000000,4.000000,4.000000,4.000000,4.000000,4.000000,4.000000,4.000000,4.000000,4.000000,4.000000,4.000000,4.000000,100.000000
1602005474.434302,78.000000,0.000000,4129.230957,4120.512695,4140.000000,4127.179688,4135.384766,4128.205078,4152.307617,4143.589844,4156.922852,4149.230957,4140.000000,4146.153809,4125.128418,4128.205078,873.000000,4.000000,,,,0.000000,4.000000,4.000000,4.000000,4.000000,4.000000,4.000000,4.000000,4.000000,4.000000,4.000000,4.000000,4.000000,4.000000,4.000000,100.000000
1602005474.442284,79.000000,0.000000,4168.717773,4164.102539,4145.128418,4148.717773,4136.922852,4127.179688,4145.128418,4138.461426,4147.692383,4136.410156,4136.410156,4138.461426,4118.974121,4135.897461,836.000000,4.000000,,,,0.000000,4.000000,4.000000,4.000000,4.000000,4.000000,4.000000,4.000000,4.000000,4.000000,4.000000,4.000000,4.000000,4.000000,4.000000,100.000000
1602005474.450166,80.000000,0.000000,4197.436035,4190.256348,4154.358887,4165.128418,4140.512695,4125.641113,4136.922852,4137.436035,4142.051270,4125.641113,4133.846191,4140.000000,4114.358887,4146.153809,782.000000,4.000000,,,,0.000000,4.000000,4.000000,4.000000,4.000000,4.000000,4.000000,4.000000,4.000000,4.000000,4.000000,4.000000,4.000000,4.000000,4.000000,100.000000
1602005474.458047,81.000000,0.000000,4204.615234,4189.743652,4155.384766,4167.179688,4143.077148,4130.256348,4142.051270,4137.436035,4143.589844,4123.077148,4124.615234,4141.025879,4102.563965,4131.794922,773.000000,4.000000,,,,0.000000,4.000000,4.000000,4.000000,4.000000,4.000000,4.000000,4.000000,4.000000,4.000000,4.000000,4.000000,4.000000,4.000000,4.000000,100.000000
1602005474.465929,82.000000,0.000000,4205.641113,4187.179688,4145.128418,4165.128418,4138.974121,4134.871582,4142.563965,4133.846191,4139.487305,4118.974121,4112.307617,4128.717773,4085.128174,4118.974121,873.000000,4.000000,,,,0.000000,4.000000,4.000000,4.000000,4.000000,4.000000,4.000000,4.000000,4.000000,4.000000,4.000000,4.000000,4.000000,4.000000,4.000000,100.000000
1602005474.473811,83.000000,0.000000,4190.769043,4176.922852,4128.717773,4156.922852,4135.384766,4126.153809,4130.769043,4131.282227,4135.384766,4112.307617,4102.051270,4113.846191,4069.743652,4110.256348,836.000000,4.000000,,,,0.000000,4.000000,4.000000,4.000000,4.000000,4.000000,4.000000,4.000000,4.000000,4.000000,4.000000,4.000000,4.000000,4.000000,4.000000,100.000000
1602005474.481794,84.000000,0.000000,4173.333496,4165.641113,4119.487305,4147.179688,4136.922852,4118.974121,4125.128418,4133.846191,4137.436035,4092.307617,4094.871826,4108.205078,4064.102539,4096.410156,782.000000,4.000000,,,,0.000000,4.000000,4.000000,4.000000,4.000000,4.000000,4.000000,4.000000,4.000000,4.000000,4.000000,4.000000,4.000000,4.000000,4.000000,100.000000
1602005474.489676,85.000000,0.000000,4164.102539,4160.000000,4114.358887,4140.512695,4133.333496,4119.487305,4128.205078,4131.282227,4131.794922,4071.794922,4091.281982,4106.666504,4064.615479,4088.718018,773.000000,4.000000,,,,0.000000,4.000000,4.000000,4.000000,4.000000,4.000000,4.000000,4.000000,4.000000,4.000000,4.000000,4.000000,4.000000,4.000000,4.000000,100.000000
1602005474.497559,86.000000,0.000000,4155.897461,4151.794922,4107.179688,4135.897461,4125.128418,4113.333496,4127.179688,4125.641113,4125.641113,4090.769287,4093.846191,4107.179688,4063.589844,4093.333252,873.000000,4.000000,,,,0.000000,4.000000,4.000000,4.000000,4.000000,4.000000,4.000000,4.000000,4.000000,4.000000,4.000000,4.000000,4.000000,4.000000,4.000000,100.000000
1602005474.505441,87.000000,0.000000,4158.974121,4154.871582,4110.769043,4144.615234,4124.615234,4111.282227,4125.128418,4128.717773,4135.897461,4129.230957,4104.102539,4114.358887,4069.743652,4100.512695,836.000000,4.000000,,,,0.000000,4.000000,4.000000,4.000000,4.000000,4.000000,4.000000,4.000000,4.000000,4.000000,4.000000,4.000000,4.000000,4.000000,4.000000,100.000000
1602005474.513324,88.000000,0.000000,4169.743652,4168.717773,4124.615234,4155.384766,4132.307617,4117.948730,4134.358887,4134.871582,4144.615234,4135.384766,4111.794922,4129.743652,4085.128174,4108.205078,782.000000,4.000000,,,,0.000000,4.000000,4.000000,4.000000,4.000000,4.000000,4.000000,4.000000,4.000000,4.000000,4.000000,4.000000,4.000000,4.000000,4.000000,100.000000
1602005474.521207,89.000000,0.000000,4174.871582,4172.820313,4132.820313,4155.897461,4136.922852,4122.563965,4143.077148,4136.410156,4139.487305,4118.974121,4111.794922,4137.948730,4091.794922,4112.820313,773.000000,4.000000,,,,0.000000,4.000000,4.000000,4.000000,4.000000,4.000000,4.000000,4.000000,4.000000,4.000000,4.000000,4.000000,4.000000,4.000000,4.000000,100.000000
1602005474.529089,90.000000,0.000000,4177.948730,4170.769043,4135.384766,4157.436035,4136.410156,4132.307617,4143.077148,4138.461426,4137.436035,4114.871582,4110.256348,4132.820313,4085.128174,4110.256348,873.000000,4.000000,,,,0.000000,4.000000,4.000000,4.000000,4.000000,4.000000,4.000000,4.000000,4.000000,4.000000,4.000000,4.000000,4.000000,4.000000,4.000000,100.000000
1602005474.536972,91.000000,0.000000,4176.410156,4171.794922,4137.436035,4157.948730,4136.410156,4141.538574,4144.615234,4139.487305,4142.051270,4118.461426,4109.743652,4131.282227,4078.974365,4106.153809,836.000000,4.000000,,,,0.000000,4.000000,4.000000,4.000000,4.000000,4.000000,4.000000,4.000000,4.000000,4.000000,4.000000,4.000000,4.000000,4.000000,4.000000,100.000000
1602005474.544854,92.000000,0.000000,4169.230957,4167.692383,4134.358887,4150.769043,4134.358887,4140.000000,4149.743652,4137.436035,4135.897461,4101.025879,4107.692383,4133.846191,4074.358887,4106.153809,782.000000,4.000000,,,,0.000000,4.000000,4.000000,4.000000,4.000000,4.000000,4.000000,4.000000,4.000000,4.000000,4.000000,4.000000,4.000000,4.000000,4.000000,100.000000
1602005474.552837,93.000000,0.000000,4166.666504,4157.436035,4136.922852,4146.666504,4129.743652,4135.897461,4149.230957,4137.948730,4123.077148,4073.333252,4108.205078,4130.769043,4076.410156,4107.179688,773.000000,4.000000,,,,0.000000,4.000000,4.000000,4.000000,4.000000,4.000000,4.000000,4.000000,4.000000,4.000000,4.000000,4.000000,4.000000,4.000000,4.000000,100.000000
1602005474.560719,94.000000,0.000000,4167.692383,4153.846191,4147.692383,4150.769043,4125.128418,4127.692383,4141.025879,4138.974121,4122.051270,4085.641113,4109.230957,4131.282227,4084.102539,4106.153809,873.000000,4.000000,,,,0.000000,4.000000,4.000000,4.000000,4.000000,4.000000,4.000000,4.000000,4.000000,4.000000,4.000000,4.000000,4.000000,4.000000,4.000000,100.000000
1602005474.568601,95.000000,0.000000,4169.230957,4161.538574,4151.794922,4153.333496,4122.563965,4113.333496,4134.871582,4138.461426,4131.282227,4123.589844,4108.205078,4138.974121,4089.230713,4108.205078,836.000000,4.000000,,,,0.000000,4.000000,4.000000,4.000000,4.000000,4.000000,4.000000,4.000000,4.000000,4.000000,4.000000,4.000000,4.000000,4.000000,4.000000,100.000000
1602005474.576484,96.000000,0.000000,4175.384766,4169.230957,4151.282227,4153.846191,4123.077148,4107.179688,4130.256348,4137.436035,4133.333496,4130.769043,4110.256348,4136.922852,4090.256348,4111.794922,782.000000,4.000000,,,,0.000000,4.000000,4.000000,4.000000,4.000000,4.000000,4.000000,4.000000,4.000000,4.000000,4.000000,4.000000,4.000000,4.000000,4.000000,100.000000
1602005474.584366,97.000000,0.000000,4174.871582,4167.179688,4148.717773,4153.846191,4121.025879,4106.666504,4121.538574,4135.897461,4131.282227,4120.512695,4115.897461,4124.615234,4089.743652,4111.282227,773.000000,4.000000,,,,0.000000,4.000000,4.000000,4.000000,4.000000,4.000000,4.000000,4.000000,4.000000,4.000000,4.000000,4.000000,4.000000,4.000000,4.000000,100.000000
1602005474.592248,98.000000,0.000000,4167.179688,4161.538574,4141.025879,4152.820313,4118.461426,4107.179688,4122.051270,4137.948730,4134.358887,4120.512695,4120.000000,4125.128418,4091.794922,4114.358887,873.000000,4.000000,,,,0.000000,4.000000,4.000000,4.000000,4.000000,4.000000,4.000000,4.000000,4.000000,4.000000,4.000000,4.000000,4.000000,4.000000,4.000000,100.000000
1602005474.600131,99.000000,0.000000,4172.820313,4168.205078,4136.922852,4156.410156,4127.179688,4117.436035,4136.410156,4149.230957,4143.077148,4130.769043,4127.692383,4138.974121,4102.563965,4123.589844,836.000000,4.000000,,,,0.000000,4.000000,4.000000,4.000000,4.000000,4.000000,4.000000,4.000000,4.000000,4.000000,4.000000,4.000000,4.000000,4.000000,4.000000,100.000000
1602005474.608013,100.000000,0.000000,4183.589844,4178.974121,4141.025879,4161.025879,4136.922852,4128.205078,4141.025879,4154.358887,4150.256348,4142.051270,4135.897461,4145.641113,4111.282227,4127.692383,782.000000,4.000000,,,,0.000000,4.000000,4.000000,4.000000,4.000000,4.000000,4.000000,4.000000,4.000000,4.000000,4.000000,4.000000,4.000000,4.000000,4.000000,100.000000
1602005474.615996,101.000000,0.000000,4169.230957,4163.077148,4136.410156,4151.794922,4129.230957,4123.589844,4132.820313,4143.589844,4144.102539,4117.948730,4128.717773,4135.897461,4103.077148,4117.436035,773.000000,4.000000,,,,0.000000,4.000000,4.000000,4.000000,4.000000,4.000000,4.000000,4.000000,4.000000,4.000000,4.000000,4.000000,4.000000,4.000000,4.000000,100.000000
1602005474.623878,102.000000,0.000000,4147.179688,4146.666504,4123.077148,4140.512695,4121.025879,4113.846191,4130.769043,4131.282227,4128.205078,4077.435791,4111.282227,4123.589844,4086.153809,4106.666504,873.000000,4.000000,,,,0.000000,4.000000,4.000000,4.000000,4.000000,4.000000,4.000000,4.000000,4.000000,4.000000,4.000000,4.000000,4.000000,4.000000,4.000000,100.000000
1602005474.631761,103.000000,0.000000,4151.794922,4161.025879,4118.461426,4145.641113,4124.102539,4116.410156,4135.897461,4129.230957,4123.589844,4088.718018,4105.128418,4114.871582,4078.461426,4103.589844,836.000000,4.000000,,,,0.000000,4.000000,4.000000,4.000000,4.000000,4.000000,4.000000,4.000000,4.000000,4.000000,4.000000,4.000000,4.000000,4.000000,4.000000,100.000000
1602005474.639643,104.000000,0.000000,4160.000000,4170.769043,4120.512695,4154.358887,4124.102539,4126.666504,4137.948730,4130.256348,4131.794922,4116.922852,4108.717773,4112.820313,4075.384521,4096.410156,782.000000,4.000000,,,,0.000000,4.000000,4.000000,4.000000,4.000000,4.000000,4.000000,4.000000,4.000000,4.000000,4.000000,4.000000,4.000000,4.000000,4.000000,100.000000
1602005474.647526,105.000000,0.000000,4153.333496,4159.487305,4123.589844,4152.820313,4120.000000,4130.769043,4136.922852,4129.743652,4136.410156,4114.358887,4108.205078,4120.000000,4073.846191,4089.230713,773.000000,4.000000,,,,0.000000,4.000000,4.000000,4.000000,4.000000,4.000000,4.000000,4.000000,4.000000,4.000000,4.000000,4.000000,4.000000,4.000000,4.000000,100.000000
1602005474.655409,106.000000,0.000000,4153.846191,4154.358887,4124.102539,4149.230957,4122.051270,4127.692383,4136.922852,4133.846191,4132.307617,4108.717773,4105.641113,4124.102539,4075.384521,4097.948730,873.000000,4.000000,,,,0.000000,4.000000,4.000000,4.000000,4.000000,4.000000,4.000000,4.000000,4.000000,4.000000,4.000000,4.000000,4.000000,4.000000,4.000000,100.000000
1602005474.663291,107.000000,0.000000,4159.487305,4159.487305,4122.051270,4150.256348,4124.615234,4127.692383,4136.410156,4137.436035,4122.051270,4109.230957,4106.666504,4124.615234,4076.410156,4106.666504,836.000000,4.000000,,,,0.000000,4.000000,4.000000,4.000000,4.000000,4.000000,4.000000,4.000000,4.000000,4.000000,4.000000,4.000000,4.000000,4.000000,4.000000,100.000000
1602005474.671174,108.000000,0.000000,4154.358887,4157.436035,4120.512695,4151.794922,4123.077148,4126.666504,4135.384766,4140.000000,4123.077148,4107.692383,4107.179688,4120.000000,4074.871826,4096.410156,782.000000,4.000000,,,,0.000000,4.000000,4.000000,4.000000,4.000000,4.000000,4.000000,4.000000,4.000000,4.000000,4.000000,4.000000,4.000000,4.000000,4.000000,100.000000
1602005474.679056,109.000000,0.000000,4150.256348,4155.897461,4117.948730,4150.256348,4116.922852,4123.077148,4136.922852,4146.666504,4134.871582,4102.563965,4107.179688,4108.205078,4074.871826,4088.718018,773.000000,4.000000,,,,0.000000,4.000000,4.000000,4.000000,4.000000,4.000000,4.000000,4.000000,4.000000,4.000000,4.000000,4.000000,4.000000,4.000000,4.000000,100.000000
1602005474.686939,110.000000,0.000000,4152.307617,4155.384766,4112.307617,4143.589844,4111.794922,4124.615234,4141.025879,4153.333496,4137.948730,4080.512939,4108.205078,4102.051270,4078.974365,4094.358887,873.000000,4.000000,,,,0.000000,4.000000,4.000000,4.000000,4.000000,4.000000,4.000000,4.000000,4.000000,4.000000,4.000000,4.000000,4.000000,4.000000,4.000000,100.000000
1602005474.694722,111.000000,0.000000,4149.743652,4152.820313,4110.769043,4138.974121,4113.846191,4126.153809,4142.563965,4153.846191,4134.871582,4071.281982,4108.717773,4106.153809,4082.564209,4094.358887,836.000000,4.000000,,,,0.000000,4.000000,4.000000,4.000000,4.000000,4.000000,4.000000,4.000000,4.000000,4.000000,4.000000,4.000000,4.000000,4.000000,4.000000,100.000000
1602005474.702604,112.000000,0.000000,4146.153809,4153.333496,4119.487305,4143.077148,4110.769043,4124.102539,4141.025879,4149.230957,4136.922852,4103.589844,4107.692383,4108.205078,4084.615479,4090.769287,782.000000,4.000000,,,,0.000000,4.000000,4.000000,4.000000,4.000000,4.000000,4.000000,4.000000,4.000000,4.000000,4.000000,4.000000,4.000000,4.000000,4.000000,100.000000
1602005474.710486,113.000000,0.000000,4142.563965,4145.641113,4119.487305,4140.512695,4091.794922,4117.948730,4137.436035,4142.051270,4132.820313,4121.025879,4104.102539,4106.666504,4081.538574,4090.769287,773.000000,4.000000,,,,0.000000,4.000000,4.000000,4.000000,4.000000,4.000000,4.000000,4.000000,4.000000,4.000000,4.000000,4.000000,4.000000,4.000000,4.000000,100.000000
1602005474.718369,114.000000,0.000000,4137.436035,4139.487305,4113.333496,4135.384766,4074.871826,4113.333496,4133.333496,4136.410156,4123.589844,4103.589844,4100.512695,4109.743652,4073.846191,4087.692383,873.000000,4.000000,,,,0.000000,4.000000,4.000000,4.000000,4.000000,4.000000,4.000000,4.000000,4.000000,4.000000,4.000000,4.000000,4.000000,4.000000,4.000000,100.000000
1602005474.726251,115.000000,0.000000,4142.051270,4149.230957,4116.922852,4140.512695,4073.333252,4114.871582,4134.358887,4137.948730,4126.666504,4105.641113,4108.205078,4116.922852,4079.487061,4092.820557,836.000000,4.000000,,,,0.000000,4.000000,4.000000,4.000000,4.000000,4.000000,4.000000,4.000000,4.000000,4.000000,4.000000,4.000000,4.000000,4.000000,4.000000,100.000000
1602005474.734133,116.000000,0.000000,4151.794922,4158.461426,4123.077148,4146.153809,4069.743652,4123.077148,4138.461426,4144.102539,4142.563965,4124.615234,4122.563965,4127.692383,4098.974121,4110.769043,782.000000,4.000000,,,,0.000000,4.000000,4.000000,4.000000,4.000000,4.000000,4.000000,4.000000,4.000000,4.000000,4.000000,4.000000,4.000000,4.000000,4.000000,100.000000
1602005474.742016,117.000000,0.000000,4154.358887,4156.410156,4121.025879,4142.051270,4054.358887,4125.641113,4137.436035,4148.717773,4153.333496,4130.769043,4128.205078,4134.871582,4112.307617,4122.051270,773.000000,4.000000,,,,0.000000,4.000000,4.000000,4.000000,4.000000,4.000000,4.000000,4.000000,4.000000,4.000000,4.000000,4.000000,4.000000,4.000000,4.000000,100.000000
1602005474.749898,118.000000,0.000000,4160.512695,4159.487305,4122.051270,4143.589844,4044.102539,4120.000000,4134.871582,4153.333496,4153.846191,4126.666504,4130.256348,4135.897461,4118.974121,4129.743652,873.000000,4.000000,,,,0.000000,4.000000,4.000000,4.000000,4.000000,4.000000,4.000000,4.000000,4.000000,4.000000,4.000000,4.000000,4.000000,4.000000,4.000000,100.000000
1602005474.757780,119.000000,0.000000,4171.794922,4171.794922,4128.205078,4153.333496,4044.102539,4126.666504,4139.487305,4151.282227,4151.794922,4120.512695,4135.897461,4138.974121,4126.153809,4137.948730,836.000000,4.000000,,,,0.000000,4.000000,4.000000,4.000000,4.000000,4.000000,4.000000,4.000000,4.000000,4.000000,4.000000,4.000000,4.000000,4.000000,4.000000,100.000000
1602005474.765562,120.000000,0.000000,4167.179688,4169.743652,4122.051270,4150.769043,4036.923096,4135.384766,4137.948730,4142.563965,4154.871582,4129.230957,4131.282227,4139.487305,4126.153809,4132.307617,782.000000,4.000000,,,,0.000000,4.000000,4.000000,4.000000,4.000000,4.000000,4.000000,4.000000,4.000000,4.000000,4.000000,4.000000,4.000000,4.000000,4.000000,100.000000
1602005474.773444,121.000000,0.000000,4152.820313,4153.333496,4109.230957,4137.948730,4023.589844,4130.256348,4126.153809,4137.436035,4157.436035,4145.641113,4116.410156,4127.179688,4113.846191,4112.820313,773.000000,4.000000,,,,0.000000,4.000000,4.000000,4.000000,4.000000,4.000000,4.000000,4.000000,4.000000,4.000000,4.000000,4.000000,4.000000,4.000000,4.000000,100.000000
1602005474.781326,122.000000,0.000000,4139.487305,4138.974121,4103.077148,4129.743652,4012.307617,4120.000000,4118.974121,4137.436035,4145.128418,4141.025879,4105.641113,4109.230957,4093.333252,4096.922852,873.000000,4.000000,,,,0.000000,4.000000,4.000000,4.000000,4.000000,4.000000,4.000000,4.000000,4.000000,4.000000,4.000000,4.000000,4.000000,4.000000,4.000000,100.000000
1602005474.789208,123.000000,0.000000,4129.230957,4134.358887,4102.563965,4124.615234,4004.102539,4117.436035,4122.051270,4137.436035,4135.897461,4118.974121,4103.589844,4103.077148,4083.589844,4090.256348,836.000000,4.000000,,,,0.000000,4.000000,4.000000,4.000000,4.000000,4.000000,4.000000,4.000000,4.000000,4.000000,4.000000,4.000000,4.000000,4.000000,4.000000,100.000000
1602005474.797090,124.000000,0.000000,4131.794922,4134.358887,4104.102539,4123.077148,4001.538574,4124.615234,4130.769043,4137.948730,4148.205078,4110.256348,4108.205078,4108.205078,4089.743652,4090.256348,782.000000,4.000000,,,,0.000000,4.000000,4.000000,4.000000,4.000000,4.000000,4.000000,4.000000,4.000000,4.000000,4.000000,4.000000,4.000000,4.000000,4.000000,100.000000
1602005474.804872,125.000000,0.000000,4137.948730,4134.871582,4106.153809,4127.692383,4001.538574,4129.230957,4136.922852,4139.487305,4146.666504,4110.256348,4105.128418,4103.589844,4089.230713,4089.230713,773.000000,4.000000,,,,0.000000,4.000000,4.000000,4.000000,4.000000,4.000000,4.000000,4.000000,4.000000,4.000000,4.000000,4.000000,4.000000,4.000000,4.000000,100.000000
1602005474.812754,126.000000,0.000000,4132.820313,4135.384766,4107.692383,4129.230957,3994.358887,4131.282227,4136.410156,4132.820313,4122.051270,4094.871826,4090.256348,4091.794922,4074.358887,4086.666748,873.000000,4.000000,,,,0.000000,4.000000,4.000000,4.000000,4.000000,4.000000,4.000000,4.000000,4.000000,4.000000,4.000000,4.000000,4.000000,4.000000,4.000000,100.000000
1602005474.820636,127.000000,0.000000,4130.769043,4134.358887,4105.641113,4124.102539,3986.666748,4131.794922,4136.922852,4123.589844,4117.948730,4084.615479,4089.230713,4093.846191,4067.692383,4086.666748,836.000000,4.000000,,,,0.000000,4.000000,4.000000,4.000000,4.000000,4.000000,4.000000,4.000000,4.000000,4.000000,4.000000,4.000000,4.000000,4.000000,4.000000,100.000000
1602005474.828518,128.000000,0.000000,4139.487305,4135.384766,4110.769043,4128.205078,3986.666748,4132.307617,4139.487305,4129.230957,4137.948730,4110.769043,4105.128418,4112.820313,4081.025635,4089.230713,782.000000,4.000000,,,,0.000000,4.000000,4.000000,4.000000,4.000000,4.000000,4.000000,4.000000,4.000000,4.000000,4.000000,4.000000,4.000000,4.000000,4.000000,100.000000
1602005474.836401,0.000000,0.000000,4136.922852,4137.436035,4121.538574,4138.974121,3988.205078,4127.179688,4137.948730,4140.000000,4144.615234,4142.051270,4113.333496,4125.641113,4093.333252,4097.948730,813.000000,4.000000,,,,0.000000,4.000000,4.000000,4.000000,4.000000,4.000000,4.000000,4.000000,4.000000,4.000000,4.000000,4.000000,4.000000,4.000000,4.000000,100.000000
1602005474.844283,1.000000,0.000000,4127.692383,4137.436035,4124.615234,4138.461426,3985.128174,4122.051270,4134.871582,4142.051270,4142.051270,4140.000000,4111.282227,4126.153809,4093.846191,4108.205078,796.000000,4.000000,,,,0.000000,4.000000,4.000000,4.000000,4.000000,4.000000,4.000000,4.000000,4.000000,4.000000,4.000000,4.000000,4.000000,4.000000,4.000000,100.000000
1602005474.852165,2.000000,0.000000,4130.769043,4135.384766,4120.512695,4127.179688,3977.948730,4121.025879,4136.922852,4141.025879,4144.615234,4123.077148,4110.256348,4125.641113,4091.794922,4107.692383,853.000000,4.000000,,,,0.000000,4.000000,4.000000,4.000000,4.000000,4.000000,4.000000,4.000000,4.000000,4.000000,4.000000,4.000000,4.000000,4.000000,4.000000,100.000000
1602005474.860146,3.000000,0.000000,4139.487305,4134.871582,4121.025879,4127.692383,3974.358887,4121.025879,4137.436035,4141.538574,4145.128418,4111.282227,4110.256348,4124.102539,4093.846191,4104.102539,873.000000,4.000000,,,,0.000000,4.000000,4.000000,4.000000,4.000000,4.000000,4.000000,4.000000,4.000000,4.000000,4.000000,4.000000,4.000000,4.000000,4.000000,100.000000
1602005474.868027,4.000000,0.000000,4138.974121,4136.410156,4121.025879,4137.948730,3975.897461,4125.128418,4138.461426,4142.051270,4142.051270,4105.641113,4111.282227,4115.897461,4093.846191,4104.102539,806.000000,4.000000,,,,0.000000,4.000000,4.000000,4.000000,4.000000,4.000000,4.000000,4.000000,4.000000,4.000000,4.000000,4.000000,4.000000,4.000000,4.000000,100.000000
1602005474.875909,5.000000,0.000000,4128.717773,4130.769043,4109.743652,4131.282227,3975.384521,4127.692383,4140.000000,4133.846191,4132.307617,4105.641113,4106.666504,4105.128418,4085.641113,4098.461426,818.000000,4.000000,,,,0.000000,4.000000,4.000000,4.000000,4.000000,4.000000,4.000000,4.000000,4.000000,4.000000,4.000000,4.000000,4.000000,4.000000,4.000000,100.000000
1602005474.883691,6.000000,0.000000,4122.051270,4122.051270,4100.512695,4123.077148,3971.281982,4126.153809,4139.487305,4121.538574,4120.512695,4105.641113,4092.820557,4096.922852,4074.871826,4088.205078,792.000000,4.000000,,,,0.000000,4.000000,4.000000,4.000000,4.000000,4.000000,4.000000,4.000000,4.000000,4.000000,4.000000,4.000000,4.000000,4.000000,4.000000,100.000000
1602005474.891574,7.000000,0.000000,4120.000000,4125.128418,4105.641113,4131.282227,3973.333252,4127.179688,4138.974121,4118.974121,4122.563965,4114.358887,4092.307617,4098.974121,4071.794922,4086.153809,694.000000,4.000000,,,,0.000000,4.000000,4.000000,4.000000,4.000000,4.000000,4.000000,4.000000,4.000000,4.000000,4.000000,4.000000,4.000000,4.000000,4.000000,100.000000
1602005474.899456,8.000000,0.000000,4125.641113,4128.717773,4118.974121,4136.922852,3975.384521,4126.666504,4140.000000,4126.153809,4131.282227,4123.077148,4102.563965,4115.384766,4079.487061,4095.384521,790.000000,4.000000,,,,0.000000,4.000000,4.000000,4.000000,4.000000,4.000000,4.000000,4.000000,4.000000,4.000000,4.000000,4.000000,4.000000,4.000000,4.000000,100.000000
1602005474.907338,9.000000,0.000000,4135.384766,4122.563965,4134.871582,4130.769043,3972.307617,4118.974121,4137.948730,4129.743652,4133.333496,4109.743652,4105.128418,4135.897461,4086.153809,4110.769043,839.000000,4.000000,,,,0.000000,4.000000,4.000000,4.000000,4.000000,4.000000,4.000000,4.000000,4.000000,4.000000,4.000000,4.000000,4.000000,4.000000,4.000000,100.000000
1602005474.915221,10.000000,0.000000,4138.461426,4126.666504,4143.589844,4132.820313,3971.794922,4116.922852,4138.461426,4139.487305,4140.512695,4105.128418,4110.256348,4146.153809,4091.794922,4123.589844,873.000000,4.000000,,,,0.000000,4.000000,4.000000,4.000000,4.000000,4.000000,4.000000,4.000000,4.000000,4.000000,4.000000,4.000000,4.000000,4.000000,4.000000,100.000000
1602005474.923103,11.000000,0.000000,4137.948730,4136.922852,4136.410156,4141.025879,3976.410156,4130.769043,4147.179688,4154.871582,4156.922852,4127.692383,4120.000000,4143.589844,4104.102539,4122.563965,836.000000,4.000000,,,,0.000000,4.000000,4.000000,4.000000,4.000000,4.000000,4.000000,4.000000,4.000000,4.000000,4.000000,4.000000,4.000000,4.000000,4.000000,100.000000
1602005474.930985,12.000000,0.000000,4138.461426,4132.307617,4121.538574,4138.461426,3976.923096,4135.897461,4149.743652,4152.820313,4155.897461,4125.128418,4117.436035,4132.307617,4108.717773,4116.410156,782.000000,4.000000,,,,0.000000,4.000000,4.000000,4.000000,4.000000,4.000000,4.000000,4.000000,4.000000,4.000000,4.000000,4.000000,4.000000,4.000000,4.000000,100.000000
1602005474.938868,13.000000,0.000000,4135.897461,4124.102539,4106.153809,4129.230957,3973.333252,4125.128418,4139.487305,4137.948730,4138.974121,4105.128418,4107.179688,4115.897461,4099.487305,4114.358887,773.000000,4.000000,,,,0.000000,4.000000,4.000000,4.000000,4.000000,4.000000,4.000000,4.000000,4.000000,4.000000,4.000000,4.000000,4.000000,4.000000,4.000000,100.000000
1602005474.946650,14.000000,0.000000,4131.794922,4125.641113,4089.743652,4123.589844,3973.846191,4115.897461,4129.230957,4128.205078,4133.333496,4119.487305,4108.717773,4104.615234,4094.871826,4109.230957,873.000000,4.000000,,,,0.000000,4.000000,4.000000,4.000000,4.000000,4.000000,4.000000,4.000000,4.000000,4.000000,4.000000,4.000000,4.000000,4.000000,4.000000,100.000000
1602005474.954533,15.000000,0.000000,4134.871582,4132.820313,4087.692383,4127.692383,3976.410156,4113.846191,4123.589844,4124.102539,4141.025879,4137.948730,4117.948730,4106.153809,4104.615234,4106.666504,836.000000,4.000000,,,,0.000000,4.000000,4.000000,4.000000,4.000000,4.000000,4.000000,4.000000,4.000000,4.000000,4.000000,4.000000,4.000000,4.000000,4.000000,100.000000
1602005474.962415,16.000000,0.000000,4138.974121,4137.436035,4098.974121,4135.384766,3975.384521,4117.436035,4120.512695,4122.051270,4136.922852,4124.615234,4121.025879,4107.179688,4109.743652,4110.256348,0.000000,4.000000,,,,0.000000,4.000000,4.000000,4.000000,4.000000,4.000000,4.000000,4.000000,4.000000,4.000000,4.000000,4.000000,4.000000,4.000000,4.000000,100.000000
1602005474.970297,17.000000,0.000000,4137.948730,4133.846191,4106.666504,4135.897461,3975.384521,4121.025879,4124.615234,4122.563965,4126.153809,4123.589844,4120.000000,4105.641113,4106.153809,4112.820313,0.000000,4.000000,,,,0.000000,4.000000,4.000000,4.000000,4.000000,4.000000,4.000000,4.000000,4.000000,4.000000,4.000000,4.000000,4.000000,4.000000,4.000000,100.000000
1602005474.978180,18.000000,0.000000,4138.461426,4128.205078,4118.461426,4132.820313,3983.589844,4122.563965,4135.897461,4128.717773,4130.256348,4146.666504,4121.538574,4115.384766,4111.794922,4117.436035,0.000000,4.000000,,,,0.000000,4.000000,4.000000,4.000000,4.000000,4.000000,4.000000,4.000000,4.000000,4.000000,4.000000,4.000000,4.000000,4.000000,4.000000,100.000000
1602005474.986062,19.000000,0.000000,4133.846191,4126.153809,4127.179688,4128.205078,3984.102539,4123.589844,4143.589844,4134.358887,4141.538574,4133.846191,4125.128418,4125.641113,4120.512695,4125.641113,0.000000,4.000000,,,,0.000000,4.000000,4.000000,4.000000,4.000000,4.000000,4.000000,4.000000,4.000000,4.000000,4.000000,4.000000,4.000000,4.000000,4.000000,100.000000
1602005474.993944,20.000000,0.000000,4127.179688,4121.538574,4117.948730,4121.025879,3975.384521,4127.179688,4144.102539,4137.948730,4141.538574,4106.666504,4124.102539,4124.102539,4113.333496,4124.102539,0.000000,4.000000,,,,0.000000,4.000000,4.000000,4.000000,4.000000,4.000000,4.000000,4.000000,4.000000,4.000000,4.000000,4.000000,4.000000,4.000000,4.000000,100.000000
1602005475.001827,21.000000,0.000000,4129.743652,4121.025879,4106.666504,4120.512695,3979.487061,4133.333496,4141.025879,4139.487305,4138.461426,4116.922852,4121.025879,4124.102539,4105.641113,4117.948730,0.000000,4.000000,,,,0.000000,4.000000,4.000000,4.000000,4.000000,4.000000,4.000000,4.000000,4.000000,4.000000,4.000000,4.000000,4.000000,4.000000,4.000000,100.000000
1602005475.009709,22.000000,0.000000,4135.897461,4132.820313,4109.230957,4131.794922,3990.256348,4135.384766,4138.974121,4141.538574,4139.487305,4133.333496,4123.589844,4128.717773,4116.922852,4123.077148,0.000000,4.000000,,,,0.000000,4.000000,4.000000,4.000000,4.000000,4.000000,4.000000,4.000000,4.000000,4.000000,4.000000,4.000000,4.000000,4.000000,4.000000,100.000000
1602005475.017492,23.000000,0.000000,4136.922852,4141.025879,4111.794922,4138.974121,3990.769287,4129.743652,4138.974121,4141.538574,4136.922852,4130.256348,4124.615234,4127.179688,4120.512695,4127.179688,0.000000,4.000000,,,,0.000000,4.000000,4.000000,4.000000,4.000000,4.000000,4.000000,4.000000,4.000000,4.000000,4.000000,4.000000,4.000000,4.000000,4.000000,100.000000
1602005475.025374,24.000000,0.000000,4135.384766,4141.538574,4108.205078,4136.410156,3989.743652,4125.641113,4138.974121,4142.051270,4137.948730,4134.871582,4120.512695,4122.051270,4109.230957,4121.538574,0.000000,4.000000,,,,0.000000,4.000000,4.000000,4.000000,4.000000,4.000000,4.000000,4.000000,4.000000,4.000000,4.000000,4.000000,4.000000,4.000000,4.000000,100.000000
1602005475.033256,25.000000,0.000000,4136.410156,4143.077148,4105.128418,4137.436035,3991.794922,4125.641113,4134.358887,4140.000000,4141.538574,4144.102539,4118.461426,4119.487305,4113.846191,4119.487305,0.000000,4.000000,,,,0.000000,4.000000,4.000000,4.000000,4.000000,4.000000,4.000000,4.000000,4.000000,4.000000,4.000000,4.000000,4.000000,4.000000,4.000000,100.000000
1602005475.041139,26.000000,0.000000,4135.897461,4140.000000,4105.128418,4136.410156,3987.179443,4121.538574,4129.230957,4127.692383,4132.307617,4123.589844,4121.538574,4118.461426,4122.051270,4121.025879,0.000000,4.000000,,,,0.000000,4.000000,4.000000,4.000000,4.000000,4.000000,4.000000,4.000000,4.000000,4.000000,4.000000,4.000000,4.000000,4.000000,4.000000,100.000000
1602005475.049021,27.000000,0.000000,4137.948730,4131.282227,4114.358887,4129.230957,3981.538574,4120.512695,4131.794922,4119.487305,4121.538574,4105.641113,4122.563965,4119.487305,4113.333496,4123.077148,0.000000,4.000000,,,,0.000000,4.000000,4.000000,4.000000,4.000000,4.000000,4.000000,4.000000,4.000000,4.000000,4.000000,4.000000,4.000000,4.000000,4.000000,100.000000
1602005475.056903,28.000000,0.000000,4139.487305,4125.128418,4125.128418,4126.153809,3984.102539,4125.128418,4138.461426,4122.051270,4120.000000,4118.461426,4121.025879,4121.025879,4107.179688,4122.051270,0.000000,4.000000,,,,0.000000,4.000000,4.000000,4.000000,4.000000,4.000000,4.000000,4.000000,4.000000,4.000000,4.000000,4.000000,4.000000,4.000000,4.000000,100.000000
1602005475.064786,29.000000,0.000000,4128.205078,4121.025879,4124.102539,4123.589844,3987.179443,4124.615234,4140.512695,4124.102539,4120.512695,4124.102539,4121.025879,4126.153809,4110.256348,4117.948730,0.000000,4.000000,,,,0.000000,4.000000,4.000000,4.000000,4.000000,4.000000,4.000000,4.000000,4.000000,4.000000,4.000000,4.000000,4.000000,4.000000,4.000000,100.000000
1602005475.072668,30.000000,0.000000,4122.563965,4110.769043,4114.358887,4116.410156,3985.641113,4123.589844,4140.000000,4127.692383,4122.051270,4121.025879,4121.538574,4133.846191,4108.717773,4117.436035,0.000000,4.000000,,,,0.000000,4.000000,4.000000,4.000000,4.000000,4.000000,4.000000,4.000000,4.000000,4.000000,4.000000,4.000000,4.000000,4.000000,4.000000,100.000000
1602005475.080451,31.000000,0.000000,4132.820313,4106.666504,4111.794922,4115.384766,3986.153809,4123.077148,4141.025879,4135.897461,4129.230957,4133.333496,4121.538574,4142.051270,4110.256348,4123.077148,0.000000,4.000000,,,,0.000000,4.000000,4.000000,4.000000,4.000000,4.000000,4.000000,4.000000,4.000000,4.000000,4.000000,4.000000,4.000000,4.000000,4.000000,100.000000
1602005475.088333,32.000000,0.000000,4142.563965,4117.948730,4115.384766,4123.589844,3997.948730,4122.051270,4140.512695,4141.025879,4138.974121,4138.974121,4125.641113,4151.282227,4120.512695,4134.358887,0.000000,4.000000,,,,0.000000,4.000000,4.000000,4.000000,4.000000,4.000000,4.000000,4.000000,4.000000,4.000000,4.000000,4.000000,4.000000,4.000000,4.000000,100.000000
1602005475.096216,33.000000,0.000000,4138.974121,4124.615234,4110.769043,4123.589844,4005.641113,4117.436035,4137.436035,4140.000000,4143.589844,4129.743652,4125.641113,4151.282227,4123.077148,4135.384766,0.000000,4.000000,,,,0.000000,4.000000,4.000000,4.000000,4.000000,4.000000,4.000000,4.000000,4.000000,4.000000,4.000000,4.000000,4.000000,4.000000,4.000000,100.000000
1602005475.104099,34.000000,0.000000,4132.820313,4122.051270,4101.538574,4121.025879,4003.076904,4112.307617,4135.384766,4137.948730,4140.000000,4134.358887,4120.512695,4140.000000,4118.461426,4126.153809,0.000000,4.000000,,,,0.000000,4.000000,4.000000,4.000000,4.000000,4.000000,4.000000,4.000000,4.000000,4.000000,4.000000,4.000000,4.000000,4.000000,4.000000,100.000000
1602005475.111981,35.000000,0.000000,4140.000000,4130.769043,4107.179688,4133.333496,4013.846191,4124.615234,4136.922852,4140.000000,4141.025879,4135.384766,4127.179688,4134.871582,4122.051270,4129.743652,0.000000,4.000000,,,,0.000000,4.000000,4.000000,4.000000,4.000000,4.000000,4.000000,4.000000,4.000000,4.000000,4.000000,4.000000,4.000000,4.000000,4.000000,100.000000
1602005475.119864,36.000000,0.000000,4141.025879,4143.077148,4114.358887,4141.538574,4025.128174,4136.922852,4136.922852,4137.948730,4142.051270,4123.589844,4134.358887,4137.436035,4125.641113,4137.436035,0.000000,4.000000,,,,0.000000,4.000000,4.000000,4.000000,4.000000,4.000000,4.000000,4.000000,4.000000,4.000000,4.000000,4.000000,4.000000,4.000000,4.000000,100.000000
1602005475.127746,37.000000,0.000000,4127.179688,4137.948730,4107.692383,4132.820313,4013.333252,4125.641113,4135.897461,4125.641113,4123.589844,4134.358887,4124.615234,4135.384766,4118.461426,4125.641113,0.000000,4.000000,,,,0.000000,4.000000,4.000000,4.000000,4.000000,4.000000,4.000000,4.000000,4.000000,4.000000,4.000000,4.000000,4.000000,4.000000,4.000000,100.000000
1602005475.135629,38.000000,0.000000,4123.589844,4132.307617,4109.743652,4128.205078,4003.076904,4115.897461,4137.436035,4118.974121,4104.102539,4140.000000,4117.948730,4133.846191,4114.871582,4115.384766,0.000000,4.000000,,,,0.000000,4.000000,4.000000,4.000000,4.000000,4.000000,4.000000,4.000000,4.000000,4.000000,4.000000,4.000000,4.000000,4.000000,4.000000,100.000000
1602005475.143512,39.000000,0.000000,4139.487305,4141.025879,4126.666504,4140.000000,4016.410156,4126.153809,4134.871582,4122.563965,4105.641113,4118.461426,4127.692383,4137.948730,4123.077148,4132.820313,0.000000,4.000000,,,,0.000000,4.000000,4.000000,4.000000,4.000000,4.000000,4.000000,4.000000,4.000000,4.000000,4.000000,4.000000,4.000000,4.000000,4.000000,100.000000
1602005475.151494,40.000000,0.000000,4145.128418,4146.153809,4128.205078,4143.589844,4024.102539,4122.563965,4123.589844,4116.922852,4112.307617,4121.538574,4129.230957,4140.000000,4125.641113,4142.051270,0.000000,4.000000,,,,0.000000,4.000000,4.000000,4.000000,4.000000,4.000000,4.000000,4.000000,4.000000,4.000000,4.000000,4.000000,4.000000,4.000000,4.000000,100.000000
1602005475.159376,41.000000,0.000000,4135.897461,4137.436035,4111.794922,4131.282227,4012.307617,4102.051270,4111.282227,4107.692383,4109.230957,4142.051270,4118.974121,4133.333496,4117.948730,4125.641113,0.000000,4.000000,,,,0.000000,4.000000,4.000000,4.000000,4.000000,4.000000,4.000000,4.000000,4.000000,4.000000,4.000000,4.000000,4.000000,4.000000,4.000000,100.000000
1602005475.167259,42.000000,0.000000,4133.846191,4135.897461,4104.102539,4129.743652,4014.871826,4097.436035,4109.743652,4114.871582,4117.436035,4130.256348,4120.512695,4128.205078,4120.000000,4122.563965,0.000000,4.000000,,,,0.000000,4.000000,4.000000,4.000000,4.000000,4.000000,4.000000,4.000000,4.000000,4.000000,4.000000,4.000000,4.000000,4.000000,4.000000,100.000000
1602005475.175141,43.000000,0.000000,4135.384766,4141.025879,4107.179688,4138.461426,4033.333252,4104.615234,4117.436035,4128.205078,4133.846191,4110.256348,4125.128418,4133.846191,4125.641113,4137.948730,0.000000,4.000000,,,,0.000000,4.000000,4.000000,4.000000,4.000000,4.000000,4.000000,4.000000,4.000000,4.000000,4.000000,4.000000,4.000000,4.000000,4.000000,100.000000
1602005475.183023,44.000000,0.000000,4135.384766,4141.538574,4104.102539,4138.461426,4040.000000,4112.820313,4126.666504,4136.922852,4141.025879,4130.769043,4122.563965,4136.922852,4124.615234,4141.538574,0.000000,4.000000,,,,0.000000,4.000000,4.000000,4.000000,4.000000,4.000000,4.000000,4.000000,4.000000,4.000000,4.000000,4.000000,4.000000,4.000000,4.000000,100.000000
1602005475.190906,45.000000,0.000000,4135.384766,4138.461426,4102.563965,4135.897461,4036.410156,4122.563965,4136.410156,4143.589844,4147.179688,4154.358887,4126.666504,4134.871582,4128.717773,4135.897461,0.000000,4.000000,,,,0.000000,4.000000,4.000000,4.000000,4.000000,4.000000,4.000000,4.000000,4.000000,4.000000,4.000000,4.000000,4.000000,4.000000,4.000000,100.000000
1602005475.198788,46.000000,0.000000,4137.948730,4139.487305,4107.692383,4138.974121,4035.897461,4129.743652,4145.128418,4145.128418,4155.897461,4141.538574,4136.922852,4142.563965,4136.922852,4141.025879,0.000000,4.000000,,,,0.000000,4.000000,4.000000,4.000000,4.000000,4.000000,4.000000,4.000000,4.000000,4.000000,4.000000,4.000000,4.000000,4.000000,4.000000,100.000000
1602005475.206670,47.000000,0.000000,4145.128418,4139.487305,4109.230957,4141.025879,4036.923096,4127.179688,4146.153809,4142.563965,4153.333496,4137.436035,4140.000000,4154.871582,4140.000000,4144.102539,0.000000,4.000000,,,,0.000000,4.000000,4.000000,4.000000,4.000000,4.000000,4.000000,4.000000,4.000000,4.000000,4.000000,4.000000,4.000000,4.000000,4.000000,100.000000
1602005475.214553,48.000000,0.000000,4152.307617,4138.461426,4107.692383,4138.461426,4042.564209,4126.666504,4142.563965,4141.538574,4143.589844,4156.410156,4138.974121,4157.948730,4139.487305,4142.563965,0.000000,4.000000,,,,0.000000,4.000000,4.000000,4.000000,4.000000,4.000000,4.000000,4.000000,4.000000,4.000000,4.000000,4.000000,4.000000,4.000000,4.000000,100.000000
1602005475.222435,49.000000,0.000000,4154.358887,4145.128418,4106.666504,4143.077148,4047.692383,4130.256348,4138.461426,4134.871582,4135.897461,4149.230957,4139.487305,4154.358887,4140.000000,4149.230957,0.000000,4.000000,,,,0.000000,4.000000,4.000000,4.000000,4.000000,4.000000,4.000000,4.000000,4.000000,4.000000,4.000000,4.000000,4.000000,4.000000,4.000000,100.000000
1602005475.230317,50.000000,0.000000,4151.794922,4150.769043,4105.128418,4147.692383,4044.102539,4121.538574,4127.692383,4123.077148,4122.051270,4118.974121,4137.436035,4152.307617,4139.487305,4156.922852,0.000000,4.000000,,,,0.000000,4.000000,4.000000,4.000000,4.000000,4.000000,4.000000,4.000000,4.000000,4.000000,4.000000,4.000000,4.000000,4.000000,4.000000,100.000000
1602005475.238199,51.000000,0.000000,4158.974121,4152.820313,4113.846191,4152.820313,4047.692383,4109.230957,4116.410156,4120.512695,4110.769043,4118.974121,4136.410156,4158.974121,4139.487305,4158.461426,0.000000,4.000000,,,,0.000000,4.000000,4.000000,4.000000,4.000000,4.000000,4.000000,4.000000,4.000000,4.000000,4.000000,4.000000,4.000000,4.000000,4.000000,100.000000
1602005475.246081,52.000000,0.000000,4168.205078,4163.077148,4128.205078,4160.512695,4061.538574,4104.102539,4112.307617,4125.128418,4113.846191,4133.333496,4141.025879,4163.589844,4145.128418,4158.974121,0.000000,4.000000,,,,0.000000,4.000000,4.000000,4.000000,4.000000,4.000000,4.000000,4.000000,4.000000,4.000000,4.000000,4.000000,4.000000,4.000000,4.000000,100.000000
1602005475.253963,53.000000,0.000000,4163.589844,4166.666504,4125.128418,4160.512695,4058.974365,4104.615234,4108.717773,4118.461426,4118.974121,4116.922852,4137.436035,4154.871582,4142.051270,4152.820313,0.000000,4.000000,,,,0.000000,4.000000,4.000000,4.000000,4.000000,4.000000,4.000000,4.000000,4.000000,4.000000,4.000000,4.000000,4.000000,4.000000,4.000000,100.000000
1602005475.261845,54.000000,0.000000,4152.820313,4153.333496,4115.384766,4154.358887,4049.230713,4106.153809,4110.769043,4112.307617,4115.384766,4104.615234,4125.128418,4147.179688,4130.256348,4142.563965,0.000000,4.000000,,,,0.000000,4.000000,4.000000,4.000000,4.000000,4.000000,4.000000,4.000000,4.000000,4.000000,4.000000,4.000000,4.000000,4.000000,4.000000,100.000000
1602005475.269827,55.000000,0.000000,4152.307617,4147.179688,4120.512695,4150.769043,4050.769287,4106.666504,4118.974121,4118.974121,4121.025879,4127.692383,4128.205078,4152.820313,4131.282227,4139.487305,0.000000,4.000000,,,,0.000000,4.000000,4.000000,4.000000,4.000000,4.000000,4.000000,4.000000,4.000000,4.000000,4.000000,4.000000,4.000000,4.000000,4.000000,100.000000
1602005475.277709,56.000000,0.000000,4155.897461,4151.282227,4126.666504,4146.153809,4051.794922,4108.205078,4123.077148,4124.615234,4132.820313,4142.051270,4136.922852,4155.897461,4134.358887,4140.512695,0.000000,4.000000,,,,0.000000,4.000000,4.000000,4.000000,4.000000,4.000000,4.000000,4.000000,4.000000,4.000000,4.000000,4.000000,4.000000,4.000000,4.000000,100.000000
1602005475.285591,57.000000,0.000000,4154.358887,4143.589844,4122.051270,4140.000000,4047.692383,4114.358887,4127.179688,4125.641113,4131.282227,4126.666504,4128.717773,4157.436035,4127.179688,4136.922852,0.000000,4.000000,,,,0.000000,4.000000,4.000000,4.000000,4.000000,4.000000,4.000000,4.000000,4.000000,4.000000,4.000000,4.000000,4.000000,4.000000,4.000000,100.000000
1602005475.293473,58.000000,0.000000,4155.384766,4136.410156,4121.538574,4139.487305,4051.794922,4122.563965,4137.948730,4128.717773,4129.230957,4115.897461,4128.717773,4167.179688,4130.256348,4137.436035,0.000000,4.000000,,,,0.000000,4.000000,4.000000,4.000000,4.000000,4.000000,4.000000,4.000000,4.000000,4.000000,4.000000,4.000000,4.000000,4.000000,4.000000,100.000000
1602005475.301355,59.000000,0.000000,4156.922852,4138.974121,4125.128418,4138.461426,4056.410156,4122.051270,4143.077148,4129.230957,4136.922852,4118.974121,4138.974121,4174.358887,4140.512695,4149.230957,0.000000,4.000000,,,,0.000000,4.000000,4.000000,4.000000,4.000000,4.000000,4.000000,4.000000,4.000000,4.000000,4.000000,4.000000,4.000000,4.000000,4.000000,100.000000
1602005475.309136,60.000000,0.000000,4156.922852,4138.461426,4125.641113,4136.410156,4055.384521,4121.025879,4138.461426,4126.666504,4138.974121,4130.256348,4132.820313,4171.794922,4138.461426,4155.384766,0.000000,4.000000,,,,0.000000,4.000000,4.000000,4.000000,4.000000,4.000000,4.000000,4.000000,4.000000,4.000000,4.000000,4.000000,4.000000,4.000000,4.000000,100.000000
1602005475.317018,61.000000,0.000000,4155.897461,4137.948730,4125.128418,4145.641113,4060.000000,4125.128418,4136.410156,4125.641113,4126.666504,4142.051270,4121.538574,4169.743652,4131.282227,4146.666504,0.000000,4.000000,,,,0.000000,4.000000,4.000000,4.000000,4.000000,4.000000,4.000000,4.000000,4.000000,4.000000,4.000000,4.000000,4.000000,4.000000,4.000000,100.000000
1602005475.324799,62.000000,0.000000,4148.717773,4139.487305,4119.487305,4151.794922,4065.128174,4126.666504,4133.333496,4123.077148,4115.384766,4132.820313,4123.589844,4165.128418,4127.179688,4132.820313,0.000000,4.000000,,,,0.000000,4.000000,4.000000,4.000000,4.000000,4.000000,4.000000,4.000000,4.000000,4.000000,4.000000,4.000000,4.000000,4.000000,4.000000,100.000000
1602005475.332681,63.000000,0.000000,4138.461426,4138.974121,4108.205078,4145.641113,4063.076904,4125.641113,4131.794922,4118.974121,4108.205078,4111.794922,4122.563965,4150.256348,4121.025879,4125.128418,0.000000,4.000000,,,,0.000000,4.000000,4.000000,4.000000,4.000000,4.000000,4.000000,4.000000,4.000000,4.000000,4.000000,4.000000,4.000000,4.000000,4.000000,100.000000
1602005475.340462,64.000000,0.000000,4129.230957,4135.897461,4100.512695,4138.461426,4060.512939,4124.102539,4134.871582,4120.000000,4100.000000,4104.615234,4116.922852,4134.871582,4120.000000,4121.538574,813.000000,4.000000,,,,0.000000,4.000000,4.000000,4.000000,4.000000,4.000000,4.000000,4.000000,4.000000,4.000000,4.000000,4.000000,4.000000,4.000000,4.000000,100.000000
1602005475.348343,65.000000,0.000000,4127.179688,4135.897461,4097.948730,4140.000000,4067.179443,4125.641113,4137.436035,4125.128418,4102.051270,4105.641113,4121.025879,4137.948730,4129.230957,4124.615234,796.000000,4.000000,,,,0.000000,4.000000,4.000000,4.000000,4.000000,4.000000,4.000000,4.000000,4.000000,4.000000,4.000000,4.000000,4.000000,4.000000,4.000000,100.000000
1602005475.356125,66.000000,0.000000,4136.410156,4147.179688,4101.025879,4147.179688,4077.435791,4134.358887,4144.102539,4133.846191,4123.077148,4106.666504,4135.384766,4156.410156,4145.641113,4141.025879,853.000000,4.000000,,,,0.000000,4.000000,4.000000,4.000000,4.000000,4.000000,4.000000,4.000000,4.000000,4.000000,4.000000,4.000000,4.000000,4.000000,4.000000,100.000000
1602005475.364007,67.000000,0.000000,4151.282227,4158.461426,4110.769043,4153.846191,4082.051270,4142.563965,4149.743652,4145.128418,4147.179688,4123.589844,4150.256348,4170.769043,4159.487305,4158.974121,873.000000,4.000000,,,,0.000000,4.000000,4.000000,4.000000,4.000000,4.000000,4.000000,4.000000,4.000000,4.000000,4.000000,4.000000,4.000000,4.000000,4.000000,100.000000
1602005475.371889,68.000000,0.000000,4153.846191,4154.358887,4116.922852,4153.846191,4075.897461,4135.384766,4143.077148,4149.230957,4157.436035,4154.871582,4152.820313,4167.692383,4158.974121,4161.025879,807.000000,4.000000,,,,0.000000,4.000000,4.000000,4.000000,4.000000,4.000000,4.000000,4.000000,4.000000,4.000000,4.000000,4.000000,4.000000,4.000000,4.000000,100.000000
1602005475.379771,69.000000,0.000000,4149.743652,4149.743652,4113.846191,4150.256348,4072.820557,4121.538574,4135.897461,4144.102539,4167.692383,4174.871582,4145.128418,4163.077148,4155.384766,4151.794922,818.000000,4.000000,,,,0.000000,4.000000,4.000000,4.000000,4.000000,4.000000,4.000000,4.000000,4.000000,4.000000,4.000000,4.000000,4.000000,4.000000,4.000000,100.000000
1602005475.387653,70.000000,0.000000,4151.794922,4156.922852,4115.384766,4154.358887,4075.384521,4119.487305,4139.487305,4139.487305,4172.820313,4176.410156,4140.512695,4163.077148,4158.461426,4150.256348,785.000000,4.000000,,,,0.000000,4.000000,4.000000,4.000000,4.000000,4.000000,4.000000,4.000000,4.000000,4.000000,4.000000,4.000000,4.000000,4.000000,4.000000,100.000000
1602005475.395535,71.000000,0.000000,4154.871582,4157.436035,4115.897461,4155.897461,4075.384521,4123.589844,4138.461426,4141.025879,4157.948730,4166.666504,4143.077148,4161.025879,4160.512695,4157.436035,694.000000,4.000000,,,,0.000000,4.000000,4.000000,4.000000,4.000000,4.000000,4.000000,4.000000,4.000000,4.000000,4.000000,4.000000,4.000000,4.000000,4.000000,100.000000
1602005475.403317,72.000000,0.000000,4150.769043,4150.769043,4110.769043,4148.205078,4073.333252,4122.563965,4133.846191,4137.436035,4134.358887,4135.384766,4146.666504,4155.897461,4154.871582,4155.384766,790.000000,4.000000,,,,0.000000,4.000000,4.000000,4.000000,4.000000,4.000000,4.000000,4.000000,4.000000,4.000000,4.000000,4.000000,4.000000,4.000000,4.000000,100.000000
1602005475.411200,73.000000,0.000000,4142.051270,4152.307617,4106.666504,4140.000000,4074.871826,4120.000000,4138.974121,4126.153809,4122.563965,4103.589844,4137.436035,4149.230957,4143.589844,4143.077148,839.000000,4.000000,,,,0.000000,4.000000,4.000000,4.000000,4.000000,4.000000,4.000000,4.000000,4.000000,4.000000,4.000000,4.000000,4.000000,4.000000,4.000000,100.000000
1602005475.419082,74.000000,0.000000,4138.461426,4152.307617,4108.205078,4140.000000,4077.435791,4126.666504,4138.974121,4123.077148,4123.589844,4110.769043,4123.589844,4143.589844,4133.846191,4133.333496,873.000000,4.000000,,,,0.000000,4.000000,4.000000,4.000000,4.000000,4.000000,4.000000,4.000000,4.000000,4.000000,4.000000,4.000000,4.000000,4.000000,4.000000,100.000000
1602005475.426964,75.000000,0.000000,4137.436035,4142.563965,4109.230957,4139.487305,4075.897461,4123.589844,4126.666504,4121.538574,4118.461426,4124.102539,4117.436035,4140.512695,4125.128418,4128.717773,836.000000,4.000000,,,,0.000000,4.000000,4.000000,4.000000,4.000000,4.000000,4.000000,4.000000,4.000000,4.000000,4.000000,4.000000,4.000000,4.000000,4.000000,100.000000
1602005475.434847,76.000000,0.000000,4136.410156,4134.871582,4107.692383,4133.333496,4073.846191,4104.102539,4118.461426,4116.922852,4110.256348,4112.820313,4118.461426,4138.974121,4118.974121,4123.077148,782.000000,4.000000,,,,0.000000,4.000000,4.000000,4.000000,4.000000,4.000000,4.000000,4.000000,4.000000,4.000000,4.000000,4.000000,4.000000,4.000000,4.000000,100.000000
1602005475.442729,77.000000,0.000000,4135.897461,4135.384766,4107.179688,4131.794922,4076.410156,4104.615234,4121.025879,4118.974121,4115.897461,4115.897461,4118.461426,4138.974121,4118.974121,4120.000000,773.000000,4.000000,,,,0.000000,4.000000,4.000000,4.000000,4.000000,4.000000,4.000000,4.000000,4.000000,4.000000,4.000000,4.000000,4.000000,4.000000,4.000000,100.000000
1602005475.450611,78.000000,0.000000,4136.410156,4136.410156,4108.205078,4131.794922,4077.435791,4122.051270,4122.051270,4125.128418,4124.615234,4125.641113,4118.974121,4138.461426,4122.051270,4122.051270,873.000000,4.000000,,,,0.000000,4.000000,4.000000,4.000000,4.000000,4.000000,4.000000,4.000000,4.000000,4.000000,4.000000,4.000000,4.000000,4.000000,4.000000,100.000000
1602005475.458494,79.000000,0.000000,4138.974121,4137.436035,4110.256348,4131.794922,4075.384521,4120.512695,4120.000000,4126.666504,4125.641113,4110.256348,4127.692383,4138.974121,4129.230957,4129.230957,836.000000,4.000000,,,,0.000000,4.000000,4.000000,4.000000,4.000000,4.000000,4.000000,4.000000,4.000000,4.000000,4.000000,4.000000,4.000000,4.000000,4.000000,100.000000
1602005475.466276,80.000000,0.000000,4140.512695,4140.000000,4113.846191,4131.794922,4075.384521,4105.128418,4121.025879,4127.692383,4131.794922,4111.794922,4136.410156,4137.436035,4137.948730,4131.282227,782.000000,4.000000,,,,0.000000,4.000000,4.000000,4.000000,4.000000,4.000000,4.000000,4.000000,4.000000,4.000000,4.000000,4.000000,4.000000,4.000000,4.000000,100.000000
1602005475.474158,81.000000,0.000000,4143.589844,4139.487305,4119.487305,4129.230957,4073.846191,4108.717773,4118.974121,4128.205078,4141.025879,4147.179688,4136.410156,4137.436035,4137.436035,4128.717773,773.000000,4.000000,,,,0.000000,4.000000,4.000000,4.000000,4.000000,4.000000,4.000000,4.000000,4.000000,4.000000,4.000000,4.000000,4.000000,4.000000,4.000000,100.000000
1602005475.482040,82.000000,0.000000,4148.717773,4140.000000,4120.512695,4130.256348,4073.846191,4129.230957,4119.487305,4129.230957,4140.000000,4159.487305,4138.974121,4146.153809,4137.948730,4135.384766,873.000000,4.000000,,,,0.000000,4.000000,4.000000,4.000000,4.000000,4.000000,4.000000,4.000000,4.000000,4.000000,4.000000,4.000000,4.000000,4.000000,4.000000,100.000000
1602005475.489921,83.000000,0.000000,4145.128418,4138.974121,4110.769043,4133.846191,4082.564209,4135.897461,4129.743652,4128.717773,4136.922852,4139.487305,4144.615234,4155.897461,4147.692383,4143.589844,836.000000,4.000000,,,,0.000000,4.000000,4.000000,4.000000,4.000000,4.000000,4.000000,4.000000,4.000000,4.000000,4.000000,4.000000,4.000000,4.000000,4.000000,100.000000
1602005475.497803,84.000000,0.000000,4134.358887,4135.384766,4103.077148,4133.333496,4090.256348,4130.256348,4138.974121,4123.077148,4141.538574,4137.948730,4140.000000,4154.871582,4147.179688,4141.538574,782.000000,4.000000,,,,0.000000,4.000000,4.000000,4.000000,4.000000,4.000000,4.000000,4.000000,4.000000,4.000000,4.000000,4.000000,4.000000,4.000000,4.000000,100.000000
1602005475.505785,85.000000,0.000000,4134.358887,4138.461426,4105.641113,4131.794922,4091.794922,4133.846191,4140.512695,4120.000000,4137.948730,4142.051270,4135.897461,4151.794922,4141.025879,4142.051270,773.000000,4.000000,,,,0.000000,4.000000,4.000000,4.000000,4.000000,4.000000,4.000000,4.000000,4.000000,4.000000,4.000000,4.000000,4.000000,4.000000,4.000000,100.000000
1602005475.513667,86.000000,0.000000,4135.384766,4137.436035,4104.615234,4130.256348,4092.820557,4134.871582,4141.538574,4121.538574,4124.102539,4115.897461,4138.974121,4149.743652,4143.589844,4141.538574,873.000000,4.000000,,,,0.000000,4.000000,4.000000,4.000000,4.000000,4.000000,4.000000,4.000000,4.000000,4.000000,4.000000,4.000000,4.000000,4.000000,4.000000,100.000000
1602005475.521550,87.000000,0.000000,4128.717773,4130.256348,4097.948730,4122.051270,4091.794922,4124.102539,4147.692383,4124.615234,4125.128418,4107.179688,4135.384766,4146.153809,4141.538574,4130.769043,836.000000,4.000000,,,,0.000000,4.000000,4.000000,4.000000,4.000000,4.000000,4.000000,4.000000,4.000000,4.000000,4.000000,4.000000,4.000000,4.000000,4.000000,100.000000
1602005475.529432,88.000000,0.000000,4130.769043,4133.846191,4100.512695,4125.641113,4090.256348,4129.230957,4150.769043,4132.820313,4141.538574,4142.051270,4133.333496,4148.205078,4136.922852,4134.358887,782.000000,4.000000,,,,0.000000,4.000000,4.000000,4.000000,4.000000,4.000000,4.000000,4.000000,4.000000,4.000000,4.000000,4.000000,4.000000,4.000000,4.000000,100.000000
1602005475.537314,89.000000,0.000000,4140.000000,4141.025879,4108.717773,4139.487305,4096.922852,4142.563965,4143.589844,4138.974121,4148.205078,4166.153809,4137.436035,4157.948730,4145.128418,4151.794922,773.000000,4.000000,,,,0.000000,4.000000,4.000000,4.000000,4.000000,4.000000,4.000000,4.000000,4.000000,4.000000,4.000000,4.000000,4.000000,4.000000,4.000000,100.000000
1602005475.545196,90.000000,0.000000,4141.538574,4142.563965,4114.871582,4139.487305,4098.974121,4131.282227,4130.769043,4138.461426,4147.179688,4152.307617,4141.538574,4164.615234,4153.846191,4155.384766,873.000000,4.000000,,,,0.000000,4.000000,4.000000,4.000000,4.000000,4.000000,4.000000,4.000000,4.000000,4.000000,4.000000,4.000000,4.000000,4.000000,4.000000,100.000000
1602005475.553078,91.000000,0.000000,4148.717773,4149.743652,4127.179688,4141.025879,4091.281982,4118.974121,4123.589844,4140.000000,4153.333496,4141.025879,4148.205078,4169.230957,4154.871582,4150.256348,836.000000,4.000000,,,,0.000000,4.000000,4.000000,4.000000,4.000000,4.000000,4.000000,4.000000,4.000000,4.000000,4.000000,4.000000,4.000000,4.000000,4.000000,100.000000
1602005475.560860,92.000000,0.000000,4167.179688,4158.974121,4140.000000,4152.307617,4091.281982,4126.666504,4121.538574,4142.051270,4157.436035,4149.230957,4156.410156,4171.794922,4159.487305,4157.948730,782.000000,4.000000,,,,0.000000,4.000000,4.000000,4.000000,4.000000,4.000000,4.000000,4.000000,4.000000,4.000000,4.000000,4.000000,4.000000,4.000000,4.000000,100.000000
1602005475.568743,93.000000,0.000000,4170.256348,4155.384766,4142.051270,4156.410156,4095.897461,4126.153809,4120.512695,4133.846191,4149.230957,4140.000000,4151.282227,4167.179688,4161.025879,4167.692383,773.000000,4.000000,,,,0.000000,4.000000,4.000000,4.000000,4.000000,4.000000,4.000000,4.000000,4.000000,4.000000,4.000000,4.000000,4.000000,4.000000,4.000000,100.000000
1602005475.576625,94.000000,0.000000,4157.436035,4153.333496,4140.000000,4152.307617,4091.281982,4115.897461,4127.692383,4124.102539,4137.436035,4114.358887,4142.051270,4159.487305,4154.358887,4164.102539,873.000000,4.000000,,,,0.000000,4.000000,4.000000,4.000000,4.000000,4.000000,4.000000,4.000000,4.000000,4.000000,4.000000,4.000000,4.000000,4.000000,4.000000,100.000000
1602005475.584508,95.000000,0.000000,4152.307617,4154.358887,4135.384766,4147.692383,4089.230713,4124.102539,4138.461426,4125.641113,4133.846191,4120.512695,4144.615234,4154.871582,4153.333496,4154.871582,836.000000,4.000000,,,,0.000000,4.000000,4.000000,4.000000,4.000000,4.000000,4.000000,4.000000,4.000000,4.000000,4.000000,4.000000,4.000000,4.000000,4.000000,100.000000
1602005475.592390,96.000000,0.000000,4156.410156,4145.128418,4125.641113,4143.589844,4095.897461,4141.025879,4141.025879,4130.256348,4138.974121,4151.794922,4153.333496,4152.820313,4156.410156,4151.794922,782.000000,4.000000,,,,0.000000,4.000000,4.000000,4.000000,4.000000,4.000000,4.000000,4.000000,4.000000,4.000000,4.000000,4.000000,4.000000,4.000000,4.000000,100.000000
1602005475.600272,97.000000,0.000000,4155.384766,4138.974121,4121.538574,4140.000000,4095.384521,4132.820313,4140.512695,4127.179688,4140.512695,4158.461426,4152.820313,4152.820313,4155.384766,4156.922852,773.000000,4.000000,,,,0.000000,4.000000,4.000000,4.000000,4.000000,4.000000,4.000000,4.000000,4.000000,4.000000,4.000000,4.000000,4.000000,4.000000,4.000000,100.000000
1602005475.608155,98.000000,0.000000,4152.820313,4142.051270,4125.641113,4141.025879,4094.358887,4119.487305,4141.025879,4123.589844,4140.000000,4153.846191,4151.794922,4163.589844,4164.102539,4169.230957,873.000000,4.000000,,,,0.000000,4.000000,4.000000,4.000000,4.000000,4.000000,4.000000,4.000000,4.000000,4.000000,4.000000,4.000000,4.000000,4.000000,4.000000,100.000000
1602005475.616037,99.000000,0.000000,4152.820313,4141.538574,4124.102539,4138.461426,4101.025879,4122.051270,4133.333496,4125.128418,4139.487305,4138.974121,4156.410156,4169.230957,4169.743652,4170.769043,836.000000,4.000000,,,,0.000000,4.000000,4.000000,4.000000,4.000000,4.000000,4.000000,4.000000,4.000000,4.000000,4.000000,4.000000,4.000000,4.000000,4.000000,100.000000
1602005475.624019,100.000000,0.000000,4152.307617,4142.051270,4117.948730,4138.461426,4103.589844,4114.871582,4117.436035,4122.051270,4134.871582,4106.153809,4151.282227,4155.384766,4156.922852,4155.384766,782.000000,4.000000,,,,0.000000,4.000000,4.000000,4.000000,4.000000,4.000000,4.000000,4.000000,4.000000,4.000000,4.000000,4.000000,4.000000,4.000000,4.000000,100.000000
1602005475.631902,101.000000,0.000000,4150.769043,4152.820313,4120.000000,4149.230957,4104.615234,4105.641113,4108.205078,4120.512695,4135.897461,4120.000000,4143.077148,4147.692383,4150.256348,4149.230957,773.000000,4.000000,,,,0.000000,4.000000,4.000000,4.000000,4.000000,4.000000,4.000000,4.000000,4.000000,4.000000,4.000000,4.000000,4.000000,4.000000,4.000000,100.000000
1602005475.639785,102.000000,0.000000,4145.128418,4158.461426,4117.436035,4151.794922,4110.256348,4115.384766,4106.666504,4123.077148,4142.051270,4166.666504,4144.102539,4149.230957,4157.948730,4155.384766,873.000000,4.000000,,,,0.000000,4.000000,4.000000,4.000000,4.000000,4.000000,4.000000,4.000000,4.000000,4.000000,4.000000,4.000000,4.000000,4.000000,4.000000,100.000000
1602005475.647667,103.000000,0.000000,4135.384766,4147.692383,4101.025879,4141.025879,4110.256348,4120.512695,4111.794922,4123.589844,4140.512695,4154.871582,4141.025879,4134.358887,4148.205078,4144.615234,836.000000,4.000000,,,,0.000000,4.000000,4.000000,4.000000,4.000000,4.000000,4.000000,4.000000,4.000000,4.000000,4.000000,4.000000,4.000000,4.000000,4.000000,100.000000
1602005475.655550,104.000000,0.000000,4132.820313,4143.077148,4096.410156,4137.436035,4105.128418,4117.948730,4125.128418,4127.179688,4134.358887,4121.025879,4131.794922,4121.025879,4132.307617,4129.743652,782.000000,4.000000,,,,0.000000,4.000000,4.000000,4.000000,4.000000,4.000000,4.000000,4.000000,4.000000,4.000000,4.000000,4.000000,4.000000,4.000000,4.000000,100.000000
1602005475.663432,105.000000,0.000000,4141.538574,4150.769043,4114.871582,4143.077148,4104.615234,4126.153809,4140.000000,4136.410156,4131.282227,4128.717773,4136.410156,4138.974121,4141.025879,4138.974121,773.000000,4.000000,,,,0.000000,4.000000,4.000000,4.000000,4.000000,4.000000,4.000000,4.000000,4.000000,4.000000,4.000000,4.000000,4.000000,4.000000,4.000000,100.000000
1602005475.671315,106.000000,0.000000,4148.205078,4156.410156,4129.743652,4142.563965,4107.692383,4134.871582,4145.641113,4141.025879,4128.205078,4135.384766,4148.717773,4159.487305,4153.846191,4153.846191,873.000000,4.000000,,,,0.000000,4.000000,4.000000,4.000000,4.000000,4.000000,4.000000,4.000000,4.000000,4.000000,4.000000,4.000000,4.000000,4.000000,4.000000,100.000000
1602005475.679198,107.000000,0.000000,4144.102539,4149.230957,4123.589844,4137.948730,4107.179688,4129.743652,4142.051270,4139.487305,4123.077148,4115.897461,4146.666504,4158.461426,4146.666504,4153.333496,836.000000,4.000000,,,,0.000000,4.000000,4.000000,4.000000,4.000000,4.000000,4.000000,4.000000,4.000000,4.000000,4.000000,4.000000,4.000000,4.000000,4.000000,100.000000
1602005475.687080,108.000000,0.000000,4140.000000,4139.487305,4113.846191,4135.897461,4105.128418,4122.051270,4139.487305,4134.358887,4123.589844,4119.487305,4138.461426,4152.307617,4136.922852,4149.743652,782.000000,4.000000,,,,0.000000,4.000000,4.000000,4.000000,4.000000,4.000000,4.000000,4.000000,4.000000,4.000000,4.000000,4.000000,4.000000,4.000000,4.000000,100.000000
1602005475.694963,109.000000,0.000000,4138.974121,4136.410156,4109.743652,4133.333496,4104.615234,4119.487305,4136.922852,4124.615234,4123.077148,4149.743652,4136.922852,4147.692383,4144.102539,4151.282227,773.000000,4.000000,,,,0.000000,4.000000,4.000000,4.000000,4.000000,4.000000,4.000000,4.000000,4.000000,4.000000,4.000000,4.000000,4.000000,4.000000,4.000000,100.000000
1602005475.702745,110.000000,0.000000,4142.563965,4139.487305,4109.230957,4135.897461,4106.666504,4121.538574,4131.794922,4125.128418,4124.102539,4163.077148,4142.563965,4142.051270,4153.846191,4154.871582,873.000000,4.000000,,,,0.000000,4.000000,4.000000,4.000000,4.000000,4.000000,4.000000,4.000000,4.000000,4.000000,4.000000,4.000000,4.000000,4.000000,4.000000,100.000000
1602005475.710628,111.000000,0.000000,4150.769043,4147.692383,4114.358887,4137.948730,4111.282227,4123.077148,4122.563965,4135.384766,4131.282227,4157.948730,4152.307617,4145.641113,4156.410156,4155.384766,836.000000,4.000000,,,,0.000000,4.000000,4.000000,4.000000,4.000000,4.000000,4.000000,4.000000,4.000000,4.000000,4.000000,4.000000,4.000000,4.000000,4.000000,100.000000
1602005475.718510,112.000000,0.000000,4156.410156,4152.820313,4121.025879,4138.461426,4114.871582,4121.025879,4118.974121,4136.410156,4138.461426,4159.487305,4161.538574,4154.871582,4160.512695,4151.282227,782.000000,4.000000,,,,0.000000,4.000000,4.000000,4.000000,4.000000,4.000000,4.000000,4.000000,4.000000,4.000000,4.000000,4.000000,4.000000,4.000000,4.000000,100.000000
1602005475.726392,113.000000,0.000000,4156.922852,4155.384766,4124.615234,4144.615234,4120.000000,4129.743652,4128.717773,4141.538574,4148.205078,4172.820313,4167.692383,4158.974121,4169.743652,4160.000000,773.000000,4.000000,,,,0.000000,4.000000,4.000000,4.000000,4.000000,4.000000,4.000000,4.000000,4.000000,4.000000,4.000000,4.000000,4.000000,4.000000,4.000000,100.000000
1602005475.734275,114.000000,0.000000,4154.358887,4154.358887,4126.153809,4146.153809,4125.641113,4142.563965,4140.512695,4158.461426,4156.922852,4177.948730,4174.871582,4159.487305,4176.410156,4176.922852,873.000000,4.000000,,,,0.000000,4.000000,4.000000,4.000000,4.000000,4.000000,4.000000,4.000000,4.000000,4.000000,4.000000,4.000000,4.000000,4.000000,4.000000,100.000000
1602005475.742157,115.000000,0.000000,4143.077148,4142.563965,4118.461426,4132.820313,4121.025879,4144.102539,4141.025879,4157.948730,4149.230957,4147.179688,4172.307617,4154.358887,4167.179688,4168.205078,836.000000,4.000000,,,,0.000000,4.000000,4.000000,4.000000,4.000000,4.000000,4.000000,4.000000,4.000000,4.000000,4.000000,4.000000,4.000000,4.000000,4.000000,100.000000
1602005475.750039,116.000000,0.000000,4127.179688,4125.128418,4102.051270,4121.025879,4111.282227,4135.897461,4138.461426,4141.538574,4131.794922,4117.948730,4154.358887,4138.974121,4146.666504,4142.563965,782.000000,4.000000,,,,0.000000,4.000000,4.000000,4.000000,4.000000,4.000000,4.000000,4.000000,4.000000,4.000000,4.000000,4.000000,4.000000,4.000000,4.000000,100.000000
1602005475.757922,117.000000,0.000000,4121.025879,4117.436035,4095.384521,4121.025879,4108.205078,4127.692383,4136.922852,4137.436035,4124.615234,4137.948730,4142.563965,4126.153809,4135.897461,4133.333496,773.000000,4.000000,,,,0.000000,4.000000,4.000000,4.000000,4.000000,4.000000,4.000000,4.000000,4.000000,4.000000,4.000000,4.000000,4.000000,4.000000,4.000000,100.000000
1602005475.765804,118.000000,0.000000,4125.128418,4120.000000,4104.615234,4124.615234,4109.230957,4121.538574,4130.256348,4141.538574,4125.641113,4162.051270,4142.563965,4127.692383,4137.436035,4135.897461,873.000000,4.000000,,,,0.000000,4.000000,4.000000,4.000000,4.000000,4.000000,4.000000,4.000000,4.000000,4.000000,4.000000,4.000000,4.000000,4.000000,4.000000,100.000000
1602005475.773786,119.000000,0.000000,4134.358887,4123.077148,4113.846191,4126.153809,4110.769043,4121.025879,4125.128418,4136.410156,4127.179688,4149.743652,4142.563965,4135.384766,4139.487305,4136.410156,836.000000,4.000000,,,,0.000000,4.000000,4.000000,4.000000,4.000000,4.000000,4.000000,4.000000,4.000000,4.000000,4.000000,4.000000,4.000000,4.000000,4.000000,100.000000
1602005475.781668,120.000000,0.000000,4145.128418,4124.102539,4118.461426,4126.666504,4115.897461,4125.641113,4124.102539,4132.307617,4125.128418,4134.871582,4146.153809,4143.077148,4143.077148,4142.563965,782.000000,4.000000,,,,0.000000,4.000000,4.000000,4.000000,4.000000,4.000000,4.000000,4.000000,4.000000,4.000000,4.000000,4.000000,4.000000,4.000000,4.000000,100.000000
1602005475.789550,121.000000,0.000000,4151.794922,4126.666504,4125.641113,4127.692383,4122.051270,4125.641113,4121.538574,4134.358887,4123.077148,4127.692383,4154.871582,4152.820313,4148.205078,4153.846191,773.000000,4.000000,,,,0.000000,4.000000,4.000000,4.000000,4.000000,4.000000,4.000000,4.000000,4.000000,4.000000,4.000000,4.000000,4.000000,4.000000,4.000000,100.000000
1602005475.797432,122.000000,0.000000,4147.692383,4127.179688,4127.179688,4129.230957,4120.000000,4124.615234,4123.589844,4131.282227,4122.051270,4123.077148,4151.282227,4156.410156,4146.153809,4155.384766,873.000000,4.000000,,,,0.000000,4.000000,4.000000,4.000000,4.000000,4.000000,4.000000,4.000000,4.000000,4.000000,4.000000,4.000000,4.000000,4.000000,4.000000,100.000000
1602005475.805313,123.000000,0.000000,4133.846191,4120.512695,4115.897461,4124.102539,4113.333496,4127.179688,4129.743652,4121.025879,4111.794922,4131.794922,4137.436035,4147.692383,4134.358887,4142.563965,836.000000,4.000000,,,,0.000000,4.000000,4.000000,4.000000,4.000000,4.000000,4.000000,4.000000,4.000000,4.000000,4.000000,4.000000,4.000000,4.000000,4.000000,100.000000
1602005475.813095,124.000000,0.000000,4130.256348,4115.384766,4108.717773,4116.922852,4109.743652,4129.743652,4133.333496,4123.077148,4108.205078,4132.820313,4133.333496,4137.948730,4124.102539,4137.948730,782.000000,4.000000,,,,0.000000,4.000000,4.000000,4.000000,4.000000,4.000000,4.000000,4.000000,4.000000,4.000000,4.000000,4.000000,4.000000,4.000000,4.000000,100.000000
1602005475.820976,125.000000,0.000000,4133.846191,4118.461426,4110.769043,4114.871582,4114.358887,4128.205078,4136.922852,4137.948730,4125.128418,4127.179688,4137.436035,4131.282227,4123.589844,4136.922852,773.000000,4.000000,,,,0.000000,4.000000,4.000000,4.000000,4.000000,4.000000,4.000000,4.000000,4.000000,4.000000,4.000000,4.000000,4.000000,4.000000,4.000000,100.000000
1602005475.828958,126.000000,0.000000,4126.153809,4121.538574,4111.282227,4117.948730,4121.025879,4128.205078,4137.436035,4141.538574,4140.512695,4138.974121,4138.974121,4125.128418,4131.282227,4128.205078,873.000000,4.000000,,,,0.000000,4.000000,4.000000,4.000000,4.000000,4.000000,4.000000,4.000000,4.000000,4.000000,4.000000,4.000000,4.000000,4.000000,4.000000,100.000000
1602005475.836839,127.000000,0.000000,4120.000000,4122.051270,4107.179688,4120.000000,4123.077148,4129.230957,4130.256348,4135.897461,4140.512695,4145.128418,4136.410156,4123.589844,4137.948730,4129.230957,836.000000,4.000000,,,,0.000000,4.000000,4.000000,4.000000,4.000000,4.000000,4.000000,4.000000,4.000000,4.000000,4.000000,4.000000,4.000000,4.000000,4.000000,100.000000
1602005475.844820,128.000000,0.000000,4131.794922,4130.256348,4111.794922,4124.102539,4121.538574,4123.077148,4123.589844,4136.922852,4136.922852,4129.230957,4136.922852,4123.077148,4138.974121,4132.820313,782.000000,4.000000,,,,0.000000,4.000000,4.000000,4.000000,4.000000,4.000000,4.000000,4.000000,4.000000,4.000000,4.000000,4.000000,4.000000,4.000000,4.000000,100.000000
1602005475.852702,0.000000,0.000000,4142.563965,4137.948730,4120.512695,4132.307617,4121.538574,4123.589844,4124.615234,4133.846191,4131.282227,4128.205078,4141.025879,4122.051270,4141.025879,4129.230957,813.000000,4.000000,,,,0.000000,4.000000,4.000000,4.000000,4.000000,4.000000,4.000000,4.000000,4.000000,4.000000,4.000000,4.000000,4.000000,4.000000,4.000000,100.000000
1602005475.860483,1.000000,0.000000,4133.846191,4132.307617,4114.358887,4132.307617,4118.974121,4125.128418,4124.615234,4123.589844,4116.410156,4141.538574,4136.410156,4122.563965,4137.436035,4134.358887,796.000000,4.000000,,,,0.000000,4.000000,4.000000,4.000000,4.000000,4.000000,4.000000,4.000000,4.000000,4.000000,4.000000,4.000000,4.000000,4.000000,4.000000,100.000000
1602005475.868365,2.000000,0.000000,4118.461426,4116.410156,4096.922852,4117.948730,4111.282227,4119.487305,4122.051270,4118.461426,4103.077148,4133.846191,4125.641113,4117.948730,4124.615234,4137.436035,853.000000,4.000000,,,,0.000000,4.000000,4.000000,4.000000,4.000000,4.000000,4.000000,4.000000,4.000000,4.000000,4.000000,4.000000,4.000000,4.000000,4.000000,100.000000
1602005475.876246,3.000000,0.000000,4114.871582,4105.128418,4089.743652,4107.692383,4106.153809,4125.641113,4129.230957,4118.974121,4099.487305,4111.794922,4120.512695,4112.307617,4117.948730,4126.666504,873.000000,4.000000,,,,0.000000,4.000000,4.000000,4.000000,4.000000,4.000000,4.000000,4.000000,4.000000,4.000000,4.000000,4.000000,4.000000,4.000000,4.000000,100.000000
1602005475.884028,4.000000,0.000000,4121.025879,4109.743652,4102.563965,4115.384766,4107.692383,4136.922852,4137.948730,4120.000000,4099.487305,4102.563965,4122.051270,4116.922852,4120.000000,4128.205078,807.000000,4.000000,,,,0.000000,4.000000,4.000000,4.000000,4.000000,4.000000,4.000000,4.000000,4.000000,4.000000,4.000000,4.000000,4.000000,4.000000,4.000000,100.000000
1602005475.891911,5.000000,0.000000,4123.077148,4120.512695,4117.948730,4124.615234,4115.384766,4134.871582,4135.897461,4123.077148,4106.666504,4106.153809,4125.128418,4121.025879,4121.538574,4138.974121,818.000000,4.000000,,,,0.000000,4.000000,4.000000,4.000000,4.000000,4.000000,4.000000,4.000000,4.000000,4.000000,4.000000,4.000000,4.000000,4.000000,4.000000,100.000000
1602005475.899793,6.000000,0.000000,4128.205078,4124.102539,4124.615234,4125.641113,4122.563965,4128.205078,4135.384766,4130.769043,4122.563965,4113.846191,4133.846191,4121.538574,4128.717773,4137.948730,780.000000,4.000000,,,,0.000000,4.000000,4.000000,4.000000,4.000000,4.000000,4.000000,4.000000,4.000000,4.000000,4.000000,4.000000,4.000000,4.000000,4.000000,100.000000
1602005475.907676,7.000000,0.000000,4137.948730,4124.615234,4128.205078,4127.179688,4124.102539,4128.205078,4135.384766,4136.410156,4132.820313,4128.205078,4143.589844,4125.128418,4141.025879,4138.974121,694.000000,4.000000,,,,0.000000,4.000000,4.000000,4.000000,4.000000,4.000000,4.000000,4.000000,4.000000,4.000000,4.000000,4.000000,4.000000,4.000000,4.000000,100.000000
1602005475.915558,8.000000,0.000000,4131.282227,4124.615234,4121.025879,4126.666504,4121.538574,4123.077148,4126.153809,4133.846191,4132.307617,4138.974121,4142.563965,4125.128418,4142.051270,4140.000000,790.000000,4.000000,,,,0.000000,4.000000,4.000000,4.000000,4.000000,4.000000,4.000000,4.000000,4.000000,4.000000,4.000000,4.000000,4.000000,4.000000,4.000000,100.000000
1602005475.923440,9.000000,0.000000,4111.282227,4118.461426,4099.487305,4120.000000,4121.538574,4115.897461,4119.487305,4128.717773,4135.384766,4148.717773,4139.487305,4119.487305,4136.922852,4134.871582,839.000000,4.000000,,,,0.000000,4.000000,4.000000,4.000000,4.000000,4.000000,4.000000,4.000000,4.000000,4.000000,4.000000,4.000000,4.000000,4.000000,4.000000,100.000000
1602005475.931323,10.000000,0.000000,4110.256348,4115.384766,4089.230713,4117.436035,4123.077148,4117.948730,4123.589844,4128.205078,4142.563965,4163.077148,4148.205078,4118.974121,4143.589844,4134.871582,873.000000,4.000000,,,,0.000000,4.000000,4.000000,4.000000,4.000000,4.000000,4.000000,4.000000,4.000000,4.000000,4.000000,4.000000,4.000000,4.000000,4.000000,100.000000
1602005475.939205,11.000000,0.000000,4125.641113,4124.102539,4101.538574,4125.641113,4127.179688,4121.538574,4125.128418,4128.717773,4137.436035,4163.077148,4156.410156,4123.589844,4155.897461,4139.487305,836.000000,4.000000,,,,0.000000,4.000000,4.000000,4.000000,4.000000,4.000000,4.000000,4.000000,4.000000,4.000000,4.000000,4.000000,4.000000,4.000000,4.000000,100.000000
1602005475.947187,12.000000,0.000000,4129.743652,4129.230957,4110.256348,4134.871582,4132.307617,4124.615234,4122.563965,4125.641113,4118.974121,4135.384766,4150.769043,4125.128418,4153.846191,4138.974121,782.000000,4.000000,,,,0.000000,4.000000,4.000000,4.000000,4.000000,4.000000,4.000000,4.000000,4.000000,4.000000,4.000000,4.000000,4.000000,4.000000,4.000000,100.000000
1602005475.955070,13.000000,0.000000,4122.051270,4128.205078,4106.153809,4137.436035,4131.794922,4124.615234,4117.948730,4122.051270,4102.051270,4106.666504,4141.025879,4122.051270,4141.538574,4134.871582,773.000000,4.000000,,,,0.000000,4.000000,4.000000,4.000000,4.000000,4.000000,4.000000,4.000000,4.000000,4.000000,4.000000,4.000000,4.000000,4.000000,4.000000,100.000000
1602005475.962952,14.000000,0.000000,4123.077148,4128.717773,4108.717773,4136.410156,4129.230957,4122.051270,4115.897461,4122.563965,4105.641113,4114.358887,4138.974121,4120.512695,4137.436035,4134.358887,873.000000,4.000000,,,,0.000000,4.000000,4.000000,4.000000,4.000000,4.000000,4.000000,4.000000,4.000000,4.000000,4.000000,4.000000,4.000000,4.000000,4.000000,100.000000
1602005475.970834,15.000000,0.000000,4130.256348,4126.666504,4112.820313,4133.846191,4127.692383,4122.563965,4126.153809,4123.589844,4121.025879,4138.974121,4140.512695,4123.077148,4141.025879,4136.922852,836.000000,4.000000,,,,0.000000,4.000000,4.000000,4.000000,4.000000,4.000000,4.000000,4.000000,4.000000,4.000000,4.000000,4.000000,4.000000,4.000000,4.000000,100.000000
1602005475.978717,16.000000,0.000000,4126.153809,4121.538574,4109.230957,4128.205078,4125.128418,4128.717773,4137.436035,4123.589844,4122.051270,4143.077148,4139.487305,4124.615234,4137.948730,4140.512695,0.000000,4.000000,,,,0.000000,4.000000,4.000000,4.000000,4.000000,4.000000,4.000000,4.000000,4.000000,4.000000,4.000000,4.000000,4.000000,4.000000,4.000000,100.000000
1602005475.986599,17.000000,0.000000,4121.025879,4119.487305,4105.128418,4123.589844,4124.615234,4137.436035,4137.948730,4125.641113,4121.538574,4137.436035,4138.461426,4123.589844,4129.743652,4136.410156,0.000000,4.000000,,,,0.000000,4.000000,4.000000,4.000000,4.000000,4.000000,4.000000,4.000000,4.000000,4.000000,4.000000,4.000000,4.000000,4.000000,4.000000,100.000000
1602005475.994481,18.000000,0.000000,4122.563965,4116.922852,4099.487305,4123.077148,4127.179688,4133.846191,4133.333496,4127.692383,4127.179688,4131.282227,4137.436035,4123.589844,4124.102539,4122.051270,0.000000,4.000000,,,,0.000000,4.000000,4.000000,4.000000,4.000000,4.000000,4.000000,4.000000,4.000000,4.000000,4.000000,4.000000,4.000000,4.000000,4.000000,100.000000
1602005476.002364,19.000000,0.000000,4122.051270,4112.820313,4096.922852,4122.051270,4125.641113,4120.512695,4128.205078,4129.230957,4122.563965,4121.025879,4136.922852,4118.461426,4120.512695,4121.025879,0.000000,4.000000,,,,0.000000,4.000000,4.000000,4.000000,4.000000,4.000000,4.000000,4.000000,4.000000,4.000000,4.000000,4.000000,4.000000,4.000000,4.000000,100.000000
1602005476.010246,20.000000,0.000000,4118.461426,4115.384766,4103.077148,4122.051270,4128.205078,4119.487305,4122.563965,4132.820313,4115.384766,4123.077148,4137.948730,4112.307617,4122.563965,4135.897461,0.000000,4.000000,,,,0.000000,4.000000,4.000000,4.000000,4.000000,4.000000,4.000000,4.000000,4.000000,4.000000,4.000000,4.000000,4.000000,4.000000,4.000000,100.000000
1602005476.018029,21.000000,0.000000,4121.538574,4121.538574,4110.769043,4124.102539,4137.948730,4133.333496,4121.538574,4136.410156,4123.589844,4136.410156,4141.025879,4116.410156,4133.846191,4141.538574,0.000000,4.000000,,,,0.000000,4.000000,4.000000,4.000000,4.000000,4.000000,4.000000,4.000000,4.000000,4.000000,4.000000,4.000000,4.000000,4.000000,4.000000,100.000000
1602005476.025911,22.000000,0.000000,4121.538574,4120.512695,4104.102539,4121.538574,4134.871582,4131.282227,4124.615234,4133.846191,4131.282227,4144.615234,4140.512695,4115.897461,4136.410156,4132.307617,0.000000,4.000000,,,,0.000000,4.000000,4.000000,4.000000,4.000000,4.000000,4.000000,4.000000,4.000000,4.000000,4.000000,4.000000,4.000000,4.000000,4.000000,100.000000
1602005476.033793,23.000000,0.000000,4115.897461,4115.384766,4090.256348,4118.974121,4127.692383,4117.436035,4126.153809,4127.692383,4124.102539,4149.743652,4137.436035,4109.230957,4125.641113,4122.563965,0.000000,4.000000,,,,0.000000,4.000000,4.000000,4.000000,4.000000,4.000000,4.000000,4.000000,4.000000,4.000000,4.000000,4.000000,4.000000,4.000000,4.000000,100.000000
1602005476.041676,24.000000,0.000000,4116.922852,4116.410156,4093.846191,4121.025879,4131.794922,4125.641113,4130.769043,4128.717773,4117.436035,4144.615234,4136.410156,4114.871582,4125.128418,4118.974121,0.000000,4.000000,,,,0.000000,4.000000,4.000000,4.000000,4.000000,4.000000,4.000000,4.000000,4.000000,4.000000,4.000000,4.000000,4.000000,4.000000,4.000000,100.000000
1602005476.049558,25.000000,0.000000,4124.615234,4124.102539,4107.179688,4124.615234,4138.974121,4143.077148,4138.461426,4137.948730,4128.717773,4136.410156,4143.589844,4123.589844,4139.487305,4126.153809,0.000000,4.000000,,,,0.000000,4.000000,4.000000,4.000000,4.000000,4.000000,4.000000,4.000000,4.000000,4.000000,4.000000,4.000000,4.000000,4.000000,4.000000,100.000000
1602005476.057440,26.000000,0.000000,4129.230957,4132.307617,4110.769043,4130.256348,4141.025879,4143.077148,4140.000000,4143.589844,4148.717773,4140.512695,4153.333496,4120.000000,4144.102539,4135.384766,0.000000,4.000000,,,,0.000000,4.000000,4.000000,4.000000,4.000000,4.000000,4.000000,4.000000,4.000000,4.000000,4.000000,4.000000,4.000000,4.000000,4.000000,100.000000
1602005476.065323,27.000000,0.000000,4134.871582,4135.897461,4107.692383,4137.436035,4142.051270,4135.384766,4136.922852,4144.102539,4150.769043,4134.358887,4150.769043,4123.077148,4140.000000,4142.051270,0.000000,4.000000,,,,0.000000,4.000000,4.000000,4.000000,4.000000,4.000000,4.000000,4.000000,4.000000,4.000000,4.000000,4.000000,4.000000,4.000000,4.000000,100.000000
1602005476.073205,28.000000,0.000000,4142.051270,4132.820313,4110.769043,4136.410156,4143.589844,4137.948730,4139.487305,4145.641113,4136.922852,4126.666504,4143.077148,4137.436035,4140.512695,4147.179688,0.000000,4.000000,,,,0.000000,4.000000,4.000000,4.000000,4.000000,4.000000,4.000000,4.000000,4.000000,4.000000,4.000000,4.000000,4.000000,4.000000,4.000000,100.000000
1602005476.081087,29.000000,0.000000,4134.871582,4125.128418,4110.256348,4125.128418,4142.051270,4134.871582,4136.922852,4138.461426,4128.205078,4133.333496,4135.897461,4138.974121,4133.846191,4141.538574,0.000000,4.000000,,,,0.000000,4.000000,4.000000,4.000000,4.000000,4.000000,4.000000,4.000000,4.000000,4.000000,4.000000,4.000000,4.000000,4.000000,4.000000,100.000000
1602005476.089069,30.000000,0.000000,4122.051270,4121.538574,4100.512695,4118.974121,4138.461426,4127.692383,4126.153809,4123.077148,4124.615234,4129.743652,4129.230957,4134.871582,4127.692383,4133.333496,0.000000,4.000000,,,,0.000000,4.000000,4.000000,4.000000,4.000000,4.000000,4.000000,4.000000,4.000000,4.000000,4.000000,4.000000,4.000000,4.000000,4.000000,100.000000
1602005476.096951,31.000000,0.000000,4123.589844,4120.000000,4095.384521,4122.051270,4135.897461,4126.153809,4122.563965,4118.974121,4120.000000,4115.384766,4128.717773,4131.282227,4130.256348,4136.922852,0.000000,4.000000,,,,0.000000,4.000000,4.000000,4.000000,4.000000,4.000000,4.000000,4.000000,4.000000,4.000000,4.000000,4.000000,4.000000,4.000000,4.000000,100.000000
1602005476.104833,32.000000,0.000000,4132.820313,4120.512695,4100.000000,4123.077148,4143.077148,4123.589844,4125.641113,4125.128418,4116.922852,4120.512695,4136.922852,4131.794922,4136.410156,4142.563965,0.000000,4.000000,,,,0.000000,4.000000,4.000000,4.000000,4.000000,4.000000,4.000000,4.000000,4.000000,4.000000,4.000000,4.000000,4.000000,4.000000,4.000000,100.000000
1602005476.112715,33.000000,0.000000,4136.922852,4126.153809,4105.641113,4122.051270,4153.333496,4127.179688,4126.153809,4121.538574,4117.436035,4127.692383,4138.974121,4134.358887,4138.461426,4141.538574,0.000000,4.000000,,,,0.000000,4.000000,4.000000,4.000000,4.000000,4.000000,4.000000,4.000000,4.000000,4.000000,4.000000,4.000000,4.000000,4.000000,4.000000,100.000000
1602005476.120597,34.000000,0.000000,4133.333496,4127.692383,4104.102539,4122.563965,4153.846191,4134.358887,4130.256348,4117.436035,4128.717773,4128.717773,4136.922852,4134.358887,4140.000000,4140.512695,0.000000,4.000000,,,,0.000000,4.000000,4.000000,4.000000,4.000000,4.000000,4.000000,4.000000,4.000000,4.000000,4.000000,4.000000,4.000000,4.000000,4.000000,100.000000
1602005476.128479,35.000000,0.000000,4136.922852,4128.717773,4110.256348,4130.769043,4151.282227,4137.948730,4139.487305,4131.282227,4149.743652,4155.384766,4149.230957,4142.051270,4152.820313,4146.153809,0.000000,4.000000,,,,0.000000,4.000000,4.000000,4.000000,4.000000,4.000000,4.000000,4.000000,4.000000,4.000000,4.000000,4.000000,4.000000,4.000000,4.000000,100.000000
1602005476.136261,36.000000,0.000000,4147.692383,4133.846191,4122.563965,4134.871582,4152.820313,4136.922852,4140.512695,4140.000000,4158.461426,4177.436035,4161.538574,4163.589844,4165.128418,4155.384766,0.000000,4.000000,,,,0.000000,4.000000,4.000000,4.000000,4.000000,4.000000,4.000000,4.000000,4.000000,4.000000,4.000000,4.000000,4.000000,4.000000,4.000000,100.000000
1602005476.144143,37.000000,0.000000,4155.897461,4138.461426,4125.641113,4131.794922,4153.333496,4138.974121,4137.436035,4132.820313,4154.871582,4164.102539,4160.512695,4171.794922,4164.102539,4159.487305,0.000000,4.000000,,,,0.000000,4.000000,4.000000,4.000000,4.000000,4.000000,4.000000,4.000000,4.000000,4.000000,4.000000,4.000000,4.000000,4.000000,4.000000,100.000000
1602005476.152026,38.000000,0.000000,4153.333496,4137.436035,4124.615234,4133.846191,4152.307617,4140.512695,4139.487305,4132.820313,4154.871582,4150.769043,4156.410156,4158.461426,4156.410156,4158.461426,0.000000,4.000000,,,,0.000000,4.000000,4.000000,4.000000,4.000000,4.000000,4.000000,4.000000,4.000000,4.000000,4.000000,4.000000,4.000000,4.000000,4.000000,100.000000
1602005476.159908,39.000000,0.000000,4138.461426,4127.179688,4121.538574,4132.820313,4148.205078,4135.897461,4141.025879,4140.512695,4156.922852,4153.846191,4148.205078,4150.769043,4153.333496,4150.769043,0.000000,4.000000,,,,0.000000,4.000000,4.000000,4.000000,4.000000,4.000000,4.000000,4.000000,4.000000,4.000000,4.000000,4.000000,4.000000,4.000000,4.000000,100.000000
1602005476.167790,40.000000,0.000000,4124.102539,4116.922852,4117.436035,4121.538574,4142.051270,4133.846191,4136.922852,4143.589844,4159.487305,4151.282227,4137.436035,4149.743652,4148.205078,4136.410156,0.000000,4.000000,,,,0.000000,4.000000,4.000000,4.000000,4.000000,4.000000,4.000000,4.000000,4.000000,4.000000,4.000000,4.000000,4.000000,4.000000,4.000000,100.000000
1602005476.175673,41.000000,0.000000,4131.282227,4126.666504,4120.512695,4125.128418,4147.179688,4140.512695,4135.897461,4146.666504,4164.102539,4149.743652,4143.077148,4152.307617,4150.256348,4143.077148,0.000000,4.000000,,,,0.000000,4.000000,4.000000,4.000000,4.000000,4.000000,4.000000,4.000000,4.000000,4.000000,4.000000,4.000000,4.000000,4.000000,4.000000,100.000000
1602005476.183555,42.000000,0.000000,4144.615234,4141.538574,4127.179688,4140.512695,4157.436035,4146.666504,4140.000000,4146.666504,4161.025879,4154.871582,4154.871582,4164.615234,4155.897461,4156.410156,0.000000,4.000000,,,,0.000000,4.000000,4.000000,4.000000,4.000000,4.000000,4.000000,4.000000,4.000000,4.000000,4.000000,4.000000,4.000000,4.000000,4.000000,100.000000
1602005476.191438,43.000000,0.000000,4132.307617,4132.820313,4123.589844,4133.333496,4152.307617,4140.512695,4138.974121,4136.410156,4150.769043,4142.051270,4144.615234,4169.743652,4143.589844,4140.512695,0.000000,4.000000,,,,0.000000,4.000000,4.000000,4.000000,4.000000,4.000000,4.000000,4.000000,4.000000,4.000000,4.000000,4.000000,4.000000,4.000000,4.000000,100.000000
1602005476.199420,44.000000,0.000000,4126.153809,4127.179688,4120.000000,4122.563965,4145.128418,4134.871582,4133.333496,4130.256348,4148.205078,4134.871582,4140.512695,4167.179688,4147.179688,4138.974121,0.000000,4.000000,,,,0.000000,4.000000,4.000000,4.000000,4.000000,4.000000,4.000000,4.000000,4.000000,4.000000,4.000000,4.000000,4.000000,4.000000,4.000000,100.000000
1602005476.207302,45.000000,0.000000,4142.563965,4134.871582,4125.641113,4128.205078,4151.282227,4138.461426,4135.384766,4128.717773,4140.512695,4146.666504,4160.512695,4170.769043,4176.922852,4171.282227,0.000000,4.000000,,,,0.000000,4.000000,4.000000,4.000000,4.000000,4.000000,4.000000,4.000000,4.000000,4.000000,4.000000,4.000000,4.000000,4.000000,4.000000,100.000000
1602005476.215184,46.000000,0.000000,4137.948730,4130.256348,4126.153809,4127.692383,4156.410156,4138.461426,4140.000000,4124.102539,4122.563965,4141.025879,4168.205078,4173.333496,4188.205078,4179.487305,0.000000,4.000000,,,,0.000000,4.000000,4.000000,4.000000,4.000000,4.000000,4.000000,4.000000,4.000000,4.000000,4.000000,4.000000,4.000000,4.000000,4.000000,100.000000
1602005476.223067,47.000000,0.000000,4115.384766,4120.512695,4123.077148,4123.077148,4150.256348,4135.384766,4140.512695,4122.563965,4125.641113,4137.948730,4157.948730,4171.282227,4190.769043,4168.205078,0.000000,4.000000,,,,0.000000,4.000000,4.000000,4.000000,4.000000,4.000000,4.000000,4.000000,4.000000,4.000000,4.000000,4.000000,4.000000,4.000000,4.000000,100.000000
1602005476.230949,48.000000,0.000000,4098.461426,4109.743652,4123.077148,4124.102539,4143.077148,4137.436035,4137.436035,4122.563965,4140.512695,4155.384766,4156.922852,4167.692383,4201.025879,4169.230957,0.000000,4.000000,,,,0.000000,4.000000,4.000000,4.000000,4.000000,4.000000,4.000000,4.000000,4.000000,4.000000,4.000000,4.000000,4.000000,4.000000,4.000000,100.000000
1602005476.238832,49.000000,0.000000,4075.897461,4090.769287,4116.922852,4122.563965,4138.974121,4138.461426,4134.358887,4121.025879,4140.512695,4149.230957,4156.410156,4156.922852,4190.769043,4157.436035,0.000000,4.000000,,,,0.000000,4.000000,4.000000,4.000000,4.000000,4.000000,4.000000,4.000000,4.000000,4.000000,4.000000,4.000000,4.000000,4.000000,4.000000,100.000000
1602005476.246714,50.000000,0.000000,4062.564209,4087.692383,4103.589844,4118.461426,4135.897461,4135.384766,4136.922852,4124.102539,4143.589844,4132.820313,4146.666504,4146.666504,4173.846191,4140.000000,0.000000,4.000000,,,,0.000000,4.000000,4.000000,4.000000,4.000000,4.000000,4.000000,4.000000,4.000000,4.000000,4.000000,4.000000,4.000000,4.000000,4.000000,100.000000
1602005476.254596,51.000000,0.000000,4078.974365,4102.563965,4102.051270,4118.974121,4135.897461,4134.358887,4132.307617,4134.358887,4154.871582,4152.307617,4141.538574,4146.666504,4176.922852,4140.000000,0.000000,4.000000,,,,0.000000,4.000000,4.000000,4.000000,4.000000,4.000000,4.000000,4.000000,4.000000,4.000000,4.000000,4.000000,4.000000,4.000000,4.000000,100.000000
1602005476.262479,52.000000,0.000000,4093.846191,4103.589844,4113.333496,4120.000000,4137.948730,4136.922852,4125.128418,4138.461426,4155.384766,4165.128418,4145.641113,4150.769043,4177.948730,4140.000000,0.000000,4.000000,,,,0.000000,4.000000,4.000000,4.000000,4.000000,4.000000,4.000000,4.000000,4.000000,4.000000,4.000000,4.000000,4.000000,4.000000,4.000000,100.000000
1602005476.270260,53.000000,0.000000,4088.718018,4095.384521,4121.538574,4119.487305,4139.487305,4137.436035,4130.769043,4131.794922,4147.692383,4134.358887,4148.717773,4153.333496,4174.871582,4139.487305,0.000000,4.000000,,,,0.000000,4.000000,4.000000,4.000000,4.000000,4.000000,4.000000,4.000000,4.000000,4.000000,4.000000,4.000000,4.000000,4.000000,4.000000,100.000000
1602005476.278142,54.000000,0.000000,4086.153809,4097.948730,4122.051270,4119.487305,4137.436035,4132.820313,4138.461426,4129.230957,4142.563965,4125.128418,4150.769043,4160.512695,4181.538574,4148.205078,0.000000,4.000000,,,,0.000000,4.000000,4.000000,4.000000,4.000000,4.000000,4.000000,4.000000,4.000000,4.000000,4.000000,4.000000,4.000000,4.000000,4.000000,100.000000
1602005476.286123,55.000000,0.000000,4093.846191,4105.641113,4123.077148,4120.512695,4137.948730,4138.974121,4142.051270,4133.333496,4137.948730,4152.820313,4161.538574,4173.846191,4187.692383,4161.538574,0.000000,4.000000,,,,0.000000,4.000000,4.000000,4.000000,4.000000,4.000000,4.000000,4.000000,4.000000,4.000000,4.000000,4.000000,4.000000,4.000000,4.000000,100.000000
1602005476.294004,56.000000,0.000000,4104.102539,4112.307617,4129.743652,4126.153809,4147.179688,4153.846191,4151.794922,4141.538574,4145.128418,4163.077148,4169.743652,4182.051270,4192.307617,4170.256348,0.000000,4.000000,,,,0.000000,4.000000,4.000000,4.000000,4.000000,4.000000,4.000000,4.000000,4.000000,4.000000,4.000000,4.000000,4.000000,4.000000,4.000000,100.000000
1602005476.301886,57.000000,0.000000,4103.589844,4112.307617,4129.230957,4128.205078,4153.333496,4153.846191,4155.384766,4148.717773,4153.846191,4152.307617,4161.025879,4173.333496,4193.333496,4163.077148,0.000000,4.000000,,,,0.000000,4.000000,4.000000,4.000000,4.000000,4.000000,4.000000,4.000000,4.000000,4.000000,4.000000,4.000000,4.000000,4.000000,4.000000,100.000000
1602005476.309667,58.000000,0.000000,4088.205078,4098.974121,4113.846191,4117.436035,4142.051270,4134.871582,4144.102539,4148.205078,4144.102539,4148.205078,4149.743652,4158.974121,4182.051270,4148.205078,0.000000,4.000000,,,,0.000000,4.000000,4.000000,4.000000,4.000000,4.000000,4.000000,4.000000,4.000000,4.000000,4.000000,4.000000,4.000000,4.000000,4.000000,100.000000
1602005476.317449,59.000000,0.000000,4079.487061,4088.205078,4104.615234,4106.153809,4127.692383,4124.615234,4140.512695,4145.641113,4133.333496,4153.846191,4152.307617,4155.384766,4176.410156,4151.794922,0.000000,4.000000,,,,0.000000,4.000000,4.000000,4.000000,4.000000,4.000000,4.000000,4.000000,4.000000,4.000000,4.000000,4.000000,4.000000,4.000000,4.000000,100.000000
1602005476.325331,60.000000,0.000000,4085.641113,4093.846191,4111.282227,4110.256348,4131.282227,4127.179688,4140.512695,4144.102539,4137.436035,4161.538574,4157.436035,4157.436035,4183.589844,4155.897461,0.000000,4.000000,,,,0.000000,4.000000,4.000000,4.000000,4.000000,4.000000,4.000000,4.000000,4.000000,4.000000,4.000000,4.000000,4.000000,4.000000,4.000000,100.000000
1602005476.333213,61.000000,0.000000,4092.307617,4099.487305,4115.384766,4116.410156,4136.922852,4124.615234,4128.205078,4141.025879,4144.102539,4156.410156,4155.897461,4160.512695,4182.563965,4142.563965,0.000000,4.000000,,,,0.000000,4.000000,4.000000,4.000000,4.000000,4.000000,4.000000,4.000000,4.000000,4.000000,4.000000,4.000000,4.000000,4.000000,4.000000,100.000000
1602005476.341095,62.000000,0.000000,4089.743652,4093.846191,4110.769043,4110.769043,4130.769043,4120.000000,4122.051270,4134.358887,4140.000000,4132.820313,4152.820313,4158.461426,4174.358887,4140.000000,0.000000,4.000000,,,,0.000000,4.000000,4.000000,4.000000,4.000000,4.000000,4.000000,4.000000,4.000000,4.000000,4.000000,4.000000,4.000000,4.000000,4.000000,100.000000
1602005476.348976,63.000000,0.000000,4081.538574,4088.718018,4106.153809,4105.128418,4126.153809,4122.051270,4124.615234,4126.666504,4135.384766,4127.692383,4145.641113,4146.153809,4168.717773,4142.563965,0.000000,4.000000,,,,0.000000,4.000000,4.000000,4.000000,4.000000,4.000000,4.000000,4.000000,4.000000,4.000000,4.000000,4.000000,4.000000,4.000000,4.000000,100.000000
1602005476.356958,64.000000,0.000000,4074.871826,4089.743652,4103.077148,4106.153809,4125.641113,4122.051270,4124.615234,4125.128418,4137.436035,4146.153809,4138.974121,4135.384766,4160.512695,4126.666504,813.000000,4.000000,,,,0.000000,4.000000,4.000000,4.000000,4.000000,4.000000,4.000000,4.000000,4.000000,4.000000,4.000000,4.000000,4.000000,4.000000,4.000000,100.000000
1602005476.364841,65.000000,0.000000,4075.384521,4090.769287,4103.589844,4106.153809,4124.615234,4120.512695,4127.692383,4129.743652,4136.922852,4144.615234,4136.410156,4138.461426,4154.358887,4120.512695,796.000000,4.000000,,,,0.000000,4.000000,4.000000,4.000000,4.000000,4.000000,4.000000,4.000000,4.000000,4.000000,4.000000,4.000000,4.000000,4.000000,4.000000,100.000000
1602005476.372723,66.000000,0.000000,4084.102539,4091.794922,4112.820313,4107.179688,4131.282227,4130.256348,4137.436035,4135.384766,4136.410156,4132.820313,4137.948730,4147.179688,4155.897461,4137.436035,853.000000,4.000000,,,,0.000000,4.000000,4.000000,4.000000,4.000000,4.000000,4.000000,4.000000,4.000000,4.000000,4.000000,4.000000,4.000000,4.000000,4.000000,100.000000
1602005476.380605,67.000000,0.000000,4091.281982,4093.846191,4120.000000,4111.282227,4136.922852,4137.948730,4140.000000,4134.871582,4140.000000,4138.974121,4137.436035,4145.641113,4156.922852,4143.589844,873.000000,4.000000,,,,0.000000,4.000000,4.000000,4.000000,4.000000,4.000000,4.000000,4.000000,4.000000,4.000000,4.000000,4.000000,4.000000,4.000000,4.000000,100.000000
1602005476.388487,68.000000,0.000000,4091.794922,4093.333252,4115.897461,4110.769043,4127.179688,4127.179688,4135.897461,4132.307617,4134.871582,4131.794922,4130.256348,4134.871582,4147.692383,4129.230957,807.000000,4.000000,,,,0.000000,4.000000,4.000000,4.000000,4.000000,4.000000,4.000000,4.000000,4.000000,4.000000,4.000000,4.000000,4.000000,4.000000,4.000000,100.000000
1602005476.396369,69.000000,0.000000,4084.102539,4091.794922,4109.230957,4106.666504,4120.512695,4123.077148,4135.897461,4127.692383,4121.025879,4098.974121,4122.563965,4124.615234,4140.512695,4121.025879,818.000000,4.000000,,,,0.000000,4.000000,4.000000,4.000000,4.000000,4.000000,4.000000,4.000000,4.000000,4.000000,4.000000,4.000000,4.000000,4.000000,4.000000,100.000000
1602005476.404251,70.000000,0.000000,4075.384521,4091.281982,4103.077148,4105.641113,4130.256348,4136.410156,4136.922852,4126.666504,4120.512695,4097.948730,4125.128418,4122.563965,4141.025879,4123.077148,780.000000,4.000000,,,,0.000000,4.000000,4.000000,4.000000,4.000000,4.000000,4.000000,4.000000,4.000000,4.000000,4.000000,4.000000,4.000000,4.000000,4.000000,100.000000
1602005476.412033,71.000000,0.000000,4074.358887,4091.794922,4092.820557,4107.692383,4137.436035,4135.384766,4136.410156,4127.692383,4126.666504,4132.820313,4133.333496,4123.077148,4142.051270,4120.512695,694.000000,4.000000,,,,0.000000,4.000000,4.000000,4.000000,4.000000,4.000000,4.000000,4.000000,4.000000,4.000000,4.000000,4.000000,4.000000,4.000000,4.000000,100.000000
1602005476.419915,72.000000,0.000000,4072.820557,4088.718018,4087.179443,4105.641113,4133.846191,4117.948730,4134.871582,4126.666504,4120.000000,4146.666504,4130.769043,4118.974121,4142.051270,4116.410156,790.000000,4.000000,,,,0.000000,4.000000,4.000000,4.000000,4.000000,4.000000,4.000000,4.000000,4.000000,4.000000,4.000000,4.000000,4.000000,4.000000,4.000000,100.000000
1602005476.427798,73.000000,0.000000,4080.000000,4093.846191,4098.974121,4105.641113,4135.897461,4124.102539,4137.948730,4135.897461,4123.077148,4146.666504,4131.794922,4124.102539,4152.820313,4124.615234,839.000000,4.000000,,,,0.000000,4.000000,4.000000,4.000000,4.000000,4.000000,4.000000,4.000000,4.000000,4.000000,4.000000,4.000000,4.000000,4.000000,4.000000,100.000000
1602005476.435680,74.000000,0.000000,4097.948730,4106.666504,4110.256348,4110.256348,4143.589844,4143.589844,4144.102539,4149.743652,4140.512695,4149.743652,4146.666504,4137.436035,4165.128418,4142.051270,873.000000,4.000000,,,,0.000000,4.000000,4.000000,4.000000,4.000000,4.000000,4.000000,4.000000,4.000000,4.000000,4.000000,4.000000,4.000000,4.000000,4.000000,100.000000
1602005476.443562,75.000000,0.000000,4101.025879,4103.077148,4105.128418,4108.717773,4140.000000,4135.384766,4141.538574,4144.102539,4138.974121,4138.461426,4151.794922,4140.000000,4158.974121,4142.563965,836.000000,4.000000,,,,0.000000,4.000000,4.000000,4.000000,4.000000,4.000000,4.000000,4.000000,4.000000,4.000000,4.000000,4.000000,4.000000,4.000000,4.000000,100.000000
1602005476.451444,76.000000,0.000000,4094.358887,4095.897461,4105.641113,4109.230957,4134.871582,4121.538574,4137.436035,4134.871582,4131.282227,4129.230957,4146.666504,4137.948730,4157.436035,4134.871582,782.000000,4.000000,,,,0.000000,4.000000,4.000000,4.000000,4.000000,4.000000,4.000000,4.000000,4.000000,4.000000,4.000000,4.000000,4.000000,4.000000,4.000000,100.000000
1602005476.459326,77.000000,0.000000,4096.922852,4106.666504,4120.000000,4120.512695,4143.077148,4137.436035,4140.000000,4143.077148,4139.487305,4140.000000,4151.282227,4145.128418,4167.692383,4138.461426,773.000000,4.000000,,,,0.000000,4.000000,4.000000,4.000000,4.000000,4.000000,4.000000,4.000000,4.000000,4.000000,4.000000,4.000000,4.000000,4.000000,4.000000,100.000000
1602005476.467108,78.000000,0.000000,4097.436035,4109.743652,4124.615234,4121.025879,4145.128418,4144.615234,4139.487305,4143.589844,4137.436035,4142.051270,4150.256348,4148.205078,4164.102539,4138.461426,873.000000,4.000000,,,,0.000000,4.000000,4.000000,4.000000,4.000000,4.000000,4.000000,4.000000,4.000000,4.000000,4.000000,4.000000,4.000000,4.000000,4.000000,100.000000
1602005476.474990,79.000000,0.000000,4096.410156,4100.000000,4118.974121,4111.282227,4134.871582,4125.128418,4136.410156,4130.256348,4118.974121,4133.333496,4137.436035,4140.512695,4152.307617,4140.000000,836.000000,4.000000,,,,0.000000,4.000000,4.000000,4.000000,4.000000,4.000000,4.000000,4.000000,4.000000,4.000000,4.000000,4.000000,4.000000,4.000000,4.000000,100.000000
1602005476.482873,80.000000,0.000000,4107.692383,4105.641113,4124.102539,4118.461426,4136.410156,4122.563965,4138.461426,4132.820313,4119.487305,4136.922852,4135.897461,4143.077148,4157.436035,4155.897461,782.000000,4.000000,,,,0.000000,4.000000,4.000000,4.000000,4.000000,4.000000,4.000000,4.000000,4.000000,4.000000,4.000000,4.000000,4.000000,4.000000,4.000000,100.000000
1602005476.490755,81.000000,0.000000,4111.282227,4110.256348,4128.717773,4128.205078,4137.948730,4131.282227,4140.000000,4142.051270,4127.692383,4137.948730,4142.563965,4153.846191,4163.077148,4157.436035,773.000000,4.000000,,,,0.000000,4.000000,4.000000,4.000000,4.000000,4.000000,4.000000,4.000000,4.000000,4.000000,4.000000,4.000000,4.000000,4.000000,4.000000,100.000000
1602005476.498637,82.000000,0.000000,4096.922852,4098.461426,4123.077148,4116.922852,4126.153809,4123.589844,4137.436035,4138.974121,4123.077148,4136.922852,4142.563965,4152.307617,4154.871582,4140.512695,873.000000,4.000000,,,,0.000000,4.000000,4.000000,4.000000,4.000000,4.000000,4.000000,4.000000,4.000000,4.000000,4.000000,4.000000,4.000000,4.000000,4.000000,100.000000
1602005476.506519,83.000000,0.000000,4093.333252,4095.384521,4121.025879,4108.717773,4126.666504,4125.128418,4137.948730,4139.487305,4123.589844,4142.563965,4144.615234,4143.589844,4156.922852,4139.487305,836.000000,4.000000,,,,0.000000,4.000000,4.000000,4.000000,4.000000,4.000000,4.000000,4.000000,4.000000,4.000000,4.000000,4.000000,4.000000,4.000000,4.000000,100.000000
1602005476.514501,84.000000,0.000000,4104.102539,4100.512695,4122.051270,4112.307617,4138.461426,4136.410156,4138.461426,4143.077148,4126.666504,4140.000000,4146.153809,4143.077148,4165.641113,4148.717773,782.000000,4.000000,,,,0.000000,4.000000,4.000000,4.000000,4.000000,4.000000,4.000000,4.000000,4.000000,4.000000,4.000000,4.000000,4.000000,4.000000,4.000000,100.000000
1602005476.522383,85.000000,0.000000,4104.615234,4100.000000,4115.897461,4112.820313,4138.461426,4137.436035,4134.871582,4138.461426,4121.538574,4129.743652,4141.025879,4141.538574,4161.538574,4143.589844,773.000000,4.000000,,,,0.000000,4.000000,4.000000,4.000000,4.000000,4.000000,4.000000,4.000000,4.000000,4.000000,4.000000,4.000000,4.000000,4.000000,4.000000,100.000000
1602005476.530265,86.000000,0.000000,4092.307617,4097.948730,4106.153809,4108.717773,4136.410156,4136.922852,4128.205078,4135.384766,4120.000000,4130.769043,4133.333496,4129.743652,4152.307617,4131.282227,873.000000,4.000000,,,,0.000000,4.000000,4.000000,4.000000,4.000000,4.000000,4.000000,4.000000,4.000000,4.000000,4.000000,4.000000,4.000000,4.000000,4.000000,100.000000
1602005476.538147,87.000000,0.000000,4086.666748,4095.897461,4102.051270,4109.743652,4138.461426,4135.384766,4123.077148,4136.410156,4124.615234,4142.051270,4127.692383,4121.025879,4147.692383,4124.615234,836.000000,4.000000,,,,0.000000,4.000000,4.000000,4.000000,4.000000,4.000000,4.000000,4.000000,4.000000,4.000000,4.000000,4.000000,4.000000,4.000000,4.000000,100.000000
1602005476.546029,88.000000,0.000000,4091.281982,4091.794922,4105.128418,4118.461426,4138.974121,4130.256348,4121.538574,4135.897461,4124.615234,4138.974121,4127.179688,4121.538574,4143.077148,4126.153809,782.000000,4.000000,,,,0.000000,4.000000,4.000000,4.000000,4.000000,4.000000,4.000000,4.000000,4.000000,4.000000,4.000000,4.000000,4.000000,4.000000,4.000000,100.000000
1602005476.553911,89.000000,0.000000,4091.794922,4091.281982,4110.256348,4118.461426,4135.384766,4132.307617,4126.666504,4132.820313,4121.538574,4123.077148,4125.641113,4119.487305,4136.410156,4123.589844,773.000000,4.000000,,,,0.000000,4.000000,4.000000,4.000000,4.000000,4.000000,4.000000,4.000000,4.000000,4.000000,4.000000,4.000000,4.000000,4.000000,4.000000,100.000000
1602005476.561794,90.000000,0.000000,4088.718018,4091.281982,4109.743652,4112.307617,4129.230957,4140.000000,4134.358887,4130.256348,4123.589844,4122.051270,4122.563965,4117.948730,4138.461426,4118.974121,873.000000,4.000000,,,,0.000000,4.000000,4.000000,4.000000,4.000000,4.000000,4.000000,4.000000,4.000000,4.000000,4.000000,4.000000,4.000000,4.000000,4.000000,100.000000
1602005476.569576,91.000000,0.000000,4088.205078,4091.281982,4111.282227,4111.794922,4128.717773,4135.897461,4137.436035,4138.461426,4131.282227,4141.538574,4132.820313,4126.153809,4147.692383,4130.256348,836.000000,4.000000,,,,0.000000,4.000000,4.000000,4.000000,4.000000,4.000000,4.000000,4.000000,4.000000,4.000000,4.000000,4.000000,4.000000,4.000000,4.000000,100.000000
1602005476.577458,92.000000,0.000000,4090.769287,4095.897461,4120.000000,4113.333496,4136.922852,4125.641113,4136.922852,4155.384766,4141.538574,4157.436035,4149.230957,4138.461426,4156.922852,4143.589844,782.000000,4.000000,,,,0.000000,4.000000,4.000000,4.000000,4.000000,4.000000,4.000000,4.000000,4.000000,4.000000,4.000000,4.000000,4.000000,4.000000,4.000000,100.000000
1602005476.585341,93.000000,0.000000,4100.512695,4102.051270,4126.153809,4113.333496,4140.512695,4123.589844,4137.436035,4156.410156,4147.179688,4145.641113,4149.230957,4143.589844,4159.487305,4140.512695,773.000000,4.000000,,,,0.000000,4.000000,4.000000,4.000000,4.000000,4.000000,4.000000,4.000000,4.000000,4.000000,4.000000,4.000000,4.000000,4.000000,4.000000,100.000000
1602005476.593223,94.000000,0.000000,4107.692383,4098.974121,4123.589844,4120.000000,4136.410156,4119.487305,4137.948730,4141.538574,4137.948730,4124.102539,4134.358887,4140.512695,4150.256348,4134.358887,873.000000,4.000000,,,,0.000000,4.000000,4.000000,4.000000,4.000000,4.000000,4.000000,4.000000,4.000000,4.000000,4.000000,4.000000,4.000000,4.000000,4.000000,100.000000
1602005476.601106,95.000000,0.000000,4106.153809,4096.410156,4122.563965,4125.128418,4135.897461,4109.743652,4138.461426,4136.410156,4124.102539,4129.230957,4129.743652,4137.436035,4141.025879,4136.410156,836.000000,4.000000,,,,0.000000,4.000000,4.000000,4.000000,4.000000,4.000000,4.000000,4.000000,4.000000,4.000000,4.000000,4.000000,4.000000,4.000000,4.000000,100.000000
1602005476.608988,96.000000,0.000000,4105.128418,4102.563965,4126.153809,4123.589844,4138.461426,4113.333496,4140.512695,4140.512695,4122.563965,4140.000000,4135.897461,4136.922852,4140.000000,4138.461426,782.000000,4.000000,,,,0.000000,4.000000,4.000000,4.000000,4.000000,4.000000,4.000000,4.000000,4.000000,4.000000,4.000000,4.000000,4.000000,4.000000,4.000000,100.000000
1602005476.616870,97.000000,0.000000,4106.153809,4107.692383,4125.128418,4123.589844,4135.897461,4124.615234,4142.051270,4140.512695,4122.051270,4125.641113,4136.410156,4135.897461,4141.025879,4135.897461,773.000000,4.000000,,,,0.000000,4.000000,4.000000,4.000000,4.000000,4.000000,4.000000,4.000000,4.000000,4.000000,4.000000,4.000000,4.000000,4.000000,4.000000,100.000000
1602005476.624753,98.000000,0.000000,4108.205078,4107.692383,4121.538574,4123.589844,4134.871582,4122.051270,4142.051270,4138.974121,4119.487305,4124.615234,4133.846191,4137.436035,4142.051270,4137.948730,873.000000,4.000000,,,,0.000000,4.000000,4.000000,4.000000,4.000000,4.000000,4.000000,4.000000,4.000000,4.000000,4.000000,4.000000,4.000000,4.000000,4.000000,100.000000
