Timestamp,EEG.Counter,EEG.Interpolated,EEG.AF3,EEG.F7,EEG.F3,EEG.FC5,EEG.T7,EEG.P7,EEG.O1,EEG.O2,EEG.P8,EEG.T8,EEG.FC6,EEG.F4,EEG.F8,EEG.AF4,EEG.RawCq,EEG.Battery,MarkerIndex,MarkerType,MarkerValueInt,EEG.MarkerHardware,CQ.AF3,CQ.F7,CQ.F3,CQ.FC5,CQ.T7,CQ.P7,CQ.O1,CQ.O2,CQ.P8,CQ.T8,CQ.FC6,CQ.F4,CQ.F8,CQ.AF4,CQ.Overall
1602005506.469160,15.000000,0.000000,4146.666504,4141.538574,4135.897461,4135.384766,4131.794922,4124.102539,4119.487305,4107.179688,4114.358887,4124.615234,4121.025879,4137.948730,4115.897461,4136.922852,833.000000,4.000000,,,,0.000000,4.000000,4.000000,4.000000,4.000000,4.000000,4.000000,4.000000,4.000000,4.000000,4.000000,4.000000,4.000000,4.000000,4.000000,100.000000
1602005506.476943,16.000000,0.000000,4157.436035,4160.000000,4133.333496,4145.641113,4133.333496,4117.436035,4113.333496,4106.666504,4115.897461,4107.692383,4120.000000,4135.384766,4105.641113,4127.692383,0.000000,4.000000,,,,0.000000,4.000000,4.000000,4.000000,4.000000,4.000000,4.000000,4.000000,4.000000,4.000000,4.000000,4.000000,4.000000,4.000000,4.000000,100.000000
1602005506.484825,17.000000,0.000000,4160.000000,4166.666504,4134.871582,4148.205078,4135.897461,4117.436035,4113.846191,4110.256348,4120.000000,4099.487305,4114.358887,4132.307617,4100.000000,4120.512695,0.000000,4.000000,,,,0.000000,4.000000,4.000000,4.000000,4.000000,4.000000,4.000000,4.000000,4.000000,4.000000,4.000000,4.000000,4.000000,4.000000,4.000000,100.000000
1602005506.492707,18.000000,0.000000,4170.769043,4184.102539,4138.461426,4156.922852,4140.512695,4118.461426,4120.512695,4118.974121,4123.589844,4109.743652,4107.179688,4122.563965,4092.820557,4114.358887,0.000000,4.000000,,,,0.000000,4.000000,4.000000,4.000000,4.000000,4.000000,4.000000,4.000000,4.000000,4.000000,4.000000,4.000000,4.000000,4.000000,4.000000,100.000000
1602005506.500589,19.000000,0.000000,4177.436035,4192.820313,4135.897461,4161.025879,4141.538574,4117.948730,4117.948730,4121.538574,4124.102539,4118.461426,4103.589844,4116.410156,4078.461426,4098.461426,0.000000,4.000000,,,,0.000000,4.000000,4.000000,4.000000,4.000000,4.000000,4.000000,4.000000,4.000000,4.000000,4.000000,4.000000,4.000000,4.000000,4.000000,100.000000
1602005506.508471,20.000000,0.000000,4172.307617,4186.666504,4132.820313,4157.436035,4140.512695,4127.692383,4114.871582,4118.461426,4125.128418,4109.743652,4105.128418,4123.077148,4073.333252,4091.794922,0.000000,4.000000,,,,0.000000,4.000000,4.000000,4.000000,4.000000,4.000000,4.000000,4.000000,4.000000,4.000000,4.000000,4.000000,4.000000,4.000000,4.000000,100.000000
1602005506.516353,21.000000,0.000000,4168.717773,4186.666504,4135.384766,4156.922852,4140.512695,4141.025879,4123.077148,4120.512695,4127.692383,4098.974121,4107.179688,4127.179688,4084.102539,4101.538574,0.000000,4.000000,,,,0.000000,4.000000,4.000000,4.000000,4.000000,4.000000,4.000000,4.000000,4.000000,4.000000,4.000000,4.000000,4.000000,4.000000,4.000000,100.000000
1602005506.524235,22.000000,0.000000,4173.846191,4189.743652,4136.922852,4154.871582,4138.974121,4142.051270,4130.256348,4125.128418,4125.641113,4113.333496,4107.692383,4127.179688,4091.794922,4105.641113,0.000000,4.000000,,,,0.000000,4.000000,4.000000,4.000000,4.000000,4.000000,4.000000,4.000000,4.000000,4.000000,4.000000,4.000000,4.000000,4.000000,4.000000,100.000000
1602005506.532117,23.000000,0.000000,4182.051270,4190.256348,4138.974121,4156.410156,4137.948730,4133.846191,4127.179688,4128.717773,4124.102539,4126.153809,4112.307617,4132.307617,4087.179443,4102.563965,0.000000,4.000000,,,,0.000000,4.000000,4.000000,4.000000,4.000000,4.000000,4.000000,4.000000,4.000000,4.000000,4.000000,4.000000,4.000000,4.000000,4.000000,100.000000
1602005506.540099,24.000000,0.000000,4186.666504,4194.358887,4148.717773,4167.692383,4138.461426,4128.717773,4124.615234,4135.384766,4132.307617,4109.743652,4121.025879,4138.974121,4088.718018,4106.666504,0.000000,4.000000,,,,0.000000,4.000000,4.000000,4.000000,4.000000,4.000000,4.000000,4.000000,4.000000,4.000000,4.000000,4.000000,4.000000,4.000000,4.000000,100.000000
1602005506.547980,25.000000,0.000000,4184.615234,4196.922852,4156.410156,4171.282227,4138.461426,4125.641113,4127.179688,4136.922852,4136.410156,4107.179688,4123.077148,4142.051270,4100.000000,4113.846191,0.000000,4.000000,,,,0.000000,4.000000,4.000000,4.000000,4.000000,4.000000,4.000000,4.000000,4.000000,4.000000,4.000000,4.000000,4.000000,4.000000,4.000000,100.000000
1602005506.555961,26.000000,0.000000,4184.615234,4190.256348,4149.230957,4160.512695,4137.948730,4123.589844,4128.205078,4128.717773,4126.666504,4128.205078,4121.025879,4140.512695,4102.051270,4114.358887,0.000000,4.000000,,,,0.000000,4.000000,4.000000,4.000000,4.000000,4.000000,4.000000,4.000000,4.000000,4.000000,4.000000,4.000000,4.000000,4.000000,4.000000,100.000000
1602005506.563843,27.000000,0.000000,4181.025879,4185.641113,4139.487305,4155.384766,4138.974121,4126.666504,4126.666504,4121.025879,4117.948730,4119.487305,4121.025879,4137.948730,4093.846191,4107.692383,0.000000,4.000000,,,,0.000000,4.000000,4.000000,4.000000,4.000000,4.000000,4.000000,4.000000,4.000000,4.000000,4.000000,4.000000,4.000000,4.000000,4.000000,100.000000
1602005506.571825,28.000000,0.000000,4172.820313,4188.205078,4136.922852,4158.461426,4138.461426,4125.641113,4129.230957,4121.025879,4117.948730,4098.974121,4120.512695,4136.922852,4092.820557,4103.077148,0.000000,4.000000,,,,0.000000,4.000000,4.000000,4.000000,4.000000,4.000000,4.000000,4.000000,4.000000,4.000000,4.000000,4.000000,4.000000,4.000000,4.000000,100.000000
1602005506.579706,29.000000,0.000000,4167.692383,4184.615234,4137.948730,4154.871582,4136.410156,4124.102539,4135.897461,4121.538574,4126.153809,4118.461426,4119.487305,4134.871582,4100.000000,4104.615234,0.000000,4.000000,,,,0.000000,4.000000,4.000000,4.000000,4.000000,4.000000,4.000000,4.000000,4.000000,4.000000,4.000000,4.000000,4.000000,4.000000,4.000000,100.000000
1602005506.587588,30.000000,0.000000,4170.256348,4182.051270,4138.974121,4155.384766,4140.000000,4134.358887,4141.025879,4124.102539,4137.436035,4145.128418,4122.051270,4136.922852,4106.153809,4107.179688,0.000000,4.000000,,,,0.000000,4.000000,4.000000,4.000000,4.000000,4.000000,4.000000,4.000000,4.000000,4.000000,4.000000,4.000000,4.000000,4.000000,4.000000,100.000000
1602005506.595470,31.000000,0.000000,4174.358887,4185.128418,4132.820313,4157.436035,4143.077148,4144.102539,4136.922852,4126.153809,4140.512695,4136.410156,4122.563965,4137.436035,4105.641113,4104.615234,0.000000,4.000000,,,,0.000000,4.000000,4.000000,4.000000,4.000000,4.000000,4.000000,4.000000,4.000000,4.000000,4.000000,4.000000,4.000000,4.000000,4.000000,100.000000
1602005506.603352,32.000000,0.000000,4168.717773,4184.102539,4127.179688,4153.333496,4142.563965,4137.948730,4124.102539,4124.615234,4135.384766,4120.000000,4125.641113,4133.333496,4105.128418,4108.717773,0.000000,4.000000,,,,0.000000,4.000000,4.000000,4.000000,4.000000,4.000000,4.000000,4.000000,4.000000,4.000000,4.000000,4.000000,4.000000,4.000000,4.000000,100.000000
1602005506.611234,33.000000,0.000000,4170.256348,4189.743652,4135.384766,4158.461426,4149.743652,4134.871582,4126.153809,4132.307617,4141.025879,4136.922852,4143.077148,4139.487305,4121.538574,4128.205078,0.000000,4.000000,,,,0.000000,4.000000,4.000000,4.000000,4.000000,4.000000,4.000000,4.000000,4.000000,4.000000,4.000000,4.000000,4.000000,4.000000,4.000000,100.000000
1602005506.619116,34.000000,0.000000,4185.128418,4201.538574,4147.179688,4171.282227,4158.461426,4142.563965,4137.948730,4142.563965,4147.179688,4165.641113,4155.897461,4153.846191,4138.974121,4142.051270,0.000000,4.000000,,,,0.000000,4.000000,4.000000,4.000000,4.000000,4.000000,4.000000,4.000000,4.000000,4.000000,4.000000,4.000000,4.000000,4.000000,4.000000,100.000000
1602005506.626898,35.000000,0.000000,4186.153809,4202.563965,4144.102539,4172.820313,4155.384766,4137.948730,4132.820313,4138.974121,4134.871582,4155.384766,4148.717773,4155.384766,4131.282227,4136.922852,0.000000,4.000000,,,,0.000000,4.000000,4.000000,4.000000,4.000000,4.000000,4.000000,4.000000,4.000000,4.000000,4.000000,4.000000,4.000000,4.000000,4.000000,100.000000
1602005506.634780,36.000000,0.000000,4174.358887,4195.897461,4139.487305,4166.666504,4150.769043,4125.641113,4125.641113,4134.871582,4118.461426,4119.487305,4140.512695,4151.794922,4122.563965,4135.384766,0.000000,4.000000,,,,0.000000,4.000000,4.000000,4.000000,4.000000,4.000000,4.000000,4.000000,4.000000,4.000000,4.000000,4.000000,4.000000,4.000000,4.000000,100.000000
1602005506.642662,37.000000,0.000000,4180.000000,4197.436035,4150.769043,4167.692383,4156.410156,4129.743652,4136.410156,4135.384766,4115.897461,4116.922852,4142.051270,4157.948730,4127.692383,4144.615234,0.000000,4.000000,,,,0.000000,4.000000,4.000000,4.000000,4.000000,4.000000,4.000000,4.000000,4.000000,4.000000,4.000000,4.000000,4.000000,4.000000,4.000000,100.000000
1602005506.650544,38.000000,0.000000,4190.769043,4202.563965,4158.974121,4172.820313,4158.461426,4140.000000,4142.563965,4128.205078,4119.487305,4135.384766,4140.512695,4158.974121,4128.205078,4141.538574,0.000000,4.000000,,,,0.000000,4.000000,4.000000,4.000000,4.000000,4.000000,4.000000,4.000000,4.000000,4.000000,4.000000,4.000000,4.000000,4.000000,4.000000,100.000000
1602005506.658427,39.000000,0.000000,4176.922852,4197.436035,4148.717773,4170.256348,4153.333496,4140.000000,4136.922852,4126.153809,4121.025879,4127.692383,4133.846191,4150.256348,4122.563965,4129.230957,0.000000,4.000000,,,,0.000000,4.000000,4.000000,4.000000,4.000000,4.000000,4.000000,4.000000,4.000000,4.000000,4.000000,4.000000,4.000000,4.000000,4.000000,100.000000
1602005506.666309,40.000000,0.000000,4165.641113,4187.692383,4136.922852,4163.077148,4151.282227,4138.974121,4136.410156,4136.922852,4130.769043,4116.410156,4129.230957,4145.128418,4117.436035,4123.589844,0.000000,4.000000,,,,0.000000,4.000000,4.000000,4.000000,4.000000,4.000000,4.000000,4.000000,4.000000,4.000000,4.000000,4.000000,4.000000,4.000000,4.000000,100.000000
1602005506.674191,41.000000,0.000000,4168.205078,4183.589844,4135.384766,4154.871582,4152.307617,4142.563965,4137.436035,4137.436035,4134.871582,4128.205078,4123.589844,4139.487305,4108.717773,4115.384766,0.000000,4.000000,,,,0.000000,4.000000,4.000000,4.000000,4.000000,4.000000,4.000000,4.000000,4.000000,4.000000,4.000000,4.000000,4.000000,4.000000,4.000000,100.000000
1602005506.682073,42.000000,0.000000,4162.051270,4182.051270,4136.410156,4150.256348,4149.743652,4143.589844,4135.897461,4125.128418,4123.077148,4125.641113,4118.974121,4133.846191,4103.589844,4110.769043,0.000000,4.000000,,,,0.000000,4.000000,4.000000,4.000000,4.000000,4.000000,4.000000,4.000000,4.000000,4.000000,4.000000,4.000000,4.000000,4.000000,4.000000,100.000000
1602005506.690055,43.000000,0.000000,4155.897461,4182.051270,4136.410156,4152.820313,4151.282227,4142.563965,4136.922852,4123.077148,4117.948730,4102.051270,4122.051270,4140.512695,4105.128418,4117.948730,0.000000,4.000000,,,,0.000000,4.000000,4.000000,4.000000,4.000000,4.000000,4.000000,4.000000,4.000000,4.000000,4.000000,4.000000,4.000000,4.000000,4.000000,100.000000
1602005506.697938,44.000000,0.000000,4162.051270,4185.128418,4138.461426,4155.384766,4155.384766,4136.922852,4133.846191,4129.230957,4124.615234,4105.641113,4123.589844,4152.307617,4104.102539,4116.410156,0.000000,4.000000,,,,0.000000,4.000000,4.000000,4.000000,4.000000,4.000000,4.000000,4.000000,4.000000,4.000000,4.000000,4.000000,4.000000,4.000000,4.000000,100.000000
1602005506.705820,45.000000,0.000000,4169.743652,4184.102539,4144.102539,4153.846191,4149.230957,4124.615234,4124.102539,4128.205078,4125.128418,4126.153809,4121.538574,4152.820313,4106.666504,4111.794922,0.000000,4.000000,,,,0.000000,4.000000,4.000000,4.000000,4.000000,4.000000,4.000000,4.000000,4.000000,4.000000,4.000000,4.000000,4.000000,4.000000,4.000000,100.000000
1602005506.713702,46.000000,0.000000,4172.307617,4183.589844,4152.307617,4156.922852,4144.615234,4119.487305,4119.487305,4124.102539,4122.051270,4126.666504,4128.205078,4151.794922,4117.948730,4121.025879,0.000000,4.000000,,,,0.000000,4.000000,4.000000,4.000000,4.000000,4.000000,4.000000,4.000000,4.000000,4.000000,4.000000,4.000000,4.000000,4.000000,4.000000,100.000000
1602005506.721585,47.000000,0.000000,4174.871582,4192.307617,4157.948730,4162.563965,4148.717773,4123.077148,4125.128418,4131.282227,4128.717773,4126.666504,4140.000000,4157.436035,4126.153809,4129.743652,0.000000,4.000000,,,,0.000000,4.000000,4.000000,4.000000,4.000000,4.000000,4.000000,4.000000,4.000000,4.000000,4.000000,4.000000,4.000000,4.000000,4.000000,100.000000
1602005506.729467,48.000000,0.000000,4171.794922,4192.820313,4155.384766,4158.461426,4146.666504,4125.128418,4127.179688,4138.461426,4138.461426,4139.487305,4137.436035,4152.307617,4124.102539,4124.615234,0.000000,4.000000,,,,0.000000,4.000000,4.000000,4.000000,4.000000,4.000000,4.000000,4.000000,4.000000,4.000000,4.000000,4.000000,4.000000,4.000000,4.000000,100.000000
1602005506.737349,49.000000,0.000000,4166.153809,4182.563965,4152.820313,4152.820313,4140.000000,4124.615234,4125.641113,4132.820313,4135.897461,4146.153809,4127.179688,4141.025879,4121.025879,4123.077148,0.000000,4.000000,,,,0.000000,4.000000,4.000000,4.000000,4.000000,4.000000,4.000000,4.000000,4.000000,4.000000,4.000000,4.000000,4.000000,4.000000,4.000000,100.000000
1602005506.745232,50.000000,0.000000,4166.666504,4181.538574,4154.358887,4154.871582,4137.948730,4124.615234,4125.641113,4127.179688,4124.102539,4130.256348,4125.128418,4136.922852,4118.461426,4120.512695,0.000000,4.000000,,,,0.000000,4.000000,4.000000,4.000000,4.000000,4.000000,4.000000,4.000000,4.000000,4.000000,4.000000,4.000000,4.000000,4.000000,4.000000,100.000000
1602005506.753114,51.000000,0.000000,4168.717773,4186.666504,4156.410156,4156.410156,4143.589844,4124.615234,4126.153809,4134.358887,4126.666504,4117.948730,4133.846191,4137.436035,4122.051270,4121.538574,0.000000,4.000000,,,,0.000000,4.000000,4.000000,4.000000,4.000000,4.000000,4.000000,4.000000,4.000000,4.000000,4.000000,4.000000,4.000000,4.000000,4.000000,100.000000
1602005506.761096,52.000000,0.000000,4168.717773,4187.179688,4160.000000,4158.974121,4148.717773,4125.641113,4128.717773,4143.589844,4140.512695,4129.743652,4142.051270,4141.538574,4133.846191,4134.871582,0.000000,4.000000,,,,0.000000,4.000000,4.000000,4.000000,4.000000,4.000000,4.000000,4.000000,4.000000,4.000000,4.000000,4.000000,4.000000,4.000000,4.000000,100.000000
1602005506.768979,53.000000,0.000000,4171.282227,4187.179688,4160.512695,4161.538574,4146.153809,4124.102539,4128.717773,4138.974121,4136.410156,4136.410156,4135.384766,4143.077148,4135.897461,4134.871582,0.000000,4.000000,,,,0.000000,4.000000,4.000000,4.000000,4.000000,4.000000,4.000000,4.000000,4.000000,4.000000,4.000000,4.000000,4.000000,4.000000,4.000000,100.000000
1602005506.776861,54.000000,0.000000,4168.205078,4185.128418,4154.871582,4157.948730,4136.922852,4120.000000,4124.102539,4127.692383,4115.384766,4126.153809,4123.077148,4136.922852,4119.487305,4122.051270,0.000000,4.000000,,,,0.000000,4.000000,4.000000,4.000000,4.000000,4.000000,4.000000,4.000000,4.000000,4.000000,4.000000,4.000000,4.000000,4.000000,4.000000,100.000000
1602005506.784743,55.000000,0.000000,4157.436035,4176.922852,4148.717773,4150.769043,4135.384766,4118.461426,4121.025879,4117.948730,4100.000000,4120.512695,4118.974121,4134.358887,4105.128418,4120.512695,0.000000,4.000000,,,,0.000000,4.000000,4.000000,4.000000,4.000000,4.000000,4.000000,4.000000,4.000000,4.000000,4.000000,4.000000,4.000000,4.000000,4.000000,100.000000
1602005506.792626,56.000000,0.000000,4151.282227,4172.820313,4150.256348,4143.589844,4136.922852,4118.974121,4123.589844,4116.410156,4106.666504,4124.615234,4123.589844,4138.974121,4110.256348,4123.589844,0.000000,4.000000,,,,0.000000,4.000000,4.000000,4.000000,4.000000,4.000000,4.000000,4.000000,4.000000,4.000000,4.000000,4.000000,4.000000,4.000000,4.000000,100.000000
1602005506.800508,57.000000,0.000000,4154.871582,4172.820313,4150.769043,4140.000000,4135.897461,4120.000000,4132.307617,4128.717773,4122.051270,4132.820313,4132.820313,4140.000000,4121.025879,4122.563965,0.000000,4.000000,,,,0.000000,4.000000,4.000000,4.000000,4.000000,4.000000,4.000000,4.000000,4.000000,4.000000,4.000000,4.000000,4.000000,4.000000,4.000000,100.000000
1602005506.808390,58.000000,0.000000,4153.333496,4169.743652,4143.589844,4138.974121,4135.897461,4119.487305,4136.922852,4138.461426,4122.051270,4136.922852,4138.974121,4137.948730,4123.589844,4123.589844,0.000000,4.000000,,,,0.000000,4.000000,4.000000,4.000000,4.000000,4.000000,4.000000,4.000000,4.000000,4.000000,4.000000,4.000000,4.000000,4.000000,4.000000,100.000000
1602005506.816273,59.000000,0.000000,4141.025879,4166.153809,4137.948730,4140.000000,4135.897461,4119.487305,4135.897461,4136.922852,4118.974121,4127.692383,4137.436035,4138.974121,4120.512695,4119.487305,0.000000,4.000000,,,,0.000000,4.000000,4.000000,4.000000,4.000000,4.000000,4.000000,4.000000,4.000000,4.000000,4.000000,4.000000,4.000000,4.000000,4.000000,100.000000
1602005506.824155,60.000000,0.000000,4138.974121,4169.230957,4138.461426,4141.538574,4137.948730,4123.589844,4134.871582,4140.000000,4130.769043,4124.102539,4138.974121,4140.000000,4122.051270,4114.358887,0.000000,4.000000,,,,0.000000,4.000000,4.000000,4.000000,4.000000,4.000000,4.000000,4.000000,4.000000,4.000000,4.000000,4.000000,4.000000,4.000000,4.000000,100.000000
1602005506.832136,61.000000,0.000000,4150.769043,4172.307617,4136.410156,4140.000000,4141.025879,4125.641113,4130.769043,4152.307617,4143.589844,4143.589844,4146.666504,4138.974121,4132.820313,4128.205078,0.000000,4.000000,,,,0.000000,4.000000,4.000000,4.000000,4.000000,4.000000,4.000000,4.000000,4.000000,4.000000,4.000000,4.000000,4.000000,4.000000,4.000000,100.000000
1602005506.840018,62.000000,0.000000,4156.410156,4168.205078,4135.897461,4141.538574,4141.025879,4124.615234,4125.128418,4156.410156,4148.205078,4167.692383,4152.307617,4139.487305,4140.512695,4140.512695,0.000000,4.000000,,,,0.000000,4.000000,4.000000,4.000000,4.000000,4.000000,4.000000,4.000000,4.000000,4.000000,4.000000,4.000000,4.000000,4.000000,4.000000,100.000000
1602005506.847899,63.000000,0.000000,4153.846191,4169.230957,4147.692383,4150.769043,4142.563965,4131.282227,4126.666504,4149.230957,4151.794922,4173.333496,4153.846191,4148.717773,4141.025879,4138.974121,0.000000,4.000000,,,,0.000000,4.000000,4.000000,4.000000,4.000000,4.000000,4.000000,4.000000,4.000000,4.000000,4.000000,4.000000,4.000000,4.000000,4.000000,100.000000
1602005506.855881,64.000000,0.000000,4158.461426,4174.358887,4152.820313,4154.871582,4145.128418,4135.897461,4129.743652,4142.051270,4149.230957,4162.051270,4151.794922,4155.897461,4142.051270,4138.974121,806.000000,4.000000,,,,0.000000,4.000000,4.000000,4.000000,4.000000,4.000000,4.000000,4.000000,4.000000,4.000000,4.000000,4.000000,4.000000,4.000000,4.000000,100.000000
1602005506.863762,65.000000,0.000000,4160.000000,4169.743652,4142.051270,4144.615234,4142.563965,4129.230957,4126.153809,4136.922852,4133.333496,4150.256348,4141.538574,4147.692383,4137.948730,4137.436035,797.000000,4.000000,,,,0.000000,4.000000,4.000000,4.000000,4.000000,4.000000,4.000000,4.000000,4.000000,4.000000,4.000000,4.000000,4.000000,4.000000,4.000000,100.000000
1602005506.871643,66.000000,0.000000,4144.615234,4161.025879,4133.846191,4134.358887,4137.436035,4128.717773,4128.205078,4135.384766,4120.000000,4141.025879,4130.256348,4135.384766,4124.102539,4125.641113,852.000000,4.000000,,,,0.000000,4.000000,4.000000,4.000000,4.000000,4.000000,4.000000,4.000000,4.000000,4.000000,4.000000,4.000000,4.000000,4.000000,4.000000,100.000000
1602005506.879425,67.000000,0.000000,4142.051270,4164.615234,4138.461426,4144.102539,4137.948730,4137.436035,4139.487305,4138.974121,4122.563965,4127.179688,4130.769043,4136.922852,4118.461426,4122.563965,866.000000,4.000000,,,,0.000000,4.000000,4.000000,4.000000,4.000000,4.000000,4.000000,4.000000,4.000000,4.000000,4.000000,4.000000,4.000000,4.000000,4.000000,100.000000
1602005506.887206,68.000000,0.000000,4155.897461,4172.307617,4145.128418,4155.384766,4141.025879,4144.102539,4145.128418,4142.563965,4128.205078,4115.897461,4140.512695,4144.615234,4126.666504,4131.794922,807.000000,4.000000,,,,0.000000,4.000000,4.000000,4.000000,4.000000,4.000000,4.000000,4.000000,4.000000,4.000000,4.000000,4.000000,4.000000,4.000000,4.000000,100.000000
1602005506.895088,69.000000,0.000000,4150.769043,4164.615234,4140.512695,4146.666504,4137.948730,4140.000000,4141.025879,4142.051270,4124.615234,4122.563965,4134.871582,4139.487305,4126.666504,4129.743652,822.000000,4.000000,,,,0.000000,4.000000,4.000000,4.000000,4.000000,4.000000,4.000000,4.000000,4.000000,4.000000,4.000000,4.000000,4.000000,4.000000,4.000000,100.000000
1602005506.902969,70.000000,0.000000,4132.307617,4150.256348,4129.230957,4133.846191,4134.358887,4127.179688,4135.384766,4142.051270,4125.128418,4142.563965,4122.051270,4126.153809,4120.512695,4118.974121,781.000000,4.000000,,,,0.000000,4.000000,4.000000,4.000000,4.000000,4.000000,4.000000,4.000000,4.000000,4.000000,4.000000,4.000000,4.000000,4.000000,4.000000,100.000000
1602005506.910750,71.000000,0.000000,4131.282227,4150.769043,4122.563965,4134.871582,4135.897461,4123.589844,4135.897461,4146.153809,4138.461426,4151.282227,4126.153809,4122.051270,4121.538574,4114.871582,697.000000,4.000000,,,,0.000000,4.000000,4.000000,4.000000,4.000000,4.000000,4.000000,4.000000,4.000000,4.000000,4.000000,4.000000,4.000000,4.000000,4.000000,100.000000
1602005506.918632,72.000000,0.000000,4137.436035,4152.820313,4123.077148,4137.948730,4138.974121,4135.384766,4137.948730,4148.205078,4141.538574,4146.153809,4136.410156,4122.051270,4124.102539,4111.282227,791.000000,4.000000,,,,0.000000,4.000000,4.000000,4.000000,4.000000,4.000000,4.000000,4.000000,4.000000,4.000000,4.000000,4.000000,4.000000,4.000000,4.000000,100.000000
1602005506.926413,73.000000,0.000000,4129.230957,4143.589844,4123.077148,4131.282227,4138.461426,4141.538574,4136.410156,4144.615234,4137.436035,4145.641113,4137.436035,4121.025879,4122.563965,4109.743652,843.000000,4.000000,,,,0.000000,4.000000,4.000000,4.000000,4.000000,4.000000,4.000000,4.000000,4.000000,4.000000,4.000000,4.000000,4.000000,4.000000,4.000000,100.000000
1602005506.934294,74.000000,0.000000,4121.025879,4140.512695,4122.563965,4129.230957,4138.974121,4138.974121,4135.384766,4143.077148,4148.717773,4148.205078,4138.974121,4129.743652,4125.128418,4118.974121,872.000000,4.000000,,,,0.000000,4.000000,4.000000,4.000000,4.000000,4.000000,4.000000,4.000000,4.000000,4.000000,4.000000,4.000000,4.000000,4.000000,4.000000,100.000000
1602005506.942076,75.000000,0.000000,4125.128418,4145.128418,4123.589844,4132.820313,4138.974121,4140.000000,4135.897461,4142.563965,4154.358887,4143.077148,4141.538574,4141.538574,4130.256348,4126.153809,833.000000,4.000000,,,,0.000000,4.000000,4.000000,4.000000,4.000000,4.000000,4.000000,4.000000,4.000000,4.000000,4.000000,4.000000,4.000000,4.000000,4.000000,100.000000
1602005506.949959,76.000000,0.000000,4132.307617,4142.563965,4125.128418,4132.820313,4136.922852,4138.974121,4130.256348,4138.461426,4142.051270,4137.436035,4140.000000,4141.025879,4128.205078,4124.102539,783.000000,4.000000,,,,0.000000,4.000000,4.000000,4.000000,4.000000,4.000000,4.000000,4.000000,4.000000,4.000000,4.000000,4.000000,4.000000,4.000000,4.000000,100.000000
1602005506.957841,77.000000,0.000000,4128.717773,4140.512695,4125.128418,4132.307617,4135.384766,4134.358887,4122.563965,4135.384766,4132.820313,4131.794922,4137.948730,4136.922852,4118.974121,4125.128418,770.000000,4.000000,,,,0.000000,4.000000,4.000000,4.000000,4.000000,4.000000,4.000000,4.000000,4.000000,4.000000,4.000000,4.000000,4.000000,4.000000,4.000000,100.000000
1602005506.965723,78.000000,0.000000,4122.051270,4146.153809,4122.051270,4133.846191,4136.410156,4135.384766,4121.538574,4133.846191,4130.769043,4130.256348,4138.974121,4139.487305,4115.897461,4128.205078,872.000000,4.000000,,,,0.000000,4.000000,4.000000,4.000000,4.000000,4.000000,4.000000,4.000000,4.000000,4.000000,4.000000,4.000000,4.000000,4.000000,4.000000,100.000000
1602005506.973605,79.000000,0.000000,4128.717773,4152.307617,4120.512695,4137.436035,4136.922852,4135.897461,4122.051270,4128.717773,4124.102539,4136.410156,4140.000000,4136.410156,4120.512695,4126.666504,833.000000,4.000000,,,,0.000000,4.000000,4.000000,4.000000,4.000000,4.000000,4.000000,4.000000,4.000000,4.000000,4.000000,4.000000,4.000000,4.000000,4.000000,100.000000
1602005506.981487,80.000000,0.000000,4134.358887,4151.794922,4118.974121,4135.384766,4133.846191,4129.230957,4113.333496,4124.102539,4120.512695,4134.358887,4132.820313,4125.641113,4117.948730,4118.974121,783.000000,4.000000,,,,0.000000,4.000000,4.000000,4.000000,4.000000,4.000000,4.000000,4.000000,4.000000,4.000000,4.000000,4.000000,4.000000,4.000000,4.000000,100.000000
1602005506.989369,81.000000,0.000000,4126.666504,4145.641113,4111.794922,4128.717773,4130.256348,4123.077148,4105.641113,4123.589844,4122.563965,4126.666504,4124.102539,4120.000000,4112.820313,4109.743652,770.000000,4.000000,,,,0.000000,4.000000,4.000000,4.000000,4.000000,4.000000,4.000000,4.000000,4.000000,4.000000,4.000000,4.000000,4.000000,4.000000,4.000000,100.000000
1602005506.997251,82.000000,0.000000,4119.487305,4141.025879,4106.666504,4125.128418,4129.743652,4120.512695,4105.641113,4124.615234,4124.102539,4124.615234,4122.051270,4120.000000,4116.922852,4110.256348,872.000000,4.000000,,,,0.000000,4.000000,4.000000,4.000000,4.000000,4.000000,4.000000,4.000000,4.000000,4.000000,4.000000,4.000000,4.000000,4.000000,4.000000,100.000000
1602005507.005233,83.000000,0.000000,4123.077148,4141.538574,4109.743652,4126.666504,4131.282227,4119.487305,4108.205078,4124.102539,4122.563965,4116.410156,4122.051270,4121.538574,4123.589844,4119.487305,833.000000,4.000000,,,,0.000000,4.000000,4.000000,4.000000,4.000000,4.000000,4.000000,4.000000,4.000000,4.000000,4.000000,4.000000,4.000000,4.000000,4.000000,100.000000
1602005507.013115,84.000000,0.000000,4125.641113,4143.077148,4111.794922,4131.282227,4134.358887,4120.000000,4108.717773,4123.589844,4120.512695,4108.205078,4126.666504,4120.000000,4123.589844,4122.051270,783.000000,4.000000,,,,0.000000,4.000000,4.000000,4.000000,4.000000,4.000000,4.000000,4.000000,4.000000,4.000000,4.000000,4.000000,4.000000,4.000000,4.000000,100.000000
1602005507.020997,85.000000,0.000000,4123.077148,4146.666504,4112.307617,4133.333496,4136.922852,4122.051270,4109.230957,4125.641113,4128.717773,4125.128418,4138.461426,4118.461426,4122.563965,4121.025879,770.000000,4.000000,,,,0.000000,4.000000,4.000000,4.000000,4.000000,4.000000,4.000000,4.000000,4.000000,4.000000,4.000000,4.000000,4.000000,4.000000,4.000000,100.000000
1602005507.028879,86.000000,0.000000,4128.717773,4152.820313,4120.000000,4137.436035,4137.436035,4120.000000,4111.282227,4128.205078,4136.922852,4147.692383,4141.538574,4121.538574,4126.153809,4124.615234,872.000000,4.000000,,,,0.000000,4.000000,4.000000,4.000000,4.000000,4.000000,4.000000,4.000000,4.000000,4.000000,4.000000,4.000000,4.000000,4.000000,4.000000,100.000000
1602005507.036761,87.000000,0.000000,4136.410156,4152.307617,4123.077148,4135.897461,4135.384766,4117.948730,4111.794922,4126.153809,4134.358887,4147.179688,4137.436035,4129.743652,4132.820313,4124.615234,833.000000,4.000000,,,,0.000000,4.000000,4.000000,4.000000,4.000000,4.000000,4.000000,4.000000,4.000000,4.000000,4.000000,4.000000,4.000000,4.000000,4.000000,100.000000
1602005507.044642,88.000000,0.000000,4137.948730,4149.743652,4121.538574,4131.794922,4135.897461,4122.051270,4112.307617,4129.230957,4137.436035,4139.487305,4138.974121,4138.461426,4137.436035,4128.205078,783.000000,4.000000,,,,0.000000,4.000000,4.000000,4.000000,4.000000,4.000000,4.000000,4.000000,4.000000,4.000000,4.000000,4.000000,4.000000,4.000000,4.000000,100.000000
1602005507.052425,89.000000,0.000000,4138.974121,4153.846191,4131.282227,4136.410156,4133.333496,4120.512695,4113.333496,4135.384766,4141.538574,4138.461426,4138.974121,4141.538574,4133.846191,4135.897461,770.000000,4.000000,,,,0.000000,4.000000,4.000000,4.000000,4.000000,4.000000,4.000000,4.000000,4.000000,4.000000,4.000000,4.000000,4.000000,4.000000,4.000000,100.000000
1602005507.060307,90.000000,0.000000,4141.025879,4152.307617,4137.436035,4134.871582,4126.153809,4107.179688,4110.769043,4130.256348,4131.794922,4135.897461,4135.384766,4141.025879,4126.666504,4134.871582,872.000000,4.000000,,,,0.000000,4.000000,4.000000,4.000000,4.000000,4.000000,4.000000,4.000000,4.000000,4.000000,4.000000,4.000000,4.000000,4.000000,4.000000,100.000000
1602005507.068189,91.000000,0.000000,4135.897461,4142.563965,4127.179688,4125.641113,4126.666504,4103.589844,4106.153809,4121.025879,4127.179688,4119.487305,4135.897461,4140.512695,4123.077148,4131.282227,833.000000,4.000000,,,,0.000000,4.000000,4.000000,4.000000,4.000000,4.000000,4.000000,4.000000,4.000000,4.000000,4.000000,4.000000,4.000000,4.000000,4.000000,100.000000
1602005507.076071,92.000000,0.000000,4135.897461,4145.128418,4123.589844,4130.769043,4135.897461,4117.436035,4108.717773,4124.615234,4135.897461,4107.692383,4136.922852,4141.538574,4128.205078,4137.436035,783.000000,4.000000,,,,0.000000,4.000000,4.000000,4.000000,4.000000,4.000000,4.000000,4.000000,4.000000,4.000000,4.000000,4.000000,4.000000,4.000000,4.000000,100.000000
1602005507.083953,93.000000,0.000000,4142.051270,4152.307617,4128.205078,4140.000000,4141.025879,4124.102539,4112.820313,4128.205078,4140.000000,4124.102539,4139.487305,4141.025879,4131.282227,4140.000000,770.000000,4.000000,,,,0.000000,4.000000,4.000000,4.000000,4.000000,4.000000,4.000000,4.000000,4.000000,4.000000,4.000000,4.000000,4.000000,4.000000,4.000000,100.000000
1602005507.091835,94.000000,0.000000,4131.794922,4142.563965,4122.563965,4127.692383,4135.897461,4115.897461,4111.794922,4122.051270,4138.461426,4150.256348,4140.512695,4136.410156,4124.615234,4125.641113,872.000000,4.000000,,,,0.000000,4.000000,4.000000,4.000000,4.000000,4.000000,4.000000,4.000000,4.000000,4.000000,4.000000,4.000000,4.000000,4.000000,4.000000,100.000000
1602005507.099717,95.000000,0.000000,4123.589844,4133.846191,4118.461426,4120.000000,4134.871582,4117.948730,4116.922852,4127.179688,4140.512695,4156.922852,4142.051270,4136.410156,4129.743652,4124.102539,833.000000,4.000000,,,,0.000000,4.000000,4.000000,4.000000,4.000000,4.000000,4.000000,4.000000,4.000000,4.000000,4.000000,4.000000,4.000000,4.000000,4.000000,100.000000
1602005507.107600,96.000000,0.000000,4135.897461,4143.077148,4122.563965,4134.358887,4140.512695,4130.256348,4126.666504,4137.436035,4142.051270,4149.230957,4146.153809,4140.000000,4139.487305,4137.436035,783.000000,4.000000,,,,0.000000,4.000000,4.000000,4.000000,4.000000,4.000000,4.000000,4.000000,4.000000,4.000000,4.000000,4.000000,4.000000,4.000000,4.000000,100.000000
1602005507.115582,97.000000,0.000000,4140.000000,4146.153809,4123.589844,4137.948730,4138.974121,4125.128418,4121.025879,4131.794922,4134.871582,4142.563965,4145.128418,4134.358887,4130.256348,4134.358887,770.000000,4.000000,,,,0.000000,4.000000,4.000000,4.000000,4.000000,4.000000,4.000000,4.000000,4.000000,4.000000,4.000000,4.000000,4.000000,4.000000,4.000000,100.000000
1602005507.123464,98.000000,0.000000,4124.615234,4135.384766,4120.512695,4127.179688,4126.666504,4106.666504,4106.666504,4120.000000,4117.948730,4116.410156,4130.769043,4123.077148,4116.922852,4118.461426,872.000000,4.000000,,,,0.000000,4.000000,4.000000,4.000000,4.000000,4.000000,4.000000,4.000000,4.000000,4.000000,4.000000,4.000000,4.000000,4.000000,4.000000,100.000000
1602005507.131347,99.000000,0.000000,4117.948730,4133.333496,4120.000000,4123.077148,4123.077148,4101.538574,4107.692383,4120.000000,4104.102539,4089.743652,4120.000000,4120.512695,4119.487305,4116.410156,833.000000,4.000000,,,,0.000000,4.000000,4.000000,4.000000,4.000000,4.000000,4.000000,4.000000,4.000000,4.000000,4.000000,4.000000,4.000000,4.000000,4.000000,100.000000
1602005507.139229,100.000000,0.000000,4123.077148,4140.000000,4122.563965,4126.666504,4133.333496,4113.846191,4117.436035,4124.615234,4108.717773,4103.589844,4129.230957,4126.666504,4124.102539,4125.128418,783.000000,4.000000,,,,0.000000,4.000000,4.000000,4.000000,4.000000,4.000000,4.000000,4.000000,4.000000,4.000000,4.000000,4.000000,4.000000,4.000000,4.000000,100.000000
1602005507.147111,101.000000,0.000000,4123.589844,4139.487305,4123.077148,4128.717773,4138.461426,4122.563965,4116.922852,4120.512695,4114.358887,4134.358887,4136.922852,4126.666504,4121.538574,4126.153809,770.000000,4.000000,,,,0.000000,4.000000,4.000000,4.000000,4.000000,4.000000,4.000000,4.000000,4.000000,4.000000,4.000000,4.000000,4.000000,4.000000,4.000000,100.000000
1602005507.154994,102.000000,0.000000,4122.051270,4135.897461,4121.538574,4128.205078,4132.820313,4121.538574,4113.333496,4113.333496,4108.717773,4141.025879,4129.230957,4123.077148,4120.512695,4123.077148,872.000000,4.000000,,,,0.000000,4.000000,4.000000,4.000000,4.000000,4.000000,4.000000,4.000000,4.000000,4.000000,4.000000,4.000000,4.000000,4.000000,4.000000,100.000000
1602005507.162876,103.000000,0.000000,4123.589844,4139.487305,4122.563965,4126.666504,4130.256348,4122.051270,4116.922852,4115.897461,4102.563965,4128.717773,4122.051270,4127.179688,4122.563965,4125.128418,833.000000,4.000000,,,,0.000000,4.000000,4.000000,4.000000,4.000000,4.000000,4.000000,4.000000,4.000000,4.000000,4.000000,4.000000,4.000000,4.000000,4.000000,100.000000
1602005507.170758,104.000000,0.000000,4123.077148,4136.410156,4123.077148,4122.563965,4128.717773,4120.512695,4119.487305,4120.512695,4105.128418,4125.128418,4123.077148,4134.358887,4117.948730,4129.230957,783.000000,4.000000,,,,0.000000,4.000000,4.000000,4.000000,4.000000,4.000000,4.000000,4.000000,4.000000,4.000000,4.000000,4.000000,4.000000,4.000000,4.000000,100.000000
1602005507.178641,105.000000,0.000000,4120.512695,4124.615234,4120.000000,4118.974121,4125.128418,4113.333496,4117.436035,4121.025879,4111.794922,4124.102539,4123.589844,4134.358887,4105.128418,4126.153809,770.000000,4.000000,,,,0.000000,4.000000,4.000000,4.000000,4.000000,4.000000,4.000000,4.000000,4.000000,4.000000,4.000000,4.000000,4.000000,4.000000,4.000000,100.000000
1602005507.186523,106.000000,0.000000,4120.512695,4127.179688,4125.641113,4121.538574,4128.205078,4113.846191,4120.512695,4128.717773,4120.512695,4112.307617,4123.589844,4133.846191,4109.743652,4122.563965,872.000000,4.000000,,,,0.000000,4.000000,4.000000,4.000000,4.000000,4.000000,4.000000,4.000000,4.000000,4.000000,4.000000,4.000000,4.000000,4.000000,4.000000,100.000000
1602005507.194305,107.000000,0.000000,4124.102539,4138.974121,4132.307617,4126.153809,4135.384766,4123.589844,4125.128418,4139.487305,4131.794922,4107.692383,4124.615234,4144.615234,4126.153809,4130.256348,833.000000,4.000000,,,,0.000000,4.000000,4.000000,4.000000,4.000000,4.000000,4.000000,4.000000,4.000000,4.000000,4.000000,4.000000,4.000000,4.000000,4.000000,100.000000
1602005507.202187,108.000000,0.000000,4125.641113,4137.436035,4130.769043,4125.128418,4136.410156,4129.743652,4123.077148,4136.410156,4138.461426,4120.000000,4121.025879,4153.846191,4122.051270,4134.871582,783.000000,4.000000,,,,0.000000,4.000000,4.000000,4.000000,4.000000,4.000000,4.000000,4.000000,4.000000,4.000000,4.000000,4.000000,4.000000,4.000000,4.000000,100.000000
1602005507.210069,109.000000,0.000000,4125.128418,4125.641113,4129.743652,4122.051270,4133.333496,4137.436035,4128.205078,4128.717773,4135.897461,4128.717773,4121.025879,4152.307617,4111.794922,4128.717773,770.000000,4.000000,,,,0.000000,4.000000,4.000000,4.000000,4.000000,4.000000,4.000000,4.000000,4.000000,4.000000,4.000000,4.000000,4.000000,4.000000,4.000000,100.000000
1602005507.217952,110.000000,0.000000,4125.641113,4125.128418,4130.256348,4124.102539,4135.384766,4145.641113,4139.487305,4129.230957,4126.153809,4124.615234,4125.641113,4152.820313,4119.487305,4126.153809,872.000000,4.000000,,,,0.000000,4.000000,4.000000,4.000000,4.000000,4.000000,4.000000,4.000000,4.000000,4.000000,4.000000,4.000000,4.000000,4.000000,4.000000,100.000000
1602005507.225834,111.000000,0.000000,4123.077148,4133.333496,4127.179688,4124.615234,4138.461426,4138.974121,4135.897461,4125.641113,4124.102539,4129.743652,4125.128418,4155.897461,4124.615234,4126.666504,833.000000,4.000000,,,,0.000000,4.000000,4.000000,4.000000,4.000000,4.000000,4.000000,4.000000,4.000000,4.000000,4.000000,4.000000,4.000000,4.000000,4.000000,100.000000
1602005507.233716,112.000000,0.000000,4121.025879,4135.897461,4128.205078,4121.025879,4133.846191,4122.563965,4123.589844,4123.077148,4135.897461,4136.410156,4125.641113,4153.846191,4118.974121,4123.077148,783.000000,4.000000,,,,0.000000,4.000000,4.000000,4.000000,4.000000,4.000000,4.000000,4.000000,4.000000,4.000000,4.000000,4.000000,4.000000,4.000000,4.000000,100.000000
1602005507.241598,113.000000,0.000000,4131.282227,4136.410156,4137.948730,4127.179688,4133.846191,4120.000000,4122.051270,4129.743652,4142.051270,4125.641113,4135.384766,4153.846191,4127.179688,4130.256348,770.000000,4.000000,,,,0.000000,4.000000,4.000000,4.000000,4.000000,4.000000,4.000000,4.000000,4.000000,4.000000,4.000000,4.000000,4.000000,4.000000,4.000000,100.000000
1602005507.249480,114.000000,0.000000,4142.051270,4138.974121,4140.512695,4136.410156,4136.410156,4129.230957,4125.641113,4131.794922,4136.410156,4116.410156,4142.563965,4159.487305,4136.410156,4141.025879,872.000000,4.000000,,,,0.000000,4.000000,4.000000,4.000000,4.000000,4.000000,4.000000,4.000000,4.000000,4.000000,4.000000,4.000000,4.000000,4.000000,4.000000,100.000000
1602005507.257461,115.000000,0.000000,4135.384766,4139.487305,4135.897461,4131.282227,4128.717773,4126.666504,4120.512695,4123.589844,4133.333496,4128.205078,4136.410156,4157.948730,4127.692383,4136.410156,833.000000,4.000000,,,,0.000000,4.000000,4.000000,4.000000,4.000000,4.000000,4.000000,4.000000,4.000000,4.000000,4.000000,4.000000,4.000000,4.000000,4.000000,100.000000
1602005507.265343,116.000000,0.000000,4126.153809,4137.436035,4137.948730,4126.153809,4128.205078,4119.487305,4114.871582,4121.025879,4136.922852,4145.128418,4133.846191,4154.358887,4127.179688,4134.358887,783.000000,4.000000,,,,0.000000,4.000000,4.000000,4.000000,4.000000,4.000000,4.000000,4.000000,4.000000,4.000000,4.000000,4.000000,4.000000,4.000000,4.000000,100.000000
1602005507.273224,117.000000,0.000000,4126.153809,4137.948730,4139.487305,4129.230957,4135.897461,4122.563965,4115.897461,4126.666504,4134.871582,4143.589844,4138.974121,4156.410156,4137.948730,4142.051270,770.000000,4.000000,,,,0.000000,4.000000,4.000000,4.000000,4.000000,4.000000,4.000000,4.000000,4.000000,4.000000,4.000000,4.000000,4.000000,4.000000,4.000000,100.000000
1602005507.281006,118.000000,0.000000,4123.077148,4135.897461,4129.743652,4124.615234,4129.230957,4124.615234,4118.974121,4124.102539,4126.153809,4130.769043,4132.820313,4151.794922,4130.769043,4134.871582,872.000000,4.000000,,,,0.000000,4.000000,4.000000,4.000000,4.000000,4.000000,4.000000,4.000000,4.000000,4.000000,4.000000,4.000000,4.000000,4.000000,4.000000,100.000000
1602005507.288888,119.000000,0.000000,4117.948730,4134.871582,4121.538574,4122.563965,4122.563965,4122.563965,4121.538574,4118.974121,4125.641113,4126.153809,4124.615234,4143.589844,4121.538574,4124.102539,833.000000,4.000000,,,,0.000000,4.000000,4.000000,4.000000,4.000000,4.000000,4.000000,4.000000,4.000000,4.000000,4.000000,4.000000,4.000000,4.000000,4.000000,100.000000
1602005507.296770,120.000000,0.000000,4119.487305,4136.922852,4123.077148,4129.743652,4135.384766,4122.563965,4121.538574,4121.025879,4127.179688,4117.948730,4126.666504,4142.051270,4126.666504,4125.641113,783.000000,4.000000,,,,0.000000,4.000000,4.000000,4.000000,4.000000,4.000000,4.000000,4.000000,4.000000,4.000000,4.000000,4.000000,4.000000,4.000000,4.000000,100.000000
1602005507.304652,121.000000,0.000000,4120.512695,4137.436035,4123.077148,4129.743652,4141.538574,4124.102539,4121.538574,4123.077148,4118.461426,4109.230957,4128.205078,4141.538574,4128.205078,4125.641113,770.000000,4.000000,,,,0.000000,4.000000,4.000000,4.000000,4.000000,4.000000,4.000000,4.000000,4.000000,4.000000,4.000000,4.000000,4.000000,4.000000,4.000000,100.000000
1602005507.312534,122.000000,0.000000,4122.051270,4145.641113,4124.102539,4131.794922,4137.436035,4126.666504,4124.102539,4124.102539,4122.051270,4120.512695,4126.153809,4137.436035,4130.769043,4128.205078,872.000000,4.000000,,,,0.000000,4.000000,4.000000,4.000000,4.000000,4.000000,4.000000,4.000000,4.000000,4.000000,4.000000,4.000000,4.000000,4.000000,4.000000,100.000000
1602005507.320515,123.000000,0.000000,4124.102539,4152.307617,4126.666504,4138.461426,4139.487305,4128.717773,4125.641113,4123.077148,4137.436035,4133.333496,4127.179688,4135.384766,4141.025879,4133.846191,833.000000,4.000000,,,,0.000000,4.000000,4.000000,4.000000,4.000000,4.000000,4.000000,4.000000,4.000000,4.000000,4.000000,4.000000,4.000000,4.000000,4.000000,100.000000
1602005507.328397,124.000000,0.000000,4116.410156,4144.615234,4121.025879,4132.307617,4141.025879,4123.589844,4123.589844,4116.410156,4130.769043,4127.692383,4124.615234,4135.384766,4135.897461,4126.153809,783.000000,4.000000,,,,0.000000,4.000000,4.000000,4.000000,4.000000,4.000000,4.000000,4.000000,4.000000,4.000000,4.000000,4.000000,4.000000,4.000000,4.000000,100.000000
1602005507.336278,125.000000,0.000000,4107.179688,4137.436035,4117.948730,4125.128418,4137.948730,4121.538574,4118.974121,4112.820313,4121.538574,4127.179688,4121.538574,4134.871582,4124.615234,4117.948730,770.000000,4.000000,,,,0.000000,4.000000,4.000000,4.000000,4.000000,4.000000,4.000000,4.000000,4.000000,4.000000,4.000000,4.000000,4.000000,4.000000,4.000000,100.000000
1602005507.344160,126.000000,0.000000,4105.641113,4139.487305,4119.487305,4126.666504,4136.922852,4124.615234,4114.358887,4113.333496,4131.794922,4136.922852,4123.589844,4129.743652,4126.153809,4124.615234,872.000000,4.000000,,,,0.000000,4.000000,4.000000,4.000000,4.000000,4.000000,4.000000,4.000000,4.000000,4.000000,4.000000,4.000000,4.000000,4.000000,4.000000,100.000000
1602005507.352042,127.000000,0.000000,4105.641113,4136.922852,4112.307617,4126.153809,4134.358887,4123.589844,4111.282227,4107.692383,4130.769043,4127.179688,4122.563965,4121.538574,4126.666504,4122.563965,833.000000,4.000000,,,,0.000000,4.000000,4.000000,4.000000,4.000000,4.000000,4.000000,4.000000,4.000000,4.000000,4.000000,4.000000,4.000000,4.000000,4.000000,100.000000
1602005507.359824,128.000000,0.000000,4106.666504,4134.358887,4109.743652,4125.641113,4130.769043,4122.051270,4111.282227,4104.102539,4117.948730,4106.153809,4120.512695,4121.538574,4121.025879,4113.333496,783.000000,4.000000,,,,0.000000,4.000000,4.000000,4.000000,4.000000,4.000000,4.000000,4.000000,4.000000,4.000000,4.000000,4.000000,4.000000,4.000000,4.000000,100.000000
1602005507.367706,0.000000,0.000000,4109.230957,4138.461426,4119.487305,4127.692383,4129.230957,4121.025879,4111.794922,4110.256348,4117.436035,4106.153809,4123.589844,4126.666504,4122.563965,4116.410156,806.000000,4.000000,,,,0.000000,4.000000,4.000000,4.000000,4.000000,4.000000,4.000000,4.000000,4.000000,4.000000,4.000000,4.000000,4.000000,4.000000,4.000000,100.000000
1602005507.375588,1.000000,0.000000,4108.717773,4137.948730,4121.538574,4125.641113,4126.666504,4116.410156,4111.282227,4112.820313,4122.051270,4121.025879,4124.102539,4127.179688,4133.333496,4122.051270,797.000000,4.000000,,,,0.000000,4.000000,4.000000,4.000000,4.000000,4.000000,4.000000,4.000000,4.000000,4.000000,4.000000,4.000000,4.000000,4.000000,4.000000,100.000000
1602005507.383469,2.000000,0.000000,4106.666504,4137.436035,4112.307617,4123.589844,4124.102539,4117.436035,4116.410156,4109.743652,4122.563965,4130.769043,4122.051270,4125.128418,4136.410156,4121.025879,852.000000,4.000000,,,,0.000000,4.000000,4.000000,4.000000,4.000000,4.000000,4.000000,4.000000,4.000000,4.000000,4.000000,4.000000,4.000000,4.000000,4.000000,100.000000
1602005507.391351,3.000000,0.000000,4101.538574,4136.410156,4105.128418,4122.563965,4123.077148,4116.922852,4120.512695,4107.692383,4117.948730,4125.128418,4117.948730,4118.461426,4127.179688,4118.461426,866.000000,4.000000,,,,0.000000,4.000000,4.000000,4.000000,4.000000,4.000000,4.000000,4.000000,4.000000,4.000000,4.000000,4.000000,4.000000,4.000000,4.000000,100.000000
1602005507.399233,4.000000,0.000000,4094.871826,4129.743652,4102.563965,4121.538574,4122.563965,4109.743652,4114.358887,4104.102539,4110.769043,4115.384766,4108.717773,4114.358887,4121.025879,4118.974121,807.000000,4.000000,,,,0.000000,4.000000,4.000000,4.000000,4.000000,4.000000,4.000000,4.000000,4.000000,4.000000,4.000000,4.000000,4.000000,4.000000,4.000000,100.000000
1602005507.407215,5.000000,0.000000,4102.051270,4129.743652,4103.589844,4124.102539,4123.077148,4112.820313,4109.743652,4107.179688,4115.384766,4116.410156,4106.153809,4118.461426,4124.615234,4123.589844,822.000000,4.000000,,,,0.000000,4.000000,4.000000,4.000000,4.000000,4.000000,4.000000,4.000000,4.000000,4.000000,4.000000,4.000000,4.000000,4.000000,4.000000,100.000000
1602005507.415097,6.000000,0.000000,4111.794922,4138.974121,4109.743652,4127.692383,4125.641113,4126.666504,4117.436035,4119.487305,4129.230957,4129.230957,4111.794922,4122.051270,4125.128418,4122.051270,780.000000,4.000000,,,,0.000000,4.000000,4.000000,4.000000,4.000000,4.000000,4.000000,4.000000,4.000000,4.000000,4.000000,4.000000,4.000000,4.000000,4.000000,100.000000
1602005507.422979,7.000000,0.000000,4101.538574,4136.922852,4111.794922,4124.102539,4125.641113,4130.769043,4125.128418,4126.153809,4130.256348,4129.230957,4114.358887,4121.025879,4123.077148,4109.230957,697.000000,4.000000,,,,0.000000,4.000000,4.000000,4.000000,4.000000,4.000000,4.000000,4.000000,4.000000,4.000000,4.000000,4.000000,4.000000,4.000000,4.000000,100.000000
1602005507.430862,8.000000,0.000000,4089.743652,4126.666504,4105.128418,4120.000000,4124.102539,4124.102539,4116.922852,4122.563965,4121.025879,4107.179688,4112.307617,4118.974121,4121.025879,4102.563965,791.000000,4.000000,,,,0.000000,4.000000,4.000000,4.000000,4.000000,4.000000,4.000000,4.000000,4.000000,4.000000,4.000000,4.000000,4.000000,4.000000,4.000000,100.000000
1602005507.438744,9.000000,0.000000,4101.025879,4130.256348,4106.666504,4120.000000,4123.077148,4122.563965,4108.717773,4120.000000,4119.487305,4105.128418,4116.922852,4122.563965,4120.000000,4113.333496,843.000000,4.000000,,,,0.000000,4.000000,4.000000,4.000000,4.000000,4.000000,4.000000,4.000000,4.000000,4.000000,4.000000,4.000000,4.000000,4.000000,4.000000,100.000000
1602005507.446626,10.000000,0.000000,4112.820313,4136.922852,4118.461426,4121.025879,4123.077148,4123.589844,4117.436035,4122.051270,4122.563965,4131.282227,4123.077148,4133.333496,4129.230957,4124.615234,872.000000,4.000000,,,,0.000000,4.000000,4.000000,4.000000,4.000000,4.000000,4.000000,4.000000,4.000000,4.000000,4.000000,4.000000,4.000000,4.000000,4.000000,100.000000
1602005507.454508,11.000000,0.000000,4109.743652,4134.358887,4125.128418,4122.563965,4122.563965,4124.102539,4132.307617,4123.589844,4122.563965,4144.615234,4122.051270,4141.025879,4138.974121,4131.282227,833.000000,4.000000,,,,0.000000,4.000000,4.000000,4.000000,4.000000,4.000000,4.000000,4.000000,4.000000,4.000000,4.000000,4.000000,4.000000,4.000000,4.000000,100.000000
1602005507.462390,12.000000,0.000000,4106.153809,4133.846191,4122.051270,4122.051270,4121.538574,4126.666504,4138.974121,4122.563965,4123.077148,4131.794922,4121.538574,4140.512695,4139.487305,4135.384766,783.000000,4.000000,,,,0.000000,4.000000,4.000000,4.000000,4.000000,4.000000,4.000000,4.000000,4.000000,4.000000,4.000000,4.000000,4.000000,4.000000,4.000000,100.000000
1602005507.470172,13.000000,0.000000,4109.230957,4137.436035,4121.025879,4120.512695,4122.051270,4126.153809,4134.871582,4121.538574,4126.666504,4124.102539,4125.641113,4140.000000,4137.948730,4134.871582,770.000000,4.000000,,,,0.000000,4.000000,4.000000,4.000000,4.000000,4.000000,4.000000,4.000000,4.000000,4.000000,4.000000,4.000000,4.000000,4.000000,4.000000,100.000000
1602005507.478055,14.000000,0.000000,4116.410156,4139.487305,4125.128418,4129.230957,4127.692383,4123.077148,4128.717773,4125.128418,4133.333496,4129.230957,4126.666504,4140.000000,4143.077148,4135.897461,872.000000,4.000000,,,,0.000000,4.000000,4.000000,4.000000,4.000000,4.000000,4.000000,4.000000,4.000000,4.000000,4.000000,4.000000,4.000000,4.000000,4.000000,100.000000
1602005507.485937,15.000000,0.000000,4117.436035,4140.000000,4127.692383,4137.436035,4130.769043,4125.128418,4124.615234,4129.743652,4140.512695,4123.589844,4124.102539,4138.974121,4145.128418,4136.922852,833.000000,4.000000,,,,0.000000,4.000000,4.000000,4.000000,4.000000,4.000000,4.000000,4.000000,4.000000,4.000000,4.000000,4.000000,4.000000,4.000000,4.000000,100.000000
1602005507.493820,16.000000,0.000000,4110.256348,4137.948730,4122.563965,4128.205078,4123.589844,4124.102539,4123.589844,4128.205078,4137.948730,4117.948730,4124.102539,4140.000000,4134.358887,4130.256348,0.000000,4.000000,,,,0.000000,4.000000,4.000000,4.000000,4.000000,4.000000,4.000000,4.000000,4.000000,4.000000,4.000000,4.000000,4.000000,4.000000,4.000000,100.000000
1602005507.501702,17.000000,0.000000,4106.666504,4133.333496,4120.512695,4119.487305,4117.948730,4119.487305,4121.025879,4126.666504,4127.179688,4130.256348,4124.615234,4140.000000,4123.589844,4122.051270,0.000000,4.000000,,,,0.000000,4.000000,4.000000,4.000000,4.000000,4.000000,4.000000,4.000000,4.000000,4.000000,4.000000,4.000000,4.000000,4.000000,4.000000,100.000000
1602005507.509584,18.000000,0.000000,4113.333496,4134.871582,4130.769043,4129.230957,4122.051270,4130.769043,4124.102539,4132.307617,4125.128418,4141.538574,4125.641113,4139.487305,4128.205078,4124.615234,0.000000,4.000000,,,,0.000000,4.000000,4.000000,4.000000,4.000000,4.000000,4.000000,4.000000,4.000000,4.000000,4.000000,4.000000,4.000000,4.000000,4.000000,100.000000
1602005507.517467,19.000000,0.000000,4113.333496,4140.000000,4141.025879,4138.974121,4125.641113,4143.077148,4134.358887,4137.436035,4131.794922,4136.922852,4128.205078,4145.128418,4137.948730,4133.846191,0.000000,4.000000,,,,0.000000,4.000000,4.000000,4.000000,4.000000,4.000000,4.000000,4.000000,4.000000,4.000000,4.000000,4.000000,4.000000,4.000000,4.000000,100.000000
1602005507.525349,20.000000,0.000000,4112.307617,4139.487305,4140.512695,4137.948730,4126.153809,4137.948730,4140.512695,4136.922852,4134.871582,4138.461426,4129.743652,4153.333496,4138.461426,4133.846191,0.000000,4.000000,,,,0.000000,4.000000,4.000000,4.000000,4.000000,4.000000,4.000000,4.000000,4.000000,4.000000,4.000000,4.000000,4.000000,4.000000,4.000000,100.000000
1602005507.533231,21.000000,0.000000,4116.922852,4139.487305,4138.974121,4137.436035,4127.179688,4134.358887,4139.487305,4136.922852,4132.307617,4142.051270,4128.205078,4151.282227,4133.846191,4124.615234,0.000000,4.000000,,,,0.000000,4.000000,4.000000,4.000000,4.000000,4.000000,4.000000,4.000000,4.000000,4.000000,4.000000,4.000000,4.000000,4.000000,4.000000,100.000000
1602005507.541013,22.000000,0.000000,4110.769043,4139.487305,4139.487305,4137.436035,4126.666504,4138.974121,4137.948730,4132.307617,4124.102539,4116.922852,4124.102539,4142.563965,4127.179688,4117.436035,0.000000,4.000000,,,,0.000000,4.000000,4.000000,4.000000,4.000000,4.000000,4.000000,4.000000,4.000000,4.000000,4.000000,4.000000,4.000000,4.000000,4.000000,100.000000
1602005507.548895,23.000000,0.000000,4106.666504,4138.461426,4140.000000,4137.436035,4127.692383,4136.922852,4136.410156,4126.153809,4120.512695,4101.538574,4129.743652,4147.179688,4129.743652,4123.077148,0.000000,4.000000,,,,0.000000,4.000000,4.000000,4.000000,4.000000,4.000000,4.000000,4.000000,4.000000,4.000000,4.000000,4.000000,4.000000,4.000000,4.000000,100.000000
1602005507.556776,24.000000,0.000000,4122.563965,4141.538574,4143.077148,4140.512695,4130.256348,4130.769043,4131.282227,4125.641113,4128.205078,4129.230957,4137.436035,4160.512695,4142.051270,4135.897461,0.000000,4.000000,,,,0.000000,4.000000,4.000000,4.000000,4.000000,4.000000,4.000000,4.000000,4.000000,4.000000,4.000000,4.000000,4.000000,4.000000,4.000000,100.000000
1602005507.564658,25.000000,0.000000,4130.256348,4139.487305,4145.128418,4138.461426,4123.077148,4121.025879,4119.487305,4124.102539,4124.102539,4144.615234,4129.230957,4155.384766,4139.487305,4136.922852,0.000000,4.000000,,,,0.000000,4.000000,4.000000,4.000000,4.000000,4.000000,4.000000,4.000000,4.000000,4.000000,4.000000,4.000000,4.000000,4.000000,4.000000,100.000000
1602005507.572540,26.000000,0.000000,4112.820313,4125.641113,4140.512695,4128.205078,4113.333496,4105.128418,4110.769043,4118.461426,4108.717773,4121.538574,4119.487305,4138.974121,4123.589844,4126.666504,0.000000,4.000000,,,,0.000000,4.000000,4.000000,4.000000,4.000000,4.000000,4.000000,4.000000,4.000000,4.000000,4.000000,4.000000,4.000000,4.000000,4.000000,100.000000
1602005507.580322,27.000000,0.000000,4100.000000,4117.436035,4129.743652,4119.487305,4114.871582,4106.153809,4113.333496,4118.974121,4115.384766,4111.282227,4121.025879,4135.384766,4120.000000,4119.487305,0.000000,4.000000,,,,0.000000,4.000000,4.000000,4.000000,4.000000,4.000000,4.000000,4.000000,4.000000,4.000000,4.000000,4.000000,4.000000,4.000000,4.000000,100.000000
1602005507.588204,28.000000,0.000000,4104.102539,4121.538574,4123.589844,4121.538574,4122.051270,4127.692383,4123.589844,4124.102539,4134.871582,4129.743652,4124.615234,4145.128418,4127.179688,4123.077148,0.000000,4.000000,,,,0.000000,4.000000,4.000000,4.000000,4.000000,4.000000,4.000000,4.000000,4.000000,4.000000,4.000000,4.000000,4.000000,4.000000,4.000000,100.000000
1602005507.596087,29.000000,0.000000,4108.717773,4123.077148,4120.000000,4125.128418,4124.102539,4142.563965,4132.820313,4126.153809,4137.436035,4132.307617,4127.692383,4148.205078,4130.769043,4123.589844,0.000000,4.000000,,,,0.000000,4.000000,4.000000,4.000000,4.000000,4.000000,4.000000,4.000000,4.000000,4.000000,4.000000,4.000000,4.000000,4.000000,4.000000,100.000000
1602005507.603969,30.000000,0.000000,4102.051270,4118.974121,4110.769043,4123.077148,4123.589844,4141.025879,4136.410156,4128.205078,4132.307617,4108.205078,4126.666504,4134.358887,4125.641113,4116.410156,0.000000,4.000000,,,,0.000000,4.000000,4.000000,4.000000,4.000000,4.000000,4.000000,4.000000,4.000000,4.000000,4.000000,4.000000,4.000000,4.000000,4.000000,100.000000
1602005507.611852,31.000000,0.000000,4097.948730,4126.666504,4111.794922,4126.153809,4129.743652,4137.436035,4135.897461,4128.717773,4135.897461,4098.461426,4124.615234,4128.205078,4123.589844,4115.384766,0.000000,4.000000,,,,0.000000,4.000000,4.000000,4.000000,4.000000,4.000000,4.000000,4.000000,4.000000,4.000000,4.000000,4.000000,4.000000,4.000000,4.000000,100.000000
1602005507.619734,32.000000,0.000000,4114.871582,4140.512695,4130.769043,4137.436035,4136.922852,4141.025879,4134.358887,4126.666504,4139.487305,4123.589844,4132.307617,4136.922852,4131.794922,4122.563965,0.000000,4.000000,,,,0.000000,4.000000,4.000000,4.000000,4.000000,4.000000,4.000000,4.000000,4.000000,4.000000,4.000000,4.000000,4.000000,4.000000,4.000000,100.000000
1602005507.627616,33.000000,0.000000,4124.615234,4140.000000,4138.461426,4138.974121,4134.358887,4141.025879,4129.743652,4125.641113,4138.974121,4147.179688,4136.410156,4144.615234,4134.358887,4127.692383,0.000000,4.000000,,,,0.000000,4.000000,4.000000,4.000000,4.000000,4.000000,4.000000,4.000000,4.000000,4.000000,4.000000,4.000000,4.000000,4.000000,4.000000,100.000000
1602005507.635499,34.000000,0.000000,4113.333496,4122.051270,4122.563965,4126.666504,4124.102539,4129.743652,4121.025879,4125.641113,4136.922852,4138.461426,4126.666504,4141.025879,4125.128418,4118.974121,0.000000,4.000000,,,,0.000000,4.000000,4.000000,4.000000,4.000000,4.000000,4.000000,4.000000,4.000000,4.000000,4.000000,4.000000,4.000000,4.000000,4.000000,100.000000
1602005507.643381,35.000000,0.000000,4100.512695,4111.794922,4110.769043,4118.461426,4112.820313,4118.461426,4115.384766,4122.563965,4131.794922,4125.128418,4114.358887,4129.230957,4114.358887,4108.205078,0.000000,4.000000,,,,0.000000,4.000000,4.000000,4.000000,4.000000,4.000000,4.000000,4.000000,4.000000,4.000000,4.000000,4.000000,4.000000,4.000000,4.000000,100.000000
1602005507.651263,36.000000,0.000000,4098.461426,4118.974121,4116.410156,4120.000000,4107.692383,4118.974121,4120.512695,4123.077148,4124.102539,4112.307617,4108.717773,4127.179688,4107.692383,4107.179688,0.000000,4.000000,,,,0.000000,4.000000,4.000000,4.000000,4.000000,4.000000,4.000000,4.000000,4.000000,4.000000,4.000000,4.000000,4.000000,4.000000,4.000000,100.000000
1602005507.659145,37.000000,0.000000,4101.538574,4120.000000,4124.615234,4121.538574,4112.307617,4120.512695,4126.153809,4128.205078,4119.487305,4100.512695,4107.692383,4134.871582,4106.153809,4112.307617,0.000000,4.000000,,,,0.000000,4.000000,4.000000,4.000000,4.000000,4.000000,4.000000,4.000000,4.000000,4.000000,4.000000,4.000000,4.000000,4.000000,4.000000,100.000000
1602005507.667027,38.000000,0.000000,4103.077148,4114.358887,4118.461426,4121.025879,4118.461426,4122.563965,4127.692383,4128.205078,4119.487305,4098.974121,4111.282227,4131.794922,4109.743652,4115.897461,0.000000,4.000000,,,,0.000000,4.000000,4.000000,4.000000,4.000000,4.000000,4.000000,4.000000,4.000000,4.000000,4.000000,4.000000,4.000000,4.000000,4.000000,100.000000
1602005507.674908,39.000000,0.000000,4096.922852,4116.410156,4106.153809,4121.025879,4116.922852,4132.820313,4127.179688,4123.077148,4120.512695,4093.333252,4114.358887,4118.461426,4111.282227,4113.333496,0.000000,4.000000,,,,0.000000,4.000000,4.000000,4.000000,4.000000,4.000000,4.000000,4.000000,4.000000,4.000000,4.000000,4.000000,4.000000,4.000000,4.000000,100.000000
1602005507.682790,40.000000,0.000000,4092.307617,4121.538574,4106.666504,4125.641113,4118.461426,4135.384766,4128.205078,4121.025879,4120.000000,4096.922852,4117.948730,4123.589844,4112.820313,4115.384766,0.000000,4.000000,,,,0.000000,4.000000,4.000000,4.000000,4.000000,4.000000,4.000000,4.000000,4.000000,4.000000,4.000000,4.000000,4.000000,4.000000,4.000000,100.000000
1602005507.690772,41.000000,0.000000,4107.692383,4125.128418,4121.025879,4133.333496,4123.077148,4126.666504,4124.615234,4122.563965,4122.051270,4126.153809,4127.179688,4144.615234,4124.615234,4126.153809,0.000000,4.000000,,,,0.000000,4.000000,4.000000,4.000000,4.000000,4.000000,4.000000,4.000000,4.000000,4.000000,4.000000,4.000000,4.000000,4.000000,4.000000,100.000000
1602005507.698654,42.000000,0.000000,4119.487305,4135.897461,4135.897461,4140.000000,4124.615234,4130.769043,4122.563965,4123.077148,4126.666504,4149.743652,4138.974121,4157.948730,4138.461426,4138.461426,0.000000,4.000000,,,,0.000000,4.000000,4.000000,4.000000,4.000000,4.000000,4.000000,4.000000,4.000000,4.000000,4.000000,4.000000,4.000000,4.000000,4.000000,100.000000
1602005507.706537,43.000000,0.000000,4111.794922,4137.436035,4134.871582,4140.000000,4125.641113,4140.000000,4123.077148,4122.563965,4123.589844,4140.512695,4144.102539,4154.871582,4142.563965,4143.589844,0.000000,4.000000,,,,0.000000,4.000000,4.000000,4.000000,4.000000,4.000000,4.000000,4.000000,4.000000,4.000000,4.000000,4.000000,4.000000,4.000000,4.000000,100.000000
1602005507.714419,44.000000,0.000000,4105.641113,4123.589844,4115.384766,4130.769043,4127.179688,4137.948730,4121.538574,4119.487305,4117.436035,4126.666504,4136.922852,4141.025879,4136.922852,4134.871582,0.000000,4.000000,,,,0.000000,4.000000,4.000000,4.000000,4.000000,4.000000,4.000000,4.000000,4.000000,4.000000,4.000000,4.000000,4.000000,4.000000,4.000000,100.000000
1602005507.722301,45.000000,0.000000,4106.153809,4124.102539,4103.589844,4126.666504,4129.230957,4136.922852,4124.615234,4120.512695,4124.615234,4126.153809,4131.794922,4135.384766,4132.820313,4124.102539,0.000000,4.000000,,,,0.000000,4.000000,4.000000,4.000000,4.000000,4.000000,4.000000,4.000000,4.000000,4.000000,4.000000,4.000000,4.000000,4.000000,4.000000,100.000000
1602005507.730183,46.000000,0.000000,4106.153809,4136.410156,4114.871582,4134.358887,4134.871582,4140.000000,4132.820313,4129.230957,4137.436035,4122.051270,4134.871582,4136.410156,4135.384766,4129.230957,0.000000,4.000000,,,,0.000000,4.000000,4.000000,4.000000,4.000000,4.000000,4.000000,4.000000,4.000000,4.000000,4.000000,4.000000,4.000000,4.000000,4.000000,100.000000
1602005507.738065,47.000000,0.000000,4112.307617,4139.487305,4128.205078,4141.538574,4136.922852,4137.948730,4139.487305,4140.000000,4142.563965,4129.743652,4140.000000,4137.948730,4140.000000,4139.487305,0.000000,4.000000,,,,0.000000,4.000000,4.000000,4.000000,4.000000,4.000000,4.000000,4.000000,4.000000,4.000000,4.000000,4.000000,4.000000,4.000000,4.000000,100.000000
1602005507.745947,48.000000,0.000000,4121.538574,4136.410156,4122.563965,4138.461426,4130.256348,4137.948730,4140.000000,4142.051270,4143.589844,4152.307617,4143.077148,4145.641113,4144.615234,4140.000000,0.000000,4.000000,,,,0.000000,4.000000,4.000000,4.000000,4.000000,4.000000,4.000000,4.000000,4.000000,4.000000,4.000000,4.000000,4.000000,4.000000,4.000000,100.000000
1602005507.753829,49.000000,0.000000,4122.563965,4135.897461,4115.897461,4133.846191,4124.615234,4141.025879,4137.948730,4139.487305,4143.077148,4163.589844,4141.538574,4149.743652,4146.666504,4143.077148,0.000000,4.000000,,,,0.000000,4.000000,4.000000,4.000000,4.000000,4.000000,4.000000,4.000000,4.000000,4.000000,4.000000,4.000000,4.000000,4.000000,4.000000,100.000000
1602005507.761611,50.000000,0.000000,4122.563965,4138.461426,4127.179688,4138.461426,4126.666504,4134.358887,4134.358887,4140.000000,4133.846191,4155.384766,4140.512695,4147.692383,4143.077148,4154.871582,0.000000,4.000000,,,,0.000000,4.000000,4.000000,4.000000,4.000000,4.000000,4.000000,4.000000,4.000000,4.000000,4.000000,4.000000,4.000000,4.000000,4.000000,100.000000
1602005507.769493,51.000000,0.000000,4127.692383,4141.025879,4143.589844,4143.077148,4128.205078,4126.666504,4129.230957,4138.974121,4122.563965,4141.538574,4138.461426,4147.179688,4140.512695,4152.307617,0.000000,4.000000,,,,0.000000,4.000000,4.000000,4.000000,4.000000,4.000000,4.000000,4.000000,4.000000,4.000000,4.000000,4.000000,4.000000,4.000000,4.000000,100.000000
1602005507.777375,52.000000,0.000000,4126.666504,4137.948730,4138.974121,4136.922852,4124.615234,4131.282227,4124.615234,4131.794922,4118.461426,4129.743652,4136.922852,4144.615234,4140.512695,4139.487305,0.000000,4.000000,,,,0.000000,4.000000,4.000000,4.000000,4.000000,4.000000,4.000000,4.000000,4.000000,4.000000,4.000000,4.000000,4.000000,4.000000,4.000000,100.000000
1602005507.785257,53.000000,0.000000,4115.384766,4129.743652,4123.077148,4125.641113,4124.615234,4130.769043,4124.102539,4125.128418,4112.820313,4120.512695,4136.922852,4137.436035,4137.948730,4136.410156,0.000000,4.000000,,,,0.000000,4.000000,4.000000,4.000000,4.000000,4.000000,4.000000,4.000000,4.000000,4.000000,4.000000,4.000000,4.000000,4.000000,4.000000,100.000000
1602005507.793139,54.000000,0.000000,4106.666504,4127.179688,4118.461426,4125.128418,4126.666504,4122.051270,4126.666504,4127.179688,4110.256348,4118.461426,4138.461426,4134.871582,4136.410156,4141.538574,0.000000,4.000000,,,,0.000000,4.000000,4.000000,4.000000,4.000000,4.000000,4.000000,4.000000,4.000000,4.000000,4.000000,4.000000,4.000000,4.000000,4.000000,100.000000
1602005507.801121,55.000000,0.000000,4103.077148,4123.589844,4122.563965,4126.666504,4125.128418,4125.641113,4133.846191,4136.410156,4125.128418,4127.179688,4139.487305,4138.461426,4141.538574,4137.948730,0.000000,4.000000,,,,0.000000,4.000000,4.000000,4.000000,4.000000,4.000000,4.000000,4.000000,4.000000,4.000000,4.000000,4.000000,4.000000,4.000000,4.000000,100.000000
1602005507.809002,56.000000,0.000000,4107.692383,4123.589844,4122.051270,4125.128418,4129.743652,4138.974121,4141.025879,4142.051270,4141.538574,4146.153809,4145.641113,4143.077148,4146.666504,4135.897461,0.000000,4.000000,,,,0.000000,4.000000,4.000000,4.000000,4.000000,4.000000,4.000000,4.000000,4.000000,4.000000,4.000000,4.000000,4.000000,4.000000,4.000000,100.000000
1602005507.816884,57.000000,0.000000,4117.948730,4134.358887,4118.461426,4130.256348,4132.820313,4142.051270,4142.051270,4141.538574,4143.077148,4158.974121,4153.846191,4145.128418,4144.102539,4146.153809,0.000000,4.000000,,,,0.000000,4.000000,4.000000,4.000000,4.000000,4.000000,4.000000,4.000000,4.000000,4.000000,4.000000,4.000000,4.000000,4.000000,4.000000,100.000000
1602005507.824766,58.000000,0.000000,4129.230957,4141.538574,4117.436035,4137.436035,4124.615234,4135.897461,4139.487305,4141.025879,4141.538574,4163.077148,4152.307617,4141.538574,4138.974121,4153.846191,0.000000,4.000000,,,,0.000000,4.000000,4.000000,4.000000,4.000000,4.000000,4.000000,4.000000,4.000000,4.000000,4.000000,4.000000,4.000000,4.000000,4.000000,100.000000
1602005507.832648,59.000000,0.000000,4135.384766,4138.974121,4121.025879,4138.461426,4123.077148,4128.205078,4134.358887,4136.410156,4135.384766,4152.307617,4144.615234,4145.641113,4138.461426,4152.307617,0.000000,4.000000,,,,0.000000,4.000000,4.000000,4.000000,4.000000,4.000000,4.000000,4.000000,4.000000,4.000000,4.000000,4.000000,4.000000,4.000000,4.000000,100.000000
1602005507.840530,60.000000,0.000000,4137.436035,4136.410156,4127.692383,4135.897461,4128.205078,4121.025879,4123.077148,4123.589844,4120.512695,4124.615234,4138.461426,4153.333496,4137.436035,4152.307617,0.000000,4.000000,,,,0.000000,4.000000,4.000000,4.000000,4.000000,4.000000,4.000000,4.000000,4.000000,4.000000,4.000000,4.000000,4.000000,4.000000,4.000000,100.000000
1602005507.848511,61.000000,0.000000,4140.000000,4137.948730,4133.333496,4136.922852,4125.641113,4119.487305,4116.410156,4118.461426,4114.871582,4121.025879,4138.461426,4152.307617,4134.358887,4153.846191,0.000000,4.000000,,,,0.000000,4.000000,4.000000,4.000000,4.000000,4.000000,4.000000,4.000000,4.000000,4.000000,4.000000,4.000000,4.000000,4.000000,4.000000,100.000000
1602005507.856393,62.000000,0.000000,4139.487305,4140.000000,4142.563965,4140.000000,4125.641113,4119.487305,4118.974121,4124.615234,4114.358887,4139.487305,4142.051270,4154.871582,4137.948730,4155.384766,0.000000,4.000000,,,,0.000000,4.000000,4.000000,4.000000,4.000000,4.000000,4.000000,4.000000,4.000000,4.000000,4.000000,4.000000,4.000000,4.000000,4.000000,100.000000
1602005507.864274,63.000000,0.000000,4143.077148,4142.563965,4152.820313,4141.025879,4133.846191,4119.487305,4121.025879,4124.615234,4105.641113,4128.205078,4140.512695,4167.692383,4140.512695,4155.897461,0.000000,4.000000,,,,0.000000,4.000000,4.000000,4.000000,4.000000,4.000000,4.000000,4.000000,4.000000,4.000000,4.000000,4.000000,4.000000,4.000000,4.000000,100.000000
1602005507.872056,64.000000,0.000000,4148.717773,4141.025879,4155.897461,4139.487305,4129.743652,4122.563965,4120.000000,4125.128418,4107.692383,4113.846191,4141.025879,4172.307617,4137.948730,4155.897461,806.000000,4.000000,,,,0.000000,4.000000,4.000000,4.000000,4.000000,4.000000,4.000000,4.000000,4.000000,4.000000,4.000000,4.000000,4.000000,4.000000,4.000000,100.000000
1602005507.879937,65.000000,0.000000,4148.717773,4138.974121,4154.358887,4141.538574,4126.153809,4126.153809,4122.563965,4136.922852,4131.794922,4140.000000,4152.307617,4167.692383,4143.589844,4154.871582,797.000000,4.000000,,,,0.000000,4.000000,4.000000,4.000000,4.000000,4.000000,4.000000,4.000000,4.000000,4.000000,4.000000,4.000000,4.000000,4.000000,4.000000,100.000000
1602005507.887819,66.000000,0.000000,4142.051270,4142.051270,4152.820313,4142.563965,4134.358887,4131.282227,4126.666504,4144.615234,4151.794922,4161.538574,4164.102539,4169.743652,4155.897461,4152.820313,852.000000,4.000000,,,,0.000000,4.000000,4.000000,4.000000,4.000000,4.000000,4.000000,4.000000,4.000000,4.000000,4.000000,4.000000,4.000000,4.000000,4.000000,100.000000
1602005507.895701,67.000000,0.000000,4141.538574,4142.563965,4150.769043,4139.487305,4136.922852,4130.256348,4124.102539,4141.025879,4154.871582,4150.769043,4162.051270,4168.717773,4156.410156,4152.820313,866.000000,4.000000,,,,0.000000,4.000000,4.000000,4.000000,4.000000,4.000000,4.000000,4.000000,4.000000,4.000000,4.000000,4.000000,4.000000,4.000000,4.000000,100.000000
1602005507.903582,68.000000,0.000000,4148.717773,4142.051270,4153.333496,4145.641113,4135.384766,4125.128418,4122.563965,4138.461426,4154.358887,4145.128418,4157.948730,4159.487305,4149.743652,4155.897461,807.000000,4.000000,,,,0.000000,4.000000,4.000000,4.000000,4.000000,4.000000,4.000000,4.000000,4.000000,4.000000,4.000000,4.000000,4.000000,4.000000,4.000000,100.000000
1602005507.911364,69.000000,0.000000,4146.153809,4141.538574,4156.410156,4152.307617,4135.897461,4126.153809,4132.307617,4135.384766,4151.794922,4160.000000,4156.410156,4152.820313,4143.589844,4149.230957,822.000000,4.000000,,,,0.000000,4.000000,4.000000,4.000000,4.000000,4.000000,4.000000,4.000000,4.000000,4.000000,4.000000,4.000000,4.000000,4.000000,4.000000,100.000000
1602005507.919246,70.000000,0.000000,4129.230957,4131.282227,4140.000000,4140.512695,4129.230957,4124.615234,4138.461426,4125.641113,4136.922852,4159.487305,4137.436035,4143.589844,4129.743652,4128.205078,780.000000,4.000000,,,,0.000000,4.000000,4.000000,4.000000,4.000000,4.000000,4.000000,4.000000,4.000000,4.000000,4.000000,4.000000,4.000000,4.000000,4.000000,100.000000
1602005507.927128,71.000000,0.000000,4116.922852,4121.538574,4120.000000,4129.743652,4120.000000,4121.025879,4136.410156,4119.487305,4115.897461,4129.230957,4122.051270,4134.358887,4116.922852,4120.512695,697.000000,4.000000,,,,0.000000,4.000000,4.000000,4.000000,4.000000,4.000000,4.000000,4.000000,4.000000,4.000000,4.000000,4.000000,4.000000,4.000000,4.000000,100.000000
1602005507.935010,72.000000,0.000000,4121.025879,4123.589844,4120.000000,4135.384766,4124.102539,4128.205078,4136.922852,4121.538574,4106.666504,4108.205078,4132.820313,4136.410156,4120.512695,4133.846191,791.000000,4.000000,,,,0.000000,4.000000,4.000000,4.000000,4.000000,4.000000,4.000000,4.000000,4.000000,4.000000,4.000000,4.000000,4.000000,4.000000,4.000000,100.000000
1602005507.942892,73.000000,0.000000,4124.102539,4123.589844,4125.128418,4132.307617,4126.666504,4132.820313,4130.256348,4122.051270,4106.666504,4110.256348,4137.436035,4140.000000,4124.615234,4138.461426,817.000000,4.000000,,,,0.000000,4.000000,4.000000,4.000000,4.000000,4.000000,4.000000,4.000000,4.000000,4.000000,4.000000,4.000000,4.000000,4.000000,4.000000,100.000000
1602005507.950874,74.000000,0.000000,4120.512695,4121.025879,4122.563965,4125.641113,4122.563965,4121.025879,4113.333496,4119.487305,4104.102539,4110.256348,4123.589844,4142.051270,4120.512695,4130.769043,872.000000,4.000000,,,,0.000000,4.000000,4.000000,4.000000,4.000000,4.000000,4.000000,4.000000,4.000000,4.000000,4.000000,4.000000,4.000000,4.000000,4.000000,100.000000
1602005507.958756,75.000000,0.000000,4123.589844,4125.641113,4130.256348,4135.384766,4125.641113,4110.769043,4107.692383,4120.000000,4104.615234,4107.179688,4121.538574,4151.794922,4118.461426,4135.897461,819.000000,4.000000,,,,0.000000,4.000000,4.000000,4.000000,4.000000,4.000000,4.000000,4.000000,4.000000,4.000000,4.000000,4.000000,4.000000,4.000000,4.000000,100.000000
1602005507.966639,76.000000,0.000000,4126.666504,4128.205078,4138.974121,4136.922852,4127.179688,4109.230957,4111.282227,4122.563965,4110.256348,4112.307617,4127.692383,4152.820313,4115.897461,4140.000000,783.000000,4.000000,,,,0.000000,4.000000,4.000000,4.000000,4.000000,4.000000,4.000000,4.000000,4.000000,4.000000,4.000000,4.000000,4.000000,4.000000,4.000000,100.000000
1602005507.974521,77.000000,0.000000,4121.538574,4120.512695,4131.282227,4124.102539,4121.025879,4106.153809,4107.179688,4121.025879,4116.410156,4118.461426,4121.538574,4138.974121,4111.282227,4124.615234,727.000000,4.000000,,,,0.000000,4.000000,4.000000,4.000000,4.000000,4.000000,4.000000,4.000000,4.000000,4.000000,4.000000,4.000000,4.000000,4.000000,4.000000,100.000000
1602005507.982404,78.000000,0.000000,4118.461426,4118.461426,4125.128418,4121.025879,4119.487305,4108.717773,4109.230957,4121.538574,4128.205078,4131.794922,4123.077148,4140.000000,4118.461426,4121.538574,872.000000,4.000000,,,,0.000000,4.000000,4.000000,4.000000,4.000000,4.000000,4.000000,4.000000,4.000000,4.000000,4.000000,4.000000,4.000000,4.000000,4.000000,100.000000
1602005507.990286,79.000000,0.000000,4123.589844,4123.077148,4129.230957,4125.641113,4121.025879,4117.436035,4120.000000,4129.743652,4144.102539,4145.641113,4134.871582,4152.820313,4128.717773,4138.461426,819.000000,4.000000,,,,0.000000,4.000000,4.000000,4.000000,4.000000,4.000000,4.000000,4.000000,4.000000,4.000000,4.000000,4.000000,4.000000,4.000000,4.000000,100.000000
1602005507.998168,80.000000,0.000000,4124.102539,4122.051270,4125.641113,4124.102539,4125.128418,4124.615234,4126.666504,4137.948730,4146.666504,4139.487305,4137.948730,4147.692383,4127.179688,4135.897461,783.000000,4.000000,,,,0.000000,4.000000,4.000000,4.000000,4.000000,4.000000,4.000000,4.000000,4.000000,4.000000,4.000000,4.000000,4.000000,4.000000,4.000000,100.000000
1602005508.006051,81.000000,0.000000,4121.025879,4119.487305,4116.922852,4122.051270,4133.846191,4134.358887,4131.794922,4135.897461,4143.589844,4135.384766,4137.436035,4138.461426,4128.205078,4124.102539,727.000000,4.000000,,,,0.000000,4.000000,4.000000,4.000000,4.000000,4.000000,4.000000,4.000000,4.000000,4.000000,4.000000,4.000000,4.000000,4.000000,4.000000,100.000000
1602005508.013933,82.000000,0.000000,4120.512695,4123.077148,4115.897461,4124.102539,4140.512695,4142.051270,4137.436035,4129.743652,4144.615234,4142.563965,4140.000000,4146.666504,4137.436035,4133.333496,872.000000,4.000000,,,,0.000000,4.000000,4.000000,4.000000,4.000000,4.000000,4.000000,4.000000,4.000000,4.000000,4.000000,4.000000,4.000000,4.000000,4.000000,100.000000
1602005508.021715,83.000000,0.000000,4121.538574,4124.615234,4118.974121,4124.615234,4139.487305,4142.563965,4138.974121,4131.794922,4134.871582,4135.384766,4139.487305,4162.563965,4138.974121,4143.589844,819.000000,4.000000,,,,0.000000,4.000000,4.000000,4.000000,4.000000,4.000000,4.000000,4.000000,4.000000,4.000000,4.000000,4.000000,4.000000,4.000000,4.000000,100.000000
1602005508.029597,84.000000,0.000000,4129.743652,4124.102539,4128.205078,4126.666504,4137.948730,4143.589844,4136.922852,4136.410156,4123.589844,4126.666504,4138.461426,4169.743652,4136.410156,4142.051270,783.000000,4.000000,,,,0.000000,4.000000,4.000000,4.000000,4.000000,4.000000,4.000000,4.000000,4.000000,4.000000,4.000000,4.000000,4.000000,4.000000,4.000000,100.000000
1602005508.037479,85.000000,0.000000,4141.538574,4131.794922,4140.512695,4129.230957,4139.487305,4145.641113,4137.948730,4135.897461,4131.794922,4143.077148,4141.025879,4167.179688,4138.974121,4143.589844,727.000000,4.000000,,,,0.000000,4.000000,4.000000,4.000000,4.000000,4.000000,4.000000,4.000000,4.000000,4.000000,4.000000,4.000000,4.000000,4.000000,4.000000,100.000000
1602005508.045362,86.000000,0.000000,4142.051270,4138.461426,4143.589844,4129.230957,4140.000000,4144.615234,4138.974121,4135.897461,4143.589844,4150.256348,4141.538574,4159.487305,4137.948730,4143.077148,872.000000,4.000000,,,,0.000000,4.000000,4.000000,4.000000,4.000000,4.000000,4.000000,4.000000,4.000000,4.000000,4.000000,4.000000,4.000000,4.000000,4.000000,100.000000
1602005508.053244,87.000000,0.000000,4132.820313,4131.282227,4141.025879,4128.717773,4136.410156,4138.974121,4132.307617,4134.358887,4143.077148,4135.384766,4135.384766,4154.358887,4127.692383,4137.948730,819.000000,4.000000,,,,0.000000,4.000000,4.000000,4.000000,4.000000,4.000000,4.000000,4.000000,4.000000,4.000000,4.000000,4.000000,4.000000,4.000000,4.000000,100.000000
1602005508.061126,88.000000,0.000000,4126.666504,4121.538574,4142.051270,4128.717773,4132.307617,4125.641113,4123.589844,4131.794922,4142.563965,4132.820313,4128.205078,4154.871582,4121.025879,4135.384766,783.000000,4.000000,,,,0.000000,4.000000,4.000000,4.000000,4.000000,4.000000,4.000000,4.000000,4.000000,4.000000,4.000000,4.000000,4.000000,4.000000,4.000000,100.000000
1602005508.069008,89.000000,0.000000,4124.102539,4123.077148,4137.436035,4127.692383,4134.871582,4118.974121,4123.077148,4135.384766,4145.128418,4141.025879,4124.615234,4154.358887,4123.589844,4135.384766,727.000000,4.000000,,,,0.000000,4.000000,4.000000,4.000000,4.000000,4.000000,4.000000,4.000000,4.000000,4.000000,4.000000,4.000000,4.000000,4.000000,4.000000,100.000000
1602005508.076890,90.000000,0.000000,4122.051270,4126.666504,4125.128418,4128.717773,4137.436035,4120.000000,4124.102539,4139.487305,4142.051270,4140.000000,4125.641113,4152.820313,4125.641113,4136.410156,872.000000,4.000000,,,,0.000000,4.000000,4.000000,4.000000,4.000000,4.000000,4.000000,4.000000,4.000000,4.000000,4.000000,4.000000,4.000000,4.000000,4.000000,100.000000
1602005508.084872,91.000000,0.000000,4123.077148,4128.205078,4122.051270,4131.794922,4134.871582,4119.487305,4128.205078,4136.922852,4140.000000,4138.974121,4128.717773,4148.717773,4124.615234,4134.358887,819.000000,4.000000,,,,0.000000,4.000000,4.000000,4.000000,4.000000,4.000000,4.000000,4.000000,4.000000,4.000000,4.000000,4.000000,4.000000,4.000000,4.000000,100.000000
1602005508.092753,92.000000,0.000000,4126.153809,4129.743652,4125.128418,4131.794922,4136.410156,4127.179688,4138.974121,4136.410156,4141.025879,4146.666504,4135.897461,4141.538574,4127.692383,4127.692383,783.000000,4.000000,,,,0.000000,4.000000,4.000000,4.000000,4.000000,4.000000,4.000000,4.000000,4.000000,4.000000,4.000000,4.000000,4.000000,4.000000,4.000000,100.000000
1602005508.100635,93.000000,0.000000,4125.641113,4130.256348,4121.538574,4125.128418,4139.487305,4137.948730,4141.538574,4137.436035,4133.333496,4136.922852,4135.384766,4136.922852,4127.692383,4123.077148,727.000000,4.000000,,,,0.000000,4.000000,4.000000,4.000000,4.000000,4.000000,4.000000,4.000000,4.000000,4.000000,4.000000,4.000000,4.000000,4.000000,4.000000,100.000000
1602005508.108517,94.000000,0.000000,4126.666504,4133.846191,4121.538574,4126.153809,4138.974121,4138.461426,4137.436035,4135.897461,4126.666504,4115.384766,4126.666504,4141.025879,4124.102539,4124.615234,872.000000,4.000000,,,,0.000000,4.000000,4.000000,4.000000,4.000000,4.000000,4.000000,4.000000,4.000000,4.000000,4.000000,4.000000,4.000000,4.000000,4.000000,100.000000
1602005508.116298,95.000000,0.000000,4135.384766,4140.512695,4132.820313,4137.436035,4141.025879,4138.461426,4140.000000,4137.948730,4133.846191,4121.538574,4127.692383,4154.871582,4129.743652,4134.358887,819.000000,4.000000,,,,0.000000,4.000000,4.000000,4.000000,4.000000,4.000000,4.000000,4.000000,4.000000,4.000000,4.000000,4.000000,4.000000,4.000000,4.000000,100.000000
1602005508.124279,96.000000,0.000000,4136.410156,4137.948730,4133.846191,4135.384766,4143.077148,4136.410156,4138.974121,4138.974121,4141.538574,4143.077148,4131.794922,4163.077148,4131.282227,4142.051270,783.000000,4.000000,,,,0.000000,4.000000,4.000000,4.000000,4.000000,4.000000,4.000000,4.000000,4.000000,4.000000,4.000000,4.000000,4.000000,4.000000,4.000000,100.000000
1602005508.132160,97.000000,0.000000,4126.153809,4127.692383,4126.153809,4123.077148,4137.948730,4129.230957,4134.358887,4137.948730,4140.000000,4140.000000,4127.179688,4164.102539,4122.563965,4138.461426,727.000000,4.000000,,,,0.000000,4.000000,4.000000,4.000000,4.000000,4.000000,4.000000,4.000000,4.000000,4.000000,4.000000,4.000000,4.000000,4.000000,4.000000,100.000000
1602005508.140042,98.000000,0.000000,4122.563965,4123.589844,4132.307617,4122.051270,4135.897461,4133.846191,4137.948730,4140.512695,4146.666504,4129.230957,4125.641113,4166.153809,4123.077148,4134.871582,872.000000,4.000000,,,,0.000000,4.000000,4.000000,4.000000,4.000000,4.000000,4.000000,4.000000,4.000000,4.000000,4.000000,4.000000,4.000000,4.000000,4.000000,100.000000
1602005508.147923,99.000000,0.000000,4124.102539,4123.077148,4134.871582,4124.102539,4135.384766,4136.410156,4137.436035,4140.000000,4152.307617,4138.974121,4127.179688,4167.179688,4126.666504,4136.922852,819.000000,4.000000,,,,0.000000,4.000000,4.000000,4.000000,4.000000,4.000000,4.000000,4.000000,4.000000,4.000000,4.000000,4.000000,4.000000,4.000000,4.000000,100.000000
1602005508.155706,100.000000,0.000000,4122.051270,4118.974121,4129.743652,4118.461426,4130.256348,4124.102539,4126.666504,4138.461426,4146.666504,4141.538574,4131.794922,4168.205078,4123.589844,4136.922852,783.000000,4.000000,,,,0.000000,4.000000,4.000000,4.000000,4.000000,4.000000,4.000000,4.000000,4.000000,4.000000,4.000000,4.000000,4.000000,4.000000,4.000000,100.000000
1602005508.163588,101.000000,0.000000,4121.538574,4116.922852,4134.358887,4117.948730,4125.128418,4123.077148,4123.077148,4134.358887,4141.538574,4122.563965,4137.436035,4172.820313,4130.256348,4137.436035,727.000000,4.000000,,,,0.000000,4.000000,4.000000,4.000000,4.000000,4.000000,4.000000,4.000000,4.000000,4.000000,4.000000,4.000000,4.000000,4.000000,4.000000,100.000000
1602005508.171470,102.000000,0.000000,4125.128418,4120.000000,4138.461426,4121.025879,4128.205078,4137.948730,4133.333496,4126.153809,4136.410156,4121.025879,4133.846191,4174.358887,4136.410156,4134.871582,872.000000,4.000000,,,,0.000000,4.000000,4.000000,4.000000,4.000000,4.000000,4.000000,4.000000,4.000000,4.000000,4.000000,4.000000,4.000000,4.000000,4.000000,100.000000
1602005508.179352,103.000000,0.000000,4124.615234,4120.512695,4129.230957,4120.512695,4134.358887,4140.512695,4138.461426,4120.512695,4125.128418,4137.436035,4123.589844,4171.282227,4126.666504,4127.692383,819.000000,4.000000,,,,0.000000,4.000000,4.000000,4.000000,4.000000,4.000000,4.000000,4.000000,4.000000,4.000000,4.000000,4.000000,4.000000,4.000000,4.000000,100.000000
1602005508.187234,104.000000,0.000000,4118.461426,4118.974121,4121.538574,4121.025879,4132.820313,4127.692383,4128.205078,4114.871582,4116.410156,4136.410156,4113.333496,4163.077148,4116.922852,4124.102539,783.000000,4.000000,,,,0.000000,4.000000,4.000000,4.000000,4.000000,4.000000,4.000000,4.000000,4.000000,4.000000,4.000000,4.000000,4.000000,4.000000,4.000000,100.000000
1602005508.195116,105.000000,0.000000,4113.846191,4118.974121,4118.461426,4120.000000,4126.153809,4118.974121,4121.025879,4112.820313,4113.846191,4117.436035,4109.743652,4153.846191,4115.384766,4122.563965,727.000000,4.000000,,,,0.000000,4.000000,4.000000,4.000000,4.000000,4.000000,4.000000,4.000000,4.000000,4.000000,4.000000,4.000000,4.000000,4.000000,4.000000,100.000000
1602005508.202998,106.000000,0.000000,4117.948730,4122.051270,4118.974121,4118.461426,4125.128418,4120.512695,4124.615234,4117.948730,4115.384766,4113.333496,4122.051270,4155.897461,4122.563965,4126.666504,872.000000,4.000000,,,,0.000000,4.000000,4.000000,4.000000,4.000000,4.000000,4.000000,4.000000,4.000000,4.000000,4.000000,4.000000,4.000000,4.000000,4.000000,100.000000
1602005508.210880,107.000000,0.000000,4126.153809,4123.077148,4125.128418,4121.025879,4126.666504,4121.025879,4125.128418,4124.102539,4125.641113,4126.153809,4140.000000,4174.871582,4135.897461,4136.922852,819.000000,4.000000,,,,0.000000,4.000000,4.000000,4.000000,4.000000,4.000000,4.000000,4.000000,4.000000,4.000000,4.000000,4.000000,4.000000,4.000000,4.000000,100.000000
1602005508.218663,108.000000,0.000000,4125.128418,4121.025879,4122.563965,4118.461426,4122.051270,4118.974121,4119.487305,4131.282227,4137.436035,4128.205078,4144.102539,4185.641113,4141.538574,4141.025879,783.000000,4.000000,,,,0.000000,4.000000,4.000000,4.000000,4.000000,4.000000,4.000000,4.000000,4.000000,4.000000,4.000000,4.000000,4.000000,4.000000,4.000000,100.000000
1602005508.226545,109.000000,0.000000,4125.128418,4127.692383,4124.102539,4117.436035,4125.128418,4121.538574,4117.436035,4135.897461,4146.153809,4122.563965,4141.025879,4180.512695,4139.487305,4138.974121,727.000000,4.000000,,,,0.000000,4.000000,4.000000,4.000000,4.000000,4.000000,4.000000,4.000000,4.000000,4.000000,4.000000,4.000000,4.000000,4.000000,4.000000,100.000000
1602005508.234428,110.000000,0.000000,4135.897461,4140.512695,4137.436035,4131.794922,4137.436035,4127.692383,4121.025879,4132.307617,4152.820313,4135.384766,4140.512695,4173.846191,4142.051270,4141.538574,872.000000,4.000000,,,,0.000000,4.000000,4.000000,4.000000,4.000000,4.000000,4.000000,4.000000,4.000000,4.000000,4.000000,4.000000,4.000000,4.000000,4.000000,100.000000
1602005508.242310,111.000000,0.000000,4135.384766,4140.000000,4135.897461,4137.436035,4141.538574,4129.230957,4122.563965,4125.128418,4143.589844,4155.897461,4138.461426,4163.077148,4142.051270,4137.948730,819.000000,4.000000,,,,0.000000,4.000000,4.000000,4.000000,4.000000,4.000000,4.000000,4.000000,4.000000,4.000000,4.000000,4.000000,4.000000,4.000000,4.000000,100.000000
1602005508.250192,112.000000,0.000000,4122.051270,4136.922852,4121.025879,4126.153809,4138.461426,4128.205078,4122.563965,4119.487305,4123.589844,4146.153809,4136.410156,4155.897461,4137.948730,4129.230957,783.000000,4.000000,,,,0.000000,4.000000,4.000000,4.000000,4.000000,4.000000,4.000000,4.000000,4.000000,4.000000,4.000000,4.000000,4.000000,4.000000,4.000000,100.000000
1602005508.258075,113.000000,0.000000,4120.000000,4139.487305,4117.948730,4120.512695,4135.897461,4130.256348,4127.692383,4116.410156,4110.256348,4119.487305,4135.897461,4163.589844,4137.436035,4133.846191,727.000000,4.000000,,,,0.000000,4.000000,4.000000,4.000000,4.000000,4.000000,4.000000,4.000000,4.000000,4.000000,4.000000,4.000000,4.000000,4.000000,4.000000,100.000000
1602005508.265957,114.000000,0.000000,4128.717773,4132.307617,4123.589844,4123.077148,4137.948730,4129.230957,4131.282227,4117.948730,4104.615234,4121.025879,4136.410156,4166.666504,4137.436035,4142.051270,872.000000,4.000000,,,,0.000000,4.000000,4.000000,4.000000,4.000000,4.000000,4.000000,4.000000,4.000000,4.000000,4.000000,4.000000,4.000000,4.000000,4.000000,100.000000
1602005508.273839,115.000000,0.000000,4128.717773,4127.692383,4127.179688,4122.563965,4134.871582,4125.641113,4126.666504,4121.025879,4106.153809,4134.358887,4137.436035,4160.512695,4138.974121,4142.051270,819.000000,4.000000,,,,0.000000,4.000000,4.000000,4.000000,4.000000,4.000000,4.000000,4.000000,4.000000,4.000000,4.000000,4.000000,4.000000,4.000000,4.000000,100.000000
1602005508.281722,116.000000,0.000000,4123.589844,4133.333496,4131.282227,4122.563965,4125.641113,4125.128418,4123.077148,4120.512695,4116.410156,4120.512695,4140.000000,4164.102539,4137.948730,4141.025879,783.000000,4.000000,,,,0.000000,4.000000,4.000000,4.000000,4.000000,4.000000,4.000000,4.000000,4.000000,4.000000,4.000000,4.000000,4.000000,4.000000,4.000000,100.000000
1602005508.289503,117.000000,0.000000,4124.102539,4130.769043,4129.230957,4124.102539,4120.512695,4118.461426,4121.538574,4118.974121,4120.000000,4106.153809,4134.358887,4168.205078,4129.230957,4135.384766,727.000000,4.000000,,,,0.000000,4.000000,4.000000,4.000000,4.000000,4.000000,4.000000,4.000000,4.000000,4.000000,4.000000,4.000000,4.000000,4.000000,4.000000,100.000000
1602005508.297385,118.000000,0.000000,4124.102539,4122.051270,4123.077148,4121.538574,4120.512695,4109.743652,4115.897461,4118.974121,4120.512695,4125.641113,4123.589844,4157.436035,4120.512695,4121.538574,872.000000,4.000000,,,,0.000000,4.000000,4.000000,4.000000,4.000000,4.000000,4.000000,4.000000,4.000000,4.000000,4.000000,4.000000,4.000000,4.000000,4.000000,100.000000
1602005508.305366,119.000000,0.000000,4120.512695,4121.538574,4124.615234,4119.487305,4118.974121,4117.436035,4113.333496,4119.487305,4133.333496,4141.025879,4121.538574,4147.179688,4121.025879,4121.025879,819.000000,4.000000,,,,0.000000,4.000000,4.000000,4.000000,4.000000,4.000000,4.000000,4.000000,4.000000,4.000000,4.000000,4.000000,4.000000,4.000000,4.000000,100.000000
1602005508.313247,120.000000,0.000000,4113.846191,4124.615234,4122.563965,4120.512695,4121.538574,4132.307617,4119.487305,4116.410156,4139.487305,4125.128418,4123.589844,4144.615234,4122.563965,4125.128418,783.000000,4.000000,,,,0.000000,4.000000,4.000000,4.000000,4.000000,4.000000,4.000000,4.000000,4.000000,4.000000,4.000000,4.000000,4.000000,4.000000,4.000000,100.000000
1602005508.321029,121.000000,0.000000,4108.717773,4125.128418,4113.333496,4122.563965,4131.282227,4137.436035,4123.589844,4113.846191,4129.230957,4116.922852,4121.025879,4140.512695,4120.000000,4115.897461,727.000000,4.000000,,,,0.000000,4.000000,4.000000,4.000000,4.000000,4.000000,4.000000,4.000000,4.000000,4.000000,4.000000,4.000000,4.000000,4.000000,4.000000,100.000000
1602005508.328911,122.000000,0.000000,4111.282227,4128.717773,4112.820313,4124.615234,4138.461426,4140.512695,4123.589844,4118.974121,4119.487305,4125.128418,4121.538574,4143.077148,4121.025879,4115.897461,872.000000,4.000000,,,,0.000000,4.000000,4.000000,4.000000,4.000000,4.000000,4.000000,4.000000,4.000000,4.000000,4.000000,4.000000,4.000000,4.000000,4.000000,100.000000
1602005508.336793,123.000000,0.000000,4114.358887,4129.743652,4115.897461,4122.051270,4138.461426,4140.512695,4128.717773,4124.615234,4115.384766,4120.512695,4124.615234,4145.641113,4123.077148,4123.077148,819.000000,4.000000,,,,0.000000,4.000000,4.000000,4.000000,4.000000,4.000000,4.000000,4.000000,4.000000,4.000000,4.000000,4.000000,4.000000,4.000000,4.000000,100.000000
1602005508.344675,124.000000,0.000000,4111.794922,4127.692383,4113.333496,4120.000000,4135.897461,4134.871582,4136.922852,4125.128418,4111.794922,4113.846191,4122.563965,4141.538574,4119.487305,4114.871582,783.000000,4.000000,,,,0.000000,4.000000,4.000000,4.000000,4.000000,4.000000,4.000000,4.000000,4.000000,4.000000,4.000000,4.000000,4.000000,4.000000,4.000000,100.000000
1602005508.352557,125.000000,0.000000,4112.820313,4127.692383,4115.897461,4123.077148,4136.410156,4135.384766,4135.897461,4128.205078,4115.897461,4125.128418,4122.051270,4142.051270,4120.512695,4110.256348,727.000000,4.000000,,,,0.000000,4.000000,4.000000,4.000000,4.000000,4.000000,4.000000,4.000000,4.000000,4.000000,4.000000,4.000000,4.000000,4.000000,4.000000,100.000000
1602005508.360439,126.000000,0.000000,4112.820313,4128.717773,4117.436035,4121.538574,4138.461426,4140.512695,4130.256348,4129.230957,4127.179688,4137.948730,4123.589844,4143.589844,4123.589844,4116.922852,872.000000,4.000000,,,,0.000000,4.000000,4.000000,4.000000,4.000000,4.000000,4.000000,4.000000,4.000000,4.000000,4.000000,4.000000,4.000000,4.000000,4.000000,100.000000
1602005508.368221,127.000000,0.000000,4105.128418,4123.077148,4106.666504,4110.769043,4134.358887,4137.948730,4128.205078,4125.128418,4136.410156,4136.410156,4120.000000,4140.512695,4118.461426,4112.820313,819.000000,4.000000,,,,0.000000,4.000000,4.000000,4.000000,4.000000,4.000000,4.000000,4.000000,4.000000,4.000000,4.000000,4.000000,4.000000,4.000000,4.000000,100.000000
1602005508.376103,128.000000,0.000000,4108.717773,4120.000000,4104.102539,4108.717773,4130.769043,4136.922852,4127.692383,4122.563965,4140.512695,4123.589844,4120.512695,4146.666504,4116.922852,4109.230957,783.000000,4.000000,,,,0.000000,4.000000,4.000000,4.000000,4.000000,4.000000,4.000000,4.000000,4.000000,4.000000,4.000000,4.000000,4.000000,4.000000,4.000000,100.000000
1602005508.383985,0.000000,0.000000,4123.077148,4129.230957,4120.000000,4120.512695,4133.846191,4136.922852,4126.153809,4124.102539,4140.512695,4112.820313,4124.615234,4161.538574,4124.102539,4121.025879,806.000000,4.000000,,,,0.000000,4.000000,4.000000,4.000000,4.000000,4.000000,4.000000,4.000000,4.000000,4.000000,4.000000,4.000000,4.000000,4.000000,4.000000,100.000000
1602005508.391867,1.000000,0.000000,4124.615234,4132.307617,4127.692383,4125.641113,4130.769043,4124.102539,4122.563965,4124.615234,4142.051270,4123.589844,4124.615234,4161.538574,4126.153809,4127.692383,797.000000,4.000000,,,,0.000000,4.000000,4.000000,4.000000,4.000000,4.000000,4.000000,4.000000,4.000000,4.000000,4.000000,4.000000,4.000000,4.000000,4.000000,100.000000
1602005508.399749,2.000000,0.000000,4120.512695,4124.615234,4123.589844,4121.025879,4123.077148,4112.820313,4122.051270,4123.589844,4138.974121,4138.461426,4125.641113,4154.358887,4122.051270,4126.153809,852.000000,4.000000,,,,0.000000,4.000000,4.000000,4.000000,4.000000,4.000000,4.000000,4.000000,4.000000,4.000000,4.000000,4.000000,4.000000,4.000000,4.000000,100.000000
1602005508.407631,3.000000,0.000000,4120.512695,4120.512695,4123.077148,4117.436035,4121.538574,4116.922852,4123.589844,4123.077148,4127.179688,4129.743652,4129.230957,4154.871582,4123.589844,4124.102539,866.000000,4.000000,,,,0.000000,4.000000,4.000000,4.000000,4.000000,4.000000,4.000000,4.000000,4.000000,4.000000,4.000000,4.000000,4.000000,4.000000,4.000000,100.000000
1602005508.415514,4.000000,0.000000,4113.846191,4121.025879,4122.563965,4112.820313,4121.538574,4113.846191,4121.025879,4121.025879,4111.794922,4116.922852,4125.128418,4153.846191,4123.589844,4117.948730,807.000000,4.000000,,,,0.000000,4.000000,4.000000,4.000000,4.000000,4.000000,4.000000,4.000000,4.000000,4.000000,4.000000,4.000000,4.000000,4.000000,4.000000,100.000000
1602005508.423296,5.000000,0.000000,4106.666504,4117.948730,4120.512695,4108.205078,4118.461426,4110.769043,4123.077148,4125.641113,4106.153809,4118.974121,4120.512695,4151.794922,4120.512695,4114.871582,822.000000,4.000000,,,,0.000000,4.000000,4.000000,4.000000,4.000000,4.000000,4.000000,4.000000,4.000000,4.000000,4.000000,4.000000,4.000000,4.000000,4.000000,100.000000
1602005508.431177,6.000000,0.000000,4109.230957,4117.436035,4122.051270,4110.256348,4120.000000,4125.128418,4135.897461,4137.436035,4116.410156,4115.384766,4125.128418,4149.743652,4122.563965,4120.512695,780.000000,4.000000,,,,0.000000,4.000000,4.000000,4.000000,4.000000,4.000000,4.000000,4.000000,4.000000,4.000000,4.000000,4.000000,4.000000,4.000000,4.000000,100.000000
1602005508.439059,7.000000,0.000000,4113.333496,4120.512695,4124.102539,4111.794922,4124.102539,4142.051270,4143.589844,4140.000000,4126.666504,4102.563965,4127.179688,4143.589844,4125.128418,4123.077148,697.000000,4.000000,,,,0.000000,4.000000,4.000000,4.000000,4.000000,4.000000,4.000000,4.000000,4.000000,4.000000,4.000000,4.000000,4.000000,4.000000,4.000000,100.000000
1602005508.446941,8.000000,0.000000,4112.820313,4119.487305,4120.512695,4111.794922,4128.717773,4147.692383,4139.487305,4136.922852,4128.205078,4110.769043,4121.538574,4140.000000,4123.077148,4119.487305,791.000000,4.000000,,,,0.000000,4.000000,4.000000,4.000000,4.000000,4.000000,4.000000,4.000000,4.000000,4.000000,4.000000,4.000000,4.000000,4.000000,4.000000,100.000000
1602005508.454823,9.000000,0.000000,4118.461426,4124.102539,4123.589844,4120.000000,4135.897461,4155.384766,4141.025879,4137.948730,4136.410156,4131.282227,4125.128418,4149.230957,4126.153809,4122.563965,830.000000,4.000000,,,,0.000000,4.000000,4.000000,4.000000,4.000000,4.000000,4.000000,4.000000,4.000000,4.000000,4.000000,4.000000,4.000000,4.000000,4.000000,100.000000
1602005508.462705,10.000000,0.000000,4133.333496,4136.410156,4141.538574,4128.205078,4141.538574,4158.461426,4145.128418,4142.051270,4151.282227,4139.487305,4137.436035,4166.666504,4136.410156,4134.871582,872.000000,4.000000,,,,0.000000,4.000000,4.000000,4.000000,4.000000,4.000000,4.000000,4.000000,4.000000,4.000000,4.000000,4.000000,4.000000,4.000000,4.000000,100.000000
1602005508.470687,11.000000,0.000000,4140.000000,4137.948730,4156.922852,4127.179688,4134.871582,4143.589844,4134.871582,4137.948730,4151.282227,4141.538574,4140.000000,4171.794922,4137.436035,4142.051270,831.000000,4.000000,,,,0.000000,4.000000,4.000000,4.000000,4.000000,4.000000,4.000000,4.000000,4.000000,4.000000,4.000000,4.000000,4.000000,4.000000,4.000000,100.000000
1602005508.478570,12.000000,0.000000,4130.256348,4125.641113,4150.769043,4122.563965,4124.102539,4124.102539,4120.000000,4124.615234,4141.538574,4135.384766,4127.179688,4158.974121,4126.666504,4133.333496,783.000000,4.000000,,,,0.000000,4.000000,4.000000,4.000000,4.000000,4.000000,4.000000,4.000000,4.000000,4.000000,4.000000,4.000000,4.000000,4.000000,4.000000,100.000000
1602005508.486452,13.000000,0.000000,4124.102539,4123.077148,4136.410156,4122.563965,4121.025879,4114.871582,4116.922852,4117.948730,4135.384766,4121.538574,4119.487305,4150.256348,4121.538574,4119.487305,756.000000,4.000000,,,,0.000000,4.000000,4.000000,4.000000,4.000000,4.000000,4.000000,4.000000,4.000000,4.000000,4.000000,4.000000,4.000000,4.000000,4.000000,100.000000
1602005508.494334,14.000000,0.000000,4135.384766,4135.384766,4143.077148,4129.230957,4123.589844,4109.230957,4118.974121,4122.051270,4130.769043,4125.641113,4129.743652,4152.820313,4128.205078,4122.051270,872.000000,4.000000,,,,0.000000,4.000000,4.000000,4.000000,4.000000,4.000000,4.000000,4.000000,4.000000,4.000000,4.000000,4.000000,4.000000,4.000000,4.000000,100.000000
1602005508.502217,15.000000,0.000000,4143.077148,4135.384766,4152.307617,4132.820313,4125.641113,4101.025879,4115.897461,4124.102539,4125.641113,4137.436035,4140.512695,4155.384766,4136.922852,4135.384766,831.000000,4.000000,,,,0.000000,4.000000,4.000000,4.000000,4.000000,4.000000,4.000000,4.000000,4.000000,4.000000,4.000000,4.000000,4.000000,4.000000,4.000000,100.000000
1602005508.510099,16.000000,0.000000,4137.436035,4125.641113,4145.641113,4127.179688,4128.205078,4108.205078,4120.512695,4121.538574,4122.563965,4129.230957,4140.000000,4158.974121,4136.922852,4138.974121,0.000000,4.000000,,,,0.000000,4.000000,4.000000,4.000000,4.000000,4.000000,4.000000,4.000000,4.000000,4.000000,4.000000,4.000000,4.000000,4.000000,4.000000,100.000000
1602005508.517981,17.000000,0.000000,4128.205078,4121.538574,4133.333496,4121.538574,4127.179688,4128.205078,4134.358887,4123.589844,4118.461426,4120.000000,4131.794922,4159.487305,4127.692383,4130.256348,0.000000,4.000000,,,,0.000000,4.000000,4.000000,4.000000,4.000000,4.000000,4.000000,4.000000,4.000000,4.000000,4.000000,4.000000,4.000000,4.000000,4.000000,100.000000
1602005508.525864,18.000000,0.000000,4117.436035,4117.436035,4124.615234,4119.487305,4122.563965,4140.000000,4138.461426,4126.153809,4107.692383,4125.128418,4123.589844,4145.641113,4115.384766,4116.922852,0.000000,4.000000,,,,0.000000,4.000000,4.000000,4.000000,4.000000,4.000000,4.000000,4.000000,4.000000,4.000000,4.000000,4.000000,4.000000,4.000000,4.000000,100.000000
1602005508.533746,19.000000,0.000000,4106.153809,4107.692383,4118.974121,4111.282227,4124.615234,4150.256348,4137.436035,4124.102539,4107.692383,4122.563965,4117.948730,4132.820313,4106.666504,4108.205078,0.000000,4.000000,,,,0.000000,4.000000,4.000000,4.000000,4.000000,4.000000,4.000000,4.000000,4.000000,4.000000,4.000000,4.000000,4.000000,4.000000,4.000000,100.000000
1602005508.541528,20.000000,0.000000,4103.589844,4102.563965,4117.948730,4104.102539,4125.128418,4158.461426,4136.922852,4122.563965,4116.922852,4116.410156,4117.436035,4132.307617,4104.615234,4104.615234,0.000000,4.000000,,,,0.000000,4.000000,4.000000,4.000000,4.000000,4.000000,4.000000,4.000000,4.000000,4.000000,4.000000,4.000000,4.000000,4.000000,4.000000,100.000000
1602005508.549410,21.000000,0.000000,4105.128418,4109.743652,4120.000000,4109.743652,4122.563965,4158.461426,4133.333496,4127.692383,4124.102539,4121.538574,4120.000000,4139.487305,4113.333496,4107.692383,0.000000,4.000000,,,,0.000000,4.000000,4.000000,4.000000,4.000000,4.000000,4.000000,4.000000,4.000000,4.000000,4.000000,4.000000,4.000000,4.000000,4.000000,100.000000
1602005508.557292,22.000000,0.000000,4106.666504,4118.974121,4120.512695,4120.512695,4125.641113,4152.307617,4127.692383,4132.307617,4130.769043,4128.205078,4123.589844,4148.205078,4123.077148,4116.410156,0.000000,4.000000,,,,0.000000,4.000000,4.000000,4.000000,4.000000,4.000000,4.000000,4.000000,4.000000,4.000000,4.000000,4.000000,4.000000,4.000000,4.000000,100.000000
1602005508.565174,23.000000,0.000000,4112.820313,4124.102539,4125.128418,4124.102539,4127.179688,4140.512695,4122.563965,4126.666504,4131.794922,4138.461426,4126.153809,4153.846191,4126.153809,4125.128418,0.000000,4.000000,,,,0.000000,4.000000,4.000000,4.000000,4.000000,4.000000,4.000000,4.000000,4.000000,4.000000,4.000000,4.000000,4.000000,4.000000,4.000000,100.000000
1602005508.573056,24.000000,0.000000,4121.025879,4123.077148,4131.282227,4123.077148,4122.051270,4125.641113,4118.974121,4118.974121,4123.077148,4141.538574,4124.615234,4152.307617,4127.179688,4125.641113,0.000000,4.000000,,,,0.000000,4.000000,4.000000,4.000000,4.000000,4.000000,4.000000,4.000000,4.000000,4.000000,4.000000,4.000000,4.000000,4.000000,4.000000,100.000000
1602005508.580937,25.000000,0.000000,4124.102539,4125.128418,4134.871582,4129.230957,4119.487305,4118.461426,4119.487305,4116.922852,4117.436035,4125.641113,4124.102539,4149.230957,4128.205078,4123.077148,0.000000,4.000000,,,,0.000000,4.000000,4.000000,4.000000,4.000000,4.000000,4.000000,4.000000,4.000000,4.000000,4.000000,4.000000,4.000000,4.000000,4.000000,100.000000
1602005508.588720,26.000000,0.000000,4124.615234,4129.743652,4138.974121,4137.436035,4121.538574,4114.358887,4122.563965,4121.025879,4123.077148,4125.128418,4128.205078,4152.820313,4127.692383,4125.641113,0.000000,4.000000,,,,0.000000,4.000000,4.000000,4.000000,4.000000,4.000000,4.000000,4.000000,4.000000,4.000000,4.000000,4.000000,4.000000,4.000000,4.000000,100.000000
1602005508.596602,27.000000,0.000000,4122.563965,4127.692383,4138.974121,4132.820313,4121.538574,4107.692383,4122.051270,4125.128418,4125.128418,4136.410156,4128.205078,4155.897461,4125.128418,4125.128418,0.000000,4.000000,,,,0.000000,4.000000,4.000000,4.000000,4.000000,4.000000,4.000000,4.000000,4.000000,4.000000,4.000000,4.000000,4.000000,4.000000,4.000000,100.000000
1602005508.604484,28.000000,0.000000,4118.461426,4121.538574,4131.794922,4123.077148,4120.000000,4111.282227,4121.538574,4125.641113,4119.487305,4129.230957,4122.051270,4148.717773,4124.615234,4119.487305,0.000000,4.000000,,,,0.000000,4.000000,4.000000,4.000000,4.000000,4.000000,4.000000,4.000000,4.000000,4.000000,4.000000,4.000000,4.000000,4.000000,4.000000,100.000000
1602005508.612366,29.000000,0.000000,4119.487305,4123.589844,4130.256348,4127.692383,4122.563965,4122.051270,4122.563965,4123.077148,4118.974121,4127.692383,4119.487305,4142.563965,4122.563965,4120.000000,0.000000,4.000000,,,,0.000000,4.000000,4.000000,4.000000,4.000000,4.000000,4.000000,4.000000,4.000000,4.000000,4.000000,4.000000,4.000000,4.000000,4.000000,100.000000
1602005508.620248,30.000000,0.000000,4123.589844,4131.282227,4135.384766,4135.384766,4129.230957,4129.743652,4123.077148,4126.666504,4121.538574,4136.922852,4122.563965,4148.717773,4123.589844,4128.717773,0.000000,4.000000,,,,0.000000,4.000000,4.000000,4.000000,4.000000,4.000000,4.000000,4.000000,4.000000,4.000000,4.000000,4.000000,4.000000,4.000000,4.000000,100.000000
1602005508.628130,31.000000,0.000000,4126.666504,4137.436035,4135.897461,4137.436035,4135.897461,4135.897461,4128.205078,4134.358887,4121.538574,4128.717773,4131.282227,4156.922852,4134.871582,4140.512695,0.000000,4.000000,,,,0.000000,4.000000,4.000000,4.000000,4.000000,4.000000,4.000000,4.000000,4.000000,4.000000,4.000000,4.000000,4.000000,4.000000,4.000000,100.000000
1602005508.636012,32.000000,0.000000,4137.948730,4144.615234,4143.589844,4145.641113,4137.948730,4138.461426,4136.922852,4138.974121,4126.153809,4132.820313,4147.179688,4166.666504,4151.794922,4150.256348,0.000000,4.000000,,,,0.000000,4.000000,4.000000,4.000000,4.000000,4.000000,4.000000,4.000000,4.000000,4.000000,4.000000,4.000000,4.000000,4.000000,4.000000,100.000000
1602005508.643894,33.000000,0.000000,4153.333496,4155.897461,4159.487305,4155.897461,4138.461426,4138.461426,4138.974121,4143.077148,4136.922852,4161.538574,4158.974121,4178.974121,4162.051270,4160.512695,0.000000,4.000000,,,,0.000000,4.000000,4.000000,4.000000,4.000000,4.000000,4.000000,4.000000,4.000000,4.000000,4.000000,4.000000,4.000000,4.000000,4.000000,100.000000
1602005508.651876,34.000000,0.000000,4160.512695,4162.563965,4164.102539,4157.948730,4141.025879,4135.384766,4135.384766,4144.615234,4139.487305,4162.051270,4160.000000,4181.538574,4161.025879,4163.077148,0.000000,4.000000,,,,0.000000,4.000000,4.000000,4.000000,4.000000,4.000000,4.000000,4.000000,4.000000,4.000000,4.000000,4.000000,4.000000,4.000000,4.000000,100.000000
1602005508.659758,35.000000,0.000000,4153.333496,4160.000000,4151.794922,4155.897461,4140.000000,4125.128418,4130.769043,4138.461426,4123.589844,4137.436035,4152.307617,4173.333496,4152.307617,4150.256348,0.000000,4.000000,,,,0.000000,4.000000,4.000000,4.000000,4.000000,4.000000,4.000000,4.000000,4.000000,4.000000,4.000000,4.000000,4.000000,4.000000,4.000000,100.000000
1602005508.667640,36.000000,0.000000,4140.512695,4155.384766,4141.025879,4151.282227,4135.384766,4117.436035,4125.641113,4129.743652,4109.743652,4132.820313,4141.538574,4163.077148,4142.051270,4138.461426,0.000000,4.000000,,,,0.000000,4.000000,4.000000,4.000000,4.000000,4.000000,4.000000,4.000000,4.000000,4.000000,4.000000,4.000000,4.000000,4.000000,4.000000,100.000000
1602005508.675522,37.000000,0.000000,4137.436035,4152.820313,4140.000000,4147.179688,4137.436035,4121.538574,4122.051270,4126.666504,4110.769043,4148.717773,4136.922852,4155.897461,4140.000000,4141.538574,0.000000,4.000000,,,,0.000000,4.000000,4.000000,4.000000,4.000000,4.000000,4.000000,4.000000,4.000000,4.000000,4.000000,4.000000,4.000000,4.000000,4.000000,100.000000
1602005508.683404,38.000000,0.000000,4135.384766,4145.128418,4136.922852,4141.025879,4134.871582,4118.974121,4117.436035,4123.589844,4109.230957,4142.051270,4133.846191,4148.205078,4135.384766,4137.436035,0.000000,4.000000,,,,0.000000,4.000000,4.000000,4.000000,4.000000,4.000000,4.000000,4.000000,4.000000,4.000000,4.000000,4.000000,4.000000,4.000000,4.000000,100.000000
1602005508.691386,39.000000,0.000000,4123.077148,4130.769043,4125.128418,4127.692383,4121.538574,4110.256348,4112.820313,4118.974121,4106.666504,4109.230957,4123.589844,4138.461426,4122.563965,4121.538574,0.000000,4.000000,,,,0.000000,4.000000,4.000000,4.000000,4.000000,4.000000,4.000000,4.000000,4.000000,4.000000,4.000000,4.000000,4.000000,4.000000,4.000000,100.000000
1602005508.699268,40.000000,0.000000,4113.846191,4119.487305,4116.922852,4118.974121,4117.948730,4116.410156,4118.461426,4120.512695,4116.922852,4109.743652,4117.436035,4132.820313,4117.948730,4112.820313,0.000000,4.000000,,,,0.000000,4.000000,4.000000,4.000000,4.000000,4.000000,4.000000,4.000000,4.000000,4.000000,4.000000,4.000000,4.000000,4.000000,4.000000,100.000000
1602005508.707150,41.000000,0.000000,4117.436035,4119.487305,4119.487305,4121.538574,4124.102539,4131.282227,4124.615234,4124.615234,4127.179688,4140.512695,4120.512695,4134.871582,4123.077148,4117.948730,0.000000,4.000000,,,,0.000000,4.000000,4.000000,4.000000,4.000000,4.000000,4.000000,4.000000,4.000000,4.000000,4.000000,4.000000,4.000000,4.000000,4.000000,100.000000
1602005508.715032,42.000000,0.000000,4121.025879,4122.563965,4125.641113,4124.102539,4126.666504,4136.410156,4122.051270,4128.717773,4124.615234,4133.846191,4126.153809,4146.666504,4124.615234,4127.692383,0.000000,4.000000,,,,0.000000,4.000000,4.000000,4.000000,4.000000,4.000000,4.000000,4.000000,4.000000,4.000000,4.000000,4.000000,4.000000,4.000000,4.000000,100.000000
1602005508.722914,43.000000,0.000000,4123.589844,4124.102539,4134.358887,4125.641113,4125.128418,4134.871582,4121.025879,4129.743652,4123.077148,4108.205078,4133.846191,4155.384766,4130.769043,4136.922852,0.000000,4.000000,,,,0.000000,4.000000,4.000000,4.000000,4.000000,4.000000,4.000000,4.000000,4.000000,4.000000,4.000000,4.000000,4.000000,4.000000,4.000000,100.000000
1602005508.730796,44.000000,0.000000,4130.769043,4123.077148,4142.051270,4125.641113,4124.102539,4131.794922,4122.051270,4126.666504,4121.538574,4126.666504,4138.461426,4155.897461,4140.512695,4139.487305,0.000000,4.000000,,,,0.000000,4.000000,4.000000,4.000000,4.000000,4.000000,4.000000,4.000000,4.000000,4.000000,4.000000,4.000000,4.000000,4.000000,4.000000,100.000000
1602005508.738679,45.000000,0.000000,4133.846191,4125.641113,4141.538574,4122.051270,4122.563965,4124.102539,4116.410156,4121.025879,4110.769043,4143.589844,4139.487305,4157.948730,4139.487305,4139.487305,0.000000,4.000000,,,,0.000000,4.000000,4.000000,4.000000,4.000000,4.000000,4.000000,4.000000,4.000000,4.000000,4.000000,4.000000,4.000000,4.000000,4.000000,100.000000
1602005508.746561,46.000000,0.000000,4135.897461,4134.358887,4138.461426,4126.666504,4123.589844,4116.922852,4115.897461,4121.025879,4103.589844,4124.102539,4142.051270,4166.666504,4139.487305,4146.666504,0.000000,4.000000,,,,0.000000,4.000000,4.000000,4.000000,4.000000,4.000000,4.000000,4.000000,4.000000,4.000000,4.000000,4.000000,4.000000,4.000000,4.000000,100.000000
1602005508.754343,47.000000,0.000000,4142.051270,4142.051270,4142.051270,4136.922852,4129.743652,4121.538574,4129.743652,4123.589844,4104.615234,4125.641113,4143.589844,4171.794922,4152.820313,4153.333496,0.000000,4.000000,,,,0.000000,4.000000,4.000000,4.000000,4.000000,4.000000,4.000000,4.000000,4.000000,4.000000,4.000000,4.000000,4.000000,4.000000,4.000000,100.000000
1602005508.762224,48.000000,0.000000,4144.615234,4145.641113,4145.641113,4139.487305,4137.436035,4136.922852,4142.563965,4122.051270,4097.948730,4143.589844,4139.487305,4166.153809,4154.871582,4154.871582,0.000000,4.000000,,,,0.000000,4.000000,4.000000,4.000000,4.000000,4.000000,4.000000,4.000000,4.000000,4.000000,4.000000,4.000000,4.000000,4.000000,4.000000,100.000000
1602005508.770106,49.000000,0.000000,4149.743652,4148.205078,4143.589844,4140.000000,4135.897461,4142.563965,4143.077148,4124.615234,4093.846191,4133.333496,4136.410156,4158.461426,4140.512695,4154.358887,0.000000,4.000000,,,,0.000000,4.000000,4.000000,4.000000,4.000000,4.000000,4.000000,4.000000,4.000000,4.000000,4.000000,4.000000,4.000000,4.000000,4.000000,100.000000
1602005508.777988,50.000000,0.000000,4154.358887,4146.153809,4144.102539,4141.025879,4124.102539,4131.794922,4139.487305,4135.384766,4108.717773,4123.077148,4135.384766,4157.948730,4136.922852,4151.794922,0.000000,4.000000,,,,0.000000,4.000000,4.000000,4.000000,4.000000,4.000000,4.000000,4.000000,4.000000,4.000000,4.000000,4.000000,4.000000,4.000000,4.000000,100.000000
1602005508.785870,51.000000,0.000000,4147.692383,4138.974121,4153.846191,4138.461426,4118.974121,4130.256348,4140.000000,4142.051270,4124.102539,4140.000000,4137.948730,4163.589844,4148.205078,4154.358887,0.000000,4.000000,,,,0.000000,4.000000,4.000000,4.000000,4.000000,4.000000,4.000000,4.000000,4.000000,4.000000,4.000000,4.000000,4.000000,4.000000,4.000000,100.000000
1602005508.793752,52.000000,0.000000,4138.461426,4139.487305,4154.871582,4136.410156,4122.051270,4133.846191,4139.487305,4139.487305,4128.205078,4148.205078,4138.461426,4160.512695,4147.692383,4154.358887,0.000000,4.000000,,,,0.000000,4.000000,4.000000,4.000000,4.000000,4.000000,4.000000,4.000000,4.000000,4.000000,4.000000,4.000000,4.000000,4.000000,4.000000,100.000000
1602005508.801734,53.000000,0.000000,4138.974121,4140.000000,4144.102539,4137.436035,4121.025879,4123.077148,4129.743652,4131.282227,4129.743652,4135.897461,4135.897461,4151.794922,4137.436035,4141.025879,0.000000,4.000000,,,,0.000000,4.000000,4.000000,4.000000,4.000000,4.000000,4.000000,4.000000,4.000000,4.000000,4.000000,4.000000,4.000000,4.000000,4.000000,100.000000
1602005508.809616,54.000000,0.000000,4138.974121,4132.307617,4136.410156,4134.871582,4118.974121,4116.410156,4122.563965,4123.077148,4122.563965,4126.666504,4134.871582,4149.743652,4135.384766,4131.794922,0.000000,4.000000,,,,0.000000,4.000000,4.000000,4.000000,4.000000,4.000000,4.000000,4.000000,4.000000,4.000000,4.000000,4.000000,4.000000,4.000000,4.000000,100.000000
1602005508.817498,55.000000,0.000000,4129.230957,4125.128418,4134.358887,4126.153809,4119.487305,4125.128418,4123.589844,4118.461426,4106.153809,4124.102539,4129.743652,4152.307617,4130.769043,4137.948730,0.000000,4.000000,,,,0.000000,4.000000,4.000000,4.000000,4.000000,4.000000,4.000000,4.000000,4.000000,4.000000,4.000000,4.000000,4.000000,4.000000,4.000000,100.000000
1602005508.825380,56.000000,0.000000,4122.051270,4123.589844,4135.897461,4123.589844,4121.025879,4131.282227,4130.256348,4120.000000,4095.897461,4124.615234,4124.615234,4154.358887,4122.563965,4143.077148,0.000000,4.000000,,,,0.000000,4.000000,4.000000,4.000000,4.000000,4.000000,4.000000,4.000000,4.000000,4.000000,4.000000,4.000000,4.000000,4.000000,4.000000,100.000000
1602005508.833262,57.000000,0.000000,4123.589844,4124.102539,4136.922852,4127.692383,4122.563965,4133.846191,4135.897461,4119.487305,4092.820557,4122.563965,4130.256348,4153.333496,4122.563965,4138.974121,0.000000,4.000000,,,,0.000000,4.000000,4.000000,4.000000,4.000000,4.000000,4.000000,4.000000,4.000000,4.000000,4.000000,4.000000,4.000000,4.000000,4.000000,100.000000
1602005508.841145,58.000000,0.000000,4130.256348,4122.563965,4141.025879,4128.205078,4125.128418,4138.974121,4138.461426,4123.077148,4095.384521,4122.051270,4136.410156,4155.897461,4126.666504,4140.512695,0.000000,4.000000,,,,0.000000,4.000000,4.000000,4.000000,4.000000,4.000000,4.000000,4.000000,4.000000,4.000000,4.000000,4.000000,4.000000,4.000000,4.000000,100.000000
1602005508.849027,59.000000,0.000000,4136.410156,4128.205078,4151.794922,4129.743652,4127.692383,4142.051270,4141.025879,4133.333496,4105.641113,4133.333496,4135.384766,4166.666504,4130.256348,4152.307617,0.000000,4.000000,,,,0.000000,4.000000,4.000000,4.000000,4.000000,4.000000,4.000000,4.000000,4.000000,4.000000,4.000000,4.000000,4.000000,4.000000,4.000000,100.000000
1602005508.856809,60.000000,0.000000,4140.000000,4138.974121,4152.307617,4137.436035,4129.743652,4139.487305,4143.077148,4135.897461,4111.282227,4137.436035,4137.948730,4174.358887,4137.948730,4155.897461,0.000000,4.000000,,,,0.000000,4.000000,4.000000,4.000000,4.000000,4.000000,4.000000,4.000000,4.000000,4.000000,4.000000,4.000000,4.000000,4.000000,4.000000,100.000000
1602005508.864691,61.000000,0.000000,4134.358887,4136.922852,4142.563965,4136.410156,4125.641113,4123.589844,4134.358887,4123.589844,4110.769043,4133.846191,4140.512695,4169.743652,4143.077148,4145.641113,0.000000,4.000000,,,,0.000000,4.000000,4.000000,4.000000,4.000000,4.000000,4.000000,4.000000,4.000000,4.000000,4.000000,4.000000,4.000000,4.000000,4.000000,100.000000
1602005508.872572,62.000000,0.000000,4123.077148,4125.128418,4136.410156,4126.153809,4114.358887,4107.692383,4120.000000,4111.794922,4109.743652,4137.948730,4136.410156,4156.410156,4138.461426,4136.410156,0.000000,4.000000,,,,0.000000,4.000000,4.000000,4.000000,4.000000,4.000000,4.000000,4.000000,4.000000,4.000000,4.000000,4.000000,4.000000,4.000000,4.000000,100.000000
1602005508.880454,63.000000,0.000000,4122.051270,4121.538574,4132.307617,4122.563965,4109.743652,4113.333496,4120.512695,4113.846191,4108.205078,4143.077148,4133.333496,4144.615234,4135.384766,4136.410156,0.000000,4.000000,,,,0.000000,4.000000,4.000000,4.000000,4.000000,4.000000,4.000000,4.000000,4.000000,4.000000,4.000000,4.000000,4.000000,4.000000,4.000000,100.000000
1602005508.888336,64.000000,0.000000,4124.615234,4124.615234,4125.641113,4125.128418,4116.410156,4124.102539,4124.102539,4121.538574,4112.820313,4137.948730,4128.717773,4137.948730,4137.436035,4137.436035,806.000000,4.000000,,,,0.000000,4.000000,4.000000,4.000000,4.000000,4.000000,4.000000,4.000000,4.000000,4.000000,4.000000,4.000000,4.000000,4.000000,4.000000,100.000000
1602005508.896218,65.000000,0.000000,4117.948730,4123.589844,4127.692383,4123.077148,4122.563965,4122.563965,4118.974121,4125.641113,4122.563965,4136.410156,4125.128418,4135.897461,4137.436035,4135.384766,797.000000,4.000000,,,,0.000000,4.000000,4.000000,4.000000,4.000000,4.000000,4.000000,4.000000,4.000000,4.000000,4.000000,4.000000,4.000000,4.000000,4.000000,100.000000
1602005508.904200,66.000000,0.000000,4123.077148,4123.589844,4136.410156,4122.563965,4126.153809,4122.563965,4125.641113,4135.897461,4132.307617,4154.871582,4133.846191,4143.077148,4138.974121,4136.922852,852.000000,4.000000,,,,0.000000,4.000000,4.000000,4.000000,4.000000,4.000000,4.000000,4.000000,4.000000,4.000000,4.000000,4.000000,4.000000,4.000000,4.000000,100.000000
1602005508.912082,67.000000,0.000000,4141.538574,4127.692383,4140.000000,4124.615234,4134.358887,4128.717773,4139.487305,4151.282227,4144.102539,4161.538574,4141.538574,4155.384766,4141.538574,4141.538574,866.000000,4.000000,,,,0.000000,4.000000,4.000000,4.000000,4.000000,4.000000,4.000000,4.000000,4.000000,4.000000,4.000000,4.000000,4.000000,4.000000,4.000000,100.000000
1602005508.919964,68.000000,0.000000,4136.922852,4126.666504,4133.333496,4123.077148,4138.974121,4125.641113,4138.461426,4153.333496,4145.641113,4140.512695,4131.282227,4156.922852,4134.871582,4140.512695,807.000000,4.000000,,,,0.000000,4.000000,4.000000,4.000000,4.000000,4.000000,4.000000,4.000000,4.000000,4.000000,4.000000,4.000000,4.000000,4.000000,4.000000,100.000000
1602005508.927846,69.000000,0.000000,4118.461426,4122.563965,4124.615234,4121.025879,4137.436035,4124.102539,4134.358887,4143.077148,4138.974121,4139.487305,4120.000000,4151.794922,4129.230957,4135.897461,822.000000,4.000000,,,,0.000000,4.000000,4.000000,4.000000,4.000000,4.000000,4.000000,4.000000,4.000000,4.000000,4.000000,4.000000,4.000000,4.000000,4.000000,100.000000
1602005508.935727,70.000000,0.000000,4120.512695,4127.179688,4126.666504,4125.128418,4140.512695,4133.333496,4140.512695,4142.051270,4144.102539,4172.307617,4124.102539,4148.717773,4135.897461,4137.948730,780.000000,4.000000,,,,0.000000,4.000000,4.000000,4.000000,4.000000,4.000000,4.000000,4.000000,4.000000,4.000000,4.000000,4.000000,4.000000,4.000000,4.000000,100.000000
1602005508.943609,71.000000,0.000000,4131.282227,4136.410156,4128.717773,4128.717773,4147.179688,4135.897461,4141.025879,4137.948730,4146.153809,4174.871582,4128.205078,4144.615234,4140.512695,4142.563965,697.000000,4.000000,,,,0.000000,4.000000,4.000000,4.000000,4.000000,4.000000,4.000000,4.000000,4.000000,4.000000,4.000000,4.000000,4.000000,4.000000,4.000000,100.000000
1602005508.951491,72.000000,0.000000,4126.666504,4138.974121,4122.051270,4125.641113,4146.153809,4132.820313,4135.384766,4125.128418,4131.282227,4140.000000,4124.615234,4138.461426,4136.922852,4143.077148,791.000000,4.000000,,,,0.000000,4.000000,4.000000,4.000000,4.000000,4.000000,4.000000,4.000000,4.000000,4.000000,4.000000,4.000000,4.000000,4.000000,4.000000,100.000000
1602005508.959273,73.000000,0.000000,4121.025879,4133.333496,4118.461426,4122.051270,4142.051270,4137.436035,4134.358887,4116.410156,4119.487305,4131.794922,4124.615234,4136.922852,4137.948730,4142.051270,834.000000,4.000000,,,,0.000000,4.000000,4.000000,4.000000,4.000000,4.000000,4.000000,4.000000,4.000000,4.000000,4.000000,4.000000,4.000000,4.000000,4.000000,100.000000
1602005508.967154,74.000000,0.000000,4127.179688,4126.153809,4122.051270,4121.025879,4139.487305,4138.461426,4135.384766,4116.410156,4118.461426,4152.820313,4126.666504,4145.128418,4141.025879,4145.128418,872.000000,4.000000,,,,0.000000,4.000000,4.000000,4.000000,4.000000,4.000000,4.000000,4.000000,4.000000,4.000000,4.000000,4.000000,4.000000,4.000000,4.000000,100.000000
1602005508.975035,75.000000,0.000000,4123.077148,4121.025879,4123.589844,4118.974121,4135.897461,4135.384766,4135.384766,4129.230957,4126.666504,4157.948730,4131.282227,4157.436035,4140.000000,4147.692383,832.000000,4.000000,,,,0.000000,4.000000,4.000000,4.000000,4.000000,4.000000,4.000000,4.000000,4.000000,4.000000,4.000000,4.000000,4.000000,4.000000,4.000000,100.000000
1602005508.982817,76.000000,0.000000,4107.692383,4119.487305,4123.589844,4117.948730,4135.897461,4146.153809,4138.974121,4151.794922,4145.641113,4144.102539,4138.461426,4160.000000,4140.000000,4144.102539,783.000000,4.000000,,,,0.000000,4.000000,4.000000,4.000000,4.000000,4.000000,4.000000,4.000000,4.000000,4.000000,4.000000,4.000000,4.000000,4.000000,4.000000,100.000000
