Timestamp,EEG.Counter,EEG.Interpolated,EEG.AF3,EEG.F7,EEG.F3,EEG.FC5,EEG.T7,EEG.P7,EEG.O1,EEG.O2,EEG.P8,EEG.T8,EEG.FC6,EEG.F4,EEG.F8,EEG.AF4,EEG.RawCq,EEG.Battery,MarkerIndex,MarkerType,MarkerValueInt,EEG.MarkerHardware,CQ.AF3,CQ.F7,CQ.F3,CQ.FC5,CQ.T7,CQ.P7,CQ.O1,CQ.O2,CQ.P8,CQ.T8,CQ.FC6,CQ.F4,CQ.F8,CQ.AF4,CQ.Overall
1602005609.862637,106.000000,0.000000,4148.205078,4141.538574,4150.256348,4140.512695,4128.717773,4129.230957,4131.282227,4127.179688,4129.230957,4130.769043,4152.307617,4160.000000,4130.256348,4138.461426,877.000000,4.000000,,,,0.000000,4.000000,4.000000,4.000000,4.000000,4.000000,4.000000,4.000000,4.000000,4.000000,4.000000,4.000000,4.000000,4.000000,4.000000,100.000000
1602005609.870419,107.000000,0.000000,4150.769043,4137.436035,4155.384766,4135.384766,4125.128418,4125.128418,4131.794922,4132.307617,4131.282227,4144.615234,4150.769043,4163.077148,4130.769043,4140.512695,836.000000,4.000000,,,,0.000000,4.000000,4.000000,4.000000,4.000000,4.000000,4.000000,4.000000,4.000000,4.000000,4.000000,4.000000,4.000000,4.000000,4.000000,100.000000
1602005609.878300,108.000000,0.000000,4144.102539,4127.692383,4152.820313,4126.666504,4121.025879,4121.025879,4120.512695,4126.153809,4124.102539,4141.025879,4133.846191,4157.436035,4121.538574,4137.436035,780.000000,4.000000,,,,0.000000,4.000000,4.000000,4.000000,4.000000,4.000000,4.000000,4.000000,4.000000,4.000000,4.000000,4.000000,4.000000,4.000000,4.000000,100.000000
1602005609.886182,109.000000,0.000000,4143.589844,4123.589844,4155.384766,4126.153809,4121.025879,4121.025879,4124.102539,4125.128418,4123.077148,4127.179688,4136.410156,4163.589844,4118.461426,4134.358887,765.000000,4.000000,,,,0.000000,4.000000,4.000000,4.000000,4.000000,4.000000,4.000000,4.000000,4.000000,4.000000,4.000000,4.000000,4.000000,4.000000,4.000000,100.000000
1602005609.894064,110.000000,0.000000,4142.051270,4120.512695,4157.948730,4125.128418,4120.000000,4120.512695,4137.436035,4127.179688,4118.974121,4118.461426,4143.077148,4171.282227,4120.000000,4125.128418,877.000000,4.000000,,,,0.000000,4.000000,4.000000,4.000000,4.000000,4.000000,4.000000,4.000000,4.000000,4.000000,4.000000,4.000000,4.000000,4.000000,4.000000,100.000000
1602005609.901946,111.000000,0.000000,4135.897461,4115.897461,4155.897461,4120.512695,4117.948730,4129.230957,4141.025879,4124.615234,4111.794922,4123.077148,4134.871582,4165.641113,4120.512695,4126.153809,836.000000,4.000000,,,,0.000000,4.000000,4.000000,4.000000,4.000000,4.000000,4.000000,4.000000,4.000000,4.000000,4.000000,4.000000,4.000000,4.000000,4.000000,100.000000
1602005609.909828,112.000000,0.000000,4137.436035,4117.948730,4155.384766,4121.025879,4118.974121,4137.436035,4135.384766,4119.487305,4111.794922,4123.589844,4130.256348,4157.948730,4117.436035,4135.384766,780.000000,4.000000,,,,0.000000,4.000000,4.000000,4.000000,4.000000,4.000000,4.000000,4.000000,4.000000,4.000000,4.000000,4.000000,4.000000,4.000000,4.000000,100.000000
1602005609.917710,113.000000,0.000000,4144.102539,4123.589844,4153.846191,4125.641113,4121.025879,4130.769043,4129.230957,4111.794922,4106.666504,4111.282227,4131.282227,4154.871582,4108.717773,4126.666504,765.000000,4.000000,,,,0.000000,4.000000,4.000000,4.000000,4.000000,4.000000,4.000000,4.000000,4.000000,4.000000,4.000000,4.000000,4.000000,4.000000,4.000000,100.000000
1602005609.925592,114.000000,0.000000,4139.487305,4122.563965,4148.717773,4129.743652,4120.000000,4123.077148,4120.512695,4103.077148,4096.922852,4098.461426,4119.487305,4149.230957,4103.077148,4113.846191,877.000000,4.000000,,,,0.000000,4.000000,4.000000,4.000000,4.000000,4.000000,4.000000,4.000000,4.000000,4.000000,4.000000,4.000000,4.000000,4.000000,4.000000,100.000000
1602005609.933374,115.000000,0.000000,4135.897461,4126.153809,4149.230957,4134.871582,4118.974121,4121.025879,4111.282227,4102.051270,4097.948730,4098.974121,4109.230957,4149.743652,4105.641113,4120.000000,836.000000,4.000000,,,,0.000000,4.000000,4.000000,4.000000,4.000000,4.000000,4.000000,4.000000,4.000000,4.000000,4.000000,4.000000,4.000000,4.000000,4.000000,100.000000
1602005609.941256,116.000000,0.000000,4139.487305,4136.410156,4152.820313,4136.410156,4118.461426,4118.461426,4109.743652,4109.230957,4109.743652,4115.897461,4108.205078,4154.358887,4104.615234,4127.179688,780.000000,4.000000,,,,0.000000,4.000000,4.000000,4.000000,4.000000,4.000000,4.000000,4.000000,4.000000,4.000000,4.000000,4.000000,4.000000,4.000000,4.000000,100.000000
1602005609.949137,117.000000,0.000000,4147.179688,4138.461426,4153.333496,4138.461426,4120.512695,4121.025879,4117.948730,4120.000000,4120.512695,4126.153809,4108.717773,4151.282227,4106.153809,4127.692383,765.000000,4.000000,,,,0.000000,4.000000,4.000000,4.000000,4.000000,4.000000,4.000000,4.000000,4.000000,4.000000,4.000000,4.000000,4.000000,4.000000,4.000000,100.000000
1602005609.957019,118.000000,0.000000,4154.871582,4140.000000,4160.000000,4139.487305,4120.000000,4120.000000,4121.538574,4127.179688,4125.128418,4111.282227,4118.974121,4151.282227,4117.436035,4136.922852,877.000000,4.000000,,,,0.000000,4.000000,4.000000,4.000000,4.000000,4.000000,4.000000,4.000000,4.000000,4.000000,4.000000,4.000000,4.000000,4.000000,4.000000,100.000000
1602005609.964901,119.000000,0.000000,4157.948730,4147.692383,4166.153809,4138.461426,4122.051270,4114.358887,4121.538574,4130.256348,4124.615234,4111.282227,4138.461426,4162.051270,4132.820313,4150.769043,836.000000,4.000000,,,,0.000000,4.000000,4.000000,4.000000,4.000000,4.000000,4.000000,4.000000,4.000000,4.000000,4.000000,4.000000,4.000000,4.000000,4.000000,100.000000
1602005609.972783,120.000000,0.000000,4153.846191,4145.641113,4160.512695,4137.948730,4131.794922,4119.487305,4130.769043,4129.743652,4127.179688,4138.974121,4140.000000,4163.077148,4135.897461,4155.897461,780.000000,4.000000,,,,0.000000,4.000000,4.000000,4.000000,4.000000,4.000000,4.000000,4.000000,4.000000,4.000000,4.000000,4.000000,4.000000,4.000000,4.000000,100.000000
1602005609.980665,121.000000,0.000000,4152.307617,4140.000000,4152.820313,4137.948730,4138.974121,4133.333496,4138.461426,4126.666504,4131.794922,4141.538574,4135.384766,4155.384766,4136.410156,4152.820313,765.000000,4.000000,,,,0.000000,4.000000,4.000000,4.000000,4.000000,4.000000,4.000000,4.000000,4.000000,4.000000,4.000000,4.000000,4.000000,4.000000,4.000000,100.000000
1602005609.988547,122.000000,0.000000,4158.974121,4150.256348,4156.922852,4140.512695,4140.000000,4138.974121,4138.974121,4125.128418,4130.256348,4128.205078,4145.128418,4158.974121,4150.769043,4154.358887,877.000000,4.000000,,,,0.000000,4.000000,4.000000,4.000000,4.000000,4.000000,4.000000,4.000000,4.000000,4.000000,4.000000,4.000000,4.000000,4.000000,4.000000,100.000000
1602005609.996429,123.000000,0.000000,4161.025879,4160.512695,4158.461426,4141.025879,4141.538574,4131.794922,4135.897461,4120.512695,4119.487305,4140.512695,4138.461426,4156.922852,4150.769043,4153.846191,836.000000,4.000000,,,,0.000000,4.000000,4.000000,4.000000,4.000000,4.000000,4.000000,4.000000,4.000000,4.000000,4.000000,4.000000,4.000000,4.000000,4.000000,100.000000
1602005610.004211,124.000000,0.000000,4149.230957,4150.256348,4146.666504,4139.487305,4136.922852,4123.589844,4127.692383,4109.743652,4101.538574,4147.179688,4110.769043,4140.512695,4129.743652,4136.922852,780.000000,4.000000,,,,0.000000,4.000000,4.000000,4.000000,4.000000,4.000000,4.000000,4.000000,4.000000,4.000000,4.000000,4.000000,4.000000,4.000000,4.000000,100.000000
1602005610.012092,125.000000,0.000000,4139.487305,4141.538574,4139.487305,4137.948730,4125.128418,4122.051270,4116.410156,4100.512695,4082.564209,4128.205078,4105.641113,4132.307617,4118.461426,4123.589844,765.000000,4.000000,,,,0.000000,4.000000,4.000000,4.000000,4.000000,4.000000,4.000000,4.000000,4.000000,4.000000,4.000000,4.000000,4.000000,4.000000,4.000000,100.000000
1602005610.019974,126.000000,0.000000,4134.871582,4140.512695,4140.000000,4131.282227,4118.461426,4121.538574,4110.256348,4097.948730,4069.230713,4108.717773,4106.153809,4130.769043,4116.410156,4122.051270,877.000000,4.000000,,,,0.000000,4.000000,4.000000,4.000000,4.000000,4.000000,4.000000,4.000000,4.000000,4.000000,4.000000,4.000000,4.000000,4.000000,4.000000,100.000000
1602005610.027855,127.000000,0.000000,4127.692383,4133.333496,4133.333496,4125.641113,4118.461426,4121.025879,4110.769043,4099.487305,4072.820557,4100.512695,4089.230713,4123.589844,4106.666504,4116.922852,836.000000,4.000000,,,,0.000000,4.000000,4.000000,4.000000,4.000000,4.000000,4.000000,4.000000,4.000000,4.000000,4.000000,4.000000,4.000000,4.000000,4.000000,100.000000
1602005610.035737,128.000000,0.000000,4122.051270,4129.743652,4124.102539,4130.769043,4120.512695,4121.025879,4114.871582,4107.692383,4091.794922,4106.153809,4086.666748,4120.000000,4101.025879,4107.179688,780.000000,4.000000,,,,0.000000,4.000000,4.000000,4.000000,4.000000,4.000000,4.000000,4.000000,4.000000,4.000000,4.000000,4.000000,4.000000,4.000000,4.000000,100.000000
1602005610.043718,0.000000,0.000000,4121.538574,4133.846191,4127.692383,4137.948730,4128.205078,4121.025879,4119.487305,4119.487305,4115.384766,4121.025879,4105.128418,4121.538574,4106.666504,4102.563965,805.000000,4.000000,,,,0.000000,4.000000,4.000000,4.000000,4.000000,4.000000,4.000000,4.000000,4.000000,4.000000,4.000000,4.000000,4.000000,4.000000,4.000000,100.000000
1602005610.051599,1.000000,0.000000,4127.692383,4137.436035,4136.410156,4138.461426,4137.436035,4128.205078,4123.589844,4126.666504,4135.384766,4121.025879,4112.307617,4127.179688,4115.897461,4109.230957,797.000000,4.000000,,,,0.000000,4.000000,4.000000,4.000000,4.000000,4.000000,4.000000,4.000000,4.000000,4.000000,4.000000,4.000000,4.000000,4.000000,4.000000,100.000000
1602005610.059581,2.000000,0.000000,4137.436035,4136.922852,4140.000000,4138.461426,4138.974121,4134.871582,4129.230957,4127.179688,4143.077148,4122.563965,4108.205078,4134.871582,4125.641113,4121.025879,851.000000,4.000000,,,,0.000000,4.000000,4.000000,4.000000,4.000000,4.000000,4.000000,4.000000,4.000000,4.000000,4.000000,4.000000,4.000000,4.000000,4.000000,100.000000
1602005610.067462,3.000000,0.000000,4142.051270,4139.487305,4144.102539,4139.487305,4140.512695,4126.153809,4130.256348,4125.128418,4140.512695,4145.641113,4107.692383,4139.487305,4128.205078,4129.230957,870.000000,4.000000,,,,0.000000,4.000000,4.000000,4.000000,4.000000,4.000000,4.000000,4.000000,4.000000,4.000000,4.000000,4.000000,4.000000,4.000000,4.000000,100.000000
1602005610.075344,4.000000,0.000000,4139.487305,4141.025879,4147.179688,4140.512695,4143.077148,4119.487305,4127.179688,4124.615234,4138.461426,4158.461426,4114.871582,4141.538574,4128.205078,4132.820313,827.000000,4.000000,,,,0.000000,4.000000,4.000000,4.000000,4.000000,4.000000,4.000000,4.000000,4.000000,4.000000,4.000000,4.000000,4.000000,4.000000,4.000000,100.000000
1602005610.083226,5.000000,0.000000,4141.025879,4136.410156,4143.589844,4136.410156,4136.922852,4126.153809,4124.102539,4124.102539,4135.897461,4144.615234,4124.102539,4145.641113,4132.307617,4140.512695,817.000000,4.000000,,,,0.000000,4.000000,4.000000,4.000000,4.000000,4.000000,4.000000,4.000000,4.000000,4.000000,4.000000,4.000000,4.000000,4.000000,4.000000,100.000000
1602005610.091107,6.000000,0.000000,4137.436035,4128.717773,4134.871582,4125.128418,4125.641113,4128.205078,4121.538574,4121.538574,4122.051270,4126.153809,4120.000000,4141.538574,4125.641113,4142.563965,780.000000,4.000000,,,,0.000000,4.000000,4.000000,4.000000,4.000000,4.000000,4.000000,4.000000,4.000000,4.000000,4.000000,4.000000,4.000000,4.000000,4.000000,100.000000
1602005610.098989,7.000000,0.000000,4125.128418,4124.615234,4123.077148,4120.000000,4123.077148,4129.743652,4121.025879,4120.000000,4108.717773,4126.666504,4106.153809,4129.230957,4109.230957,4125.128418,687.000000,4.000000,,,,0.000000,4.000000,4.000000,4.000000,4.000000,4.000000,4.000000,4.000000,4.000000,4.000000,4.000000,4.000000,4.000000,4.000000,4.000000,100.000000
1602005610.106771,8.000000,0.000000,4120.000000,4124.102539,4111.794922,4121.025879,4126.153809,4138.461426,4117.436035,4115.897461,4104.615234,4127.179688,4102.563965,4115.384766,4101.538574,4105.641113,794.000000,4.000000,,,,0.000000,4.000000,4.000000,4.000000,4.000000,4.000000,4.000000,4.000000,4.000000,4.000000,4.000000,4.000000,4.000000,4.000000,4.000000,100.000000
1602005610.114653,9.000000,0.000000,4113.846191,4121.538574,4102.563965,4118.974121,4125.641113,4135.384766,4111.282227,4107.179688,4101.025879,4102.051270,4100.000000,4099.487305,4101.538574,4100.512695,840.000000,4.000000,,,,0.000000,4.000000,4.000000,4.000000,4.000000,4.000000,4.000000,4.000000,4.000000,4.000000,4.000000,4.000000,4.000000,4.000000,4.000000,100.000000
1602005610.122536,10.000000,0.000000,4107.692383,4119.487305,4100.000000,4118.461426,4121.538574,4124.615234,4113.846191,4107.692383,4106.153809,4094.358887,4091.794922,4093.333252,4101.538574,4102.563965,877.000000,4.000000,,,,0.000000,4.000000,4.000000,4.000000,4.000000,4.000000,4.000000,4.000000,4.000000,4.000000,4.000000,4.000000,4.000000,4.000000,4.000000,100.000000
1602005610.130418,11.000000,0.000000,4112.820313,4122.051270,4103.589844,4122.051270,4122.051270,4121.025879,4122.563965,4118.974121,4122.563965,4134.358887,4096.410156,4101.025879,4111.282227,4105.128418,836.000000,4.000000,,,,0.000000,4.000000,4.000000,4.000000,4.000000,4.000000,4.000000,4.000000,4.000000,4.000000,4.000000,4.000000,4.000000,4.000000,4.000000,100.000000
1602005610.138300,12.000000,0.000000,4123.077148,4126.153809,4106.153809,4126.153809,4124.615234,4117.948730,4122.563965,4123.589844,4129.230957,4158.461426,4106.666504,4106.153809,4123.077148,4113.846191,780.000000,4.000000,,,,0.000000,4.000000,4.000000,4.000000,4.000000,4.000000,4.000000,4.000000,4.000000,4.000000,4.000000,4.000000,4.000000,4.000000,4.000000,100.000000
1602005610.146182,13.000000,0.000000,4128.205078,4132.820313,4112.307617,4131.794922,4119.487305,4106.153809,4117.948730,4118.974121,4121.025879,4134.358887,4106.153809,4107.692383,4122.563965,4122.563965,765.000000,4.000000,,,,0.000000,4.000000,4.000000,4.000000,4.000000,4.000000,4.000000,4.000000,4.000000,4.000000,4.000000,4.000000,4.000000,4.000000,4.000000,100.000000
1602005610.154064,14.000000,0.000000,4137.436035,4137.948730,4123.077148,4138.461426,4115.897461,4102.563965,4118.974121,4118.974121,4123.077148,4125.641113,4108.717773,4116.410156,4124.102539,4129.230957,877.000000,4.000000,,,,0.000000,4.000000,4.000000,4.000000,4.000000,4.000000,4.000000,4.000000,4.000000,4.000000,4.000000,4.000000,4.000000,4.000000,4.000000,100.000000
1602005610.161946,15.000000,0.000000,4147.692383,4140.512695,4126.153809,4138.974121,4122.563965,4115.384766,4120.512695,4123.589844,4129.743652,4146.666504,4117.948730,4124.615234,4131.794922,4139.487305,836.000000,4.000000,,,,0.000000,4.000000,4.000000,4.000000,4.000000,4.000000,4.000000,4.000000,4.000000,4.000000,4.000000,4.000000,4.000000,4.000000,4.000000,100.000000
1602005610.169828,16.000000,0.000000,4144.615234,4138.461426,4122.051270,4131.282227,4125.128418,4124.102539,4124.615234,4126.666504,4124.615234,4147.179688,4115.897461,4125.128418,4129.230957,4136.922852,0.000000,4.000000,,,,0.000000,4.000000,4.000000,4.000000,4.000000,4.000000,4.000000,4.000000,4.000000,4.000000,4.000000,4.000000,4.000000,4.000000,4.000000,100.000000
1602005610.177810,17.000000,0.000000,4137.948730,4130.256348,4123.077148,4124.615234,4124.615234,4125.641113,4131.282227,4128.717773,4122.051270,4121.025879,4109.743652,4128.717773,4126.666504,4125.641113,0.000000,4.000000,,,,0.000000,4.000000,4.000000,4.000000,4.000000,4.000000,4.000000,4.000000,4.000000,4.000000,4.000000,4.000000,4.000000,4.000000,4.000000,100.000000
1602005610.185692,18.000000,0.000000,4138.461426,4120.000000,4123.589844,4123.077148,4132.820313,4126.666504,4126.666504,4123.589844,4117.436035,4106.666504,4104.102539,4129.743652,4123.589844,4118.974121,0.000000,4.000000,,,,0.000000,4.000000,4.000000,4.000000,4.000000,4.000000,4.000000,4.000000,4.000000,4.000000,4.000000,4.000000,4.000000,4.000000,4.000000,100.000000
1602005610.193574,19.000000,0.000000,4140.000000,4120.512695,4118.461426,4122.051270,4136.922852,4128.205078,4123.589844,4116.410156,4104.615234,4111.794922,4096.410156,4123.077148,4111.282227,4114.871582,0.000000,4.000000,,,,0.000000,4.000000,4.000000,4.000000,4.000000,4.000000,4.000000,4.000000,4.000000,4.000000,4.000000,4.000000,4.000000,4.000000,4.000000,100.000000
1602005610.201456,20.000000,0.000000,4138.461426,4128.717773,4120.512695,4122.563965,4129.230957,4133.333496,4134.871582,4118.461426,4107.692383,4121.025879,4099.487305,4123.589844,4112.820313,4118.461426,0.000000,4.000000,,,,0.000000,4.000000,4.000000,4.000000,4.000000,4.000000,4.000000,4.000000,4.000000,4.000000,4.000000,4.000000,4.000000,4.000000,4.000000,100.000000
1602005610.209338,21.000000,0.000000,4127.179688,4119.487305,4123.589844,4121.025879,4122.051270,4141.538574,4139.487305,4124.615234,4125.128418,4135.897461,4108.205078,4129.743652,4126.666504,4128.205078,0.000000,4.000000,,,,0.000000,4.000000,4.000000,4.000000,4.000000,4.000000,4.000000,4.000000,4.000000,4.000000,4.000000,4.000000,4.000000,4.000000,4.000000,100.000000
1602005610.217219,22.000000,0.000000,4120.512695,4108.205078,4116.922852,4118.461426,4118.461426,4141.538574,4129.743652,4125.641113,4128.205078,4141.025879,4107.179688,4125.641113,4124.102539,4123.589844,0.000000,4.000000,,,,0.000000,4.000000,4.000000,4.000000,4.000000,4.000000,4.000000,4.000000,4.000000,4.000000,4.000000,4.000000,4.000000,4.000000,4.000000,100.000000
1602005610.225101,23.000000,0.000000,4137.948730,4124.102539,4115.897461,4121.538574,4117.948730,4129.743652,4126.153809,4125.128418,4124.615234,4130.256348,4104.102539,4120.512695,4112.307617,4111.282227,0.000000,4.000000,,,,0.000000,4.000000,4.000000,4.000000,4.000000,4.000000,4.000000,4.000000,4.000000,4.000000,4.000000,4.000000,4.000000,4.000000,4.000000,100.000000
1602005610.232983,24.000000,0.000000,4165.641113,4150.769043,4125.128418,4133.333496,4121.025879,4125.641113,4127.179688,4127.692383,4131.794922,4131.794922,4101.538574,4124.102539,4109.230957,4107.692383,0.000000,4.000000,,,,0.000000,4.000000,4.000000,4.000000,4.000000,4.000000,4.000000,4.000000,4.000000,4.000000,4.000000,4.000000,4.000000,4.000000,4.000000,100.000000
1602005610.240865,25.000000,0.000000,4168.717773,4157.436035,4126.153809,4137.436035,4121.025879,4125.128418,4121.538574,4124.615234,4131.794922,4128.717773,4090.256348,4122.563965,4098.461426,4106.666504,0.000000,4.000000,,,,0.000000,4.000000,4.000000,4.000000,4.000000,4.000000,4.000000,4.000000,4.000000,4.000000,4.000000,4.000000,4.000000,4.000000,4.000000,100.000000
1602005610.248846,26.000000,0.000000,4166.666504,4152.307617,4123.589844,4133.846191,4120.512695,4125.128418,4120.000000,4119.487305,4119.487305,4109.230957,4087.692383,4117.436035,4088.205078,4105.641113,0.000000,4.000000,,,,0.000000,4.000000,4.000000,4.000000,4.000000,4.000000,4.000000,4.000000,4.000000,4.000000,4.000000,4.000000,4.000000,4.000000,4.000000,100.000000
1602005610.256727,27.000000,0.000000,4182.563965,4153.846191,4132.820313,4135.897461,4123.077148,4132.307617,4132.307617,4129.743652,4122.563965,4122.051270,4094.871826,4127.179688,4100.512695,4105.641113,0.000000,4.000000,,,,0.000000,4.000000,4.000000,4.000000,4.000000,4.000000,4.000000,4.000000,4.000000,4.000000,4.000000,4.000000,4.000000,4.000000,4.000000,100.000000
1602005610.264708,28.000000,0.000000,4190.769043,4156.922852,4141.025879,4141.025879,4125.641113,4138.461426,4138.461426,4138.974121,4136.922852,4145.128418,4093.846191,4136.410156,4106.153809,4110.256348,0.000000,4.000000,,,,0.000000,4.000000,4.000000,4.000000,4.000000,4.000000,4.000000,4.000000,4.000000,4.000000,4.000000,4.000000,4.000000,4.000000,4.000000,100.000000
1602005610.272589,29.000000,0.000000,4182.051270,4157.948730,4140.000000,4142.051270,4131.794922,4138.974121,4130.769043,4128.205078,4134.358887,4131.282227,4096.410156,4129.230957,4098.974121,4122.563965,0.000000,4.000000,,,,0.000000,4.000000,4.000000,4.000000,4.000000,4.000000,4.000000,4.000000,4.000000,4.000000,4.000000,4.000000,4.000000,4.000000,4.000000,100.000000
1602005610.280371,30.000000,0.000000,4174.871582,4155.384766,4133.333496,4137.948730,4136.410156,4140.000000,4130.256348,4118.461426,4125.128418,4126.666504,4101.025879,4123.077148,4098.974121,4125.128418,0.000000,4.000000,,,,0.000000,4.000000,4.000000,4.000000,4.000000,4.000000,4.000000,4.000000,4.000000,4.000000,4.000000,4.000000,4.000000,4.000000,4.000000,100.000000
1602005610.288252,31.000000,0.000000,4172.307617,4151.282227,4122.051270,4134.871582,4130.769043,4135.384766,4133.846191,4124.102539,4127.179688,4143.589844,4092.307617,4125.641113,4100.000000,4111.794922,0.000000,4.000000,,,,0.000000,4.000000,4.000000,4.000000,4.000000,4.000000,4.000000,4.000000,4.000000,4.000000,4.000000,4.000000,4.000000,4.000000,4.000000,100.000000
1602005610.296134,32.000000,0.000000,4169.743652,4150.769043,4119.487305,4134.871582,4127.692383,4123.077148,4126.153809,4125.641113,4128.205078,4141.538574,4092.307617,4122.563965,4095.384521,4107.179688,0.000000,4.000000,,,,0.000000,4.000000,4.000000,4.000000,4.000000,4.000000,4.000000,4.000000,4.000000,4.000000,4.000000,4.000000,4.000000,4.000000,4.000000,100.000000
1602005610.303915,33.000000,0.000000,4168.717773,4153.846191,4120.512695,4135.897461,4131.794922,4122.051270,4118.461426,4122.051270,4121.538574,4140.512695,4105.128418,4118.974121,4095.384521,4108.205078,0.000000,4.000000,,,,0.000000,4.000000,4.000000,4.000000,4.000000,4.000000,4.000000,4.000000,4.000000,4.000000,4.000000,4.000000,4.000000,4.000000,4.000000,100.000000
1602005610.311797,34.000000,0.000000,4170.256348,4155.897461,4114.871582,4136.922852,4131.282227,4129.230957,4121.025879,4122.563965,4120.000000,4137.948730,4098.461426,4123.077148,4093.846191,4100.512695,0.000000,4.000000,,,,0.000000,4.000000,4.000000,4.000000,4.000000,4.000000,4.000000,4.000000,4.000000,4.000000,4.000000,4.000000,4.000000,4.000000,4.000000,100.000000
1602005610.319678,35.000000,0.000000,4167.179688,4151.794922,4112.820313,4135.897461,4126.666504,4120.512695,4120.512695,4121.025879,4123.077148,4111.794922,4085.641113,4117.948730,4087.692383,4099.487305,0.000000,4.000000,,,,0.000000,4.000000,4.000000,4.000000,4.000000,4.000000,4.000000,4.000000,4.000000,4.000000,4.000000,4.000000,4.000000,4.000000,4.000000,100.000000
1602005610.327459,36.000000,0.000000,4166.153809,4150.256348,4119.487305,4135.897461,4125.641113,4106.666504,4118.974121,4120.512695,4122.563965,4108.717773,4090.769287,4107.179688,4089.230713,4106.666504,0.000000,4.000000,,,,0.000000,4.000000,4.000000,4.000000,4.000000,4.000000,4.000000,4.000000,4.000000,4.000000,4.000000,4.000000,4.000000,4.000000,4.000000,100.000000
1602005610.335341,37.000000,0.000000,4176.922852,4153.846191,4125.128418,4137.948730,4126.666504,4103.589844,4122.051270,4129.230957,4121.538574,4141.538574,4093.846191,4112.820313,4092.820557,4108.717773,0.000000,4.000000,,,,0.000000,4.000000,4.000000,4.000000,4.000000,4.000000,4.000000,4.000000,4.000000,4.000000,4.000000,4.000000,4.000000,4.000000,4.000000,100.000000
1602005610.343322,38.000000,0.000000,4181.025879,4154.871582,4133.333496,4140.000000,4125.128418,4106.153809,4122.563965,4137.436035,4124.615234,4147.179688,4093.333252,4124.102539,4092.307617,4111.794922,0.000000,4.000000,,,,0.000000,4.000000,4.000000,4.000000,4.000000,4.000000,4.000000,4.000000,4.000000,4.000000,4.000000,4.000000,4.000000,4.000000,4.000000,100.000000
1602005610.351203,39.000000,0.000000,4173.846191,4154.358887,4138.461426,4140.000000,4121.538574,4106.666504,4121.025879,4137.948730,4132.820313,4129.743652,4102.051270,4124.615234,4095.897461,4121.025879,0.000000,4.000000,,,,0.000000,4.000000,4.000000,4.000000,4.000000,4.000000,4.000000,4.000000,4.000000,4.000000,4.000000,4.000000,4.000000,4.000000,4.000000,100.000000
1602005610.359085,40.000000,0.000000,4177.436035,4157.948730,4134.871582,4139.487305,4122.051270,4106.666504,4125.641113,4137.436035,4135.384766,4132.820313,4105.641113,4129.743652,4104.102539,4124.102539,0.000000,4.000000,,,,0.000000,4.000000,4.000000,4.000000,4.000000,4.000000,4.000000,4.000000,4.000000,4.000000,4.000000,4.000000,4.000000,4.000000,4.000000,100.000000
1602005610.366966,41.000000,0.000000,4189.230957,4160.000000,4136.410156,4141.025879,4124.615234,4115.384766,4134.871582,4138.461426,4128.717773,4138.461426,4105.641113,4138.461426,4109.743652,4123.077148,0.000000,4.000000,,,,0.000000,4.000000,4.000000,4.000000,4.000000,4.000000,4.000000,4.000000,4.000000,4.000000,4.000000,4.000000,4.000000,4.000000,4.000000,100.000000
1602005610.374847,42.000000,0.000000,4185.641113,4157.436035,4137.948730,4142.563965,4124.615234,4124.615234,4141.538574,4139.487305,4124.102539,4124.102539,4108.205078,4133.333496,4106.153809,4122.051270,0.000000,4.000000,,,,0.000000,4.000000,4.000000,4.000000,4.000000,4.000000,4.000000,4.000000,4.000000,4.000000,4.000000,4.000000,4.000000,4.000000,4.000000,100.000000
1602005610.382629,43.000000,0.000000,4171.794922,4150.769043,4127.179688,4138.974121,4124.615234,4124.615234,4141.538574,4135.384766,4120.000000,4115.384766,4100.512695,4127.179688,4098.974121,4115.897461,0.000000,4.000000,,,,0.000000,4.000000,4.000000,4.000000,4.000000,4.000000,4.000000,4.000000,4.000000,4.000000,4.000000,4.000000,4.000000,4.000000,4.000000,100.000000
1602005610.390511,44.000000,0.000000,4166.666504,4144.615234,4117.948730,4134.358887,4123.077148,4120.512695,4139.487305,4128.205078,4114.871582,4116.922852,4090.769287,4128.717773,4094.871826,4108.205078,0.000000,4.000000,,,,0.000000,4.000000,4.000000,4.000000,4.000000,4.000000,4.000000,4.000000,4.000000,4.000000,4.000000,4.000000,4.000000,4.000000,4.000000,100.000000
1602005610.398392,45.000000,0.000000,4169.230957,4148.717773,4118.461426,4134.871582,4119.487305,4120.000000,4135.897461,4122.051270,4107.179688,4110.769043,4093.333252,4124.615234,4090.769287,4106.153809,0.000000,4.000000,,,,0.000000,4.000000,4.000000,4.000000,4.000000,4.000000,4.000000,4.000000,4.000000,4.000000,4.000000,4.000000,4.000000,4.000000,4.000000,100.000000
1602005610.406274,46.000000,0.000000,4171.794922,4155.897461,4120.000000,4136.410156,4121.025879,4121.025879,4134.871582,4121.538574,4099.487305,4109.743652,4095.897461,4120.512695,4090.256348,4114.358887,0.000000,4.000000,,,,0.000000,4.000000,4.000000,4.000000,4.000000,4.000000,4.000000,4.000000,4.000000,4.000000,4.000000,4.000000,4.000000,4.000000,4.000000,100.000000
1602005610.414156,47.000000,0.000000,4167.692383,4152.307617,4119.487305,4135.384766,4125.128418,4117.436035,4135.384766,4127.692383,4100.000000,4116.410156,4095.897461,4128.717773,4099.487305,4122.563965,0.000000,4.000000,,,,0.000000,4.000000,4.000000,4.000000,4.000000,4.000000,4.000000,4.000000,4.000000,4.000000,4.000000,4.000000,4.000000,4.000000,4.000000,100.000000
1602005610.422037,48.000000,0.000000,4174.358887,4158.974121,4122.563965,4143.077148,4130.256348,4121.538574,4135.384766,4136.922852,4108.205078,4116.410156,4101.538574,4136.922852,4108.717773,4125.641113,0.000000,4.000000,,,,0.000000,4.000000,4.000000,4.000000,4.000000,4.000000,4.000000,4.000000,4.000000,4.000000,4.000000,4.000000,4.000000,4.000000,4.000000,100.000000
1602005610.430019,49.000000,0.000000,4184.615234,4170.256348,4123.589844,4149.743652,4137.948730,4133.333496,4134.358887,4137.436035,4115.897461,4130.256348,4104.615234,4135.897461,4106.666504,4124.102539,0.000000,4.000000,,,,0.000000,4.000000,4.000000,4.000000,4.000000,4.000000,4.000000,4.000000,4.000000,4.000000,4.000000,4.000000,4.000000,4.000000,4.000000,100.000000
1602005610.437900,50.000000,0.000000,4177.436035,4163.589844,4122.051270,4143.589844,4136.922852,4134.871582,4136.410156,4130.769043,4119.487305,4140.512695,4107.692383,4134.871582,4106.666504,4116.410156,0.000000,4.000000,,,,0.000000,4.000000,4.000000,4.000000,4.000000,4.000000,4.000000,4.000000,4.000000,4.000000,4.000000,4.000000,4.000000,4.000000,4.000000,100.000000
1602005610.445782,51.000000,0.000000,4162.563965,4150.256348,4118.461426,4135.897461,4125.128418,4123.077148,4136.922852,4126.666504,4114.871582,4117.948730,4105.128418,4131.794922,4105.641113,4109.230957,0.000000,4.000000,,,,0.000000,4.000000,4.000000,4.000000,4.000000,4.000000,4.000000,4.000000,4.000000,4.000000,4.000000,4.000000,4.000000,4.000000,4.000000,100.000000
1602005610.453663,52.000000,0.000000,4153.846191,4142.563965,4112.820313,4135.897461,4119.487305,4118.461426,4134.871582,4127.692383,4108.205078,4110.256348,4092.820557,4121.538574,4093.333252,4107.692383,0.000000,4.000000,,,,0.000000,4.000000,4.000000,4.000000,4.000000,4.000000,4.000000,4.000000,4.000000,4.000000,4.000000,4.000000,4.000000,4.000000,4.000000,100.000000
1602005610.461444,53.000000,0.000000,4154.871582,4138.974121,4115.897461,4136.922852,4122.563965,4124.615234,4135.384766,4134.358887,4115.897461,4140.000000,4093.846191,4121.538574,4091.794922,4106.153809,0.000000,4.000000,,,,0.000000,4.000000,4.000000,4.000000,4.000000,4.000000,4.000000,4.000000,4.000000,4.000000,4.000000,4.000000,4.000000,4.000000,4.000000,100.000000
1602005610.469325,54.000000,0.000000,4156.410156,4138.974121,4123.589844,4136.922852,4122.563965,4120.512695,4135.897461,4140.000000,4123.077148,4137.948730,4107.692383,4134.358887,4105.128418,4106.666504,0.000000,4.000000,,,,0.000000,4.000000,4.000000,4.000000,4.000000,4.000000,4.000000,4.000000,4.000000,4.000000,4.000000,4.000000,4.000000,4.000000,4.000000,100.000000
1602005610.477307,55.000000,0.000000,4156.410156,4143.589844,4124.102539,4137.436035,4122.563965,4110.769043,4135.384766,4142.051270,4125.641113,4118.461426,4108.205078,4138.974121,4108.717773,4118.461426,0.000000,4.000000,,,,0.000000,4.000000,4.000000,4.000000,4.000000,4.000000,4.000000,4.000000,4.000000,4.000000,4.000000,4.000000,4.000000,4.000000,4.000000,100.000000
1602005610.485189,56.000000,0.000000,4161.538574,4149.743652,4123.077148,4137.436035,4124.102539,4116.410156,4138.974121,4146.666504,4138.461426,4140.000000,4104.615234,4137.948730,4108.717773,4129.743652,0.000000,4.000000,,,,0.000000,4.000000,4.000000,4.000000,4.000000,4.000000,4.000000,4.000000,4.000000,4.000000,4.000000,4.000000,4.000000,4.000000,4.000000,100.000000
1602005610.493071,57.000000,0.000000,4166.153809,4154.358887,4126.666504,4137.436035,4123.077148,4125.128418,4140.000000,4148.205078,4143.077148,4153.846191,4109.743652,4140.000000,4114.358887,4126.666504,0.000000,4.000000,,,,0.000000,4.000000,4.000000,4.000000,4.000000,4.000000,4.000000,4.000000,4.000000,4.000000,4.000000,4.000000,4.000000,4.000000,4.000000,100.000000
1602005610.500953,58.000000,0.000000,4159.487305,4151.794922,4124.615234,4136.922852,4121.538574,4121.538574,4135.384766,4138.461426,4130.769043,4134.358887,4109.230957,4138.974121,4112.307617,4118.974121,0.000000,4.000000,,,,0.000000,4.000000,4.000000,4.000000,4.000000,4.000000,4.000000,4.000000,4.000000,4.000000,4.000000,4.000000,4.000000,4.000000,4.000000,100.000000
1602005610.508835,59.000000,0.000000,4152.820313,4149.743652,4121.538574,4135.897461,4124.102539,4116.410156,4134.358887,4127.692383,4124.102539,4132.307617,4105.641113,4136.922852,4107.179688,4121.025879,0.000000,4.000000,,,,0.000000,4.000000,4.000000,4.000000,4.000000,4.000000,4.000000,4.000000,4.000000,4.000000,4.000000,4.000000,4.000000,4.000000,4.000000,100.000000
1602005610.516717,60.000000,0.000000,4153.846191,4151.794922,4122.563965,4136.410156,4125.128418,4119.487305,4135.384766,4124.102539,4115.897461,4140.000000,4106.153809,4137.948730,4106.153809,4123.589844,0.000000,4.000000,,,,0.000000,4.000000,4.000000,4.000000,4.000000,4.000000,4.000000,4.000000,4.000000,4.000000,4.000000,4.000000,4.000000,4.000000,4.000000,100.000000
1602005610.524598,61.000000,0.000000,4154.358887,4151.282227,4123.589844,4136.410156,4125.128418,4123.077148,4132.820313,4123.077148,4105.641113,4126.666504,4102.563965,4136.410156,4100.512695,4113.333496,0.000000,4.000000,,,,0.000000,4.000000,4.000000,4.000000,4.000000,4.000000,4.000000,4.000000,4.000000,4.000000,4.000000,4.000000,4.000000,4.000000,4.000000,100.000000
1602005610.532580,62.000000,0.000000,4155.384766,4151.794922,4123.077148,4138.461426,4127.179688,4125.641113,4133.333496,4123.589844,4112.820313,4118.974121,4095.897461,4134.358887,4093.333252,4102.563965,0.000000,4.000000,,,,0.000000,4.000000,4.000000,4.000000,4.000000,4.000000,4.000000,4.000000,4.000000,4.000000,4.000000,4.000000,4.000000,4.000000,4.000000,100.000000
1602005610.540462,63.000000,0.000000,4152.820313,4148.205078,4121.025879,4137.436035,4125.128418,4124.615234,4135.897461,4128.717773,4120.000000,4124.102539,4094.871826,4135.897461,4091.794922,4107.179688,0.000000,4.000000,,,,0.000000,4.000000,4.000000,4.000000,4.000000,4.000000,4.000000,4.000000,4.000000,4.000000,4.000000,4.000000,4.000000,4.000000,4.000000,100.000000
1602005610.548344,64.000000,0.000000,4149.230957,4145.128418,4118.461426,4134.871582,4120.000000,4120.000000,4135.384766,4134.871582,4116.410156,4120.512695,4102.563965,4135.897461,4097.948730,4117.436035,805.000000,4.000000,,,,0.000000,4.000000,4.000000,4.000000,4.000000,4.000000,4.000000,4.000000,4.000000,4.000000,4.000000,4.000000,4.000000,4.000000,4.000000,100.000000
1602005610.556226,65.000000,0.000000,4151.282227,4150.256348,4120.000000,4135.897461,4117.948730,4119.487305,4133.333496,4138.974121,4121.025879,4121.025879,4108.205078,4135.384766,4105.641113,4116.922852,797.000000,4.000000,,,,0.000000,4.000000,4.000000,4.000000,4.000000,4.000000,4.000000,4.000000,4.000000,4.000000,4.000000,4.000000,4.000000,4.000000,4.000000,100.000000
1602005610.564108,66.000000,0.000000,4151.794922,4154.871582,4121.025879,4137.948730,4122.051270,4122.563965,4135.384766,4140.512695,4132.307617,4141.025879,4108.205078,4144.102539,4111.794922,4114.358887,851.000000,4.000000,,,,0.000000,4.000000,4.000000,4.000000,4.000000,4.000000,4.000000,4.000000,4.000000,4.000000,4.000000,4.000000,4.000000,4.000000,4.000000,100.000000
1602005610.571990,67.000000,0.000000,4153.333496,4154.358887,4120.000000,4140.000000,4127.692383,4124.102539,4136.922852,4135.384766,4127.179688,4154.871582,4109.743652,4155.897461,4118.461426,4119.487305,870.000000,4.000000,,,,0.000000,4.000000,4.000000,4.000000,4.000000,4.000000,4.000000,4.000000,4.000000,4.000000,4.000000,4.000000,4.000000,4.000000,4.000000,100.000000
1602005610.579871,68.000000,0.000000,4158.461426,4154.871582,4121.538574,4141.025879,4128.717773,4120.512695,4130.256348,4124.615234,4109.230957,4143.077148,4111.794922,4157.948730,4124.102539,4125.128418,824.000000,4.000000,,,,0.000000,4.000000,4.000000,4.000000,4.000000,4.000000,4.000000,4.000000,4.000000,4.000000,4.000000,4.000000,4.000000,4.000000,4.000000,100.000000
1602005610.587753,69.000000,0.000000,4158.461426,4155.897461,4122.563965,4138.974121,4126.666504,4119.487305,4125.128418,4120.512695,4103.589844,4135.897461,4110.256348,4155.384766,4123.589844,4123.589844,817.000000,4.000000,,,,0.000000,4.000000,4.000000,4.000000,4.000000,4.000000,4.000000,4.000000,4.000000,4.000000,4.000000,4.000000,4.000000,4.000000,4.000000,100.000000
1602005610.595635,70.000000,0.000000,4155.384766,4152.820313,4120.512695,4136.410156,4126.153809,4123.589844,4127.692383,4122.563965,4109.230957,4147.179688,4112.820313,4157.436035,4124.615234,4121.538574,747.000000,4.000000,,,,0.000000,4.000000,4.000000,4.000000,4.000000,4.000000,4.000000,4.000000,4.000000,4.000000,4.000000,4.000000,4.000000,4.000000,4.000000,100.000000
1602005610.603417,71.000000,0.000000,4154.358887,4143.589844,4121.538574,4133.846191,4124.102539,4120.512695,4125.641113,4116.922852,4102.563965,4136.410156,4113.846191,4158.974121,4125.128418,4123.589844,662.000000,4.000000,,,,0.000000,4.000000,4.000000,4.000000,4.000000,4.000000,4.000000,4.000000,4.000000,4.000000,4.000000,4.000000,4.000000,4.000000,4.000000,100.000000
1602005610.611299,72.000000,0.000000,4153.846191,4136.922852,4123.589844,4131.282227,4118.461426,4118.974121,4121.025879,4112.820313,4095.897461,4107.692383,4108.205078,4153.846191,4115.897461,4121.025879,794.000000,4.000000,,,,0.000000,4.000000,4.000000,4.000000,4.000000,4.000000,4.000000,4.000000,4.000000,4.000000,4.000000,4.000000,4.000000,4.000000,4.000000,100.000000
1602005610.619180,73.000000,0.000000,4154.358887,4146.153809,4125.128418,4134.871582,4125.128418,4134.358887,4130.769043,4126.153809,4115.897461,4116.922852,4113.333496,4152.307617,4115.897461,4119.487305,840.000000,4.000000,,,,0.000000,4.000000,4.000000,4.000000,4.000000,4.000000,4.000000,4.000000,4.000000,4.000000,4.000000,4.000000,4.000000,4.000000,4.000000,100.000000
1602005610.627062,74.000000,0.000000,4155.897461,4151.794922,4124.102539,4137.948730,4137.948730,4141.538574,4135.897461,4137.948730,4133.333496,4147.179688,4123.589844,4155.897461,4123.589844,4125.128418,877.000000,4.000000,,,,0.000000,4.000000,4.000000,4.000000,4.000000,4.000000,4.000000,4.000000,4.000000,4.000000,4.000000,4.000000,4.000000,4.000000,4.000000,100.000000
1602005610.634944,75.000000,0.000000,4151.794922,4139.487305,4121.025879,4130.256348,4134.358887,4125.128418,4126.666504,4130.769043,4128.205078,4147.692383,4116.922852,4154.871582,4121.025879,4126.153809,836.000000,4.000000,,,,0.000000,4.000000,4.000000,4.000000,4.000000,4.000000,4.000000,4.000000,4.000000,4.000000,4.000000,4.000000,4.000000,4.000000,4.000000,100.000000
1602005610.642925,76.000000,0.000000,4152.307617,4136.410156,4120.512695,4125.641113,4121.538574,4114.871582,4122.563965,4121.538574,4119.487305,4133.333496,4104.615234,4154.871582,4117.436035,4121.538574,780.000000,4.000000,,,,0.000000,4.000000,4.000000,4.000000,4.000000,4.000000,4.000000,4.000000,4.000000,4.000000,4.000000,4.000000,4.000000,4.000000,4.000000,100.000000
1602005610.650807,77.000000,0.000000,4159.487305,4148.205078,4124.102539,4134.358887,4125.641113,4121.538574,4126.153809,4124.615234,4118.461426,4128.717773,4106.666504,4158.461426,4122.563965,4128.205078,765.000000,4.000000,,,,0.000000,4.000000,4.000000,4.000000,4.000000,4.000000,4.000000,4.000000,4.000000,4.000000,4.000000,4.000000,4.000000,4.000000,4.000000,100.000000
1602005610.658688,78.000000,0.000000,4157.948730,4154.871582,4125.128418,4139.487305,4137.948730,4125.641113,4132.307617,4126.666504,4116.410156,4127.179688,4116.922852,4159.487305,4126.666504,4141.025879,877.000000,4.000000,,,,0.000000,4.000000,4.000000,4.000000,4.000000,4.000000,4.000000,4.000000,4.000000,4.000000,4.000000,4.000000,4.000000,4.000000,4.000000,100.000000
1602005610.666570,79.000000,0.000000,4151.794922,4152.307617,4123.077148,4135.384766,4138.974121,4122.051270,4132.820313,4115.897461,4108.205078,4121.538574,4120.000000,4153.333496,4124.102539,4133.846191,836.000000,4.000000,,,,0.000000,4.000000,4.000000,4.000000,4.000000,4.000000,4.000000,4.000000,4.000000,4.000000,4.000000,4.000000,4.000000,4.000000,4.000000,100.000000
1602005610.674452,80.000000,0.000000,4156.922852,4154.358887,4122.563965,4135.897461,4135.384766,4123.077148,4124.615234,4108.717773,4102.563965,4119.487305,4114.358887,4150.256348,4121.538574,4122.563965,780.000000,4.000000,,,,0.000000,4.000000,4.000000,4.000000,4.000000,4.000000,4.000000,4.000000,4.000000,4.000000,4.000000,4.000000,4.000000,4.000000,4.000000,100.000000
1602005610.682333,81.000000,0.000000,4167.692383,4157.436035,4123.077148,4138.974121,4139.487305,4126.666504,4121.025879,4111.794922,4105.128418,4128.717773,4110.256348,4150.769043,4122.563965,4133.333496,765.000000,4.000000,,,,0.000000,4.000000,4.000000,4.000000,4.000000,4.000000,4.000000,4.000000,4.000000,4.000000,4.000000,4.000000,4.000000,4.000000,4.000000,100.000000
1602005610.690115,82.000000,0.000000,4166.666504,4154.358887,4123.077148,4134.358887,4137.436035,4127.179688,4126.153809,4114.871582,4109.743652,4144.615234,4111.282227,4147.692383,4122.051270,4142.563965,877.000000,4.000000,,,,0.000000,4.000000,4.000000,4.000000,4.000000,4.000000,4.000000,4.000000,4.000000,4.000000,4.000000,4.000000,4.000000,4.000000,4.000000,100.000000
1602005610.697997,83.000000,0.000000,4149.743652,4142.563965,4122.051270,4125.641113,4128.205078,4123.077148,4125.641113,4116.922852,4115.384766,4136.922852,4104.615234,4136.922852,4106.666504,4120.000000,836.000000,4.000000,,,,0.000000,4.000000,4.000000,4.000000,4.000000,4.000000,4.000000,4.000000,4.000000,4.000000,4.000000,4.000000,4.000000,4.000000,4.000000,100.000000
1602005610.705878,84.000000,0.000000,4139.487305,4136.410156,4119.487305,4122.563965,4127.179688,4114.358887,4121.025879,4123.589844,4125.128418,4112.820313,4104.102539,4133.333496,4100.512695,4102.563965,780.000000,4.000000,,,,0.000000,4.000000,4.000000,4.000000,4.000000,4.000000,4.000000,4.000000,4.000000,4.000000,4.000000,4.000000,4.000000,4.000000,4.000000,100.000000
1602005610.713760,85.000000,0.000000,4151.794922,4140.512695,4121.025879,4124.102539,4129.743652,4109.230957,4120.000000,4125.641113,4124.615234,4115.384766,4119.487305,4145.128418,4123.589844,4125.128418,765.000000,4.000000,,,,0.000000,4.000000,4.000000,4.000000,4.000000,4.000000,4.000000,4.000000,4.000000,4.000000,4.000000,4.000000,4.000000,4.000000,4.000000,100.000000
1602005610.721642,86.000000,0.000000,4156.410156,4138.974121,4124.615234,4124.102539,4124.102539,4110.769043,4114.871582,4121.538574,4116.922852,4131.282227,4125.641113,4149.230957,4144.102539,4151.282227,877.000000,4.000000,,,,0.000000,4.000000,4.000000,4.000000,4.000000,4.000000,4.000000,4.000000,4.000000,4.000000,4.000000,4.000000,4.000000,4.000000,4.000000,100.000000
1602005610.729523,87.000000,0.000000,4137.436035,4123.589844,4124.102539,4122.051270,4120.000000,4110.256348,4107.179688,4118.461426,4113.846191,4130.769043,4124.615234,4144.615234,4147.692383,4154.358887,836.000000,4.000000,,,,0.000000,4.000000,4.000000,4.000000,4.000000,4.000000,4.000000,4.000000,4.000000,4.000000,4.000000,4.000000,4.000000,4.000000,4.000000,100.000000
1602005610.737505,88.000000,0.000000,4118.974121,4106.666504,4120.512695,4115.384766,4123.589844,4113.333496,4112.307617,4118.461426,4107.692383,4133.333496,4132.307617,4150.256348,4158.461426,4151.794922,780.000000,4.000000,,,,0.000000,4.000000,4.000000,4.000000,4.000000,4.000000,4.000000,4.000000,4.000000,4.000000,4.000000,4.000000,4.000000,4.000000,4.000000,100.000000
1602005610.745387,89.000000,0.000000,4112.820313,4103.077148,4122.563965,4108.717773,4125.641113,4131.794922,4130.256348,4123.589844,4106.666504,4146.666504,4138.974121,4160.000000,4171.794922,4154.358887,765.000000,4.000000,,,,0.000000,4.000000,4.000000,4.000000,4.000000,4.000000,4.000000,4.000000,4.000000,4.000000,4.000000,4.000000,4.000000,4.000000,4.000000,100.000000
1602005610.753269,90.000000,0.000000,4108.717773,4106.666504,4121.025879,4106.153809,4125.128418,4138.461426,4134.358887,4124.102539,4115.897461,4143.589844,4137.436035,4157.436035,4170.769043,4154.871582,877.000000,4.000000,,,,0.000000,4.000000,4.000000,4.000000,4.000000,4.000000,4.000000,4.000000,4.000000,4.000000,4.000000,4.000000,4.000000,4.000000,4.000000,100.000000
1602005610.761152,91.000000,0.000000,4105.128418,4105.641113,4114.358887,4108.205078,4121.538574,4124.102539,4124.102539,4117.436035,4121.025879,4128.717773,4140.512695,4153.846191,4170.256348,4157.436035,836.000000,4.000000,,,,0.000000,4.000000,4.000000,4.000000,4.000000,4.000000,4.000000,4.000000,4.000000,4.000000,4.000000,4.000000,4.000000,4.000000,4.000000,100.000000
1602005610.769034,92.000000,0.000000,4110.769043,4109.230957,4114.871582,4115.897461,4123.589844,4120.000000,4123.589844,4124.102539,4130.256348,4143.589844,4149.743652,4162.051270,4175.897461,4162.051270,780.000000,4.000000,,,,0.000000,4.000000,4.000000,4.000000,4.000000,4.000000,4.000000,4.000000,4.000000,4.000000,4.000000,4.000000,4.000000,4.000000,4.000000,100.000000
1602005610.776916,93.000000,0.000000,4121.538574,4121.025879,4123.589844,4122.051270,4135.384766,4127.692383,4130.769043,4139.487305,4149.230957,4166.153809,4155.384766,4170.769043,4176.410156,4166.153809,765.000000,4.000000,,,,0.000000,4.000000,4.000000,4.000000,4.000000,4.000000,4.000000,4.000000,4.000000,4.000000,4.000000,4.000000,4.000000,4.000000,4.000000,100.000000
1602005610.784798,94.000000,0.000000,4122.563965,4125.128418,4129.230957,4125.641113,4142.563965,4128.205078,4130.256348,4142.563965,4158.461426,4163.077148,4159.487305,4177.948730,4174.871582,4170.769043,877.000000,4.000000,,,,0.000000,4.000000,4.000000,4.000000,4.000000,4.000000,4.000000,4.000000,4.000000,4.000000,4.000000,4.000000,4.000000,4.000000,4.000000,100.000000
1602005610.792680,95.000000,0.000000,4111.282227,4115.897461,4125.641113,4121.538574,4136.410156,4123.077148,4125.128418,4136.410156,4149.230957,4160.000000,4152.820313,4174.358887,4167.179688,4166.153809,836.000000,4.000000,,,,0.000000,4.000000,4.000000,4.000000,4.000000,4.000000,4.000000,4.000000,4.000000,4.000000,4.000000,4.000000,4.000000,4.000000,4.000000,100.000000
1602005610.800562,96.000000,0.000000,4107.692383,4108.717773,4120.000000,4114.871582,4126.666504,4126.666504,4127.179688,4134.358887,4138.974121,4173.846191,4139.487305,4160.000000,4154.871582,4152.820313,780.000000,4.000000,,,,0.000000,4.000000,4.000000,4.000000,4.000000,4.000000,4.000000,4.000000,4.000000,4.000000,4.000000,4.000000,4.000000,4.000000,4.000000,100.000000
1602005610.808444,97.000000,0.000000,4109.230957,4106.153809,4118.461426,4115.384766,4121.025879,4135.384766,4133.846191,4135.897461,4136.922852,4162.563965,4136.922852,4151.794922,4147.179688,4147.179688,765.000000,4.000000,,,,0.000000,4.000000,4.000000,4.000000,4.000000,4.000000,4.000000,4.000000,4.000000,4.000000,4.000000,4.000000,4.000000,4.000000,4.000000,100.000000
1602005610.816226,98.000000,0.000000,4105.641113,4106.666504,4116.410156,4122.051270,4123.589844,4137.436035,4139.487305,4140.512695,4140.000000,4134.871582,4139.487305,4151.282227,4144.615234,4153.333496,877.000000,4.000000,,,,0.000000,4.000000,4.000000,4.000000,4.000000,4.000000,4.000000,4.000000,4.000000,4.000000,4.000000,4.000000,4.000000,4.000000,4.000000,100.000000
1602005610.824108,99.000000,0.000000,4102.051270,4113.846191,4109.743652,4123.077148,4133.333496,4134.871582,4137.436035,4143.077148,4138.461426,4143.589844,4133.846191,4144.102539,4140.000000,4153.846191,836.000000,4.000000,,,,0.000000,4.000000,4.000000,4.000000,4.000000,4.000000,4.000000,4.000000,4.000000,4.000000,4.000000,4.000000,4.000000,4.000000,4.000000,100.000000
1602005610.831990,100.000000,0.000000,4109.743652,4118.974121,4111.282227,4122.563965,4135.897461,4137.948730,4135.384766,4140.000000,4135.384766,4151.794922,4134.358887,4134.358887,4142.563965,4146.153809,780.000000,4.000000,,,,0.000000,4.000000,4.000000,4.000000,4.000000,4.000000,4.000000,4.000000,4.000000,4.000000,4.000000,4.000000,4.000000,4.000000,4.000000,100.000000
1602005610.839872,101.000000,0.000000,4122.051270,4124.102539,4121.538574,4133.333496,4134.358887,4141.025879,4135.384766,4144.615234,4146.666504,4142.563965,4150.769043,4140.512695,4156.922852,4150.256348,765.000000,4.000000,,,,0.000000,4.000000,4.000000,4.000000,4.000000,4.000000,4.000000,4.000000,4.000000,4.000000,4.000000,4.000000,4.000000,4.000000,4.000000,100.000000
1602005610.847754,102.000000,0.000000,4126.153809,4133.846191,4127.692383,4141.538574,4147.179688,4141.538574,4136.410156,4151.282227,4164.102539,4159.487305,4160.512695,4153.846191,4169.230957,4162.051270,877.000000,4.000000,,,,0.000000,4.000000,4.000000,4.000000,4.000000,4.000000,4.000000,4.000000,4.000000,4.000000,4.000000,4.000000,4.000000,4.000000,4.000000,100.000000
1602005610.855636,103.000000,0.000000,4125.128418,4136.922852,4127.179688,4134.358887,4156.922852,4147.692383,4140.000000,4147.179688,4168.205078,4170.769043,4157.948730,4153.846191,4174.871582,4163.589844,836.000000,4.000000,,,,0.000000,4.000000,4.000000,4.000000,4.000000,4.000000,4.000000,4.000000,4.000000,4.000000,4.000000,4.000000,4.000000,4.000000,4.000000,100.000000
1602005610.863518,104.000000,0.000000,4122.563965,4127.179688,4117.948730,4123.589844,4145.128418,4147.692383,4134.358887,4135.384766,4158.974121,4152.307617,4150.769043,4142.563965,4169.743652,4156.410156,780.000000,4.000000,,,,0.000000,4.000000,4.000000,4.000000,4.000000,4.000000,4.000000,4.000000,4.000000,4.000000,4.000000,4.000000,4.000000,4.000000,4.000000,100.000000
1602005610.871399,105.000000,0.000000,4114.871582,4116.410156,4108.205078,4120.512695,4132.820313,4140.512695,4127.692383,4128.205078,4149.743652,4154.358887,4144.615234,4133.846191,4157.948730,4149.743652,765.000000,4.000000,,,,0.000000,4.000000,4.000000,4.000000,4.000000,4.000000,4.000000,4.000000,4.000000,4.000000,4.000000,4.000000,4.000000,4.000000,4.000000,100.000000
1602005610.879281,106.000000,0.000000,4102.051270,4110.256348,4100.000000,4113.846191,4134.871582,4138.974121,4132.820313,4129.743652,4143.589844,4160.000000,4139.487305,4126.153809,4151.282227,4140.000000,877.000000,4.000000,,,,0.000000,4.000000,4.000000,4.000000,4.000000,4.000000,4.000000,4.000000,4.000000,4.000000,4.000000,4.000000,4.000000,4.000000,4.000000,100.000000
1602005610.887063,107.000000,0.000000,4093.846191,4102.051270,4093.333252,4103.589844,4134.871582,4139.487305,4136.922852,4133.846191,4137.436035,4132.820313,4136.410156,4115.897461,4150.769043,4131.794922,836.000000,4.000000,,,,0.000000,4.000000,4.000000,4.000000,4.000000,4.000000,4.000000,4.000000,4.000000,4.000000,4.000000,4.000000,4.000000,4.000000,4.000000,100.000000
1602005610.894945,108.000000,0.000000,4101.538574,4105.641113,4102.051270,4108.717773,4133.846191,4136.410156,4134.871582,4135.897461,4139.487305,4133.846191,4144.615234,4122.051270,4153.846191,4136.922852,780.000000,4.000000,,,,0.000000,4.000000,4.000000,4.000000,4.000000,4.000000,4.000000,4.000000,4.000000,4.000000,4.000000,4.000000,4.000000,4.000000,4.000000,100.000000
1602005610.902827,109.000000,0.000000,4116.922852,4120.512695,4120.512695,4122.051270,4135.897461,4135.897461,4134.871582,4135.384766,4140.000000,4160.512695,4152.307617,4145.641113,4158.461426,4148.717773,765.000000,4.000000,,,,0.000000,4.000000,4.000000,4.000000,4.000000,4.000000,4.000000,4.000000,4.000000,4.000000,4.000000,4.000000,4.000000,4.000000,4.000000,100.000000
1602005610.910709,110.000000,0.000000,4123.077148,4124.615234,4125.128418,4125.128418,4130.769043,4137.436035,4136.922852,4137.436035,4132.307617,4147.692383,4144.615234,4153.846191,4158.974121,4153.333496,877.000000,4.000000,,,,0.000000,4.000000,4.000000,4.000000,4.000000,4.000000,4.000000,4.000000,4.000000,4.000000,4.000000,4.000000,4.000000,4.000000,4.000000,100.000000
1602005610.918591,111.000000,0.000000,4122.051270,4121.538574,4121.025879,4122.563965,4128.205078,4136.922852,4137.948730,4137.948730,4129.230957,4127.692383,4136.922852,4144.615234,4156.410156,4153.333496,836.000000,4.000000,,,,0.000000,4.000000,4.000000,4.000000,4.000000,4.000000,4.000000,4.000000,4.000000,4.000000,4.000000,4.000000,4.000000,4.000000,4.000000,100.000000
1602005610.926473,112.000000,0.000000,4121.538574,4125.128418,4118.974121,4125.128418,4136.922852,4140.512695,4143.589844,4136.410156,4134.871582,4132.307617,4141.025879,4140.512695,4157.436035,4156.410156,780.000000,4.000000,,,,0.000000,4.000000,4.000000,4.000000,4.000000,4.000000,4.000000,4.000000,4.000000,4.000000,4.000000,4.000000,4.000000,4.000000,4.000000,100.000000
1602005610.934355,113.000000,0.000000,4114.358887,4125.641113,4113.846191,4124.615234,4135.897461,4143.077148,4144.615234,4136.922852,4136.922852,4136.922852,4140.000000,4138.461426,4152.307617,4151.282227,765.000000,4.000000,,,,0.000000,4.000000,4.000000,4.000000,4.000000,4.000000,4.000000,4.000000,4.000000,4.000000,4.000000,4.000000,4.000000,4.000000,4.000000,100.000000
1602005610.942236,114.000000,0.000000,4105.641113,4119.487305,4108.205078,4120.512695,4122.051270,4135.384766,4137.436035,4135.384766,4138.461426,4136.922852,4129.230957,4126.153809,4141.538574,4136.410156,877.000000,4.000000,,,,0.000000,4.000000,4.000000,4.000000,4.000000,4.000000,4.000000,4.000000,4.000000,4.000000,4.000000,4.000000,4.000000,4.000000,4.000000,100.000000
1602005610.950118,115.000000,0.000000,4109.230957,4119.487305,4105.128418,4120.000000,4119.487305,4126.666504,4135.384766,4134.358887,4148.205078,4137.948730,4127.692383,4122.051270,4142.563965,4138.974121,836.000000,4.000000,,,,0.000000,4.000000,4.000000,4.000000,4.000000,4.000000,4.000000,4.000000,4.000000,4.000000,4.000000,4.000000,4.000000,4.000000,4.000000,100.000000
1602005610.957901,116.000000,0.000000,4120.000000,4123.077148,4109.230957,4123.077148,4126.666504,4127.179688,4138.461426,4137.948730,4156.410156,4145.128418,4142.563965,4138.461426,4159.487305,4155.384766,780.000000,4.000000,,,,0.000000,4.000000,4.000000,4.000000,4.000000,4.000000,4.000000,4.000000,4.000000,4.000000,4.000000,4.000000,4.000000,4.000000,4.000000,100.000000
1602005610.965783,117.000000,0.000000,4124.102539,4123.077148,4121.538574,4125.641113,4124.615234,4126.153809,4137.948730,4143.589844,4152.820313,4162.563965,4158.461426,4155.384766,4169.743652,4157.948730,765.000000,4.000000,,,,0.000000,4.000000,4.000000,4.000000,4.000000,4.000000,4.000000,4.000000,4.000000,4.000000,4.000000,4.000000,4.000000,4.000000,4.000000,100.000000
1602005610.973665,118.000000,0.000000,4115.384766,4117.436035,4121.538574,4121.025879,4121.538574,4120.000000,4133.333496,4141.538574,4145.128418,4154.358887,4152.307617,4152.307617,4162.563965,4152.307617,877.000000,4.000000,,,,0.000000,4.000000,4.000000,4.000000,4.000000,4.000000,4.000000,4.000000,4.000000,4.000000,4.000000,4.000000,4.000000,4.000000,4.000000,100.000000
1602005610.981547,119.000000,0.000000,4107.179688,4110.769043,4107.179688,4113.846191,4123.077148,4123.589844,4132.820313,4137.948730,4141.538574,4126.666504,4137.948730,4141.025879,4153.333496,4155.897461,836.000000,4.000000,,,,0.000000,4.000000,4.000000,4.000000,4.000000,4.000000,4.000000,4.000000,4.000000,4.000000,4.000000,4.000000,4.000000,4.000000,4.000000,100.000000
1602005610.989429,120.000000,0.000000,4109.230957,4110.256348,4103.077148,4114.871582,4129.230957,4139.487305,4137.436035,4140.512695,4144.615234,4138.974121,4138.974121,4139.487305,4155.384766,4154.358887,780.000000,4.000000,,,,0.000000,4.000000,4.000000,4.000000,4.000000,4.000000,4.000000,4.000000,4.000000,4.000000,4.000000,4.000000,4.000000,4.000000,4.000000,100.000000
1602005610.997311,121.000000,0.000000,4108.717773,4111.794922,4105.641113,4120.000000,4131.282227,4141.538574,4137.436035,4134.358887,4143.077148,4160.512695,4133.846191,4133.333496,4150.256348,4138.461426,765.000000,4.000000,,,,0.000000,4.000000,4.000000,4.000000,4.000000,4.000000,4.000000,4.000000,4.000000,4.000000,4.000000,4.000000,4.000000,4.000000,4.000000,100.000000
1602005611.005193,122.000000,0.000000,4102.563965,4112.820313,4104.102539,4118.461426,4124.615234,4125.641113,4128.717773,4123.589844,4135.897461,4139.487305,4121.025879,4122.051270,4135.897461,4130.256348,877.000000,4.000000,,,,0.000000,4.000000,4.000000,4.000000,4.000000,4.000000,4.000000,4.000000,4.000000,4.000000,4.000000,4.000000,4.000000,4.000000,4.000000,100.000000
1602005611.013075,123.000000,0.000000,4108.717773,4121.025879,4116.410156,4121.025879,4122.051270,4117.948730,4129.230957,4132.307617,4140.000000,4132.820313,4127.692383,4130.256348,4141.538574,4139.487305,836.000000,4.000000,,,,0.000000,4.000000,4.000000,4.000000,4.000000,4.000000,4.000000,4.000000,4.000000,4.000000,4.000000,4.000000,4.000000,4.000000,4.000000,100.000000
1602005611.020958,124.000000,0.000000,4131.282227,4131.794922,4139.487305,4129.230957,4127.179688,4124.102539,4137.948730,4150.256348,4156.410156,4160.000000,4143.077148,4151.282227,4158.974121,4158.974121,780.000000,4.000000,,,,0.000000,4.000000,4.000000,4.000000,4.000000,4.000000,4.000000,4.000000,4.000000,4.000000,4.000000,4.000000,4.000000,4.000000,4.000000,100.000000
1602005611.028939,125.000000,0.000000,4143.589844,4130.256348,4148.205078,4126.153809,4125.641113,4124.102539,4139.487305,4147.692383,4157.948730,4155.897461,4143.589844,4159.487305,4161.025879,4171.282227,765.000000,4.000000,,,,0.000000,4.000000,4.000000,4.000000,4.000000,4.000000,4.000000,4.000000,4.000000,4.000000,4.000000,4.000000,4.000000,4.000000,4.000000,100.000000
1602005611.036820,126.000000,0.000000,4133.846191,4122.051270,4141.538574,4118.974121,4117.436035,4118.974121,4134.871582,4138.461426,4142.051270,4132.307617,4140.512695,4155.897461,4155.897461,4160.512695,877.000000,4.000000,,,,0.000000,4.000000,4.000000,4.000000,4.000000,4.000000,4.000000,4.000000,4.000000,4.000000,4.000000,4.000000,4.000000,4.000000,4.000000,100.000000
1602005611.044702,127.000000,0.000000,4122.563965,4119.487305,4137.948730,4120.512695,4117.436035,4121.025879,4136.410156,4140.000000,4131.794922,4137.948730,4140.000000,4147.179688,4150.256348,4141.538574,836.000000,4.000000,,,,0.000000,4.000000,4.000000,4.000000,4.000000,4.000000,4.000000,4.000000,4.000000,4.000000,4.000000,4.000000,4.000000,4.000000,4.000000,100.000000
1602005611.052583,128.000000,0.000000,4122.051270,4120.000000,4137.948730,4122.563965,4123.589844,4124.102539,4137.436035,4138.461426,4129.743652,4143.589844,4129.743652,4138.461426,4138.974121,4138.461426,780.000000,4.000000,,,,0.000000,4.000000,4.000000,4.000000,4.000000,4.000000,4.000000,4.000000,4.000000,4.000000,4.000000,4.000000,4.000000,4.000000,4.000000,100.000000
1602005611.060565,0.000000,0.000000,4123.589844,4122.051270,4131.282227,4121.025879,4128.205078,4124.102539,4133.333496,4135.384766,4126.666504,4135.897461,4128.205078,4136.922852,4136.410156,4139.487305,805.000000,4.000000,,,,0.000000,4.000000,4.000000,4.000000,4.000000,4.000000,4.000000,4.000000,4.000000,4.000000,4.000000,4.000000,4.000000,4.000000,4.000000,100.000000
1602005611.068447,1.000000,0.000000,4121.538574,4124.102539,4123.077148,4121.538574,4126.153809,4124.102539,4126.666504,4135.897461,4125.128418,4140.512695,4132.820313,4137.948730,4141.025879,4135.897461,797.000000,4.000000,,,,0.000000,4.000000,4.000000,4.000000,4.000000,4.000000,4.000000,4.000000,4.000000,4.000000,4.000000,4.000000,4.000000,4.000000,4.000000,100.000000
1602005611.076329,2.000000,0.000000,4118.974121,4120.512695,4120.000000,4121.025879,4121.025879,4120.512695,4119.487305,4130.769043,4122.563965,4141.538574,4127.692383,4134.358887,4139.487305,4143.077148,851.000000,4.000000,,,,0.000000,4.000000,4.000000,4.000000,4.000000,4.000000,4.000000,4.000000,4.000000,4.000000,4.000000,4.000000,4.000000,4.000000,4.000000,100.000000
1602005611.084210,3.000000,0.000000,4122.051270,4118.974121,4122.051270,4119.487305,4122.051270,4120.000000,4125.128418,4129.230957,4126.153809,4133.333496,4129.230957,4138.974121,4144.102539,4153.846191,870.000000,4.000000,,,,0.000000,4.000000,4.000000,4.000000,4.000000,4.000000,4.000000,4.000000,4.000000,4.000000,4.000000,4.000000,4.000000,4.000000,4.000000,100.000000
1602005611.092092,4.000000,0.000000,4124.102539,4125.128418,4124.615234,4120.512695,4125.641113,4123.589844,4138.461426,4139.487305,4137.948730,4146.153809,4141.025879,4146.666504,4155.897461,4155.384766,817.000000,4.000000,,,,0.000000,4.000000,4.000000,4.000000,4.000000,4.000000,4.000000,4.000000,4.000000,4.000000,4.000000,4.000000,4.000000,4.000000,4.000000,100.000000
1602005611.099974,5.000000,0.000000,4113.333496,4118.974121,4121.538574,4112.307617,4123.589844,4124.102539,4137.948730,4139.487305,4140.000000,4154.358887,4141.025879,4143.077148,4155.384766,4151.282227,817.000000,4.000000,,,,0.000000,4.000000,4.000000,4.000000,4.000000,4.000000,4.000000,4.000000,4.000000,4.000000,4.000000,4.000000,4.000000,4.000000,4.000000,100.000000
1602005611.107856,6.000000,0.000000,4109.230957,4104.615234,4118.461426,4102.563965,4120.512695,4121.538574,4131.282227,4130.256348,4133.333496,4135.897461,4136.922852,4143.589844,4151.282227,4152.307617,761.000000,4.000000,,,,0.000000,4.000000,4.000000,4.000000,4.000000,4.000000,4.000000,4.000000,4.000000,4.000000,4.000000,4.000000,4.000000,4.000000,4.000000,100.000000
1602005611.115738,7.000000,0.000000,4122.563965,4113.333496,4127.179688,4112.307617,4122.563965,4122.563965,4135.384766,4134.358887,4137.948730,4140.000000,4143.077148,4155.897461,4155.897461,4164.102539,676.000000,4.000000,,,,0.000000,4.000000,4.000000,4.000000,4.000000,4.000000,4.000000,4.000000,4.000000,4.000000,4.000000,4.000000,4.000000,4.000000,4.000000,100.000000
1602005611.123720,8.000000,0.000000,4128.717773,4127.692383,4136.410156,4122.563965,4125.128418,4121.538574,4133.846191,4142.563965,4145.641113,4164.102539,4144.102539,4162.563965,4157.948730,4169.230957,793.000000,4.000000,,,,0.000000,4.000000,4.000000,4.000000,4.000000,4.000000,4.000000,4.000000,4.000000,4.000000,4.000000,4.000000,4.000000,4.000000,4.000000,100.000000
1602005611.131602,9.000000,0.000000,4119.487305,4115.384766,4126.153809,4112.820313,4122.563965,4116.922852,4121.538574,4135.384766,4138.461426,4153.333496,4136.922852,4153.846191,4154.871582,4157.948730,840.000000,4.000000,,,,0.000000,4.000000,4.000000,4.000000,4.000000,4.000000,4.000000,4.000000,4.000000,4.000000,4.000000,4.000000,4.000000,4.000000,4.000000,100.000000
1602005611.139484,10.000000,0.000000,4112.820313,4101.538574,4110.769043,4104.102539,4119.487305,4122.563965,4122.051270,4128.717773,4132.820313,4128.205078,4133.846191,4142.563965,4148.205078,4147.692383,877.000000,4.000000,,,,0.000000,4.000000,4.000000,4.000000,4.000000,4.000000,4.000000,4.000000,4.000000,4.000000,4.000000,4.000000,4.000000,4.000000,4.000000,100.000000
1602005611.147365,11.000000,0.000000,4118.461426,4107.692383,4115.897461,4109.743652,4125.641113,4136.922852,4137.436035,4133.846191,4135.897461,4140.512695,4137.948730,4143.077148,4140.000000,4150.769043,836.000000,4.000000,,,,0.000000,4.000000,4.000000,4.000000,4.000000,4.000000,4.000000,4.000000,4.000000,4.000000,4.000000,4.000000,4.000000,4.000000,4.000000,100.000000
1602005611.155247,12.000000,0.000000,4123.589844,4112.820313,4131.794922,4113.846191,4130.769043,4145.641113,4147.692383,4140.512695,4138.974121,4160.512695,4140.000000,4150.769043,4144.102539,4154.358887,780.000000,4.000000,,,,0.000000,4.000000,4.000000,4.000000,4.000000,4.000000,4.000000,4.000000,4.000000,4.000000,4.000000,4.000000,4.000000,4.000000,4.000000,100.000000
1602005611.163129,13.000000,0.000000,4125.128418,4110.769043,4138.461426,4111.794922,4127.692383,4143.077148,4146.153809,4139.487305,4142.563965,4155.384766,4135.897461,4153.333496,4152.307617,4153.333496,765.000000,4.000000,,,,0.000000,4.000000,4.000000,4.000000,4.000000,4.000000,4.000000,4.000000,4.000000,4.000000,4.000000,4.000000,4.000000,4.000000,4.000000,100.000000
1602005611.171011,14.000000,0.000000,4131.794922,4117.948730,4137.948730,4116.410156,4130.769043,4137.948730,4143.077148,4139.487305,4151.282227,4151.794922,4141.538574,4152.820313,4155.897461,4153.846191,877.000000,4.000000,,,,0.000000,4.000000,4.000000,4.000000,4.000000,4.000000,4.000000,4.000000,4.000000,4.000000,4.000000,4.000000,4.000000,4.000000,4.000000,100.000000
1602005611.178893,15.000000,0.000000,4138.974121,4126.153809,4138.974121,4122.051270,4140.512695,4137.436035,4145.641113,4148.205078,4157.436035,4167.692383,4153.846191,4159.487305,4163.077148,4156.410156,836.000000,4.000000,,,,0.000000,4.000000,4.000000,4.000000,4.000000,4.000000,4.000000,4.000000,4.000000,4.000000,4.000000,4.000000,4.000000,4.000000,4.000000,100.000000
1602005611.186675,16.000000,0.000000,4138.461426,4127.692383,4140.512695,4123.589844,4142.051270,4140.000000,4145.128418,4152.307617,4156.922852,4178.974121,4155.897461,4159.487305,4172.307617,4156.410156,0.000000,4.000000,,,,0.000000,4.000000,4.000000,4.000000,4.000000,4.000000,4.000000,4.000000,4.000000,4.000000,4.000000,4.000000,4.000000,4.000000,4.000000,100.000000
1602005611.194557,17.000000,0.000000,4136.410156,4132.307617,4133.333496,4123.589844,4142.051270,4142.051270,4138.974121,4144.615234,4154.358887,4167.179688,4152.820313,4151.282227,4170.256348,4155.384766,0.000000,4.000000,,,,0.000000,4.000000,4.000000,4.000000,4.000000,4.000000,4.000000,4.000000,4.000000,4.000000,4.000000,4.000000,4.000000,4.000000,4.000000,100.000000
1602005611.202439,18.000000,0.000000,4138.461426,4136.922852,4122.563965,4125.128418,4144.615234,4140.512695,4135.384766,4138.974121,4154.871582,4158.974121,4156.922852,4147.692383,4167.692383,4165.641113,0.000000,4.000000,,,,0.000000,4.000000,4.000000,4.000000,4.000000,4.000000,4.000000,4.000000,4.000000,4.000000,4.000000,4.000000,4.000000,4.000000,4.000000,100.000000
1602005611.210321,19.000000,0.000000,4137.436035,4131.794922,4121.538574,4124.615234,4141.538574,4135.384766,4132.820313,4142.563965,4153.846191,4172.307617,4155.897461,4145.128418,4169.230957,4171.282227,0.000000,4.000000,,,,0.000000,4.000000,4.000000,4.000000,4.000000,4.000000,4.000000,4.000000,4.000000,4.000000,4.000000,4.000000,4.000000,4.000000,4.000000,100.000000
1602005611.218202,20.000000,0.000000,4134.871582,4124.615234,4126.153809,4121.538574,4136.922852,4127.179688,4124.615234,4143.077148,4141.538574,4172.307617,4144.615234,4140.000000,4160.512695,4158.974121,0.000000,4.000000,,,,0.000000,4.000000,4.000000,4.000000,4.000000,4.000000,4.000000,4.000000,4.000000,4.000000,4.000000,4.000000,4.000000,4.000000,4.000000,100.000000
1602005611.226084,21.000000,0.000000,4133.333496,4124.102539,4126.666504,4123.077148,4135.384766,4121.025879,4121.025879,4135.384766,4124.615234,4145.128418,4131.794922,4136.922852,4144.102539,4151.282227,0.000000,4.000000,,,,0.000000,4.000000,4.000000,4.000000,4.000000,4.000000,4.000000,4.000000,4.000000,4.000000,4.000000,4.000000,4.000000,4.000000,4.000000,100.000000
1602005611.233966,22.000000,0.000000,4134.358887,4125.128418,4125.641113,4124.615234,4134.871582,4122.563965,4124.102539,4133.846191,4120.512695,4136.922852,4127.179688,4136.922852,4135.897461,4153.333496,0.000000,4.000000,,,,0.000000,4.000000,4.000000,4.000000,4.000000,4.000000,4.000000,4.000000,4.000000,4.000000,4.000000,4.000000,4.000000,4.000000,4.000000,100.000000
1602005611.241848,23.000000,0.000000,4138.461426,4125.641113,4126.666504,4123.589844,4133.846191,4123.589844,4127.179688,4137.948730,4122.051270,4143.077148,4130.256348,4142.051270,4137.436035,4153.846191,0.000000,4.000000,,,,0.000000,4.000000,4.000000,4.000000,4.000000,4.000000,4.000000,4.000000,4.000000,4.000000,4.000000,4.000000,4.000000,4.000000,4.000000,100.000000
1602005611.249629,24.000000,0.000000,4136.922852,4129.230957,4127.692383,4122.051270,4134.871582,4115.897461,4131.282227,4139.487305,4120.512695,4131.282227,4136.922852,4149.743652,4145.128418,4159.487305,0.000000,4.000000,,,,0.000000,4.000000,4.000000,4.000000,4.000000,4.000000,4.000000,4.000000,4.000000,4.000000,4.000000,4.000000,4.000000,4.000000,4.000000,100.000000
1602005611.257510,25.000000,0.000000,4136.922852,4134.871582,4132.307617,4124.102539,4136.410156,4115.897461,4136.922852,4137.948730,4124.615234,4135.384766,4145.641113,4152.820313,4153.333496,4167.179688,0.000000,4.000000,,,,0.000000,4.000000,4.000000,4.000000,4.000000,4.000000,4.000000,4.000000,4.000000,4.000000,4.000000,4.000000,4.000000,4.000000,4.000000,100.000000
1602005611.265292,26.000000,0.000000,4147.179688,4138.974121,4137.436035,4126.666504,4133.333496,4125.641113,4136.922852,4137.948730,4129.230957,4157.948730,4151.282227,4151.282227,4158.974121,4168.717773,0.000000,4.000000,,,,0.000000,4.000000,4.000000,4.000000,4.000000,4.000000,4.000000,4.000000,4.000000,4.000000,4.000000,4.000000,4.000000,4.000000,4.000000,100.000000
1602005611.273174,27.000000,0.000000,4150.769043,4138.461426,4138.461426,4128.717773,4130.769043,4125.128418,4131.282227,4138.461426,4123.077148,4151.794922,4152.820313,4154.358887,4160.000000,4170.256348,0.000000,4.000000,,,,0.000000,4.000000,4.000000,4.000000,4.000000,4.000000,4.000000,4.000000,4.000000,4.000000,4.000000,4.000000,4.000000,4.000000,4.000000,100.000000
1602005611.281056,28.000000,0.000000,4142.563965,4135.897461,4138.461426,4129.230957,4134.358887,4122.563965,4126.153809,4134.871582,4115.384766,4137.436035,4152.307617,4151.794922,4157.436035,4169.743652,0.000000,4.000000,,,,0.000000,4.000000,4.000000,4.000000,4.000000,4.000000,4.000000,4.000000,4.000000,4.000000,4.000000,4.000000,4.000000,4.000000,4.000000,100.000000
1602005611.288938,29.000000,0.000000,4137.948730,4136.410156,4140.000000,4129.230957,4140.000000,4134.871582,4128.717773,4133.333496,4122.563965,4156.410156,4150.256348,4142.051270,4156.410156,4166.666504,0.000000,4.000000,,,,0.000000,4.000000,4.000000,4.000000,4.000000,4.000000,4.000000,4.000000,4.000000,4.000000,4.000000,4.000000,4.000000,4.000000,4.000000,100.000000
1602005611.296820,30.000000,0.000000,4137.948730,4135.897461,4134.871582,4128.717773,4139.487305,4144.102539,4132.820313,4139.487305,4136.410156,4173.846191,4144.615234,4138.974121,4156.410156,4163.589844,0.000000,4.000000,,,,0.000000,4.000000,4.000000,4.000000,4.000000,4.000000,4.000000,4.000000,4.000000,4.000000,4.000000,4.000000,4.000000,4.000000,4.000000,100.000000
1602005611.304702,31.000000,0.000000,4136.410156,4127.692383,4125.128418,4125.128418,4136.922852,4138.974121,4127.179688,4139.487305,4138.974121,4163.589844,4138.461426,4137.436035,4153.846191,4157.948730,0.000000,4.000000,,,,0.000000,4.000000,4.000000,4.000000,4.000000,4.000000,4.000000,4.000000,4.000000,4.000000,4.000000,4.000000,4.000000,4.000000,4.000000,100.000000
1602005611.312584,32.000000,0.000000,4135.897461,4123.077148,4118.461426,4121.025879,4136.410156,4136.410156,4126.153809,4135.897461,4135.897461,4150.769043,4136.410156,4131.794922,4150.769043,4149.230957,0.000000,4.000000,,,,0.000000,4.000000,4.000000,4.000000,4.000000,4.000000,4.000000,4.000000,4.000000,4.000000,4.000000,4.000000,4.000000,4.000000,4.000000,100.000000
1602005611.320466,33.000000,0.000000,4137.436035,4132.307617,4123.589844,4124.102539,4137.948730,4136.922852,4134.871582,4146.666504,4140.512695,4151.282227,4138.461426,4137.948730,4152.820313,4155.384766,0.000000,4.000000,,,,0.000000,4.000000,4.000000,4.000000,4.000000,4.000000,4.000000,4.000000,4.000000,4.000000,4.000000,4.000000,4.000000,4.000000,4.000000,100.000000
1602005611.328447,34.000000,0.000000,4145.128418,4141.025879,4135.384766,4128.205078,4140.000000,4130.256348,4138.974121,4157.948730,4146.666504,4163.077148,4143.077148,4154.358887,4158.461426,4173.846191,0.000000,4.000000,,,,0.000000,4.000000,4.000000,4.000000,4.000000,4.000000,4.000000,4.000000,4.000000,4.000000,4.000000,4.000000,4.000000,4.000000,4.000000,100.000000
1602005611.336328,35.000000,0.000000,4157.436035,4140.000000,4144.102539,4130.769043,4139.487305,4126.666504,4137.948730,4150.256348,4141.025879,4168.205078,4143.589844,4153.333496,4160.512695,4180.000000,0.000000,4.000000,,,,0.000000,4.000000,4.000000,4.000000,4.000000,4.000000,4.000000,4.000000,4.000000,4.000000,4.000000,4.000000,4.000000,4.000000,4.000000,100.000000
1602005611.344210,36.000000,0.000000,4157.948730,4138.461426,4150.769043,4134.871582,4142.051270,4133.333496,4136.410156,4138.974121,4126.666504,4157.948730,4138.974121,4140.000000,4155.384766,4172.307617,0.000000,4.000000,,,,0.000000,4.000000,4.000000,4.000000,4.000000,4.000000,4.000000,4.000000,4.000000,4.000000,4.000000,4.000000,4.000000,4.000000,4.000000,100.000000
1602005611.352091,37.000000,0.000000,4155.384766,4145.641113,4157.436035,4139.487305,4151.282227,4133.846191,4130.769043,4137.436035,4118.974121,4150.769043,4141.025879,4143.077148,4152.307617,4170.769043,0.000000,4.000000,,,,0.000000,4.000000,4.000000,4.000000,4.000000,4.000000,4.000000,4.000000,4.000000,4.000000,4.000000,4.000000,4.000000,4.000000,4.000000,100.000000
1602005611.359973,38.000000,0.000000,4161.538574,4157.436035,4154.871582,4140.000000,4156.410156,4123.077148,4124.615234,4138.974121,4120.000000,4155.897461,4151.794922,4154.358887,4161.538574,4176.922852,0.000000,4.000000,,,,0.000000,4.000000,4.000000,4.000000,4.000000,4.000000,4.000000,4.000000,4.000000,4.000000,4.000000,4.000000,4.000000,4.000000,4.000000,100.000000
1602005611.367755,39.000000,0.000000,4157.948730,4152.820313,4143.589844,4133.846191,4147.179688,4111.794922,4122.563965,4137.436035,4118.461426,4157.948730,4155.897461,4154.358887,4169.743652,4171.794922,0.000000,4.000000,,,,0.000000,4.000000,4.000000,4.000000,4.000000,4.000000,4.000000,4.000000,4.000000,4.000000,4.000000,4.000000,4.000000,4.000000,4.000000,100.000000
1602005611.375636,40.000000,0.000000,4147.179688,4135.897461,4137.948730,4126.666504,4134.871582,4103.589844,4117.948730,4133.846191,4114.871582,4148.717773,4152.307617,4150.769043,4170.769043,4165.641113,0.000000,4.000000,,,,0.000000,4.000000,4.000000,4.000000,4.000000,4.000000,4.000000,4.000000,4.000000,4.000000,4.000000,4.000000,4.000000,4.000000,4.000000,100.000000
1602005611.383518,41.000000,0.000000,4151.282227,4138.461426,4139.487305,4127.179688,4136.922852,4100.512695,4118.974121,4137.948730,4120.000000,4153.333496,4160.512695,4155.897461,4174.358887,4175.384766,0.000000,4.000000,,,,0.000000,4.000000,4.000000,4.000000,4.000000,4.000000,4.000000,4.000000,4.000000,4.000000,4.000000,4.000000,4.000000,4.000000,4.000000,100.000000
1602005611.391400,42.000000,0.000000,4154.358887,4143.077148,4139.487305,4128.717773,4144.615234,4110.769043,4130.769043,4152.307617,4134.358887,4178.974121,4171.794922,4164.615234,4181.025879,4185.128418,0.000000,4.000000,,,,0.000000,4.000000,4.000000,4.000000,4.000000,4.000000,4.000000,4.000000,4.000000,4.000000,4.000000,4.000000,4.000000,4.000000,4.000000,100.000000
1602005611.399282,43.000000,0.000000,4130.256348,4113.333496,4136.922852,4113.333496,4140.000000,4124.615234,4140.000000,4156.922852,4143.589844,4185.128418,4162.563965,4162.051270,4172.820313,4170.769043,0.000000,4.000000,,,,0.000000,4.000000,4.000000,4.000000,4.000000,4.000000,4.000000,4.000000,4.000000,4.000000,4.000000,4.000000,4.000000,4.000000,4.000000,100.000000
1602005611.407164,44.000000,0.000000,4113.333496,4097.436035,4130.769043,4101.538574,4132.820313,4130.256348,4140.512695,4145.641113,4134.871582,4154.871582,4137.948730,4147.692383,4146.153809,4145.128418,0.000000,4.000000,,,,0.000000,4.000000,4.000000,4.000000,4.000000,4.000000,4.000000,4.000000,4.000000,4.000000,4.000000,4.000000,4.000000,4.000000,4.000000,100.000000
1602005611.415046,45.000000,0.000000,4133.333496,4123.589844,4123.589844,4112.820313,4135.384766,4135.897461,4140.000000,4136.922852,4123.589844,4132.820313,4124.102539,4136.922852,4125.128418,4141.538574,0.000000,4.000000,,,,0.000000,4.000000,4.000000,4.000000,4.000000,4.000000,4.000000,4.000000,4.000000,4.000000,4.000000,4.000000,4.000000,4.000000,4.000000,100.000000
1602005611.422928,46.000000,0.000000,4161.538574,4141.538574,4125.641113,4124.102539,4139.487305,4141.025879,4141.538574,4136.410156,4127.692383,4137.436035,4128.717773,4133.846191,4127.179688,4155.384766,0.000000,4.000000,,,,0.000000,4.000000,4.000000,4.000000,4.000000,4.000000,4.000000,4.000000,4.000000,4.000000,4.000000,4.000000,4.000000,4.000000,4.000000,100.000000
1602005611.430909,47.000000,0.000000,4185.641113,4143.589844,4137.948730,4127.692383,4143.077148,4139.487305,4138.974121,4138.461426,4139.487305,4147.692383,4136.922852,4134.871582,4137.436035,4171.282227,0.000000,4.000000,,,,0.000000,4.000000,4.000000,4.000000,4.000000,4.000000,4.000000,4.000000,4.000000,4.000000,4.000000,4.000000,4.000000,4.000000,4.000000,100.000000
1602005611.438791,48.000000,0.000000,4212.820313,4164.102539,4150.256348,4136.410156,4152.820313,4137.436035,4131.282227,4141.538574,4143.589844,4155.897461,4137.948730,4146.153809,4142.051270,4191.282227,0.000000,4.000000,,,,0.000000,4.000000,4.000000,4.000000,4.000000,4.000000,4.000000,4.000000,4.000000,4.000000,4.000000,4.000000,4.000000,4.000000,4.000000,100.000000
1602005611.446672,49.000000,0.000000,4222.563965,4175.897461,4156.410156,4143.589844,4153.846191,4139.487305,4125.128418,4135.897461,4135.897461,4154.871582,4132.820313,4153.333496,4139.487305,4201.538574,0.000000,4.000000,,,,0.000000,4.000000,4.000000,4.000000,4.000000,4.000000,4.000000,4.000000,4.000000,4.000000,4.000000,4.000000,4.000000,4.000000,4.000000,100.000000
1602005611.454554,50.000000,0.000000,4207.179688,4157.948730,4148.717773,4135.384766,4141.538574,4133.333496,4114.358887,4126.666504,4121.538574,4140.000000,4124.102539,4142.051270,4126.666504,4184.615234,0.000000,4.000000,,,,0.000000,4.000000,4.000000,4.000000,4.000000,4.000000,4.000000,4.000000,4.000000,4.000000,4.000000,4.000000,4.000000,4.000000,4.000000,100.000000
1602005611.462436,51.000000,0.000000,4195.384766,4147.692383,4136.922852,4130.769043,4144.102539,4120.000000,4102.563965,4128.205078,4123.589844,4134.871582,4118.461426,4129.743652,4116.410156,4164.615234,0.000000,4.000000,,,,0.000000,4.000000,4.000000,4.000000,4.000000,4.000000,4.000000,4.000000,4.000000,4.000000,4.000000,4.000000,4.000000,4.000000,4.000000,100.000000
1602005611.470317,52.000000,0.000000,4194.358887,4154.358887,4136.922852,4135.897461,4154.871582,4116.922852,4104.102539,4136.922852,4139.487305,4135.897461,4125.641113,4134.871582,4123.077148,4168.717773,0.000000,4.000000,,,,0.000000,4.000000,4.000000,4.000000,4.000000,4.000000,4.000000,4.000000,4.000000,4.000000,4.000000,4.000000,4.000000,4.000000,4.000000,100.000000
1602005611.478099,53.000000,0.000000,4195.897461,4155.897461,4141.538574,4138.461426,4147.692383,4130.256348,4117.948730,4146.666504,4144.102539,4137.436035,4140.000000,4148.717773,4130.256348,4176.922852,0.000000,4.000000,,,,0.000000,4.000000,4.000000,4.000000,4.000000,4.000000,4.000000,4.000000,4.000000,4.000000,4.000000,4.000000,4.000000,4.000000,4.000000,100.000000
1602005611.486080,54.000000,0.000000,4195.384766,4152.307617,4143.077148,4136.922852,4140.000000,4136.410156,4131.794922,4151.794922,4139.487305,4145.641113,4140.512695,4157.948730,4125.641113,4174.871582,0.000000,4.000000,,,,0.000000,4.000000,4.000000,4.000000,4.000000,4.000000,4.000000,4.000000,4.000000,4.000000,4.000000,4.000000,4.000000,4.000000,4.000000,100.000000
1602005611.493962,55.000000,0.000000,4188.717773,4150.256348,4143.077148,4136.410156,4142.563965,4126.666504,4136.410156,4145.641113,4134.871582,4146.666504,4127.179688,4158.974121,4121.538574,4168.717773,0.000000,4.000000,,,,0.000000,4.000000,4.000000,4.000000,4.000000,4.000000,4.000000,4.000000,4.000000,4.000000,4.000000,4.000000,4.000000,4.000000,4.000000,100.000000
1602005611.501844,56.000000,0.000000,4185.128418,4146.153809,4145.128418,4137.436035,4138.974121,4119.487305,4135.897461,4137.436035,4126.153809,4138.461426,4123.589844,4154.871582,4122.563965,4170.256348,0.000000,4.000000,,,,0.000000,4.000000,4.000000,4.000000,4.000000,4.000000,4.000000,4.000000,4.000000,4.000000,4.000000,4.000000,4.000000,4.000000,4.000000,100.000000
1602005611.509725,57.000000,0.000000,4184.102539,4140.512695,4144.615234,4135.897461,4129.230957,4120.512695,4136.410156,4135.897461,4120.000000,4135.897461,4136.410156,4154.358887,4123.077148,4169.230957,0.000000,4.000000,,,,0.000000,4.000000,4.000000,4.000000,4.000000,4.000000,4.000000,4.000000,4.000000,4.000000,4.000000,4.000000,4.000000,4.000000,4.000000,100.000000
1602005611.517607,58.000000,0.000000,4173.846191,4136.410156,4141.025879,4131.794922,4125.128418,4120.512695,4134.871582,4134.358887,4119.487305,4129.743652,4136.410156,4156.922852,4121.538574,4158.461426,0.000000,4.000000,,,,0.000000,4.000000,4.000000,4.000000,4.000000,4.000000,4.000000,4.000000,4.000000,4.000000,4.000000,4.000000,4.000000,4.000000,4.000000,100.000000
1602005611.525488,59.000000,0.000000,4165.128418,4137.436035,4138.974121,4128.205078,4126.153809,4120.000000,4131.282227,4133.846191,4120.512695,4114.871582,4122.051270,4157.436035,4120.000000,4152.820313,0.000000,4.000000,,,,0.000000,4.000000,4.000000,4.000000,4.000000,4.000000,4.000000,4.000000,4.000000,4.000000,4.000000,4.000000,4.000000,4.000000,4.000000,100.000000
1602005611.533470,60.000000,0.000000,4175.897461,4140.512695,4136.410156,4128.205078,4130.256348,4124.102539,4130.769043,4135.897461,4124.615234,4125.128418,4118.974121,4156.922852,4121.025879,4153.846191,0.000000,4.000000,,,,0.000000,4.000000,4.000000,4.000000,4.000000,4.000000,4.000000,4.000000,4.000000,4.000000,4.000000,4.000000,4.000000,4.000000,4.000000,100.000000
1602005611.541353,61.000000,0.000000,4185.641113,4141.538574,4135.897461,4134.358887,4135.384766,4124.102539,4133.333496,4136.922852,4124.615234,4143.077148,4127.692383,4156.410156,4119.487305,4154.358887,0.000000,4.000000,,,,0.000000,4.000000,4.000000,4.000000,4.000000,4.000000,4.000000,4.000000,4.000000,4.000000,4.000000,4.000000,4.000000,4.000000,4.000000,100.000000
1602005611.549235,62.000000,0.000000,4175.897461,4141.025879,4137.948730,4134.871582,4136.922852,4124.615234,4136.410156,4137.948730,4123.077148,4131.794922,4130.256348,4155.897461,4114.871582,4152.307617,0.000000,4.000000,,,,0.000000,4.000000,4.000000,4.000000,4.000000,4.000000,4.000000,4.000000,4.000000,4.000000,4.000000,4.000000,4.000000,4.000000,4.000000,100.000000
1602005611.557117,63.000000,0.000000,4160.000000,4134.871582,4133.846191,4124.615234,4133.846191,4131.282227,4137.948730,4132.307617,4121.538574,4118.461426,4121.025879,4148.717773,4105.641113,4144.615234,0.000000,4.000000,,,,0.000000,4.000000,4.000000,4.000000,4.000000,4.000000,4.000000,4.000000,4.000000,4.000000,4.000000,4.000000,4.000000,4.000000,4.000000,100.000000
1602005611.564999,64.000000,0.000000,4149.230957,4124.102539,4122.051270,4116.410156,4125.641113,4136.410156,4135.384766,4122.563965,4113.333496,4121.538574,4108.205078,4136.922852,4096.922852,4135.384766,805.000000,4.000000,,,,0.000000,4.000000,4.000000,4.000000,4.000000,4.000000,4.000000,4.000000,4.000000,4.000000,4.000000,4.000000,4.000000,4.000000,4.000000,100.000000
1602005611.572881,65.000000,0.000000,4148.205078,4117.948730,4117.948730,4117.436035,4120.512695,4134.358887,4132.307617,4120.512695,4108.717773,4105.128418,4106.153809,4134.871582,4098.974121,4131.794922,797.000000,4.000000,,,,0.000000,4.000000,4.000000,4.000000,4.000000,4.000000,4.000000,4.000000,4.000000,4.000000,4.000000,4.000000,4.000000,4.000000,4.000000,100.000000
1602005611.580763,66.000000,0.000000,4160.000000,4122.563965,4127.692383,4121.538574,4127.692383,4135.384766,4135.897461,4127.692383,4116.410156,4082.051270,4117.436035,4146.666504,4106.666504,4133.846191,851.000000,4.000000,,,,0.000000,4.000000,4.000000,4.000000,4.000000,4.000000,4.000000,4.000000,4.000000,4.000000,4.000000,4.000000,4.000000,4.000000,4.000000,100.000000
1602005611.588645,67.000000,0.000000,4171.282227,4130.256348,4136.410156,4122.563965,4135.897461,4138.974121,4136.410156,4132.820313,4128.717773,4114.358887,4122.051270,4156.410156,4107.692383,4140.512695,870.000000,4.000000,,,,0.000000,4.000000,4.000000,4.000000,4.000000,4.000000,4.000000,4.000000,4.000000,4.000000,4.000000,4.000000,4.000000,4.000000,4.000000,100.000000
1602005611.596527,68.000000,0.000000,4166.666504,4136.410156,4137.948730,4122.563965,4135.897461,4138.974121,4136.410156,4137.436035,4137.436035,4158.974121,4119.487305,4156.410156,4110.256348,4153.333496,816.000000,4.000000,,,,0.000000,4.000000,4.000000,4.000000,4.000000,4.000000,4.000000,4.000000,4.000000,4.000000,4.000000,4.000000,4.000000,4.000000,4.000000,100.000000
1602005611.604410,69.000000,0.000000,4162.051270,4140.512695,4137.436035,4126.153809,4134.871582,4140.000000,4143.077148,4141.538574,4138.974121,4152.307617,4130.256348,4153.846191,4119.487305,4160.000000,817.000000,4.000000,,,,0.000000,4.000000,4.000000,4.000000,4.000000,4.000000,4.000000,4.000000,4.000000,4.000000,4.000000,4.000000,4.000000,4.000000,4.000000,100.000000
1602005611.612191,70.000000,0.000000,4169.743652,4140.000000,4137.948730,4130.769043,4132.820313,4143.077148,4147.179688,4141.538574,4132.307617,4141.538574,4139.487305,4154.358887,4126.153809,4156.410156,770.000000,4.000000,,,,0.000000,4.000000,4.000000,4.000000,4.000000,4.000000,4.000000,4.000000,4.000000,4.000000,4.000000,4.000000,4.000000,4.000000,4.000000,100.000000
1602005611.620072,71.000000,0.000000,4172.307617,4137.948730,4137.948730,4129.230957,4126.666504,4138.974121,4143.589844,4139.487305,4126.666504,4145.641113,4130.256348,4150.769043,4122.563965,4149.743652,683.000000,4.000000,,,,0.000000,4.000000,4.000000,4.000000,4.000000,4.000000,4.000000,4.000000,4.000000,4.000000,4.000000,4.000000,4.000000,4.000000,4.000000,100.000000
1602005611.627954,72.000000,0.000000,4158.974121,4136.410156,4133.846191,4124.615234,4123.589844,4127.692383,4137.436035,4131.794922,4120.000000,4116.922852,4120.512695,4141.538574,4112.307617,4138.461426,793.000000,4.000000,,,,0.000000,4.000000,4.000000,4.000000,4.000000,4.000000,4.000000,4.000000,4.000000,4.000000,4.000000,4.000000,4.000000,4.000000,4.000000,100.000000
1602005611.635935,73.000000,0.000000,4151.282227,4132.820313,4128.205078,4124.102539,4124.102539,4121.025879,4127.179688,4126.153809,4112.820313,4087.692383,4123.589844,4136.410156,4111.794922,4133.846191,840.000000,4.000000,,,,0.000000,4.000000,4.000000,4.000000,4.000000,4.000000,4.000000,4.000000,4.000000,4.000000,4.000000,4.000000,4.000000,4.000000,4.000000,100.000000
1602005611.643717,74.000000,0.000000,4155.897461,4130.256348,4123.077148,4124.102539,4117.948730,4123.077148,4123.077148,4125.641113,4115.384766,4114.358887,4125.641113,4136.922852,4120.512695,4141.025879,877.000000,4.000000,,,,0.000000,4.000000,4.000000,4.000000,4.000000,4.000000,4.000000,4.000000,4.000000,4.000000,4.000000,4.000000,4.000000,4.000000,4.000000,100.000000
1602005611.651599,75.000000,0.000000,4154.871582,4122.563965,4121.025879,4119.487305,4111.282227,4123.077148,4126.666504,4125.641113,4122.051270,4143.077148,4125.641113,4136.410156,4122.051270,4141.025879,836.000000,4.000000,,,,0.000000,4.000000,4.000000,4.000000,4.000000,4.000000,4.000000,4.000000,4.000000,4.000000,4.000000,4.000000,4.000000,4.000000,4.000000,100.000000
1602005611.659480,76.000000,0.000000,4148.205078,4117.948730,4124.615234,4118.461426,4114.358887,4121.538574,4126.666504,4128.205078,4126.666504,4141.538574,4128.717773,4136.922852,4118.461426,4134.871582,780.000000,4.000000,,,,0.000000,4.000000,4.000000,4.000000,4.000000,4.000000,4.000000,4.000000,4.000000,4.000000,4.000000,4.000000,4.000000,4.000000,4.000000,100.000000
1602005611.667362,77.000000,0.000000,4155.384766,4126.153809,4127.692383,4122.051270,4116.410156,4123.589844,4123.077148,4134.358887,4125.128418,4130.256348,4127.692383,4138.461426,4119.487305,4142.051270,765.000000,4.000000,,,,0.000000,4.000000,4.000000,4.000000,4.000000,4.000000,4.000000,4.000000,4.000000,4.000000,4.000000,4.000000,4.000000,4.000000,4.000000,100.000000
1602005611.675244,78.000000,0.000000,4168.717773,4140.000000,4129.743652,4124.102539,4113.333496,4126.153809,4128.205078,4137.436035,4122.563965,4109.743652,4124.102539,4139.487305,4121.025879,4154.871582,877.000000,4.000000,,,,0.000000,4.000000,4.000000,4.000000,4.000000,4.000000,4.000000,4.000000,4.000000,4.000000,4.000000,4.000000,4.000000,4.000000,4.000000,100.000000
1602005611.683126,79.000000,0.000000,4173.333496,4141.538574,4133.846191,4127.692383,4114.871582,4127.692383,4135.897461,4136.922852,4130.256348,4103.589844,4125.128418,4144.615234,4120.512695,4155.897461,836.000000,4.000000,,,,0.000000,4.000000,4.000000,4.000000,4.000000,4.000000,4.000000,4.000000,4.000000,4.000000,4.000000,4.000000,4.000000,4.000000,4.000000,100.000000
1602005611.691008,80.000000,0.000000,4173.333496,4138.974121,4137.948730,4134.358887,4121.025879,4127.692383,4133.333496,4138.461426,4135.897461,4131.794922,4131.282227,4151.282227,4122.563965,4153.846191,780.000000,4.000000,,,,0.000000,4.000000,4.000000,4.000000,4.000000,4.000000,4.000000,4.000000,4.000000,4.000000,4.000000,4.000000,4.000000,4.000000,4.000000,100.000000
1602005611.698890,81.000000,0.000000,4174.871582,4148.205078,4138.461426,4137.436035,4124.102539,4126.153809,4126.153809,4136.410156,4130.769043,4148.717773,4138.974121,4149.743652,4123.077148,4156.922852,765.000000,4.000000,,,,0.000000,4.000000,4.000000,4.000000,4.000000,4.000000,4.000000,4.000000,4.000000,4.000000,4.000000,4.000000,4.000000,4.000000,4.000000,100.000000
1602005611.706871,82.000000,0.000000,4174.358887,4151.282227,4134.358887,4135.897461,4124.615234,4124.102539,4126.666504,4134.358887,4131.282227,4137.436035,4139.487305,4142.051270,4122.563965,4156.410156,877.000000,4.000000,,,,0.000000,4.000000,4.000000,4.000000,4.000000,4.000000,4.000000,4.000000,4.000000,4.000000,4.000000,4.000000,4.000000,4.000000,4.000000,100.000000
1602005611.714752,83.000000,0.000000,4171.282227,4143.589844,4128.717773,4133.846191,4129.230957,4124.102539,4131.794922,4139.487305,4141.538574,4143.077148,4135.384766,4138.461426,4125.641113,4155.384766,836.000000,4.000000,,,,0.000000,4.000000,4.000000,4.000000,4.000000,4.000000,4.000000,4.000000,4.000000,4.000000,4.000000,4.000000,4.000000,4.000000,4.000000,100.000000
1602005611.722634,84.000000,0.000000,4169.743652,4140.000000,4128.205078,4133.846191,4129.230957,4122.563965,4132.307617,4141.538574,4143.077148,4147.692383,4136.410156,4141.025879,4129.743652,4154.871582,780.000000,4.000000,,,,0.000000,4.000000,4.000000,4.000000,4.000000,4.000000,4.000000,4.000000,4.000000,4.000000,4.000000,4.000000,4.000000,4.000000,4.000000,100.000000
1602005611.730515,85.000000,0.000000,4169.743652,4140.000000,4131.282227,4136.410156,4125.128418,4119.487305,4130.256348,4137.436035,4138.461426,4128.717773,4136.410156,4141.538574,4125.128418,4152.307617,765.000000,4.000000,,,,0.000000,4.000000,4.000000,4.000000,4.000000,4.000000,4.000000,4.000000,4.000000,4.000000,4.000000,4.000000,4.000000,4.000000,4.000000,100.000000
1602005611.738497,86.000000,0.000000,4166.153809,4138.461426,4131.282227,4133.846191,4125.128418,4126.666504,4130.769043,4136.922852,4137.948730,4126.153809,4125.641113,4137.436035,4118.974121,4149.743652,877.000000,4.000000,,,,0.000000,4.000000,4.000000,4.000000,4.000000,4.000000,4.000000,4.000000,4.000000,4.000000,4.000000,4.000000,4.000000,4.000000,4.000000,100.000000
1602005611.746378,87.000000,0.000000,4156.410156,4131.794922,4127.692383,4124.102539,4126.666504,4136.922852,4127.692383,4134.871582,4137.436035,4134.871582,4116.922852,4134.871582,4116.922852,4143.589844,836.000000,4.000000,,,,0.000000,4.000000,4.000000,4.000000,4.000000,4.000000,4.000000,4.000000,4.000000,4.000000,4.000000,4.000000,4.000000,4.000000,4.000000,100.000000
1602005611.754260,88.000000,0.000000,4151.794922,4124.102539,4124.102539,4121.025879,4123.589844,4133.846191,4123.589844,4125.641113,4132.820313,4123.589844,4120.512695,4132.820313,4112.307617,4137.436035,780.000000,4.000000,,,,0.000000,4.000000,4.000000,4.000000,4.000000,4.000000,4.000000,4.000000,4.000000,4.000000,4.000000,4.000000,4.000000,4.000000,4.000000,100.000000
1602005611.762142,89.000000,0.000000,4152.307617,4125.641113,4125.641113,4123.077148,4121.025879,4123.077148,4120.000000,4118.461426,4123.077148,4113.846191,4124.102539,4129.230957,4107.179688,4136.410156,765.000000,4.000000,,,,0.000000,4.000000,4.000000,4.000000,4.000000,4.000000,4.000000,4.000000,4.000000,4.000000,4.000000,4.000000,4.000000,4.000000,4.000000,100.000000
1602005611.770023,90.000000,0.000000,4152.307617,4135.384766,4134.871582,4126.666504,4118.461426,4117.436035,4114.871582,4118.974121,4117.436035,4114.358887,4121.025879,4132.820313,4113.846191,4138.974121,877.000000,4.000000,,,,0.000000,4.000000,4.000000,4.000000,4.000000,4.000000,4.000000,4.000000,4.000000,4.000000,4.000000,4.000000,4.000000,4.000000,4.000000,100.000000
1602005611.777905,91.000000,0.000000,4162.051270,4138.974121,4140.512695,4135.384766,4114.358887,4118.461426,4115.384766,4127.179688,4118.974121,4101.538574,4123.077148,4144.615234,4123.077148,4145.128418,836.000000,4.000000,,,,0.000000,4.000000,4.000000,4.000000,4.000000,4.000000,4.000000,4.000000,4.000000,4.000000,4.000000,4.000000,4.000000,4.000000,4.000000,100.000000
1602005611.785787,92.000000,0.000000,4174.871582,4141.025879,4139.487305,4142.563965,4116.922852,4121.025879,4128.717773,4135.384766,4121.025879,4103.589844,4133.846191,4151.794922,4125.641113,4154.358887,780.000000,4.000000,,,,0.000000,4.000000,4.000000,4.000000,4.000000,4.000000,4.000000,4.000000,4.000000,4.000000,4.000000,4.000000,4.000000,4.000000,4.000000,100.000000
1602005611.793568,93.000000,0.000000,4173.846191,4144.615234,4141.025879,4138.461426,4116.922852,4114.358887,4135.897461,4138.461426,4123.077148,4133.333496,4141.538574,4153.846191,4124.615234,4158.461426,765.000000,4.000000,,,,0.000000,4.000000,4.000000,4.000000,4.000000,4.000000,4.000000,4.000000,4.000000,4.000000,4.000000,4.000000,4.000000,4.000000,4.000000,100.000000
1602005611.801450,94.000000,0.000000,4168.205078,4141.025879,4141.025879,4136.410156,4109.230957,4104.102539,4127.692383,4138.461426,4122.051270,4137.948730,4135.384766,4152.820313,4126.153809,4156.922852,877.000000,4.000000,,,,0.000000,4.000000,4.000000,4.000000,4.000000,4.000000,4.000000,4.000000,4.000000,4.000000,4.000000,4.000000,4.000000,4.000000,4.000000,100.000000
1602005611.809332,95.000000,0.000000,4168.205078,4138.461426,4134.358887,4136.922852,4109.743652,4112.307617,4124.102539,4136.410156,4122.563965,4126.153809,4126.666504,4143.589844,4125.128418,4152.307617,836.000000,4.000000,,,,0.000000,4.000000,4.000000,4.000000,4.000000,4.000000,4.000000,4.000000,4.000000,4.000000,4.000000,4.000000,4.000000,4.000000,4.000000,100.000000
1602005611.817213,96.000000,0.000000,4157.948730,4134.358887,4121.538574,4126.666504,4112.307617,4125.641113,4129.743652,4129.743652,4124.102539,4123.589844,4121.025879,4126.666504,4112.820313,4137.436035,780.000000,4.000000,,,,0.000000,4.000000,4.000000,4.000000,4.000000,4.000000,4.000000,4.000000,4.000000,4.000000,4.000000,4.000000,4.000000,4.000000,4.000000,100.000000
1602005611.825095,97.000000,0.000000,4141.538574,4123.589844,4111.794922,4115.897461,4113.333496,4127.179688,4135.384766,4125.641113,4122.051270,4109.230957,4113.333496,4116.410156,4103.589844,4119.487305,765.000000,4.000000,,,,0.000000,4.000000,4.000000,4.000000,4.000000,4.000000,4.000000,4.000000,4.000000,4.000000,4.000000,4.000000,4.000000,4.000000,4.000000,100.000000
1602005611.832977,98.000000,0.000000,4143.589844,4120.512695,4114.358887,4118.461426,4120.000000,4130.256348,4136.922852,4126.153809,4126.666504,4096.922852,4110.769043,4120.512695,4106.666504,4117.948730,877.000000,4.000000,,,,0.000000,4.000000,4.000000,4.000000,4.000000,4.000000,4.000000,4.000000,4.000000,4.000000,4.000000,4.000000,4.000000,4.000000,4.000000,100.000000
1602005611.840959,99.000000,0.000000,4154.358887,4129.230957,4122.563965,4124.102539,4118.974121,4129.743652,4132.307617,4122.563965,4135.384766,4117.948730,4113.846191,4123.077148,4108.205078,4129.230957,836.000000,4.000000,,,,0.000000,4.000000,4.000000,4.000000,4.000000,4.000000,4.000000,4.000000,4.000000,4.000000,4.000000,4.000000,4.000000,4.000000,4.000000,100.000000
1602005611.848841,100.000000,0.000000,4158.461426,4135.897461,4125.128418,4121.025879,4109.743652,4118.461426,4123.589844,4118.974121,4131.794922,4137.948730,4109.743652,4123.589844,4110.769043,4137.948730,780.000000,4.000000,,,,0.000000,4.000000,4.000000,4.000000,4.000000,4.000000,4.000000,4.000000,4.000000,4.000000,4.000000,4.000000,4.000000,4.000000,4.000000,100.000000
1602005611.856723,101.000000,0.000000,4156.922852,4138.461426,4123.589844,4123.077148,4109.743652,4115.384766,4121.025879,4120.512695,4124.102539,4136.922852,4109.743652,4130.256348,4119.487305,4142.051270,765.000000,4.000000,,,,0.000000,4.000000,4.000000,4.000000,4.000000,4.000000,4.000000,4.000000,4.000000,4.000000,4.000000,4.000000,4.000000,4.000000,4.000000,100.000000
1602005611.864605,102.000000,0.000000,4159.487305,4140.512695,4132.820313,4134.358887,4115.897461,4124.102539,4127.692383,4121.538574,4124.615234,4134.871582,4120.512695,4137.436035,4124.615234,4142.051270,877.000000,4.000000,,,,0.000000,4.000000,4.000000,4.000000,4.000000,4.000000,4.000000,4.000000,4.000000,4.000000,4.000000,4.000000,4.000000,4.000000,4.000000,100.000000
1602005611.872487,103.000000,0.000000,4162.563965,4140.512695,4138.974121,4139.487305,4119.487305,4122.563965,4133.333496,4123.589844,4123.589844,4118.461426,4124.615234,4140.000000,4124.102539,4138.461426,836.000000,4.000000,,,,0.000000,4.000000,4.000000,4.000000,4.000000,4.000000,4.000000,4.000000,4.000000,4.000000,4.000000,4.000000,4.000000,4.000000,4.000000,100.000000
1602005611.880369,104.000000,0.000000,4157.436035,4138.461426,4127.692383,4136.922852,4116.922852,4113.333496,4132.820313,4126.153809,4121.025879,4106.153809,4121.538574,4137.436035,4118.974121,4135.384766,780.000000,4.000000,,,,0.000000,4.000000,4.000000,4.000000,4.000000,4.000000,4.000000,4.000000,4.000000,4.000000,4.000000,4.000000,4.000000,4.000000,4.000000,100.000000
1602005611.888251,105.000000,0.000000,4147.179688,4136.922852,4119.487305,4136.922852,4111.794922,4113.846191,4126.666504,4125.128418,4122.563965,4131.282227,4119.487305,4130.769043,4113.846191,4136.410156,765.000000,4.000000,,,,0.000000,4.000000,4.000000,4.000000,4.000000,4.000000,4.000000,4.000000,4.000000,4.000000,4.000000,4.000000,4.000000,4.000000,4.000000,100.000000
1602005611.896133,106.000000,0.000000,4138.461426,4136.922852,4123.589844,4138.461426,4115.384766,4120.512695,4122.051270,4123.077148,4121.025879,4144.615234,4117.436035,4126.666504,4117.948730,4138.974121,877.000000,4.000000,,,,0.000000,4.000000,4.000000,4.000000,4.000000,4.000000,4.000000,4.000000,4.000000,4.000000,4.000000,4.000000,4.000000,4.000000,4.000000,100.000000
1602005611.904016,107.000000,0.000000,4137.436035,4132.820313,4120.000000,4131.794922,4124.102539,4119.487305,4128.205078,4124.615234,4122.051270,4126.666504,4118.461426,4124.102539,4120.512695,4133.333496,836.000000,4.000000,,,,0.000000,4.000000,4.000000,4.000000,4.000000,4.000000,4.000000,4.000000,4.000000,4.000000,4.000000,4.000000,4.000000,4.000000,4.000000,100.000000
1602005611.911997,108.000000,0.000000,4138.461426,4125.641113,4110.769043,4122.563965,4122.563965,4120.512695,4137.948730,4131.282227,4132.307617,4126.666504,4120.512695,4122.563965,4111.794922,4123.589844,780.000000,4.000000,,,,0.000000,4.000000,4.000000,4.000000,4.000000,4.000000,4.000000,4.000000,4.000000,4.000000,4.000000,4.000000,4.000000,4.000000,4.000000,100.000000
1602005611.919878,109.000000,0.000000,4134.358887,4121.538574,4107.179688,4121.025879,4114.358887,4132.307617,4141.538574,4136.410156,4134.358887,4130.769043,4114.871582,4125.128418,4105.641113,4118.974121,765.000000,4.000000,,,,0.000000,4.000000,4.000000,4.000000,4.000000,4.000000,4.000000,4.000000,4.000000,4.000000,4.000000,4.000000,4.000000,4.000000,4.000000,100.000000
1602005611.927760,110.000000,0.000000,4129.743652,4122.051270,4104.615234,4122.563965,4112.307617,4140.000000,4141.025879,4136.922852,4128.205078,4107.692383,4106.153809,4126.153809,4105.128418,4121.025879,877.000000,4.000000,,,,0.000000,4.000000,4.000000,4.000000,4.000000,4.000000,4.000000,4.000000,4.000000,4.000000,4.000000,4.000000,4.000000,4.000000,4.000000,100.000000
1602005611.935641,111.000000,0.000000,4134.871582,4124.102539,4111.282227,4124.615234,4118.461426,4137.948730,4144.615234,4138.461426,4133.333496,4104.102539,4111.794922,4129.743652,4106.153809,4130.769043,836.000000,4.000000,,,,0.000000,4.000000,4.000000,4.000000,4.000000,4.000000,4.000000,4.000000,4.000000,4.000000,4.000000,4.000000,4.000000,4.000000,4.000000,100.000000
1602005611.943523,112.000000,0.000000,4138.461426,4125.128418,4120.000000,4126.666504,4121.538574,4133.333496,4143.077148,4137.436035,4133.846191,4130.769043,4121.025879,4134.358887,4110.769043,4136.410156,780.000000,4.000000,,,,0.000000,4.000000,4.000000,4.000000,4.000000,4.000000,4.000000,4.000000,4.000000,4.000000,4.000000,4.000000,4.000000,4.000000,4.000000,100.000000
1602005611.951304,113.000000,0.000000,4131.282227,4123.077148,4116.410156,4124.102539,4113.846191,4126.666504,4128.205078,4120.512695,4113.846191,4131.282227,4113.333496,4127.179688,4108.717773,4126.666504,765.000000,4.000000,,,,0.000000,4.000000,4.000000,4.000000,4.000000,4.000000,4.000000,4.000000,4.000000,4.000000,4.000000,4.000000,4.000000,4.000000,4.000000,100.000000
1602005611.959186,114.000000,0.000000,4131.282227,4119.487305,4113.333496,4120.512695,4106.153809,4117.948730,4115.384766,4102.051270,4100.512695,4114.358887,4100.512695,4117.436035,4100.000000,4116.922852,877.000000,4.000000,,,,0.000000,4.000000,4.000000,4.000000,4.000000,4.000000,4.000000,4.000000,4.000000,4.000000,4.000000,4.000000,4.000000,4.000000,4.000000,100.000000
1602005611.967068,115.000000,0.000000,4143.589844,4124.102539,4124.102539,4128.205078,4111.282227,4114.871582,4115.897461,4106.666504,4110.256348,4115.384766,4106.153809,4125.641113,4102.051270,4129.230957,836.000000,4.000000,,,,0.000000,4.000000,4.000000,4.000000,4.000000,4.000000,4.000000,4.000000,4.000000,4.000000,4.000000,4.000000,4.000000,4.000000,4.000000,100.000000
1602005611.974949,116.000000,0.000000,4150.769043,4134.871582,4136.410156,4139.487305,4120.000000,4120.000000,4121.538574,4120.512695,4120.000000,4110.256348,4122.051270,4139.487305,4111.282227,4140.512695,780.000000,4.000000,,,,0.000000,4.000000,4.000000,4.000000,4.000000,4.000000,4.000000,4.000000,4.000000,4.000000,4.000000,4.000000,4.000000,4.000000,4.000000,100.000000
1602005611.982831,117.000000,0.000000,4151.282227,4138.461426,4141.538574,4138.974121,4120.512695,4121.025879,4122.051270,4129.230957,4126.153809,4100.000000,4127.179688,4139.487305,4113.846191,4130.769043,765.000000,4.000000,,,,0.000000,4.000000,4.000000,4.000000,4.000000,4.000000,4.000000,4.000000,4.000000,4.000000,4.000000,4.000000,4.000000,4.000000,4.000000,100.000000
1602005611.990712,118.000000,0.000000,4153.846191,4134.871582,4136.410156,4129.230957,4116.410156,4118.974121,4125.128418,4135.897461,4135.897461,4122.563965,4125.128418,4137.436035,4112.820313,4125.641113,877.000000,4.000000,,,,0.000000,4.000000,4.000000,4.000000,4.000000,4.000000,4.000000,4.000000,4.000000,4.000000,4.000000,4.000000,4.000000,4.000000,4.000000,100.000000
1602005611.998594,119.000000,0.000000,4149.743652,4134.358887,4128.205078,4123.077148,4120.512695,4127.179688,4134.871582,4140.000000,4143.077148,4150.769043,4125.641113,4139.487305,4114.358887,4137.436035,836.000000,4.000000,,,,0.000000,4.000000,4.000000,4.000000,4.000000,4.000000,4.000000,4.000000,4.000000,4.000000,4.000000,4.000000,4.000000,4.000000,4.000000,100.000000
1602005612.006376,120.000000,0.000000,4142.051270,4130.256348,4121.538574,4124.615234,4126.666504,4139.487305,4138.974121,4140.000000,4145.641113,4145.128418,4124.615234,4137.436035,4111.794922,4138.974121,780.000000,4.000000,,,,0.000000,4.000000,4.000000,4.000000,4.000000,4.000000,4.000000,4.000000,4.000000,4.000000,4.000000,4.000000,4.000000,4.000000,4.000000,100.000000
1602005612.014257,121.000000,0.000000,4137.436035,4119.487305,4112.307617,4121.025879,4125.128418,4140.000000,4137.436035,4134.358887,4146.666504,4140.000000,4115.897461,4127.179688,4106.666504,4123.589844,765.000000,4.000000,,,,0.000000,4.000000,4.000000,4.000000,4.000000,4.000000,4.000000,4.000000,4.000000,4.000000,4.000000,4.000000,4.000000,4.000000,4.000000,100.000000
1602005612.022139,122.000000,0.000000,4126.666504,4114.358887,4104.102539,4111.282227,4121.025879,4131.282227,4135.384766,4126.666504,4140.512695,4136.922852,4109.743652,4119.487305,4105.641113,4116.410156,877.000000,4.000000,,,,0.000000,4.000000,4.000000,4.000000,4.000000,4.000000,4.000000,4.000000,4.000000,4.000000,4.000000,4.000000,4.000000,4.000000,4.000000,100.000000
1602005612.030021,123.000000,0.000000,4122.051270,4121.025879,4104.102539,4112.820313,4121.538574,4126.666504,4131.282227,4121.538574,4124.615234,4104.102539,4112.820313,4121.025879,4107.179688,4120.512695,836.000000,4.000000,,,,0.000000,4.000000,4.000000,4.000000,4.000000,4.000000,4.000000,4.000000,4.000000,4.000000,4.000000,4.000000,4.000000,4.000000,4.000000,100.000000
1602005612.037902,124.000000,0.000000,4133.333496,4124.102539,4108.205078,4122.563965,4122.051270,4124.615234,4125.641113,4115.897461,4111.794922,4088.205078,4110.256348,4122.563965,4108.205078,4123.077148,780.000000,4.000000,,,,0.000000,4.000000,4.000000,4.000000,4.000000,4.000000,4.000000,4.000000,4.000000,4.000000,4.000000,4.000000,4.000000,4.000000,4.000000,100.000000
1602005612.045784,125.000000,0.000000,4140.000000,4114.358887,4111.794922,4121.025879,4114.871582,4122.563965,4121.538574,4108.717773,4103.589844,4113.333496,4101.025879,4121.025879,4103.589844,4116.410156,765.000000,4.000000,,,,0.000000,4.000000,4.000000,4.000000,4.000000,4.000000,4.000000,4.000000,4.000000,4.000000,4.000000,4.000000,4.000000,4.000000,4.000000,100.000000
1602005612.053666,126.000000,0.000000,4133.333496,4108.205078,4118.461426,4114.871582,4110.256348,4120.000000,4118.974121,4111.794922,4103.589844,4127.692383,4108.205078,4128.205078,4103.077148,4115.897461,877.000000,4.000000,,,,0.000000,4.000000,4.000000,4.000000,4.000000,4.000000,4.000000,4.000000,4.000000,4.000000,4.000000,4.000000,4.000000,4.000000,4.000000,100.000000
1602005612.061447,127.000000,0.000000,4137.436035,4116.922852,4131.794922,4120.000000,4111.282227,4114.871582,4120.512695,4120.000000,4115.897461,4124.102539,4126.153809,4140.512695,4115.384766,4130.256348,836.000000,4.000000,,,,0.000000,4.000000,4.000000,4.000000,4.000000,4.000000,4.000000,4.000000,4.000000,4.000000,4.000000,4.000000,4.000000,4.000000,4.000000,100.000000
1602005612.069329,128.000000,0.000000,4152.820313,4126.666504,4140.512695,4129.743652,4110.256348,4115.384766,4124.102539,4123.077148,4127.692383,4125.641113,4127.179688,4143.589844,4127.179688,4139.487305,780.000000,4.000000,,,,0.000000,4.000000,4.000000,4.000000,4.000000,4.000000,4.000000,4.000000,4.000000,4.000000,4.000000,4.000000,4.000000,4.000000,4.000000,100.000000
1602005612.077211,0.000000,0.000000,4152.820313,4124.615234,4139.487305,4130.256348,4108.717773,4121.025879,4125.128418,4120.512695,4122.051270,4117.436035,4113.846191,4137.436035,4122.563965,4138.461426,805.000000,4.000000,,,,0.000000,4.000000,4.000000,4.000000,4.000000,4.000000,4.000000,4.000000,4.000000,4.000000,4.000000,4.000000,4.000000,4.000000,4.000000,100.000000
1602005612.085092,1.000000,0.000000,4139.487305,4120.512695,4135.384766,4124.615234,4109.743652,4116.922852,4123.589844,4110.256348,4107.179688,4107.179688,4109.743652,4134.871582,4110.769043,4131.282227,797.000000,4.000000,,,,0.000000,4.000000,4.000000,4.000000,4.000000,4.000000,4.000000,4.000000,4.000000,4.000000,4.000000,4.000000,4.000000,4.000000,4.000000,100.000000
1602005612.092974,2.000000,0.000000,4135.384766,4122.051270,4136.922852,4122.563965,4110.256348,4111.282227,4123.077148,4106.153809,4105.641113,4118.461426,4112.307617,4138.461426,4107.692383,4125.641113,851.000000,4.000000,,,,0.000000,4.000000,4.000000,4.000000,4.000000,4.000000,4.000000,4.000000,4.000000,4.000000,4.000000,4.000000,4.000000,4.000000,4.000000,100.000000
1602005612.100856,3.000000,0.000000,4135.897461,4122.563965,4133.846191,4123.589844,4110.769043,4117.948730,4129.230957,4117.436035,4120.512695,4125.641113,4113.333496,4138.974121,4110.256348,4125.641113,870.000000,4.000000,,,,0.000000,4.000000,4.000000,4.000000,4.000000,4.000000,4.000000,4.000000,4.000000,4.000000,4.000000,4.000000,4.000000,4.000000,4.000000,100.000000
1602005612.108637,4.000000,0.000000,4131.282227,4121.538574,4126.666504,4121.538574,4116.410156,4129.230957,4137.436035,4127.692383,4130.769043,4122.563965,4116.410156,4137.436035,4112.820313,4125.128418,814.000000,4.000000,,,,0.000000,4.000000,4.000000,4.000000,4.000000,4.000000,4.000000,4.000000,4.000000,4.000000,4.000000,4.000000,4.000000,4.000000,4.000000,100.000000
1602005612.116519,5.000000,0.000000,4133.333496,4126.153809,4127.179688,4120.512695,4130.769043,4135.384766,4139.487305,4132.820313,4134.871582,4134.871582,4118.974121,4135.897461,4116.922852,4128.205078,817.000000,4.000000,,,,0.000000,4.000000,4.000000,4.000000,4.000000,4.000000,4.000000,4.000000,4.000000,4.000000,4.000000,4.000000,4.000000,4.000000,4.000000,100.000000
1602005612.124401,6.000000,0.000000,4141.025879,4132.307617,4128.205078,4122.563965,4141.538574,4142.563965,4141.025879,4142.051270,4148.205078,4143.589844,4123.589844,4132.307617,4122.563965,4135.897461,770.000000,4.000000,,,,0.000000,4.000000,4.000000,4.000000,4.000000,4.000000,4.000000,4.000000,4.000000,4.000000,4.000000,4.000000,4.000000,4.000000,4.000000,100.000000
1602005612.132282,7.000000,0.000000,4138.461426,4128.717773,4124.102539,4122.051270,4138.974121,4144.615234,4135.384766,4144.615234,4152.307617,4126.153809,4126.153809,4125.128418,4125.128418,4131.794922,685.000000,4.000000,,,,0.000000,4.000000,4.000000,4.000000,4.000000,4.000000,4.000000,4.000000,4.000000,4.000000,4.000000,4.000000,4.000000,4.000000,4.000000,100.000000
1602005612.140164,8.000000,0.000000,4134.358887,4128.205078,4121.538574,4122.051270,4134.871582,4131.282227,4123.589844,4135.384766,4142.051270,4120.000000,4125.128418,4124.102539,4122.563965,4120.512695,793.000000,4.000000,,,,0.000000,4.000000,4.000000,4.000000,4.000000,4.000000,4.000000,4.000000,4.000000,4.000000,4.000000,4.000000,4.000000,4.000000,4.000000,100.000000
1602005612.148046,9.000000,0.000000,4136.410156,4137.948730,4123.077148,4123.589844,4135.384766,4121.025879,4121.538574,4127.692383,4136.922852,4137.948730,4123.589844,4130.769043,4123.077148,4128.717773,840.000000,4.000000,,,,0.000000,4.000000,4.000000,4.000000,4.000000,4.000000,4.000000,4.000000,4.000000,4.000000,4.000000,4.000000,4.000000,4.000000,4.000000,100.000000
1602005612.156027,10.000000,0.000000,4140.000000,4138.974121,4120.000000,4125.128418,4128.205078,4121.025879,4126.153809,4125.128418,4130.256348,4138.461426,4122.051270,4134.358887,4126.666504,4137.948730,877.000000,4.000000,,,,0.000000,4.000000,4.000000,4.000000,4.000000,4.000000,4.000000,4.000000,4.000000,4.000000,4.000000,4.000000,4.000000,4.000000,4.000000,100.000000
1602005612.163909,11.000000,0.000000,4148.205078,4137.948730,4119.487305,4132.307617,4122.563965,4122.051270,4124.615234,4123.589844,4120.512695,4128.205078,4121.025879,4134.358887,4128.717773,4129.230957,836.000000,4.000000,,,,0.000000,4.000000,4.000000,4.000000,4.000000,4.000000,4.000000,4.000000,4.000000,4.000000,4.000000,4.000000,4.000000,4.000000,4.000000,100.000000
1602005612.171791,12.000000,0.000000,4154.871582,4146.153809,4133.333496,4141.025879,4127.179688,4120.512695,4125.128418,4123.589844,4120.512695,4137.436035,4123.077148,4133.846191,4130.256348,4127.692383,780.000000,4.000000,,,,0.000000,4.000000,4.000000,4.000000,4.000000,4.000000,4.000000,4.000000,4.000000,4.000000,4.000000,4.000000,4.000000,4.000000,4.000000,100.000000
1602005612.179673,13.000000,0.000000,4152.307617,4148.205078,4138.461426,4138.974121,4127.179688,4120.000000,4129.743652,4123.077148,4126.153809,4138.461426,4124.102539,4135.384766,4129.743652,4137.948730,765.000000,4.000000,,,,0.000000,4.000000,4.000000,4.000000,4.000000,4.000000,4.000000,4.000000,4.000000,4.000000,4.000000,4.000000,4.000000,4.000000,4.000000,100.000000
1602005612.187555,14.000000,0.000000,4149.230957,4140.000000,4128.717773,4134.871582,4122.563965,4121.025879,4127.692383,4123.077148,4121.025879,4119.487305,4122.051270,4134.358887,4128.205078,4141.025879,877.000000,4.000000,,,,0.000000,4.000000,4.000000,4.000000,4.000000,4.000000,4.000000,4.000000,4.000000,4.000000,4.000000,4.000000,4.000000,4.000000,4.000000,100.000000
1602005612.195437,15.000000,0.000000,4151.282227,4134.871582,4125.128418,4134.871582,4121.538574,4121.025879,4126.153809,4128.205078,4120.512695,4120.512695,4126.666504,4133.846191,4128.717773,4135.384766,836.000000,4.000000,,,,0.000000,4.000000,4.000000,4.000000,4.000000,4.000000,4.000000,4.000000,4.000000,4.000000,4.000000,4.000000,4.000000,4.000000,4.000000,100.000000
1602005612.203319,16.000000,0.000000,4154.871582,4138.974121,4134.871582,4134.871582,4125.128418,4122.051270,4133.846191,4137.436035,4134.358887,4143.589844,4136.922852,4143.589844,4136.410156,4137.948730,0.000000,4.000000,,,,0.000000,4.000000,4.000000,4.000000,4.000000,4.000000,4.000000,4.000000,4.000000,4.000000,4.000000,4.000000,4.000000,4.000000,4.000000,100.000000
1602005612.211201,17.000000,0.000000,4158.461426,4146.153809,4149.230957,4137.436035,4126.666504,4124.615234,4139.487305,4144.615234,4141.538574,4148.205078,4143.589844,4154.871582,4144.102539,4146.666504,0.000000,4.000000,,,,0.000000,4.000000,4.000000,4.000000,4.000000,4.000000,4.000000,4.000000,4.000000,4.000000,4.000000,4.000000,4.000000,4.000000,4.000000,100.000000
1602005612.219082,18.000000,0.000000,4158.974121,4145.128418,4154.358887,4139.487305,4123.077148,4125.641113,4131.794922,4140.000000,4127.179688,4130.769043,4138.974121,4148.205078,4138.974121,4141.538574,0.000000,4.000000,,,,0.000000,4.000000,4.000000,4.000000,4.000000,4.000000,4.000000,4.000000,4.000000,4.000000,4.000000,4.000000,4.000000,4.000000,4.000000,100.000000
1602005612.227064,19.000000,0.000000,4155.384766,4141.025879,4147.692383,4138.461426,4122.051270,4124.102539,4122.563965,4126.153809,4107.692383,4125.641113,4120.512695,4133.333496,4124.615234,4129.743652,0.000000,4.000000,,,,0.000000,4.000000,4.000000,4.000000,4.000000,4.000000,4.000000,4.000000,4.000000,4.000000,4.000000,4.000000,4.000000,4.000000,4.000000,100.000000
1602005612.234946,20.000000,0.000000,4149.230957,4140.000000,4138.974121,4136.922852,4126.153809,4123.077148,4123.589844,4120.000000,4101.538574,4124.615234,4106.666504,4126.153809,4114.871582,4126.666504,0.000000,4.000000,,,,0.000000,4.000000,4.000000,4.000000,4.000000,4.000000,4.000000,4.000000,4.000000,4.000000,4.000000,4.000000,4.000000,4.000000,4.000000,100.000000
1602005612.242827,21.000000,0.000000,4141.538574,4133.846191,4130.256348,4131.282227,4128.717773,4125.641113,4125.128418,4122.051270,4103.077148,4113.333496,4110.769043,4123.589844,4109.230957,4119.487305,0.000000,4.000000,,,,0.000000,4.000000,4.000000,4.000000,4.000000,4.000000,4.000000,4.000000,4.000000,4.000000,4.000000,4.000000,4.000000,4.000000,4.000000,100.000000
1602005612.250709,22.000000,0.000000,4131.794922,4124.102539,4123.077148,4122.563965,4126.153809,4125.128418,4123.077148,4125.641113,4113.333496,4115.897461,4118.461426,4125.641113,4105.128418,4104.102539,0.000000,4.000000,,,,0.000000,4.000000,4.000000,4.000000,4.000000,4.000000,4.000000,4.000000,4.000000,4.000000,4.000000,4.000000,4.000000,4.000000,4.000000,100.000000
1602005612.258591,23.000000,0.000000,4129.230957,4122.051270,4128.205078,4119.487305,4122.563965,4115.897461,4121.538574,4132.820313,4129.743652,4124.102539,4120.000000,4134.358887,4109.230957,4110.256348,0.000000,4.000000,,,,0.000000,4.000000,4.000000,4.000000,4.000000,4.000000,4.000000,4.000000,4.000000,4.000000,4.000000,4.000000,4.000000,4.000000,4.000000,100.000000
1602005612.266472,24.000000,0.000000,4137.436035,4124.615234,4140.000000,4124.615234,4121.538574,4108.717773,4123.589844,4140.512695,4140.000000,4121.538574,4123.077148,4142.051270,4120.000000,4133.333496,0.000000,4.000000,,,,0.000000,4.000000,4.000000,4.000000,4.000000,4.000000,4.000000,4.000000,4.000000,4.000000,4.000000,4.000000,4.000000,4.000000,4.000000,100.000000
1602005612.274354,25.000000,0.000000,4139.487305,4125.128418,4141.025879,4127.692383,4126.666504,4110.256348,4123.077148,4141.538574,4141.025879,4128.205078,4124.102539,4141.538574,4123.589844,4134.871582,0.000000,4.000000,,,,0.000000,4.000000,4.000000,4.000000,4.000000,4.000000,4.000000,4.000000,4.000000,4.000000,4.000000,4.000000,4.000000,4.000000,4.000000,100.000000
1602005612.282136,26.000000,0.000000,4127.179688,4121.538574,4132.307617,4125.128418,4133.333496,4113.846191,4119.487305,4134.871582,4135.384766,4145.128418,4119.487305,4138.461426,4120.512695,4122.051270,0.000000,4.000000,,,,0.000000,4.000000,4.000000,4.000000,4.000000,4.000000,4.000000,4.000000,4.000000,4.000000,4.000000,4.000000,4.000000,4.000000,4.000000,100.000000
1602005612.290018,27.000000,0.000000,4118.974121,4112.820313,4123.589844,4119.487305,4128.717773,4115.384766,4118.461426,4125.128418,4123.589844,4140.000000,4119.487305,4136.410156,4119.487305,4120.000000,0.000000,4.000000,,,,0.000000,4.000000,4.000000,4.000000,4.000000,4.000000,4.000000,4.000000,4.000000,4.000000,4.000000,4.000000,4.000000,4.000000,4.000000,100.000000
1602005612.297900,28.000000,0.000000,4126.153809,4113.333496,4121.538574,4117.948730,4128.205078,4121.538574,4121.538574,4120.000000,4113.333496,4124.615234,4125.641113,4138.974121,4123.077148,4126.153809,0.000000,4.000000,,,,0.000000,4.000000,4.000000,4.000000,4.000000,4.000000,4.000000,4.000000,4.000000,4.000000,4.000000,4.000000,4.000000,4.000000,4.000000,100.000000
1602005612.305781,29.000000,0.000000,4128.717773,4122.563965,4126.666504,4122.051270,4137.948730,4129.743652,4130.769043,4122.051270,4108.717773,4122.563965,4125.641113,4144.102539,4126.153809,4129.743652,0.000000,4.000000,,,,0.000000,4.000000,4.000000,4.000000,4.000000,4.000000,4.000000,4.000000,4.000000,4.000000,4.000000,4.000000,4.000000,4.000000,4.000000,100.000000
1602005612.313663,30.000000,0.000000,4121.025879,4124.102539,4125.641113,4121.538574,4135.384766,4126.153809,4137.948730,4120.512695,4098.974121,4121.538574,4120.512695,4146.666504,4121.538574,4125.128418,0.000000,4.000000,,,,0.000000,4.000000,4.000000,4.000000,4.000000,4.000000,4.000000,4.000000,4.000000,4.000000,4.000000,4.000000,4.000000,4.000000,4.000000,100.000000
1602005612.321545,31.000000,0.000000,4118.974121,4120.512695,4121.538574,4120.000000,4126.666504,4123.589844,4137.948730,4118.974121,4089.743652,4117.436035,4122.051270,4145.641113,4116.922852,4118.461426,0.000000,4.000000,,,,0.000000,4.000000,4.000000,4.000000,4.000000,4.000000,4.000000,4.000000,4.000000,4.000000,4.000000,4.000000,4.000000,4.000000,4.000000,100.000000
1602005612.329427,32.000000,0.000000,4123.077148,4123.589844,4122.051270,4123.077148,4133.846191,4134.358887,4137.948730,4124.102539,4101.025879,4126.153809,4126.153809,4142.563965,4121.538574,4123.077148,0.000000,4.000000,,,,0.000000,4.000000,4.000000,4.000000,4.000000,4.000000,4.000000,4.000000,4.000000,4.000000,4.000000,4.000000,4.000000,4.000000,4.000000,100.000000
1602005612.337309,33.000000,0.000000,4124.615234,4130.256348,4124.102539,4126.666504,4144.102539,4139.487305,4135.897461,4126.153809,4128.205078,4140.000000,4124.102539,4141.538574,4125.128418,4128.717773,0.000000,4.000000,,,,0.000000,4.000000,4.000000,4.000000,4.000000,4.000000,4.000000,4.000000,4.000000,4.000000,4.000000,4.000000,4.000000,4.000000,4.000000,100.000000
1602005612.345091,34.000000,0.000000,4119.487305,4127.692383,4121.538574,4126.153809,4140.512695,4125.128418,4117.948730,4123.589844,4140.512695,4131.282227,4120.512695,4138.461426,4113.846191,4114.871582,0.000000,4.000000,,,,0.000000,4.000000,4.000000,4.000000,4.000000,4.000000,4.000000,4.000000,4.000000,4.000000,4.000000,4.000000,4.000000,4.000000,4.000000,100.000000
1602005612.352972,35.000000,0.000000,4110.256348,4121.538574,4113.846191,4121.538574,4138.461426,4115.384766,4097.436035,4122.563965,4137.948730,4116.922852,4118.461426,4128.205078,4107.179688,4104.615234,0.000000,4.000000,,,,0.000000,4.000000,4.000000,4.000000,4.000000,4.000000,4.000000,4.000000,4.000000,4.000000,4.000000,4.000000,4.000000,4.000000,4.000000,100.000000
1602005612.360854,36.000000,0.000000,4108.205078,4126.153809,4112.820313,4121.538574,4143.589844,4114.358887,4098.461426,4130.769043,4148.717773,4130.256348,4116.922852,4128.717773,4118.974121,4117.436035,0.000000,4.000000,,,,0.000000,4.000000,4.000000,4.000000,4.000000,4.000000,4.000000,4.000000,4.000000,4.000000,4.000000,4.000000,4.000000,4.000000,4.000000,100.000000
1602005612.368736,37.000000,0.000000,4118.974121,4136.922852,4121.025879,4129.230957,4144.102539,4105.128418,4104.615234,4138.974121,4158.461426,4144.615234,4118.974121,4136.922852,4128.205078,4124.615234,0.000000,4.000000,,,,0.000000,4.000000,4.000000,4.000000,4.000000,4.000000,4.000000,4.000000,4.000000,4.000000,4.000000,4.000000,4.000000,4.000000,4.000000,100.000000
1602005612.376617,38.000000,0.000000,4126.666504,4138.974121,4130.256348,4134.358887,4140.512695,4106.666504,4106.153809,4133.846191,4144.615234,4139.487305,4126.666504,4139.487305,4125.128418,4120.000000,0.000000,4.000000,,,,0.000000,4.000000,4.000000,4.000000,4.000000,4.000000,4.000000,4.000000,4.000000,4.000000,4.000000,4.000000,4.000000,4.000000,4.000000,100.000000
