Timestamp,EEG.Counter,EEG.Interpolated,EEG.AF3,EEG.F7,EEG.F3,EEG.FC5,EEG.T7,EEG.P7,EEG.O1,EEG.O2,EEG.P8,EEG.T8,EEG.FC6,EEG.F4,EEG.F8,EEG.AF4,EEG.RawCq,EEG.Battery,MarkerIndex,MarkerType,MarkerValueInt,EEG.MarkerHardware,CQ.AF3,CQ.F7,CQ.F3,CQ.FC5,CQ.T7,CQ.P7,CQ.O1,CQ.O2,CQ.P8,CQ.T8,CQ.FC6,CQ.F4,CQ.F8,CQ.AF4,CQ.Overall
1602005675.799506,88.000000,0.000000,4173.846191,4168.205078,4151.282227,4145.128418,4140.512695,4138.461426,4129.743652,4123.589844,4126.666504,4123.077148,4140.512695,4164.615234,4139.487305,4155.384766,786.000000,4.000000,,,,0.000000,4.000000,4.000000,4.000000,4.000000,4.000000,4.000000,4.000000,4.000000,4.000000,4.000000,4.000000,4.000000,4.000000,4.000000,100.000000
1602005675.807488,89.000000,0.000000,4158.974121,4155.384766,4137.436035,4136.410156,4134.871582,4132.307617,4122.563965,4117.436035,4121.538574,4118.974121,4117.948730,4143.589844,4113.846191,4138.461426,771.000000,4.000000,,,,0.000000,4.000000,4.000000,4.000000,4.000000,4.000000,4.000000,4.000000,4.000000,4.000000,4.000000,4.000000,4.000000,4.000000,4.000000,100.000000
1602005675.815370,90.000000,0.000000,4150.769043,4149.743652,4131.282227,4138.974121,4133.846191,4121.025879,4126.666504,4118.974121,4125.128418,4133.846191,4103.077148,4136.410156,4108.717773,4134.358887,873.000000,4.000000,,,,0.000000,4.000000,4.000000,4.000000,4.000000,4.000000,4.000000,4.000000,4.000000,4.000000,4.000000,4.000000,4.000000,4.000000,4.000000,100.000000
1602005675.823252,91.000000,0.000000,4145.641113,4154.358887,4127.692383,4141.025879,4138.461426,4121.025879,4136.922852,4131.282227,4136.922852,4141.025879,4117.436035,4133.333496,4118.974121,4127.179688,839.000000,4.000000,,,,0.000000,4.000000,4.000000,4.000000,4.000000,4.000000,4.000000,4.000000,4.000000,4.000000,4.000000,4.000000,4.000000,4.000000,4.000000,100.000000
1602005675.831134,92.000000,0.000000,4136.410156,4151.794922,4122.051270,4136.410156,4140.000000,4123.589844,4136.922852,4137.948730,4135.384766,4124.615234,4129.743652,4123.589844,4120.512695,4116.922852,786.000000,4.000000,,,,0.000000,4.000000,4.000000,4.000000,4.000000,4.000000,4.000000,4.000000,4.000000,4.000000,4.000000,4.000000,4.000000,4.000000,4.000000,100.000000
1602005675.839016,93.000000,0.000000,4135.897461,4152.820313,4122.563965,4137.948730,4138.461426,4124.615234,4129.230957,4133.333496,4126.153809,4117.948730,4125.641113,4129.743652,4121.025879,4118.974121,771.000000,4.000000,,,,0.000000,4.000000,4.000000,4.000000,4.000000,4.000000,4.000000,4.000000,4.000000,4.000000,4.000000,4.000000,4.000000,4.000000,4.000000,100.000000
1602005675.846898,94.000000,0.000000,4134.358887,4154.358887,4121.025879,4136.410156,4141.538574,4126.153809,4123.077148,4123.589844,4123.077148,4124.615234,4123.589844,4136.410156,4122.563965,4118.461426,873.000000,4.000000,,,,0.000000,4.000000,4.000000,4.000000,4.000000,4.000000,4.000000,4.000000,4.000000,4.000000,4.000000,4.000000,4.000000,4.000000,4.000000,100.000000
1602005675.854780,95.000000,0.000000,4123.077148,4145.128418,4114.358887,4128.717773,4145.128418,4132.820313,4127.179688,4118.974121,4127.692383,4116.410156,4123.589844,4123.589844,4116.410156,4106.153809,839.000000,4.000000,,,,0.000000,4.000000,4.000000,4.000000,4.000000,4.000000,4.000000,4.000000,4.000000,4.000000,4.000000,4.000000,4.000000,4.000000,4.000000,100.000000
1602005675.862661,96.000000,0.000000,4118.461426,4140.512695,4112.307617,4125.641113,4143.077148,4141.025879,4136.922852,4126.153809,4135.384766,4112.307617,4120.512695,4115.384766,4110.769043,4104.615234,786.000000,4.000000,,,,0.000000,4.000000,4.000000,4.000000,4.000000,4.000000,4.000000,4.000000,4.000000,4.000000,4.000000,4.000000,4.000000,4.000000,4.000000,100.000000
1602005675.870543,97.000000,0.000000,4119.487305,4144.615234,4117.436035,4128.717773,4141.538574,4143.589844,4141.025879,4135.897461,4141.025879,4129.743652,4121.538574,4122.563965,4110.769043,4109.230957,771.000000,4.000000,,,,0.000000,4.000000,4.000000,4.000000,4.000000,4.000000,4.000000,4.000000,4.000000,4.000000,4.000000,4.000000,4.000000,4.000000,4.000000,100.000000
1602005675.878425,98.000000,0.000000,4112.820313,4143.077148,4120.512695,4129.230957,4142.051270,4143.077148,4140.000000,4138.974121,4142.051270,4144.615234,4122.563965,4122.563965,4109.743652,4098.461426,873.000000,4.000000,,,,0.000000,4.000000,4.000000,4.000000,4.000000,4.000000,4.000000,4.000000,4.000000,4.000000,4.000000,4.000000,4.000000,4.000000,4.000000,100.000000
1602005675.886207,99.000000,0.000000,4106.666504,4138.461426,4115.897461,4125.641113,4140.000000,4141.025879,4138.461426,4136.410156,4139.487305,4131.794922,4119.487305,4118.974121,4105.641113,4090.256348,839.000000,4.000000,,,,0.000000,4.000000,4.000000,4.000000,4.000000,4.000000,4.000000,4.000000,4.000000,4.000000,4.000000,4.000000,4.000000,4.000000,4.000000,100.000000
1602005675.894089,100.000000,0.000000,4107.692383,4138.974121,4109.743652,4122.051270,4136.922852,4138.461426,4136.922852,4135.897461,4139.487305,4109.230957,4122.051270,4122.051270,4106.666504,4098.974121,786.000000,4.000000,,,,0.000000,4.000000,4.000000,4.000000,4.000000,4.000000,4.000000,4.000000,4.000000,4.000000,4.000000,4.000000,4.000000,4.000000,4.000000,100.000000
1602005675.901970,101.000000,0.000000,4102.563965,4137.436035,4111.794922,4125.128418,4136.922852,4135.384766,4134.358887,4136.410156,4140.000000,4113.846191,4119.487305,4121.025879,4108.205078,4099.487305,771.000000,4.000000,,,,0.000000,4.000000,4.000000,4.000000,4.000000,4.000000,4.000000,4.000000,4.000000,4.000000,4.000000,4.000000,4.000000,4.000000,4.000000,100.000000
1602005675.909852,102.000000,0.000000,4098.974121,4135.384766,4120.000000,4134.871582,4138.974121,4131.282227,4136.410156,4134.871582,4136.922852,4125.641113,4106.153809,4118.974121,4098.974121,4087.692383,873.000000,4.000000,,,,0.000000,4.000000,4.000000,4.000000,4.000000,4.000000,4.000000,4.000000,4.000000,4.000000,4.000000,4.000000,4.000000,4.000000,4.000000,100.000000
1602005675.917733,103.000000,0.000000,4105.641113,4138.461426,4122.051270,4134.871582,4135.897461,4127.179688,4135.384766,4135.897461,4133.333496,4116.922852,4106.666504,4118.461426,4093.333252,4087.179443,839.000000,4.000000,,,,0.000000,4.000000,4.000000,4.000000,4.000000,4.000000,4.000000,4.000000,4.000000,4.000000,4.000000,4.000000,4.000000,4.000000,4.000000,100.000000
1602005675.925615,104.000000,0.000000,4105.128418,4139.487305,4122.051270,4127.692383,4130.256348,4124.102539,4130.256348,4137.436035,4134.358887,4118.974121,4118.461426,4121.025879,4100.000000,4092.307617,786.000000,4.000000,,,,0.000000,4.000000,4.000000,4.000000,4.000000,4.000000,4.000000,4.000000,4.000000,4.000000,4.000000,4.000000,4.000000,4.000000,4.000000,100.000000
1602005675.933497,105.000000,0.000000,4096.410156,4136.922852,4130.256348,4130.256348,4133.846191,4117.948730,4133.333496,4133.333496,4137.948730,4144.102539,4124.615234,4130.769043,4108.205078,4093.846191,771.000000,4.000000,,,,0.000000,4.000000,4.000000,4.000000,4.000000,4.000000,4.000000,4.000000,4.000000,4.000000,4.000000,4.000000,4.000000,4.000000,4.000000,100.000000
1602005675.941478,106.000000,0.000000,4102.563965,4142.563965,4137.948730,4137.436035,4144.102539,4116.922852,4135.384766,4127.179688,4133.846191,4147.692383,4131.794922,4140.000000,4117.948730,4097.948730,873.000000,4.000000,,,,0.000000,4.000000,4.000000,4.000000,4.000000,4.000000,4.000000,4.000000,4.000000,4.000000,4.000000,4.000000,4.000000,4.000000,4.000000,100.000000
1602005675.949359,107.000000,0.000000,4115.897461,4154.358887,4138.461426,4139.487305,4144.102539,4118.974121,4131.794922,4127.179688,4124.615234,4121.538574,4136.410156,4141.025879,4127.179688,4104.102539,839.000000,4.000000,,,,0.000000,4.000000,4.000000,4.000000,4.000000,4.000000,4.000000,4.000000,4.000000,4.000000,4.000000,4.000000,4.000000,4.000000,4.000000,100.000000
1602005675.957241,108.000000,0.000000,4111.282227,4157.436035,4136.922852,4138.461426,4139.487305,4114.358887,4129.230957,4127.179688,4118.974121,4107.179688,4129.230957,4134.871582,4120.000000,4104.615234,786.000000,4.000000,,,,0.000000,4.000000,4.000000,4.000000,4.000000,4.000000,4.000000,4.000000,4.000000,4.000000,4.000000,4.000000,4.000000,4.000000,4.000000,100.000000
1602005675.965122,109.000000,0.000000,4102.563965,4152.820313,4136.922852,4139.487305,4138.974121,4113.846191,4130.769043,4123.589844,4118.461426,4113.333496,4124.615234,4131.794922,4109.230957,4101.538574,771.000000,4.000000,,,,0.000000,4.000000,4.000000,4.000000,4.000000,4.000000,4.000000,4.000000,4.000000,4.000000,4.000000,4.000000,4.000000,4.000000,4.000000,100.000000
1602005675.972904,110.000000,0.000000,4106.666504,4153.333496,4137.948730,4138.974121,4138.461426,4123.589844,4130.769043,4123.077148,4123.077148,4124.102539,4127.692383,4136.410156,4116.922852,4098.461426,873.000000,4.000000,,,,0.000000,4.000000,4.000000,4.000000,4.000000,4.000000,4.000000,4.000000,4.000000,4.000000,4.000000,4.000000,4.000000,4.000000,4.000000,100.000000
1602005675.980786,111.000000,0.000000,4109.230957,4156.922852,4135.384766,4138.974121,4140.512695,4127.179688,4128.205078,4124.615234,4136.410156,4138.461426,4126.153809,4137.948730,4126.153809,4096.922852,839.000000,4.000000,,,,0.000000,4.000000,4.000000,4.000000,4.000000,4.000000,4.000000,4.000000,4.000000,4.000000,4.000000,4.000000,4.000000,4.000000,4.000000,100.000000
1602005675.988667,112.000000,0.000000,4105.128418,4150.256348,4127.692383,4137.948730,4142.051270,4123.077148,4124.615234,4126.666504,4142.563965,4142.051270,4122.563965,4128.717773,4118.974121,4092.307617,786.000000,4.000000,,,,0.000000,4.000000,4.000000,4.000000,4.000000,4.000000,4.000000,4.000000,4.000000,4.000000,4.000000,4.000000,4.000000,4.000000,4.000000,100.000000
1602005675.996549,113.000000,0.000000,4104.102539,4138.461426,4120.000000,4131.794922,4136.922852,4120.512695,4122.563965,4126.666504,4135.384766,4125.128418,4124.615234,4118.461426,4106.153809,4086.153809,771.000000,4.000000,,,,0.000000,4.000000,4.000000,4.000000,4.000000,4.000000,4.000000,4.000000,4.000000,4.000000,4.000000,4.000000,4.000000,4.000000,4.000000,100.000000
1602005676.004431,114.000000,0.000000,4104.615234,4136.410156,4121.538574,4129.230957,4134.358887,4119.487305,4125.641113,4126.153809,4135.897461,4118.461426,4123.589844,4122.051270,4106.666504,4091.281982,873.000000,4.000000,,,,0.000000,4.000000,4.000000,4.000000,4.000000,4.000000,4.000000,4.000000,4.000000,4.000000,4.000000,4.000000,4.000000,4.000000,4.000000,100.000000
1602005676.012312,115.000000,0.000000,4103.077148,4140.512695,4129.743652,4134.871582,4138.461426,4120.512695,4127.692383,4130.256348,4136.922852,4128.717773,4124.102539,4130.256348,4117.948730,4102.051270,839.000000,4.000000,,,,0.000000,4.000000,4.000000,4.000000,4.000000,4.000000,4.000000,4.000000,4.000000,4.000000,4.000000,4.000000,4.000000,4.000000,4.000000,100.000000
1602005676.020294,116.000000,0.000000,4106.153809,4140.512695,4135.897461,4138.461426,4140.000000,4122.051270,4126.666504,4133.333496,4125.641113,4126.153809,4135.897461,4136.922852,4125.128418,4108.717773,786.000000,4.000000,,,,0.000000,4.000000,4.000000,4.000000,4.000000,4.000000,4.000000,4.000000,4.000000,4.000000,4.000000,4.000000,4.000000,4.000000,4.000000,100.000000
1602005676.028175,117.000000,0.000000,4112.820313,4141.538574,4139.487305,4136.410156,4136.410156,4122.051270,4128.205078,4130.769043,4129.230957,4128.205078,4144.102539,4146.153809,4131.794922,4112.820313,771.000000,4.000000,,,,0.000000,4.000000,4.000000,4.000000,4.000000,4.000000,4.000000,4.000000,4.000000,4.000000,4.000000,4.000000,4.000000,4.000000,4.000000,100.000000
1602005676.036057,118.000000,0.000000,4114.358887,4144.102539,4141.025879,4136.410156,4137.436035,4122.563965,4131.282227,4131.282227,4134.358887,4146.153809,4134.358887,4152.307617,4130.769043,4104.615234,873.000000,4.000000,,,,0.000000,4.000000,4.000000,4.000000,4.000000,4.000000,4.000000,4.000000,4.000000,4.000000,4.000000,4.000000,4.000000,4.000000,4.000000,100.000000
1602005676.043939,119.000000,0.000000,4108.205078,4140.000000,4133.333496,4133.846191,4138.461426,4121.538574,4132.820313,4129.743652,4114.871582,4134.871582,4122.563965,4144.102539,4115.384766,4088.205078,839.000000,4.000000,,,,0.000000,4.000000,4.000000,4.000000,4.000000,4.000000,4.000000,4.000000,4.000000,4.000000,4.000000,4.000000,4.000000,4.000000,4.000000,100.000000
1602005676.051820,120.000000,0.000000,4104.102539,4138.461426,4127.179688,4130.769043,4135.897461,4123.077148,4131.794922,4123.077148,4103.077148,4109.230957,4121.025879,4134.358887,4107.179688,4090.256348,786.000000,4.000000,,,,0.000000,4.000000,4.000000,4.000000,4.000000,4.000000,4.000000,4.000000,4.000000,4.000000,4.000000,4.000000,4.000000,4.000000,4.000000,100.000000
1602005676.059702,121.000000,0.000000,4111.794922,4145.641113,4134.871582,4134.358887,4136.410156,4128.205078,4130.256348,4123.589844,4117.948730,4111.794922,4123.077148,4141.025879,4111.794922,4106.153809,771.000000,4.000000,,,,0.000000,4.000000,4.000000,4.000000,4.000000,4.000000,4.000000,4.000000,4.000000,4.000000,4.000000,4.000000,4.000000,4.000000,4.000000,100.000000
1602005676.067584,122.000000,0.000000,4123.077148,4155.384766,4144.102539,4140.000000,4144.102539,4131.282227,4127.179688,4128.717773,4123.589844,4121.538574,4130.769043,4153.333496,4114.358887,4109.743652,873.000000,4.000000,,,,0.000000,4.000000,4.000000,4.000000,4.000000,4.000000,4.000000,4.000000,4.000000,4.000000,4.000000,4.000000,4.000000,4.000000,4.000000,100.000000
1602005676.075465,123.000000,0.000000,4120.000000,4150.256348,4141.538574,4134.871582,4145.641113,4126.153809,4122.563965,4123.589844,4119.487305,4126.666504,4141.025879,4156.922852,4117.948730,4106.153809,839.000000,4.000000,,,,0.000000,4.000000,4.000000,4.000000,4.000000,4.000000,4.000000,4.000000,4.000000,4.000000,4.000000,4.000000,4.000000,4.000000,4.000000,100.000000
1602005676.083447,124.000000,0.000000,4108.717773,4134.358887,4133.333496,4124.615234,4137.436035,4117.948730,4120.512695,4122.051270,4130.256348,4129.743652,4138.974121,4155.897461,4124.102539,4109.230957,786.000000,4.000000,,,,0.000000,4.000000,4.000000,4.000000,4.000000,4.000000,4.000000,4.000000,4.000000,4.000000,4.000000,4.000000,4.000000,4.000000,4.000000,100.000000
1602005676.091329,125.000000,0.000000,4107.179688,4130.256348,4126.153809,4120.512695,4133.846191,4117.436035,4120.512695,4126.153809,4141.538574,4124.102539,4128.717773,4152.820313,4123.077148,4105.128418,771.000000,4.000000,,,,0.000000,4.000000,4.000000,4.000000,4.000000,4.000000,4.000000,4.000000,4.000000,4.000000,4.000000,4.000000,4.000000,4.000000,4.000000,100.000000
1602005676.099211,126.000000,0.000000,4106.153809,4139.487305,4122.563965,4125.128418,4137.436035,4122.563965,4120.512695,4125.128418,4141.538574,4128.717773,4127.179688,4148.205078,4122.051270,4096.410156,873.000000,4.000000,,,,0.000000,4.000000,4.000000,4.000000,4.000000,4.000000,4.000000,4.000000,4.000000,4.000000,4.000000,4.000000,4.000000,4.000000,4.000000,100.000000
1602005676.107093,127.000000,0.000000,4100.000000,4139.487305,4130.256348,4126.153809,4138.461426,4122.563965,4127.692383,4128.205078,4137.436035,4146.153809,4129.743652,4149.230957,4126.153809,4099.487305,839.000000,4.000000,,,,0.000000,4.000000,4.000000,4.000000,4.000000,4.000000,4.000000,4.000000,4.000000,4.000000,4.000000,4.000000,4.000000,4.000000,4.000000,100.000000
1602005676.114975,128.000000,0.000000,4105.641113,4136.922852,4138.461426,4124.615234,4138.461426,4124.615234,4136.410156,4135.897461,4138.974121,4151.282227,4125.641113,4160.000000,4127.179688,4106.666504,786.000000,4.000000,,,,0.000000,4.000000,4.000000,4.000000,4.000000,4.000000,4.000000,4.000000,4.000000,4.000000,4.000000,4.000000,4.000000,4.000000,4.000000,100.000000
1602005676.122856,0.000000,0.000000,4117.436035,4143.589844,4141.025879,4131.282227,4142.051270,4134.871582,4137.948730,4138.974121,4140.000000,4146.153809,4128.205078,4166.153809,4125.128418,4111.794922,801.000000,4.000000,,,,0.000000,4.000000,4.000000,4.000000,4.000000,4.000000,4.000000,4.000000,4.000000,4.000000,4.000000,4.000000,4.000000,4.000000,4.000000,100.000000
1602005676.130738,1.000000,0.000000,4106.666504,4134.358887,4138.974121,4129.230957,4140.000000,4140.512695,4135.897461,4138.461426,4133.846191,4138.461426,4134.871582,4158.974121,4125.128418,4108.205078,799.000000,4.000000,,,,0.000000,4.000000,4.000000,4.000000,4.000000,4.000000,4.000000,4.000000,4.000000,4.000000,4.000000,4.000000,4.000000,4.000000,4.000000,100.000000
1602005676.138620,2.000000,0.000000,4092.820557,4121.538574,4135.384766,4122.563965,4134.871582,4137.948730,4137.948730,4133.333496,4126.153809,4126.666504,4130.769043,4152.820313,4120.000000,4097.436035,853.000000,4.000000,,,,0.000000,4.000000,4.000000,4.000000,4.000000,4.000000,4.000000,4.000000,4.000000,4.000000,4.000000,4.000000,4.000000,4.000000,4.000000,100.000000
1602005676.146502,3.000000,0.000000,4108.717773,4145.641113,4136.410156,4131.794922,4138.461426,4137.948730,4134.871582,4128.717773,4124.102539,4120.000000,4120.000000,4155.384766,4111.282227,4101.538574,868.000000,4.000000,,,,0.000000,4.000000,4.000000,4.000000,4.000000,4.000000,4.000000,4.000000,4.000000,4.000000,4.000000,4.000000,4.000000,4.000000,4.000000,100.000000
1602005676.154483,4.000000,0.000000,4133.846191,4174.871582,4134.358887,4143.589844,4145.128418,4136.922852,4128.205078,4133.846191,4126.153809,4121.538574,4113.333496,4152.820313,4103.589844,4106.153809,807.000000,4.000000,,,,0.000000,4.000000,4.000000,4.000000,4.000000,4.000000,4.000000,4.000000,4.000000,4.000000,4.000000,4.000000,4.000000,4.000000,4.000000,100.000000
1602005676.162365,5.000000,0.000000,4137.436035,4172.820313,4128.205078,4138.461426,4142.051270,4133.846191,4129.230957,4136.922852,4130.769043,4129.743652,4108.205078,4149.230957,4094.871826,4085.128174,819.000000,4.000000,,,,0.000000,4.000000,4.000000,4.000000,4.000000,4.000000,4.000000,4.000000,4.000000,4.000000,4.000000,4.000000,4.000000,4.000000,4.000000,100.000000
1602005676.170246,6.000000,0.000000,4138.461426,4171.794922,4131.794922,4137.948730,4140.000000,4137.436035,4133.333496,4129.743652,4135.897461,4138.461426,4102.563965,4151.794922,4088.205078,4077.435791,770.000000,4.000000,,,,0.000000,4.000000,4.000000,4.000000,4.000000,4.000000,4.000000,4.000000,4.000000,4.000000,4.000000,4.000000,4.000000,4.000000,4.000000,100.000000
1602005676.178128,7.000000,0.000000,4151.282227,4186.666504,4143.589844,4151.282227,4149.230957,4144.102539,4136.410156,4131.282227,4136.410156,4129.230957,4110.256348,4153.846191,4088.718018,4101.025879,697.000000,4.000000,,,,0.000000,4.000000,4.000000,4.000000,4.000000,4.000000,4.000000,4.000000,4.000000,4.000000,4.000000,4.000000,4.000000,4.000000,4.000000,100.000000
1602005676.186009,8.000000,0.000000,4153.333496,4192.820313,4147.692383,4156.922852,4158.461426,4142.563965,4137.436035,4138.461426,4134.871582,4120.000000,4120.000000,4154.358887,4093.846191,4106.666504,792.000000,4.000000,,,,0.000000,4.000000,4.000000,4.000000,4.000000,4.000000,4.000000,4.000000,4.000000,4.000000,4.000000,4.000000,4.000000,4.000000,4.000000,100.000000
1602005676.193790,9.000000,0.000000,4141.025879,4188.205078,4141.538574,4153.333496,4158.974121,4139.487305,4136.410156,4138.461426,4140.000000,4127.179688,4114.358887,4154.358887,4096.410156,4092.307617,839.000000,4.000000,,,,0.000000,4.000000,4.000000,4.000000,4.000000,4.000000,4.000000,4.000000,4.000000,4.000000,4.000000,4.000000,4.000000,4.000000,4.000000,100.000000
1602005676.201672,10.000000,0.000000,4136.410156,4185.128418,4139.487305,4153.333496,4157.436035,4140.000000,4135.897461,4138.461426,4150.769043,4123.077148,4107.692383,4153.333496,4093.333252,4087.179443,873.000000,4.000000,,,,0.000000,4.000000,4.000000,4.000000,4.000000,4.000000,4.000000,4.000000,4.000000,4.000000,4.000000,4.000000,4.000000,4.000000,4.000000,100.000000
1602005676.209553,11.000000,0.000000,4141.025879,4185.128418,4142.563965,4155.897461,4155.897461,4140.512695,4131.794922,4138.974121,4162.563965,4121.538574,4118.461426,4156.410156,4094.871826,4084.615479,839.000000,4.000000,,,,0.000000,4.000000,4.000000,4.000000,4.000000,4.000000,4.000000,4.000000,4.000000,4.000000,4.000000,4.000000,4.000000,4.000000,4.000000,100.000000
1602005676.217435,12.000000,0.000000,4138.974121,4180.512695,4143.077148,4154.358887,4150.769043,4135.384766,4127.179688,4139.487305,4168.717773,4137.948730,4126.666504,4160.512695,4103.589844,4085.128174,784.000000,4.000000,,,,0.000000,4.000000,4.000000,4.000000,4.000000,4.000000,4.000000,4.000000,4.000000,4.000000,4.000000,4.000000,4.000000,4.000000,4.000000,100.000000
1602005676.225316,13.000000,0.000000,4134.871582,4170.769043,4142.051270,4154.871582,4151.794922,4130.256348,4131.794922,4144.102539,4171.794922,4147.692383,4121.025879,4160.000000,4104.615234,4089.743652,765.000000,4.000000,,,,0.000000,4.000000,4.000000,4.000000,4.000000,4.000000,4.000000,4.000000,4.000000,4.000000,4.000000,4.000000,4.000000,4.000000,4.000000,100.000000
1602005676.233197,14.000000,0.000000,4136.922852,4168.717773,4142.563965,4155.897461,4156.922852,4142.051270,4141.025879,4144.615234,4169.230957,4149.743652,4122.051270,4158.461426,4103.077148,4091.281982,873.000000,4.000000,,,,0.000000,4.000000,4.000000,4.000000,4.000000,4.000000,4.000000,4.000000,4.000000,4.000000,4.000000,4.000000,4.000000,4.000000,4.000000,100.000000
1602005676.240979,15.000000,0.000000,4137.948730,4170.769043,4144.615234,4146.153809,4155.897461,4157.948730,4143.589844,4139.487305,4154.871582,4149.230957,4122.563965,4158.974121,4104.615234,4094.358887,839.000000,4.000000,,,,0.000000,4.000000,4.000000,4.000000,4.000000,4.000000,4.000000,4.000000,4.000000,4.000000,4.000000,4.000000,4.000000,4.000000,4.000000,100.000000
1602005676.248860,16.000000,0.000000,4133.846191,4162.051270,4142.051270,4137.436035,4152.307617,4149.743652,4143.077148,4136.410156,4139.487305,4127.692383,4112.820313,4156.922852,4097.948730,4092.307617,0.000000,4.000000,,,,0.000000,4.000000,4.000000,4.000000,4.000000,4.000000,4.000000,4.000000,4.000000,4.000000,4.000000,4.000000,4.000000,4.000000,4.000000,100.000000
1602005676.256741,17.000000,0.000000,4121.538574,4151.282227,4130.769043,4136.410156,4146.153809,4133.846191,4142.051270,4134.358887,4135.384766,4098.974121,4106.666504,4153.333496,4086.153809,4077.435791,0.000000,4.000000,,,,0.000000,4.000000,4.000000,4.000000,4.000000,4.000000,4.000000,4.000000,4.000000,4.000000,4.000000,4.000000,4.000000,4.000000,4.000000,100.000000
1602005676.264523,18.000000,0.000000,4113.846191,4150.769043,4126.153809,4135.384766,4139.487305,4135.897461,4137.948730,4131.794922,4136.922852,4098.461426,4103.077148,4154.358887,4081.538574,4070.769287,0.000000,4.000000,,,,0.000000,4.000000,4.000000,4.000000,4.000000,4.000000,4.000000,4.000000,4.000000,4.000000,4.000000,4.000000,4.000000,4.000000,4.000000,100.000000
1602005676.272404,19.000000,0.000000,4121.538574,4154.358887,4135.384766,4135.384766,4138.461426,4141.538574,4136.922852,4135.897461,4133.846191,4115.384766,4104.102539,4156.922852,4083.076904,4078.974365,0.000000,4.000000,,,,0.000000,4.000000,4.000000,4.000000,4.000000,4.000000,4.000000,4.000000,4.000000,4.000000,4.000000,4.000000,4.000000,4.000000,4.000000,100.000000
1602005676.280285,20.000000,0.000000,4124.102539,4155.384766,4136.922852,4139.487305,4141.025879,4138.461426,4135.897461,4135.897461,4133.846191,4120.000000,4110.256348,4153.846191,4087.179443,4082.564209,0.000000,4.000000,,,,0.000000,4.000000,4.000000,4.000000,4.000000,4.000000,4.000000,4.000000,4.000000,4.000000,4.000000,4.000000,4.000000,4.000000,4.000000,100.000000
1602005676.288167,21.000000,0.000000,4109.743652,4155.384766,4125.128418,4140.000000,4144.102539,4135.384766,4134.358887,4127.179688,4137.436035,4122.051270,4103.589844,4150.769043,4091.794922,4078.974365,0.000000,4.000000,,,,0.000000,4.000000,4.000000,4.000000,4.000000,4.000000,4.000000,4.000000,4.000000,4.000000,4.000000,4.000000,4.000000,4.000000,4.000000,100.000000
1602005676.295949,22.000000,0.000000,4108.717773,4159.487305,4119.487305,4138.461426,4150.256348,4134.871582,4136.410156,4127.692383,4138.461426,4134.871582,4094.358887,4150.256348,4091.281982,4075.897461,0.000000,4.000000,,,,0.000000,4.000000,4.000000,4.000000,4.000000,4.000000,4.000000,4.000000,4.000000,4.000000,4.000000,4.000000,4.000000,4.000000,4.000000,100.000000
1602005676.303831,23.000000,0.000000,4121.538574,4162.563965,4123.589844,4140.512695,4154.358887,4138.461426,4141.025879,4138.461426,4140.000000,4134.358887,4104.102539,4143.589844,4093.333252,4076.410156,0.000000,4.000000,,,,0.000000,4.000000,4.000000,4.000000,4.000000,4.000000,4.000000,4.000000,4.000000,4.000000,4.000000,4.000000,4.000000,4.000000,4.000000,100.000000
1602005676.311713,24.000000,0.000000,4118.974121,4156.410156,4123.589844,4140.000000,4150.769043,4135.384766,4142.563965,4140.000000,4141.025879,4118.461426,4111.794922,4134.358887,4092.820557,4074.871826,0.000000,4.000000,,,,0.000000,4.000000,4.000000,4.000000,4.000000,4.000000,4.000000,4.000000,4.000000,4.000000,4.000000,4.000000,4.000000,4.000000,4.000000,100.000000
1602005676.319594,25.000000,0.000000,4106.153809,4150.769043,4117.436035,4135.897461,4143.077148,4124.615234,4138.461426,4134.358887,4141.025879,4115.384766,4103.077148,4132.307617,4087.692383,4068.205078,0.000000,4.000000,,,,0.000000,4.000000,4.000000,4.000000,4.000000,4.000000,4.000000,4.000000,4.000000,4.000000,4.000000,4.000000,4.000000,4.000000,4.000000,100.000000
1602005676.327476,26.000000,0.000000,4104.102539,4151.282227,4112.307617,4127.692383,4138.974121,4121.025879,4135.384766,4135.384766,4140.000000,4122.563965,4101.025879,4133.846191,4088.718018,4064.102539,0.000000,4.000000,,,,0.000000,4.000000,4.000000,4.000000,4.000000,4.000000,4.000000,4.000000,4.000000,4.000000,4.000000,4.000000,4.000000,4.000000,4.000000,100.000000
1602005676.335358,27.000000,0.000000,4108.717773,4151.282227,4117.436035,4126.153809,4137.948730,4120.000000,4137.948730,4134.871582,4140.000000,4123.077148,4106.666504,4134.871582,4088.718018,4067.692383,0.000000,4.000000,,,,0.000000,4.000000,4.000000,4.000000,4.000000,4.000000,4.000000,4.000000,4.000000,4.000000,4.000000,4.000000,4.000000,4.000000,4.000000,100.000000
1602005676.343240,28.000000,0.000000,4113.846191,4148.205078,4123.077148,4133.333496,4137.436035,4120.000000,4138.461426,4126.153809,4140.512695,4120.512695,4103.077148,4134.871582,4088.718018,4073.333252,0.000000,4.000000,,,,0.000000,4.000000,4.000000,4.000000,4.000000,4.000000,4.000000,4.000000,4.000000,4.000000,4.000000,4.000000,4.000000,4.000000,4.000000,100.000000
1602005676.351122,29.000000,0.000000,4120.000000,4155.384766,4124.102539,4139.487305,4146.153809,4138.461426,4135.384766,4126.666504,4142.563965,4132.307617,4108.205078,4141.025879,4099.487305,4083.589844,0.000000,4.000000,,,,0.000000,4.000000,4.000000,4.000000,4.000000,4.000000,4.000000,4.000000,4.000000,4.000000,4.000000,4.000000,4.000000,4.000000,4.000000,100.000000
1602005676.359004,30.000000,0.000000,4124.615234,4164.102539,4128.717773,4141.025879,4156.922852,4157.948730,4134.871582,4133.846191,4143.589844,4142.563965,4122.051270,4152.307617,4111.794922,4097.436035,0.000000,4.000000,,,,0.000000,4.000000,4.000000,4.000000,4.000000,4.000000,4.000000,4.000000,4.000000,4.000000,4.000000,4.000000,4.000000,4.000000,4.000000,100.000000
1602005676.366985,31.000000,0.000000,4122.051270,4160.000000,4131.794922,4141.025879,4154.358887,4152.307617,4135.897461,4133.333496,4141.025879,4126.666504,4118.974121,4153.846191,4111.282227,4099.487305,0.000000,4.000000,,,,0.000000,4.000000,4.000000,4.000000,4.000000,4.000000,4.000000,4.000000,4.000000,4.000000,4.000000,4.000000,4.000000,4.000000,4.000000,100.000000
1602005676.374867,32.000000,0.000000,4110.256348,4152.820313,4122.051270,4136.410156,4150.256348,4143.077148,4137.436035,4132.820313,4140.000000,4114.871582,4108.717773,4142.563965,4108.717773,4087.692383,0.000000,4.000000,,,,0.000000,4.000000,4.000000,4.000000,4.000000,4.000000,4.000000,4.000000,4.000000,4.000000,4.000000,4.000000,4.000000,4.000000,4.000000,100.000000
1602005676.382749,33.000000,0.000000,4098.974121,4153.333496,4110.256348,4126.153809,4149.743652,4141.025879,4137.948730,4132.820313,4140.000000,4125.128418,4106.153809,4130.769043,4104.615234,4074.871826,0.000000,4.000000,,,,0.000000,4.000000,4.000000,4.000000,4.000000,4.000000,4.000000,4.000000,4.000000,4.000000,4.000000,4.000000,4.000000,4.000000,4.000000,100.000000
1602005676.390630,34.000000,0.000000,4099.487305,4152.820313,4105.128418,4121.538574,4144.615234,4136.410156,4136.922852,4126.666504,4135.384766,4123.589844,4101.025879,4123.589844,4091.794922,4072.307617,0.000000,4.000000,,,,0.000000,4.000000,4.000000,4.000000,4.000000,4.000000,4.000000,4.000000,4.000000,4.000000,4.000000,4.000000,4.000000,4.000000,4.000000,100.000000
1602005676.398512,35.000000,0.000000,4106.153809,4151.794922,4107.179688,4130.769043,4146.153809,4139.487305,4137.948730,4129.230957,4141.025879,4126.666504,4100.000000,4121.538574,4093.333252,4074.871826,0.000000,4.000000,,,,0.000000,4.000000,4.000000,4.000000,4.000000,4.000000,4.000000,4.000000,4.000000,4.000000,4.000000,4.000000,4.000000,4.000000,4.000000,100.000000
1602005676.406394,36.000000,0.000000,4110.256348,4156.410156,4110.256348,4140.512695,4152.820313,4144.615234,4141.538574,4139.487305,4150.769043,4140.512695,4108.717773,4123.077148,4106.153809,4074.871826,0.000000,4.000000,,,,0.000000,4.000000,4.000000,4.000000,4.000000,4.000000,4.000000,4.000000,4.000000,4.000000,4.000000,4.000000,4.000000,4.000000,4.000000,100.000000
1602005676.414275,37.000000,0.000000,4107.692383,4154.358887,4109.743652,4135.384766,4146.666504,4133.333496,4143.077148,4140.000000,4140.000000,4121.025879,4109.230957,4123.077148,4101.025879,4076.410156,0.000000,4.000000,,,,0.000000,4.000000,4.000000,4.000000,4.000000,4.000000,4.000000,4.000000,4.000000,4.000000,4.000000,4.000000,4.000000,4.000000,4.000000,100.000000
1602005676.422057,38.000000,0.000000,4100.512695,4142.563965,4105.641113,4123.077148,4141.538574,4123.589844,4139.487305,4137.948730,4123.077148,4103.077148,4103.589844,4126.153809,4088.718018,4079.487061,0.000000,4.000000,,,,0.000000,4.000000,4.000000,4.000000,4.000000,4.000000,4.000000,4.000000,4.000000,4.000000,4.000000,4.000000,4.000000,4.000000,4.000000,100.000000
1602005676.429939,39.000000,0.000000,4101.025879,4137.436035,4104.615234,4118.974121,4143.077148,4133.846191,4135.384766,4134.871582,4123.589844,4125.641113,4101.538574,4135.897461,4088.718018,4073.333252,0.000000,4.000000,,,,0.000000,4.000000,4.000000,4.000000,4.000000,4.000000,4.000000,4.000000,4.000000,4.000000,4.000000,4.000000,4.000000,4.000000,4.000000,100.000000
1602005676.437821,40.000000,0.000000,4108.205078,4138.974121,4113.333496,4123.077148,4140.000000,4148.205078,4135.384766,4128.205078,4127.179688,4134.871582,4100.512695,4139.487305,4091.794922,4075.384521,0.000000,4.000000,,,,0.000000,4.000000,4.000000,4.000000,4.000000,4.000000,4.000000,4.000000,4.000000,4.000000,4.000000,4.000000,4.000000,4.000000,4.000000,100.000000
1602005676.445703,41.000000,0.000000,4108.205078,4138.974121,4123.077148,4125.128418,4136.922852,4143.077148,4135.897461,4126.153809,4123.589844,4116.922852,4105.128418,4137.436035,4092.307617,4089.743652,0.000000,4.000000,,,,0.000000,4.000000,4.000000,4.000000,4.000000,4.000000,4.000000,4.000000,4.000000,4.000000,4.000000,4.000000,4.000000,4.000000,4.000000,100.000000
1602005676.453585,42.000000,0.000000,4104.102539,4134.871582,4116.922852,4118.461426,4136.410156,4129.230957,4133.846191,4122.563965,4121.538574,4114.358887,4105.128418,4133.846191,4089.230713,4085.641113,0.000000,4.000000,,,,0.000000,4.000000,4.000000,4.000000,4.000000,4.000000,4.000000,4.000000,4.000000,4.000000,4.000000,4.000000,4.000000,4.000000,4.000000,100.000000
1602005676.461467,43.000000,0.000000,4111.794922,4139.487305,4113.846191,4120.512695,4135.384766,4131.794922,4134.871582,4125.128418,4129.743652,4123.077148,4099.487305,4134.871582,4094.358887,4075.384521,0.000000,4.000000,,,,0.000000,4.000000,4.000000,4.000000,4.000000,4.000000,4.000000,4.000000,4.000000,4.000000,4.000000,4.000000,4.000000,4.000000,4.000000,100.000000
1602005676.469348,44.000000,0.000000,4123.589844,4152.820313,4128.717773,4134.871582,4137.948730,4142.563965,4142.051270,4138.974121,4148.205078,4125.641113,4112.307617,4147.179688,4113.846191,4090.256348,0.000000,4.000000,,,,0.000000,4.000000,4.000000,4.000000,4.000000,4.000000,4.000000,4.000000,4.000000,4.000000,4.000000,4.000000,4.000000,4.000000,4.000000,100.000000
1602005676.477230,45.000000,0.000000,4126.153809,4160.000000,4138.974121,4141.538574,4141.538574,4141.025879,4143.077148,4144.615234,4157.436035,4131.794922,4128.717773,4157.948730,4124.615234,4105.641113,0.000000,4.000000,,,,0.000000,4.000000,4.000000,4.000000,4.000000,4.000000,4.000000,4.000000,4.000000,4.000000,4.000000,4.000000,4.000000,4.000000,4.000000,100.000000
1602005676.485112,46.000000,0.000000,4127.692383,4158.974121,4136.410156,4137.948730,4143.589844,4138.974121,4137.436035,4140.512695,4147.692383,4142.051270,4127.179688,4156.410156,4122.051270,4107.692383,0.000000,4.000000,,,,0.000000,4.000000,4.000000,4.000000,4.000000,4.000000,4.000000,4.000000,4.000000,4.000000,4.000000,4.000000,4.000000,4.000000,4.000000,100.000000
1602005676.493094,47.000000,0.000000,4130.256348,4155.384766,4138.461426,4139.487305,4144.615234,4140.000000,4136.410156,4140.000000,4139.487305,4142.563965,4121.538574,4153.333496,4118.974121,4107.179688,0.000000,4.000000,,,,0.000000,4.000000,4.000000,4.000000,4.000000,4.000000,4.000000,4.000000,4.000000,4.000000,4.000000,4.000000,4.000000,4.000000,4.000000,100.000000
1602005676.500975,48.000000,0.000000,4121.025879,4145.128418,4138.974121,4135.897461,4141.025879,4126.666504,4132.820313,4132.820313,4140.000000,4133.333496,4112.307617,4152.307617,4110.769043,4096.922852,0.000000,4.000000,,,,0.000000,4.000000,4.000000,4.000000,4.000000,4.000000,4.000000,4.000000,4.000000,4.000000,4.000000,4.000000,4.000000,4.000000,4.000000,100.000000
1602005676.508856,49.000000,0.000000,4116.410156,4137.948730,4136.410156,4128.717773,4137.436035,4122.563965,4125.128418,4121.025879,4134.871582,4125.128418,4108.205078,4150.769043,4103.589844,4094.358887,0.000000,4.000000,,,,0.000000,4.000000,4.000000,4.000000,4.000000,4.000000,4.000000,4.000000,4.000000,4.000000,4.000000,4.000000,4.000000,4.000000,4.000000,100.000000
1602005676.516738,50.000000,0.000000,4126.666504,4147.179688,4136.922852,4134.358887,4140.000000,4138.974121,4125.641113,4122.051270,4133.846191,4112.820313,4118.461426,4153.333496,4113.333496,4115.897461,0.000000,4.000000,,,,0.000000,4.000000,4.000000,4.000000,4.000000,4.000000,4.000000,4.000000,4.000000,4.000000,4.000000,4.000000,4.000000,4.000000,4.000000,100.000000
1602005676.524720,51.000000,0.000000,4127.179688,4152.307617,4135.384766,4138.461426,4138.974121,4134.358887,4129.743652,4125.128418,4139.487305,4112.820313,4126.666504,4158.461426,4123.589844,4128.717773,0.000000,4.000000,,,,0.000000,4.000000,4.000000,4.000000,4.000000,4.000000,4.000000,4.000000,4.000000,4.000000,4.000000,4.000000,4.000000,4.000000,4.000000,100.000000
1602005676.532601,52.000000,0.000000,4121.538574,4142.051270,4134.871582,4130.769043,4136.410156,4117.436035,4128.205078,4122.051270,4136.410156,4133.333496,4123.077148,4160.000000,4121.025879,4115.384766,0.000000,4.000000,,,,0.000000,4.000000,4.000000,4.000000,4.000000,4.000000,4.000000,4.000000,4.000000,4.000000,4.000000,4.000000,4.000000,4.000000,4.000000,100.000000
1602005676.540483,53.000000,0.000000,4120.000000,4137.436035,4136.410156,4126.666504,4138.974121,4128.205078,4126.153809,4122.051270,4132.820313,4136.410156,4122.051270,4157.948730,4117.948730,4105.128418,0.000000,4.000000,,,,0.000000,4.000000,4.000000,4.000000,4.000000,4.000000,4.000000,4.000000,4.000000,4.000000,4.000000,4.000000,4.000000,4.000000,4.000000,100.000000
1602005676.548365,54.000000,0.000000,4114.871582,4142.563965,4129.743652,4130.769043,4141.025879,4143.077148,4124.615234,4122.051270,4135.384766,4126.666504,4122.051270,4154.871582,4123.077148,4114.358887,0.000000,4.000000,,,,0.000000,4.000000,4.000000,4.000000,4.000000,4.000000,4.000000,4.000000,4.000000,4.000000,4.000000,4.000000,4.000000,4.000000,4.000000,100.000000
1602005676.556247,55.000000,0.000000,4107.692383,4141.538574,4121.025879,4127.179688,4139.487305,4138.461426,4120.000000,4117.948730,4136.922852,4145.128418,4118.974121,4152.820313,4119.487305,4114.358887,0.000000,4.000000,,,,0.000000,4.000000,4.000000,4.000000,4.000000,4.000000,4.000000,4.000000,4.000000,4.000000,4.000000,4.000000,4.000000,4.000000,4.000000,100.000000
1602005676.564129,56.000000,0.000000,4104.102539,4134.358887,4121.025879,4122.563965,4145.641113,4136.922852,4122.051270,4123.589844,4143.589844,4158.974121,4122.563965,4152.820313,4106.153809,4090.769287,0.000000,4.000000,,,,0.000000,4.000000,4.000000,4.000000,4.000000,4.000000,4.000000,4.000000,4.000000,4.000000,4.000000,4.000000,4.000000,4.000000,4.000000,100.000000
1602005676.572011,57.000000,0.000000,4108.717773,4137.948730,4121.538574,4130.769043,4151.794922,4144.102539,4135.897461,4136.922852,4154.871582,4138.461426,4134.358887,4151.794922,4117.948730,4091.281982,0.000000,4.000000,,,,0.000000,4.000000,4.000000,4.000000,4.000000,4.000000,4.000000,4.000000,4.000000,4.000000,4.000000,4.000000,4.000000,4.000000,4.000000,100.000000
1602005676.579893,58.000000,0.000000,4114.358887,4143.077148,4120.000000,4134.358887,4145.128418,4140.512695,4141.025879,4140.512695,4153.333496,4133.333496,4138.461426,4152.820313,4140.512695,4118.461426,0.000000,4.000000,,,,0.000000,4.000000,4.000000,4.000000,4.000000,4.000000,4.000000,4.000000,4.000000,4.000000,4.000000,4.000000,4.000000,4.000000,4.000000,100.000000
1602005676.587775,59.000000,0.000000,4103.589844,4126.666504,4120.000000,4124.102539,4134.358887,4130.256348,4133.846191,4136.922852,4144.615234,4144.615234,4134.358887,4150.256348,4147.179688,4125.128418,0.000000,4.000000,,,,0.000000,4.000000,4.000000,4.000000,4.000000,4.000000,4.000000,4.000000,4.000000,4.000000,4.000000,4.000000,4.000000,4.000000,4.000000,100.000000
1602005676.595756,60.000000,0.000000,4087.692383,4105.128418,4125.128418,4116.410156,4133.846191,4136.922852,4140.000000,4138.974121,4147.692383,4136.922852,4142.051270,4148.205078,4158.974121,4124.102539,0.000000,4.000000,,,,0.000000,4.000000,4.000000,4.000000,4.000000,4.000000,4.000000,4.000000,4.000000,4.000000,4.000000,4.000000,4.000000,4.000000,4.000000,100.000000
1602005676.603638,61.000000,0.000000,4087.692383,4101.538574,4135.897461,4119.487305,4140.000000,4152.820313,4156.922852,4144.615234,4158.461426,4138.974121,4155.897461,4156.922852,4177.948730,4138.461426,0.000000,4.000000,,,,0.000000,4.000000,4.000000,4.000000,4.000000,4.000000,4.000000,4.000000,4.000000,4.000000,4.000000,4.000000,4.000000,4.000000,4.000000,100.000000
1602005676.611519,62.000000,0.000000,4091.794922,4105.641113,4142.563965,4122.563965,4143.589844,4152.307617,4152.307617,4143.077148,4158.461426,4156.410156,4151.282227,4165.128418,4171.794922,4144.102539,0.000000,4.000000,,,,0.000000,4.000000,4.000000,4.000000,4.000000,4.000000,4.000000,4.000000,4.000000,4.000000,4.000000,4.000000,4.000000,4.000000,4.000000,100.000000
1602005676.619401,63.000000,0.000000,4088.718018,4104.615234,4134.358887,4118.461426,4144.102539,4138.974121,4135.897461,4136.410156,4143.589844,4156.410156,4140.000000,4158.974121,4156.922852,4137.436035,0.000000,4.000000,,,,0.000000,4.000000,4.000000,4.000000,4.000000,4.000000,4.000000,4.000000,4.000000,4.000000,4.000000,4.000000,4.000000,4.000000,4.000000,100.000000
1602005676.627283,64.000000,0.000000,4089.743652,4104.102539,4121.025879,4111.794922,4138.461426,4134.358887,4132.820313,4131.794922,4132.307617,4147.179688,4138.974121,4147.179688,4153.846191,4134.871582,801.000000,4.000000,,,,0.000000,4.000000,4.000000,4.000000,4.000000,4.000000,4.000000,4.000000,4.000000,4.000000,4.000000,4.000000,4.000000,4.000000,4.000000,100.000000
1602005676.635164,65.000000,0.000000,4091.281982,4105.128418,4120.000000,4113.333496,4138.461426,4142.051270,4135.897461,4136.410156,4142.051270,4160.000000,4142.051270,4146.153809,4154.358887,4134.358887,799.000000,4.000000,,,,0.000000,4.000000,4.000000,4.000000,4.000000,4.000000,4.000000,4.000000,4.000000,4.000000,4.000000,4.000000,4.000000,4.000000,4.000000,100.000000
1602005676.643046,66.000000,0.000000,4089.743652,4106.666504,4125.641113,4122.563965,4148.717773,4143.589844,4137.948730,4140.512695,4162.051270,4171.794922,4143.077148,4154.871582,4161.538574,4133.846191,853.000000,4.000000,,,,0.000000,4.000000,4.000000,4.000000,4.000000,4.000000,4.000000,4.000000,4.000000,4.000000,4.000000,4.000000,4.000000,4.000000,4.000000,100.000000
1602005676.650928,67.000000,0.000000,4095.384521,4111.282227,4130.256348,4123.589844,4150.256348,4131.282227,4141.538574,4138.974121,4171.282227,4158.461426,4146.153809,4164.102539,4170.256348,4141.538574,868.000000,4.000000,,,,0.000000,4.000000,4.000000,4.000000,4.000000,4.000000,4.000000,4.000000,4.000000,4.000000,4.000000,4.000000,4.000000,4.000000,4.000000,100.000000
1602005676.658709,68.000000,0.000000,4106.153809,4118.461426,4138.974121,4126.153809,4142.051270,4125.128418,4141.538574,4143.077148,4172.820313,4151.282227,4161.025879,4169.743652,4180.000000,4157.436035,807.000000,4.000000,,,,0.000000,4.000000,4.000000,4.000000,4.000000,4.000000,4.000000,4.000000,4.000000,4.000000,4.000000,4.000000,4.000000,4.000000,4.000000,100.000000
1602005676.666590,69.000000,0.000000,4112.307617,4127.179688,4148.205078,4137.436035,4142.051270,4136.410156,4139.487305,4150.256348,4175.897461,4173.333496,4175.897461,4174.871582,4192.820313,4167.179688,819.000000,4.000000,,,,0.000000,4.000000,4.000000,4.000000,4.000000,4.000000,4.000000,4.000000,4.000000,4.000000,4.000000,4.000000,4.000000,4.000000,4.000000,100.000000
1602005676.674471,70.000000,0.000000,4109.743652,4124.615234,4144.102539,4136.410156,4144.615234,4136.410156,4137.436035,4146.153809,4168.205078,4188.717773,4163.077148,4171.282227,4187.692383,4157.436035,770.000000,4.000000,,,,0.000000,4.000000,4.000000,4.000000,4.000000,4.000000,4.000000,4.000000,4.000000,4.000000,4.000000,4.000000,4.000000,4.000000,4.000000,100.000000
1602005676.682352,71.000000,0.000000,4100.512695,4110.256348,4135.897461,4124.102539,4138.974121,4119.487305,4135.384766,4139.487305,4145.641113,4169.743652,4144.102539,4157.436035,4169.743652,4145.128418,697.000000,4.000000,,,,0.000000,4.000000,4.000000,4.000000,4.000000,4.000000,4.000000,4.000000,4.000000,4.000000,4.000000,4.000000,4.000000,4.000000,4.000000,100.000000
1602005676.690134,72.000000,0.000000,4097.436035,4104.615234,4137.436035,4120.512695,4137.948730,4119.487305,4139.487305,4145.641113,4133.846191,4150.769043,4150.769043,4155.384766,4168.717773,4149.230957,792.000000,4.000000,,,,0.000000,4.000000,4.000000,4.000000,4.000000,4.000000,4.000000,4.000000,4.000000,4.000000,4.000000,4.000000,4.000000,4.000000,4.000000,100.000000
1602005676.698016,73.000000,0.000000,4100.000000,4109.743652,4139.487305,4123.077148,4140.512695,4138.461426,4151.282227,4153.333496,4143.077148,4146.666504,4157.436035,4162.051270,4175.384766,4152.820313,840.000000,4.000000,,,,0.000000,4.000000,4.000000,4.000000,4.000000,4.000000,4.000000,4.000000,4.000000,4.000000,4.000000,4.000000,4.000000,4.000000,4.000000,100.000000
1602005676.705898,74.000000,0.000000,4105.641113,4112.307617,4139.487305,4123.077148,4139.487305,4152.820313,4158.461426,4154.358887,4151.794922,4139.487305,4149.743652,4163.077148,4171.282227,4153.333496,873.000000,4.000000,,,,0.000000,4.000000,4.000000,4.000000,4.000000,4.000000,4.000000,4.000000,4.000000,4.000000,4.000000,4.000000,4.000000,4.000000,4.000000,100.000000
1602005676.713780,75.000000,0.000000,4109.743652,4111.282227,4141.538574,4122.051270,4138.974121,4155.897461,4158.974121,4155.897461,4153.846191,4144.615234,4152.307617,4155.384766,4170.256348,4151.282227,839.000000,4.000000,,,,0.000000,4.000000,4.000000,4.000000,4.000000,4.000000,4.000000,4.000000,4.000000,4.000000,4.000000,4.000000,4.000000,4.000000,4.000000,100.000000
1602005676.721662,76.000000,0.000000,4101.538574,4107.179688,4135.897461,4115.897461,4140.512695,4143.077148,4155.384766,4157.436035,4157.436035,4171.794922,4158.461426,4142.051270,4168.717773,4141.538574,783.000000,4.000000,,,,0.000000,4.000000,4.000000,4.000000,4.000000,4.000000,4.000000,4.000000,4.000000,4.000000,4.000000,4.000000,4.000000,4.000000,4.000000,100.000000
1602005676.729544,77.000000,0.000000,4083.076904,4096.410156,4118.974121,4111.282227,4136.922852,4127.179688,4145.641113,4156.410156,4157.436035,4181.538574,4145.641113,4133.333496,4159.487305,4134.358887,765.000000,4.000000,,,,0.000000,4.000000,4.000000,4.000000,4.000000,4.000000,4.000000,4.000000,4.000000,4.000000,4.000000,4.000000,4.000000,4.000000,4.000000,100.000000
1602005676.737426,78.000000,0.000000,4077.948730,4092.820557,4106.666504,4110.256348,4133.333496,4133.846191,4143.077148,4150.769043,4153.333496,4162.051270,4133.333496,4133.333496,4154.871582,4134.871582,873.000000,4.000000,,,,0.000000,4.000000,4.000000,4.000000,4.000000,4.000000,4.000000,4.000000,4.000000,4.000000,4.000000,4.000000,4.000000,4.000000,4.000000,100.000000
1602005676.745307,79.000000,0.000000,4084.102539,4102.051270,4105.128418,4110.769043,4143.077148,4152.820313,4151.282227,4144.102539,4153.333496,4152.820313,4138.974121,4130.256348,4156.410156,4132.820313,839.000000,4.000000,,,,0.000000,4.000000,4.000000,4.000000,4.000000,4.000000,4.000000,4.000000,4.000000,4.000000,4.000000,4.000000,4.000000,4.000000,4.000000,100.000000
1602005676.753189,80.000000,0.000000,4080.000000,4106.153809,4104.102539,4114.871582,4152.307617,4155.384766,4151.282227,4138.461426,4154.358887,4147.692383,4149.230957,4122.563965,4155.897461,4130.256348,783.000000,4.000000,,,,0.000000,4.000000,4.000000,4.000000,4.000000,4.000000,4.000000,4.000000,4.000000,4.000000,4.000000,4.000000,4.000000,4.000000,4.000000,100.000000
1602005676.760971,81.000000,0.000000,4076.923096,4107.179688,4103.589844,4121.025879,4147.179688,4150.769043,4142.051270,4135.384766,4149.230957,4133.846191,4153.333496,4122.563965,4156.922852,4135.897461,765.000000,4.000000,,,,0.000000,4.000000,4.000000,4.000000,4.000000,4.000000,4.000000,4.000000,4.000000,4.000000,4.000000,4.000000,4.000000,4.000000,4.000000,100.000000
1602005676.768853,82.000000,0.000000,4082.051270,4110.256348,4106.153809,4121.538574,4141.538574,4153.846191,4138.461426,4134.358887,4139.487305,4138.461426,4152.820313,4124.615234,4157.948730,4132.820313,873.000000,4.000000,,,,0.000000,4.000000,4.000000,4.000000,4.000000,4.000000,4.000000,4.000000,4.000000,4.000000,4.000000,4.000000,4.000000,4.000000,4.000000,100.000000
1602005676.776734,83.000000,0.000000,4083.589844,4107.692383,4111.282227,4118.974121,4141.538574,4150.256348,4143.077148,4134.871582,4137.436035,4160.512695,4148.717773,4122.051270,4153.333496,4121.025879,839.000000,4.000000,,,,0.000000,4.000000,4.000000,4.000000,4.000000,4.000000,4.000000,4.000000,4.000000,4.000000,4.000000,4.000000,4.000000,4.000000,4.000000,100.000000
1602005676.784616,84.000000,0.000000,4087.692383,4110.769043,4117.948730,4122.051270,4145.128418,4146.666504,4149.743652,4137.436035,4142.563965,4171.794922,4150.256348,4125.128418,4151.282227,4122.051270,783.000000,4.000000,,,,0.000000,4.000000,4.000000,4.000000,4.000000,4.000000,4.000000,4.000000,4.000000,4.000000,4.000000,4.000000,4.000000,4.000000,4.000000,100.000000
1602005676.792498,85.000000,0.000000,4102.051270,4123.589844,4131.794922,4125.641113,4148.717773,4152.307617,4156.410156,4144.102539,4143.077148,4167.179688,4156.922852,4134.358887,4156.922852,4131.794922,765.000000,4.000000,,,,0.000000,4.000000,4.000000,4.000000,4.000000,4.000000,4.000000,4.000000,4.000000,4.000000,4.000000,4.000000,4.000000,4.000000,4.000000,100.000000
1602005676.800379,86.000000,0.000000,4109.230957,4124.615234,4141.538574,4124.102539,4145.641113,4147.179688,4160.000000,4154.358887,4144.615234,4157.436035,4156.410156,4141.025879,4161.538574,4135.897461,873.000000,4.000000,,,,0.000000,4.000000,4.000000,4.000000,4.000000,4.000000,4.000000,4.000000,4.000000,4.000000,4.000000,4.000000,4.000000,4.000000,4.000000,100.000000
1602005676.808261,87.000000,0.000000,4106.666504,4117.948730,4138.461426,4122.563965,4136.410156,4134.358887,4159.487305,4160.512695,4154.871582,4148.717773,4153.333496,4142.051270,4157.948730,4136.922852,839.000000,4.000000,,,,0.000000,4.000000,4.000000,4.000000,4.000000,4.000000,4.000000,4.000000,4.000000,4.000000,4.000000,4.000000,4.000000,4.000000,4.000000,100.000000
1602005676.816143,88.000000,0.000000,4108.205078,4119.487305,4137.948730,4125.641113,4136.410156,4135.897461,4157.948730,4158.461426,4152.820313,4147.179688,4157.436035,4143.589844,4153.846191,4140.000000,783.000000,4.000000,,,,0.000000,4.000000,4.000000,4.000000,4.000000,4.000000,4.000000,4.000000,4.000000,4.000000,4.000000,4.000000,4.000000,4.000000,4.000000,100.000000
1602005676.823924,89.000000,0.000000,4113.333496,4118.974121,4141.025879,4128.717773,4143.077148,4145.641113,4153.333496,4150.769043,4146.153809,4159.487305,4156.922852,4140.512695,4155.897461,4141.025879,765.000000,4.000000,,,,0.000000,4.000000,4.000000,4.000000,4.000000,4.000000,4.000000,4.000000,4.000000,4.000000,4.000000,4.000000,4.000000,4.000000,4.000000,100.000000
1602005676.831806,90.000000,0.000000,4103.077148,4106.153809,4128.205078,4118.974121,4143.077148,4143.077148,4143.077148,4140.000000,4148.205078,4169.230957,4143.077148,4126.153809,4151.282227,4130.769043,873.000000,4.000000,,,,0.000000,4.000000,4.000000,4.000000,4.000000,4.000000,4.000000,4.000000,4.000000,4.000000,4.000000,4.000000,4.000000,4.000000,4.000000,100.000000
1602005676.839688,91.000000,0.000000,4084.615479,4095.897461,4113.846191,4106.666504,4133.846191,4128.205078,4134.871582,4133.333496,4144.102539,4158.461426,4133.846191,4115.897461,4136.922852,4118.461426,839.000000,4.000000,,,,0.000000,4.000000,4.000000,4.000000,4.000000,4.000000,4.000000,4.000000,4.000000,4.000000,4.000000,4.000000,4.000000,4.000000,4.000000,100.000000
1602005676.847569,92.000000,0.000000,4092.820557,4101.025879,4127.692383,4113.846191,4128.717773,4121.538574,4134.871582,4134.358887,4136.922852,4149.743652,4144.102539,4128.205078,4141.025879,4125.641113,783.000000,4.000000,,,,0.000000,4.000000,4.000000,4.000000,4.000000,4.000000,4.000000,4.000000,4.000000,4.000000,4.000000,4.000000,4.000000,4.000000,4.000000,100.000000
1602005676.855451,93.000000,0.000000,4108.717773,4110.769043,4139.487305,4124.102539,4134.358887,4132.820313,4135.897461,4135.897461,4138.461426,4152.820313,4158.974121,4141.538574,4155.897461,4138.974121,765.000000,4.000000,,,,0.000000,4.000000,4.000000,4.000000,4.000000,4.000000,4.000000,4.000000,4.000000,4.000000,4.000000,4.000000,4.000000,4.000000,4.000000,100.000000
1602005676.863333,94.000000,0.000000,4097.948730,4105.641113,4126.153809,4115.384766,4135.897461,4137.948730,4134.358887,4134.871582,4143.077148,4144.615234,4153.846191,4134.871582,4150.769043,4134.358887,873.000000,4.000000,,,,0.000000,4.000000,4.000000,4.000000,4.000000,4.000000,4.000000,4.000000,4.000000,4.000000,4.000000,4.000000,4.000000,4.000000,4.000000,100.000000
1602005676.871214,95.000000,0.000000,4078.974365,4092.307617,4110.769043,4104.615234,4132.820313,4126.666504,4135.384766,4136.410156,4146.153809,4137.436035,4135.897461,4122.563965,4136.410156,4121.538574,839.000000,4.000000,,,,0.000000,4.000000,4.000000,4.000000,4.000000,4.000000,4.000000,4.000000,4.000000,4.000000,4.000000,4.000000,4.000000,4.000000,4.000000,100.000000
1602005676.879096,96.000000,0.000000,4082.051270,4094.358887,4106.666504,4105.128418,4136.410156,4126.666504,4140.512695,4143.589844,4152.820313,4164.615234,4138.461426,4123.077148,4141.538574,4121.025879,783.000000,4.000000,,,,0.000000,4.000000,4.000000,4.000000,4.000000,4.000000,4.000000,4.000000,4.000000,4.000000,4.000000,4.000000,4.000000,4.000000,4.000000,100.000000
1602005676.887077,97.000000,0.000000,4091.281982,4106.153809,4108.205078,4108.205078,4139.487305,4136.410156,4142.563965,4154.358887,4158.461426,4184.615234,4154.358887,4130.769043,4154.871582,4130.769043,765.000000,4.000000,,,,0.000000,4.000000,4.000000,4.000000,4.000000,4.000000,4.000000,4.000000,4.000000,4.000000,4.000000,4.000000,4.000000,4.000000,4.000000,100.000000
1602005676.894959,98.000000,0.000000,4095.384521,4109.743652,4114.871582,4112.820313,4143.589844,4140.512695,4140.512695,4157.436035,4156.922852,4168.717773,4157.436035,4137.436035,4157.436035,4137.436035,873.000000,4.000000,,,,0.000000,4.000000,4.000000,4.000000,4.000000,4.000000,4.000000,4.000000,4.000000,4.000000,4.000000,4.000000,4.000000,4.000000,4.000000,100.000000
1602005676.902840,99.000000,0.000000,4101.538574,4107.692383,4119.487305,4120.000000,4146.666504,4141.538574,4136.410156,4148.205078,4148.205078,4153.333496,4153.333496,4138.974121,4155.384766,4138.461426,839.000000,4.000000,,,,0.000000,4.000000,4.000000,4.000000,4.000000,4.000000,4.000000,4.000000,4.000000,4.000000,4.000000,4.000000,4.000000,4.000000,4.000000,100.000000
1602005676.910721,100.000000,0.000000,4105.641113,4107.179688,4114.871582,4120.000000,4142.051270,4142.051270,4130.256348,4137.436035,4134.871582,4140.000000,4147.692383,4134.358887,4149.230957,4135.384766,783.000000,4.000000,,,,0.000000,4.000000,4.000000,4.000000,4.000000,4.000000,4.000000,4.000000,4.000000,4.000000,4.000000,4.000000,4.000000,4.000000,4.000000,100.000000
1602005676.918603,101.000000,0.000000,4106.153809,4115.897461,4115.897461,4120.000000,4140.000000,4141.538574,4126.153809,4135.897461,4129.743652,4128.205078,4143.077148,4136.922852,4144.615234,4135.897461,765.000000,4.000000,,,,0.000000,4.000000,4.000000,4.000000,4.000000,4.000000,4.000000,4.000000,4.000000,4.000000,4.000000,4.000000,4.000000,4.000000,4.000000,100.000000
1602005676.926484,102.000000,0.000000,4110.256348,4124.615234,4124.102539,4123.589844,4145.128418,4139.487305,4128.717773,4136.410156,4135.897461,4139.487305,4143.589844,4137.436035,4144.615234,4135.897461,873.000000,4.000000,,,,0.000000,4.000000,4.000000,4.000000,4.000000,4.000000,4.000000,4.000000,4.000000,4.000000,4.000000,4.000000,4.000000,4.000000,4.000000,100.000000
1602005676.934266,103.000000,0.000000,4109.743652,4115.384766,4123.589844,4123.077148,4141.025879,4131.282227,4126.153809,4127.179688,4133.333496,4152.307617,4143.077148,4123.077148,4141.025879,4128.717773,839.000000,4.000000,,,,0.000000,4.000000,4.000000,4.000000,4.000000,4.000000,4.000000,4.000000,4.000000,4.000000,4.000000,4.000000,4.000000,4.000000,4.000000,100.000000
1602005676.942147,104.000000,0.000000,4109.230957,4106.666504,4117.436035,4120.512695,4133.846191,4118.974121,4117.436035,4118.974121,4120.512695,4138.974121,4135.384766,4118.461426,4133.846191,4125.128418,783.000000,4.000000,,,,0.000000,4.000000,4.000000,4.000000,4.000000,4.000000,4.000000,4.000000,4.000000,4.000000,4.000000,4.000000,4.000000,4.000000,4.000000,100.000000
1602005676.950028,105.000000,0.000000,4117.436035,4117.948730,4123.589844,4122.051270,4137.948730,4117.948730,4121.025879,4128.205078,4124.102539,4136.922852,4138.461426,4135.384766,4142.563965,4134.358887,765.000000,4.000000,,,,0.000000,4.000000,4.000000,4.000000,4.000000,4.000000,4.000000,4.000000,4.000000,4.000000,4.000000,4.000000,4.000000,4.000000,4.000000,100.000000
1602005676.957910,106.000000,0.000000,4126.666504,4128.717773,4137.436035,4130.256348,4145.641113,4132.307617,4134.871582,4141.538574,4142.051270,4162.051270,4156.410156,4153.333496,4158.974121,4148.205078,873.000000,4.000000,,,,0.000000,4.000000,4.000000,4.000000,4.000000,4.000000,4.000000,4.000000,4.000000,4.000000,4.000000,4.000000,4.000000,4.000000,4.000000,100.000000
1602005676.965791,107.000000,0.000000,4131.282227,4127.692383,4142.563965,4134.871582,4147.692383,4142.051270,4141.025879,4148.205078,4145.641113,4158.461426,4164.615234,4157.436035,4161.025879,4152.820313,839.000000,4.000000,,,,0.000000,4.000000,4.000000,4.000000,4.000000,4.000000,4.000000,4.000000,4.000000,4.000000,4.000000,4.000000,4.000000,4.000000,4.000000,100.000000
1602005676.973673,108.000000,0.000000,4129.230957,4127.692383,4137.948730,4128.717773,4142.051270,4133.333496,4138.974121,4151.282227,4140.512695,4132.307617,4155.897461,4156.922852,4157.948730,4150.769043,783.000000,4.000000,,,,0.000000,4.000000,4.000000,4.000000,4.000000,4.000000,4.000000,4.000000,4.000000,4.000000,4.000000,4.000000,4.000000,4.000000,4.000000,100.000000
1602005676.981454,109.000000,0.000000,4122.563965,4125.641113,4131.794922,4121.025879,4136.410156,4128.205078,4138.974121,4148.205078,4134.358887,4134.871582,4150.769043,4155.384766,4154.358887,4151.794922,765.000000,4.000000,,,,0.000000,4.000000,4.000000,4.000000,4.000000,4.000000,4.000000,4.000000,4.000000,4.000000,4.000000,4.000000,4.000000,4.000000,4.000000,100.000000
1602005676.989335,110.000000,0.000000,4122.051270,4120.512695,4127.179688,4122.563965,4137.948730,4137.436035,4142.563965,4143.077148,4118.461426,4140.000000,4153.333496,4154.358887,4145.128418,4154.871582,873.000000,4.000000,,,,0.000000,4.000000,4.000000,4.000000,4.000000,4.000000,4.000000,4.000000,4.000000,4.000000,4.000000,4.000000,4.000000,4.000000,4.000000,100.000000
1602005676.997117,111.000000,0.000000,4124.102539,4120.000000,4126.666504,4124.102539,4136.410156,4140.000000,4142.051270,4141.025879,4113.846191,4121.538574,4151.794922,4161.025879,4142.563965,4153.846191,839.000000,4.000000,,,,0.000000,4.000000,4.000000,4.000000,4.000000,4.000000,4.000000,4.000000,4.000000,4.000000,4.000000,4.000000,4.000000,4.000000,4.000000,100.000000
1602005677.004998,112.000000,0.000000,4123.077148,4120.512695,4134.358887,4122.051270,4137.436035,4134.358887,4140.512695,4145.641113,4129.230957,4123.589844,4155.384766,4175.897461,4152.820313,4158.461426,783.000000,4.000000,,,,0.000000,4.000000,4.000000,4.000000,4.000000,4.000000,4.000000,4.000000,4.000000,4.000000,4.000000,4.000000,4.000000,4.000000,4.000000,100.000000
1602005677.012880,113.000000,0.000000,4131.794922,4123.589844,4143.077148,4126.666504,4147.179688,4137.948730,4141.538574,4149.743652,4140.000000,4143.077148,4169.743652,4187.179688,4165.641113,4171.794922,765.000000,4.000000,,,,0.000000,4.000000,4.000000,4.000000,4.000000,4.000000,4.000000,4.000000,4.000000,4.000000,4.000000,4.000000,4.000000,4.000000,4.000000,100.000000
1602005677.020762,114.000000,0.000000,4140.000000,4125.641113,4138.974121,4129.230957,4147.179688,4139.487305,4139.487305,4145.641113,4140.512695,4138.974121,4171.282227,4181.538574,4167.692383,4173.333496,873.000000,4.000000,,,,0.000000,4.000000,4.000000,4.000000,4.000000,4.000000,4.000000,4.000000,4.000000,4.000000,4.000000,4.000000,4.000000,4.000000,4.000000,100.000000
1602005677.028643,115.000000,0.000000,4125.128418,4114.871582,4122.563965,4124.102539,4136.922852,4130.256348,4135.384766,4138.461426,4136.922852,4131.282227,4154.358887,4164.615234,4155.384766,4158.974121,839.000000,4.000000,,,,0.000000,4.000000,4.000000,4.000000,4.000000,4.000000,4.000000,4.000000,4.000000,4.000000,4.000000,4.000000,4.000000,4.000000,4.000000,100.000000
1602005677.036525,116.000000,0.000000,4107.692383,4104.615234,4110.769043,4118.974121,4135.897461,4123.077148,4131.794922,4134.871582,4131.282227,4143.077148,4140.512695,4152.820313,4141.538574,4141.538574,783.000000,4.000000,,,,0.000000,4.000000,4.000000,4.000000,4.000000,4.000000,4.000000,4.000000,4.000000,4.000000,4.000000,4.000000,4.000000,4.000000,4.000000,100.000000
1602005677.044407,117.000000,0.000000,4105.641113,4105.641113,4109.230957,4114.358887,4139.487305,4122.563965,4130.769043,4134.358887,4133.333496,4147.692383,4137.436035,4149.230957,4134.871582,4127.692383,765.000000,4.000000,,,,0.000000,4.000000,4.000000,4.000000,4.000000,4.000000,4.000000,4.000000,4.000000,4.000000,4.000000,4.000000,4.000000,4.000000,4.000000,100.000000
1602005677.052288,118.000000,0.000000,4109.230957,4107.692383,4107.179688,4110.256348,4138.461426,4119.487305,4134.358887,4134.871582,4135.897461,4138.461426,4137.948730,4148.717773,4131.282227,4121.025879,873.000000,4.000000,,,,0.000000,4.000000,4.000000,4.000000,4.000000,4.000000,4.000000,4.000000,4.000000,4.000000,4.000000,4.000000,4.000000,4.000000,4.000000,100.000000
1602005677.060070,119.000000,0.000000,4112.820313,4112.820313,4110.256348,4116.922852,4136.922852,4115.897461,4140.512695,4136.410156,4125.128418,4126.153809,4137.948730,4152.307617,4130.769043,4124.615234,839.000000,4.000000,,,,0.000000,4.000000,4.000000,4.000000,4.000000,4.000000,4.000000,4.000000,4.000000,4.000000,4.000000,4.000000,4.000000,4.000000,4.000000,100.000000
1602005677.067952,120.000000,0.000000,4122.051270,4125.128418,4117.948730,4132.307617,4141.538574,4130.256348,4144.102539,4143.589844,4118.974121,4113.846191,4140.000000,4157.436035,4139.487305,4130.256348,783.000000,4.000000,,,,0.000000,4.000000,4.000000,4.000000,4.000000,4.000000,4.000000,4.000000,4.000000,4.000000,4.000000,4.000000,4.000000,4.000000,4.000000,100.000000
1602005677.075833,121.000000,0.000000,4126.666504,4124.615234,4116.410156,4133.846191,4146.666504,4144.615234,4142.051270,4150.256348,4126.666504,4123.589844,4140.000000,4158.974121,4138.974121,4129.743652,765.000000,4.000000,,,,0.000000,4.000000,4.000000,4.000000,4.000000,4.000000,4.000000,4.000000,4.000000,4.000000,4.000000,4.000000,4.000000,4.000000,4.000000,100.000000
1602005677.083715,122.000000,0.000000,4115.384766,4109.230957,4107.179688,4122.051270,4142.563965,4133.846191,4130.769043,4144.615234,4123.589844,4143.589844,4136.922852,4155.897461,4126.153809,4121.538574,873.000000,4.000000,,,,0.000000,4.000000,4.000000,4.000000,4.000000,4.000000,4.000000,4.000000,4.000000,4.000000,4.000000,4.000000,4.000000,4.000000,4.000000,100.000000
1602005677.091597,123.000000,0.000000,4104.615234,4104.615234,4104.615234,4119.487305,4135.897461,4126.666504,4124.615234,4136.922852,4122.563965,4134.871582,4136.410156,4149.743652,4118.461426,4111.794922,839.000000,4.000000,,,,0.000000,4.000000,4.000000,4.000000,4.000000,4.000000,4.000000,4.000000,4.000000,4.000000,4.000000,4.000000,4.000000,4.000000,4.000000,100.000000
1602005677.099478,124.000000,0.000000,4113.846191,4109.230957,4113.846191,4124.102539,4137.436035,4137.436035,4132.307617,4140.512695,4133.333496,4116.410156,4132.820313,4144.102539,4119.487305,4109.230957,783.000000,4.000000,,,,0.000000,4.000000,4.000000,4.000000,4.000000,4.000000,4.000000,4.000000,4.000000,4.000000,4.000000,4.000000,4.000000,4.000000,4.000000,100.000000
1602005677.107360,125.000000,0.000000,4122.563965,4107.692383,4117.948730,4122.051270,4139.487305,4142.563965,4137.436035,4139.487305,4129.230957,4118.461426,4129.230957,4142.051270,4121.025879,4107.692383,765.000000,4.000000,,,,0.000000,4.000000,4.000000,4.000000,4.000000,4.000000,4.000000,4.000000,4.000000,4.000000,4.000000,4.000000,4.000000,4.000000,4.000000,100.000000
1602005677.115242,126.000000,0.000000,4111.282227,4106.153809,4109.230957,4118.461426,4135.897461,4134.871582,4134.871582,4132.820313,4117.948730,4109.230957,4134.358887,4141.538574,4121.025879,4105.128418,873.000000,4.000000,,,,0.000000,4.000000,4.000000,4.000000,4.000000,4.000000,4.000000,4.000000,4.000000,4.000000,4.000000,4.000000,4.000000,4.000000,4.000000,100.000000
1602005677.123023,127.000000,0.000000,4108.205078,4107.692383,4105.641113,4120.512695,4134.358887,4128.205078,4135.897461,4133.846191,4118.974121,4093.846191,4137.948730,4140.000000,4122.563965,4111.282227,839.000000,4.000000,,,,0.000000,4.000000,4.000000,4.000000,4.000000,4.000000,4.000000,4.000000,4.000000,4.000000,4.000000,4.000000,4.000000,4.000000,4.000000,100.000000
1602005677.130904,128.000000,0.000000,4120.512695,4107.179688,4117.948730,4121.538574,4136.922852,4123.589844,4138.461426,4136.410156,4121.538574,4119.487305,4134.871582,4137.948730,4131.282227,4124.102539,783.000000,4.000000,,,,0.000000,4.000000,4.000000,4.000000,4.000000,4.000000,4.000000,4.000000,4.000000,4.000000,4.000000,4.000000,4.000000,4.000000,4.000000,100.000000
1602005677.138786,0.000000,0.000000,4124.615234,4109.743652,4126.153809,4120.000000,4134.871582,4121.025879,4135.897461,4138.974121,4128.717773,4154.358887,4141.538574,4138.461426,4146.666504,4133.333496,801.000000,4.000000,,,,0.000000,4.000000,4.000000,4.000000,4.000000,4.000000,4.000000,4.000000,4.000000,4.000000,4.000000,4.000000,4.000000,4.000000,4.000000,100.000000
1602005677.146667,1.000000,0.000000,4121.538574,4116.410156,4121.538574,4120.512695,4133.846191,4127.692383,4133.333496,4143.077148,4147.179688,4159.487305,4156.410156,4142.563965,4156.410156,4129.230957,757.000000,4.000000,,,,0.000000,4.000000,4.000000,4.000000,4.000000,4.000000,4.000000,4.000000,4.000000,4.000000,4.000000,4.000000,4.000000,4.000000,4.000000,100.000000
1602005677.154549,2.000000,0.000000,4122.051270,4120.512695,4121.025879,4123.589844,4142.563965,4135.384766,4135.384766,4141.538574,4152.820313,4155.384766,4152.307617,4143.589844,4152.820313,4124.102539,853.000000,4.000000,,,,0.000000,4.000000,4.000000,4.000000,4.000000,4.000000,4.000000,4.000000,4.000000,4.000000,4.000000,4.000000,4.000000,4.000000,4.000000,100.000000
1602005677.162330,3.000000,0.000000,4122.563965,4123.077148,4124.615234,4128.205078,4154.358887,4142.051270,4140.000000,4137.948730,4140.512695,4137.436035,4140.512695,4139.487305,4152.307617,4132.307617,868.000000,4.000000,,,,0.000000,4.000000,4.000000,4.000000,4.000000,4.000000,4.000000,4.000000,4.000000,4.000000,4.000000,4.000000,4.000000,4.000000,4.000000,100.000000
1602005677.170212,4.000000,0.000000,4125.641113,4126.153809,4125.641113,4129.230957,4152.307617,4145.128418,4140.512695,4138.461426,4134.871582,4104.615234,4146.666504,4141.025879,4156.410156,4142.563965,807.000000,4.000000,,,,0.000000,4.000000,4.000000,4.000000,4.000000,4.000000,4.000000,4.000000,4.000000,4.000000,4.000000,4.000000,4.000000,4.000000,4.000000,100.000000
1602005677.178094,5.000000,0.000000,4125.128418,4124.615234,4122.051270,4125.641113,4140.512695,4140.000000,4136.922852,4137.436035,4134.871582,4107.692383,4156.410156,4147.692383,4153.333496,4137.948730,819.000000,4.000000,,,,0.000000,4.000000,4.000000,4.000000,4.000000,4.000000,4.000000,4.000000,4.000000,4.000000,4.000000,4.000000,4.000000,4.000000,4.000000,100.000000
1602005677.185975,6.000000,0.000000,4121.538574,4122.563965,4118.974121,4129.743652,4142.563965,4133.333496,4136.922852,4136.410156,4137.948730,4144.102539,4154.871582,4150.256348,4152.307617,4136.410156,770.000000,4.000000,,,,0.000000,4.000000,4.000000,4.000000,4.000000,4.000000,4.000000,4.000000,4.000000,4.000000,4.000000,4.000000,4.000000,4.000000,4.000000,100.000000
1602005677.193857,7.000000,0.000000,4131.794922,4134.358887,4129.230957,4141.025879,4155.897461,4139.487305,4141.025879,4148.717773,4150.769043,4163.077148,4161.538574,4153.846191,4166.666504,4148.717773,695.000000,4.000000,,,,0.000000,4.000000,4.000000,4.000000,4.000000,4.000000,4.000000,4.000000,4.000000,4.000000,4.000000,4.000000,4.000000,4.000000,4.000000,100.000000
1602005677.201739,8.000000,0.000000,4143.589844,4145.128418,4136.922852,4143.589844,4156.410156,4142.563965,4141.025879,4153.333496,4158.974121,4156.922852,4170.256348,4153.846191,4171.282227,4150.256348,792.000000,4.000000,,,,0.000000,4.000000,4.000000,4.000000,4.000000,4.000000,4.000000,4.000000,4.000000,4.000000,4.000000,4.000000,4.000000,4.000000,4.000000,100.000000
1602005677.209620,9.000000,0.000000,4140.512695,4135.384766,4129.230957,4138.974121,4149.230957,4129.230957,4133.333496,4141.025879,4148.717773,4146.153809,4156.922852,4146.153809,4156.922852,4142.051270,840.000000,4.000000,,,,0.000000,4.000000,4.000000,4.000000,4.000000,4.000000,4.000000,4.000000,4.000000,4.000000,4.000000,4.000000,4.000000,4.000000,4.000000,100.000000
1602005677.217402,10.000000,0.000000,4133.846191,4127.692383,4122.051270,4137.948730,4150.769043,4125.128418,4131.794922,4134.871582,4140.512695,4136.922852,4148.717773,4140.512695,4152.820313,4141.025879,873.000000,4.000000,,,,0.000000,4.000000,4.000000,4.000000,4.000000,4.000000,4.000000,4.000000,4.000000,4.000000,4.000000,4.000000,4.000000,4.000000,4.000000,100.000000
1602005677.225283,11.000000,0.000000,4132.820313,4132.307617,4122.051270,4136.410156,4145.641113,4136.410156,4136.922852,4138.974121,4145.128418,4134.871582,4155.384766,4141.025879,4151.794922,4138.461426,839.000000,4.000000,,,,0.000000,4.000000,4.000000,4.000000,4.000000,4.000000,4.000000,4.000000,4.000000,4.000000,4.000000,4.000000,4.000000,4.000000,4.000000,100.000000
1602005677.233264,12.000000,0.000000,4136.922852,4135.897461,4128.205078,4134.358887,4135.384766,4141.538574,4139.487305,4145.128418,4150.769043,4140.000000,4156.922852,4143.077148,4143.077148,4135.384766,783.000000,4.000000,,,,0.000000,4.000000,4.000000,4.000000,4.000000,4.000000,4.000000,4.000000,4.000000,4.000000,4.000000,4.000000,4.000000,4.000000,4.000000,100.000000
1602005677.241145,13.000000,0.000000,4138.974121,4133.333496,4133.846191,4135.897461,4143.589844,4142.051270,4141.025879,4153.333496,4158.974121,4154.871582,4153.846191,4143.589844,4146.666504,4138.974121,763.000000,4.000000,,,,0.000000,4.000000,4.000000,4.000000,4.000000,4.000000,4.000000,4.000000,4.000000,4.000000,4.000000,4.000000,4.000000,4.000000,4.000000,100.000000
1602005677.249126,14.000000,0.000000,4129.743652,4126.666504,4128.205078,4133.333496,4151.794922,4142.051270,4143.589844,4153.333496,4155.897461,4162.563965,4152.307617,4142.563965,4152.307617,4135.384766,873.000000,4.000000,,,,0.000000,4.000000,4.000000,4.000000,4.000000,4.000000,4.000000,4.000000,4.000000,4.000000,4.000000,4.000000,4.000000,4.000000,4.000000,100.000000
1602005677.257008,15.000000,0.000000,4126.153809,4125.641113,4120.512695,4131.794922,4147.179688,4137.436035,4141.538574,4141.025879,4131.282227,4140.000000,4150.256348,4145.128418,4141.025879,4132.307617,839.000000,4.000000,,,,0.000000,4.000000,4.000000,4.000000,4.000000,4.000000,4.000000,4.000000,4.000000,4.000000,4.000000,4.000000,4.000000,4.000000,4.000000,100.000000
1602005677.264889,16.000000,0.000000,4141.025879,4137.948730,4133.333496,4137.948730,4151.282227,4139.487305,4138.461426,4136.410156,4115.897461,4123.077148,4155.384766,4151.282227,4143.077148,4150.256348,0.000000,4.000000,,,,0.000000,4.000000,4.000000,4.000000,4.000000,4.000000,4.000000,4.000000,4.000000,4.000000,4.000000,4.000000,4.000000,4.000000,4.000000,100.000000
1602005677.272770,17.000000,0.000000,4148.717773,4146.666504,4150.769043,4143.589844,4159.487305,4142.563965,4138.461426,4138.461426,4119.487305,4131.794922,4158.974121,4156.410156,4158.974121,4155.384766,0.000000,4.000000,,,,0.000000,4.000000,4.000000,4.000000,4.000000,4.000000,4.000000,4.000000,4.000000,4.000000,4.000000,4.000000,4.000000,4.000000,4.000000,100.000000
1602005677.280552,18.000000,0.000000,4140.512695,4141.538574,4147.692383,4142.051270,4154.358887,4127.692383,4136.410156,4134.358887,4119.487305,4129.230957,4154.871582,4154.871582,4156.922852,4139.487305,0.000000,4.000000,,,,0.000000,4.000000,4.000000,4.000000,4.000000,4.000000,4.000000,4.000000,4.000000,4.000000,4.000000,4.000000,4.000000,4.000000,4.000000,100.000000
1602005677.288433,19.000000,0.000000,4137.436035,4137.948730,4140.000000,4137.436035,4150.256348,4124.102539,4138.461426,4134.358887,4114.871582,4122.563965,4153.333496,4151.794922,4148.717773,4135.897461,0.000000,4.000000,,,,0.000000,4.000000,4.000000,4.000000,4.000000,4.000000,4.000000,4.000000,4.000000,4.000000,4.000000,4.000000,4.000000,4.000000,4.000000,100.000000
1602005677.296214,20.000000,0.000000,4142.563965,4141.025879,4141.025879,4136.922852,4149.230957,4145.641113,4144.102539,4140.512695,4124.615234,4141.538574,4151.282227,4156.410156,4151.794922,4141.538574,0.000000,4.000000,,,,0.000000,4.000000,4.000000,4.000000,4.000000,4.000000,4.000000,4.000000,4.000000,4.000000,4.000000,4.000000,4.000000,4.000000,4.000000,100.000000
1602005677.304095,21.000000,0.000000,4144.615234,4139.487305,4145.641113,4139.487305,4145.641113,4155.897461,4145.641113,4142.563965,4136.922852,4155.897461,4155.897461,4162.563965,4155.897461,4145.128418,0.000000,4.000000,,,,0.000000,4.000000,4.000000,4.000000,4.000000,4.000000,4.000000,4.000000,4.000000,4.000000,4.000000,4.000000,4.000000,4.000000,4.000000,100.000000
1602005677.312076,22.000000,0.000000,4141.538574,4137.948730,4141.538574,4140.512695,4149.743652,4151.794922,4143.589844,4141.538574,4137.948730,4136.922852,4167.179688,4157.436035,4155.384766,4149.743652,0.000000,4.000000,,,,0.000000,4.000000,4.000000,4.000000,4.000000,4.000000,4.000000,4.000000,4.000000,4.000000,4.000000,4.000000,4.000000,4.000000,4.000000,100.000000
1602005677.319958,23.000000,0.000000,4137.436035,4137.436035,4134.358887,4138.974121,4155.384766,4151.794922,4140.000000,4140.000000,4129.743652,4118.974121,4164.615234,4151.794922,4148.205078,4146.666504,0.000000,4.000000,,,,0.000000,4.000000,4.000000,4.000000,4.000000,4.000000,4.000000,4.000000,4.000000,4.000000,4.000000,4.000000,4.000000,4.000000,4.000000,100.000000
1602005677.327939,24.000000,0.000000,4137.436035,4134.871582,4134.871582,4134.871582,4148.717773,4151.794922,4135.384766,4130.769043,4115.897461,4124.102539,4152.307617,4153.333496,4138.974121,4134.358887,0.000000,4.000000,,,,0.000000,4.000000,4.000000,4.000000,4.000000,4.000000,4.000000,4.000000,4.000000,4.000000,4.000000,4.000000,4.000000,4.000000,4.000000,100.000000
1602005677.335820,25.000000,0.000000,4139.487305,4127.179688,4138.461426,4126.153809,4138.974121,4149.230957,4135.384766,4125.128418,4115.384766,4144.102539,4148.717773,4152.820313,4139.487305,4132.820313,0.000000,4.000000,,,,0.000000,4.000000,4.000000,4.000000,4.000000,4.000000,4.000000,4.000000,4.000000,4.000000,4.000000,4.000000,4.000000,4.000000,4.000000,100.000000
1602005677.343702,26.000000,0.000000,4139.487305,4120.512695,4142.051270,4121.025879,4142.563965,4155.384766,4136.410156,4129.230957,4130.769043,4155.384766,4151.794922,4153.846191,4145.641113,4140.000000,0.000000,4.000000,,,,0.000000,4.000000,4.000000,4.000000,4.000000,4.000000,4.000000,4.000000,4.000000,4.000000,4.000000,4.000000,4.000000,4.000000,4.000000,100.000000
1602005677.351583,27.000000,0.000000,4138.461426,4128.205078,4136.922852,4127.692383,4152.820313,4157.436035,4127.692383,4126.666504,4135.897461,4145.128418,4154.358887,4152.307617,4144.102539,4143.077148,0.000000,4.000000,,,,0.000000,4.000000,4.000000,4.000000,4.000000,4.000000,4.000000,4.000000,4.000000,4.000000,4.000000,4.000000,4.000000,4.000000,4.000000,100.000000
1602005677.359464,28.000000,0.000000,4136.410156,4134.871582,4129.230957,4137.436035,4150.769043,4147.692383,4121.025879,4123.077148,4129.230957,4124.102539,4156.922852,4142.051270,4139.487305,4140.512695,0.000000,4.000000,,,,0.000000,4.000000,4.000000,4.000000,4.000000,4.000000,4.000000,4.000000,4.000000,4.000000,4.000000,4.000000,4.000000,4.000000,4.000000,100.000000
1602005677.367346,29.000000,0.000000,4134.358887,4132.820313,4129.743652,4137.436035,4138.461426,4145.128418,4128.717773,4130.769043,4131.794922,4115.384766,4154.871582,4141.538574,4139.487305,4138.974121,0.000000,4.000000,,,,0.000000,4.000000,4.000000,4.000000,4.000000,4.000000,4.000000,4.000000,4.000000,4.000000,4.000000,4.000000,4.000000,4.000000,4.000000,100.000000
1602005677.375127,30.000000,0.000000,4139.487305,4135.384766,4137.436035,4134.871582,4140.000000,4153.333496,4136.410156,4138.461426,4140.000000,4130.256348,4154.871582,4155.897461,4141.538574,4140.512695,0.000000,4.000000,,,,0.000000,4.000000,4.000000,4.000000,4.000000,4.000000,4.000000,4.000000,4.000000,4.000000,4.000000,4.000000,4.000000,4.000000,4.000000,100.000000
1602005677.383009,31.000000,0.000000,4141.025879,4138.461426,4137.436035,4135.897461,4147.692383,4157.436035,4138.461426,4137.436035,4137.948730,4138.461426,4156.410156,4156.922852,4141.025879,4143.589844,0.000000,4.000000,,,,0.000000,4.000000,4.000000,4.000000,4.000000,4.000000,4.000000,4.000000,4.000000,4.000000,4.000000,4.000000,4.000000,4.000000,4.000000,100.000000
1602005677.390890,32.000000,0.000000,4128.205078,4128.717773,4130.769043,4131.794922,4142.051270,4154.358887,4138.461426,4133.333496,4128.205078,4132.307617,4148.717773,4144.615234,4136.410156,4139.487305,0.000000,4.000000,,,,0.000000,4.000000,4.000000,4.000000,4.000000,4.000000,4.000000,4.000000,4.000000,4.000000,4.000000,4.000000,4.000000,4.000000,4.000000,100.000000
1602005677.398772,33.000000,0.000000,4123.077148,4125.641113,4131.282227,4127.692383,4137.948730,4150.256348,4130.256348,4125.641113,4126.666504,4137.948730,4140.512695,4142.051270,4132.820313,4125.128418,0.000000,4.000000,,,,0.000000,4.000000,4.000000,4.000000,4.000000,4.000000,4.000000,4.000000,4.000000,4.000000,4.000000,4.000000,4.000000,4.000000,4.000000,100.000000
1602005677.406653,34.000000,0.000000,4139.487305,4137.436035,4138.974121,4134.358887,4144.615234,4143.589844,4121.538574,4124.615234,4131.282227,4136.922852,4141.538574,4149.743652,4137.948730,4122.563965,0.000000,4.000000,,,,0.000000,4.000000,4.000000,4.000000,4.000000,4.000000,4.000000,4.000000,4.000000,4.000000,4.000000,4.000000,4.000000,4.000000,4.000000,100.000000
1602005677.414434,35.000000,0.000000,4155.384766,4141.025879,4149.743652,4141.025879,4148.205078,4137.436035,4123.077148,4132.307617,4138.461426,4120.512695,4155.384766,4161.025879,4149.230957,4147.179688,0.000000,4.000000,,,,0.000000,4.000000,4.000000,4.000000,4.000000,4.000000,4.000000,4.000000,4.000000,4.000000,4.000000,4.000000,4.000000,4.000000,4.000000,100.000000
1602005677.422315,36.000000,0.000000,4153.846191,4135.897461,4161.025879,4140.512695,4147.692383,4137.948730,4128.205078,4136.410156,4149.230957,4136.410156,4167.692383,4170.256348,4155.384766,4161.025879,0.000000,4.000000,,,,0.000000,4.000000,4.000000,4.000000,4.000000,4.000000,4.000000,4.000000,4.000000,4.000000,4.000000,4.000000,4.000000,4.000000,4.000000,100.000000
1602005677.430097,37.000000,0.000000,4150.769043,4139.487305,4166.666504,4141.538574,4146.666504,4138.974121,4126.666504,4135.897461,4155.384766,4166.153809,4167.179688,4172.820313,4156.922852,4150.769043,0.000000,4.000000,,,,0.000000,4.000000,4.000000,4.000000,4.000000,4.000000,4.000000,4.000000,4.000000,4.000000,4.000000,4.000000,4.000000,4.000000,4.000000,100.000000
1602005677.437979,38.000000,0.000000,4163.077148,4150.769043,4168.717773,4144.102539,4144.615234,4140.000000,4125.128418,4136.410156,4150.256348,4156.922852,4171.794922,4174.871582,4165.128418,4158.461426,0.000000,4.000000,,,,0.000000,4.000000,4.000000,4.000000,4.000000,4.000000,4.000000,4.000000,4.000000,4.000000,4.000000,4.000000,4.000000,4.000000,4.000000,100.000000
1602005677.445860,39.000000,0.000000,4170.769043,4153.333496,4165.641113,4145.641113,4144.615234,4141.538574,4128.717773,4138.461426,4155.384766,4157.948730,4187.179688,4182.051270,4174.871582,4176.410156,0.000000,4.000000,,,,0.000000,4.000000,4.000000,4.000000,4.000000,4.000000,4.000000,4.000000,4.000000,4.000000,4.000000,4.000000,4.000000,4.000000,4.000000,100.000000
1602005677.453742,40.000000,0.000000,4161.025879,4146.153809,4157.948730,4145.641113,4145.128418,4143.077148,4136.410156,4148.205078,4172.307617,4178.461426,4189.230957,4189.743652,4175.384766,4170.769043,0.000000,4.000000,,,,0.000000,4.000000,4.000000,4.000000,4.000000,4.000000,4.000000,4.000000,4.000000,4.000000,4.000000,4.000000,4.000000,4.000000,4.000000,100.000000
1602005677.461624,41.000000,0.000000,4146.153809,4140.000000,4149.230957,4140.512695,4140.512695,4142.051270,4141.538574,4152.820313,4169.743652,4158.461426,4175.897461,4187.179688,4170.769043,4154.358887,0.000000,4.000000,,,,0.000000,4.000000,4.000000,4.000000,4.000000,4.000000,4.000000,4.000000,4.000000,4.000000,4.000000,4.000000,4.000000,4.000000,4.000000,100.000000
1602005677.469505,42.000000,0.000000,4138.974121,4138.461426,4142.563965,4137.436035,4134.871582,4131.794922,4132.307617,4139.487305,4149.743652,4134.871582,4162.563965,4174.871582,4158.974121,4144.102539,0.000000,4.000000,,,,0.000000,4.000000,4.000000,4.000000,4.000000,4.000000,4.000000,4.000000,4.000000,4.000000,4.000000,4.000000,4.000000,4.000000,4.000000,100.000000
1602005677.477387,43.000000,0.000000,4136.922852,4136.410156,4138.974121,4140.000000,4135.897461,4127.692383,4122.563965,4124.615234,4140.000000,4150.769043,4153.846191,4167.179688,4145.128418,4139.487305,0.000000,4.000000,,,,0.000000,4.000000,4.000000,4.000000,4.000000,4.000000,4.000000,4.000000,4.000000,4.000000,4.000000,4.000000,4.000000,4.000000,4.000000,100.000000
1602005677.485269,44.000000,0.000000,4138.461426,4135.384766,4139.487305,4141.025879,4146.153809,4137.948730,4130.256348,4124.102539,4137.948730,4153.333496,4158.974121,4170.769043,4146.153809,4145.641113,0.000000,4.000000,,,,0.000000,4.000000,4.000000,4.000000,4.000000,4.000000,4.000000,4.000000,4.000000,4.000000,4.000000,4.000000,4.000000,4.000000,4.000000,100.000000
1602005677.493050,45.000000,0.000000,4140.000000,4135.897461,4140.000000,4137.436035,4149.230957,4142.563965,4138.974121,4127.179688,4134.358887,4130.769043,4169.743652,4172.820313,4154.358887,4153.846191,0.000000,4.000000,,,,0.000000,4.000000,4.000000,4.000000,4.000000,4.000000,4.000000,4.000000,4.000000,4.000000,4.000000,4.000000,4.000000,4.000000,4.000000,100.000000
1602005677.500932,46.000000,0.000000,4136.922852,4134.871582,4139.487305,4134.871582,4138.461426,4135.897461,4136.410156,4130.769043,4134.358887,4138.461426,4162.051270,4165.128418,4152.307617,4147.179688,0.000000,4.000000,,,,0.000000,4.000000,4.000000,4.000000,4.000000,4.000000,4.000000,4.000000,4.000000,4.000000,4.000000,4.000000,4.000000,4.000000,4.000000,100.000000
1602005677.508813,47.000000,0.000000,4134.358887,4135.384766,4140.000000,4135.384766,4136.410156,4132.820313,4134.358887,4137.436035,4142.563965,4160.512695,4151.282227,4161.538574,4148.717773,4135.384766,0.000000,4.000000,,,,0.000000,4.000000,4.000000,4.000000,4.000000,4.000000,4.000000,4.000000,4.000000,4.000000,4.000000,4.000000,4.000000,4.000000,4.000000,100.000000
1602005677.516694,48.000000,0.000000,4136.410156,4135.897461,4137.948730,4136.410156,4143.589844,4136.922852,4136.410156,4138.974121,4151.794922,4153.333496,4153.846191,4166.666504,4154.358887,4138.974121,0.000000,4.000000,,,,0.000000,4.000000,4.000000,4.000000,4.000000,4.000000,4.000000,4.000000,4.000000,4.000000,4.000000,4.000000,4.000000,4.000000,4.000000,100.000000
1602005677.524576,49.000000,0.000000,4140.000000,4137.436035,4142.051270,4136.922852,4143.589844,4139.487305,4136.410156,4143.589844,4155.897461,4146.153809,4164.615234,4169.743652,4158.461426,4151.282227,0.000000,4.000000,,,,0.000000,4.000000,4.000000,4.000000,4.000000,4.000000,4.000000,4.000000,4.000000,4.000000,4.000000,4.000000,4.000000,4.000000,4.000000,100.000000
1602005677.532457,50.000000,0.000000,4141.538574,4140.000000,4154.358887,4138.461426,4143.077148,4140.000000,4139.487305,4150.769043,4160.000000,4163.077148,4169.230957,4168.205078,4157.436035,4154.871582,0.000000,4.000000,,,,0.000000,4.000000,4.000000,4.000000,4.000000,4.000000,4.000000,4.000000,4.000000,4.000000,4.000000,4.000000,4.000000,4.000000,4.000000,100.000000
1602005677.540238,51.000000,0.000000,4142.563965,4139.487305,4156.922852,4138.974121,4142.563965,4142.051270,4141.538574,4145.641113,4157.436035,4164.615234,4160.512695,4164.615234,4157.948730,4148.205078,0.000000,4.000000,,,,0.000000,4.000000,4.000000,4.000000,4.000000,4.000000,4.000000,4.000000,4.000000,4.000000,4.000000,4.000000,4.000000,4.000000,4.000000,100.000000
1602005677.548120,52.000000,0.000000,4143.589844,4136.922852,4147.179688,4136.922852,4137.436035,4150.769043,4138.461426,4136.410156,4144.102539,4144.102539,4152.307617,4158.461426,4151.794922,4140.512695,0.000000,4.000000,,,,0.000000,4.000000,4.000000,4.000000,4.000000,4.000000,4.000000,4.000000,4.000000,4.000000,4.000000,4.000000,4.000000,4.000000,4.000000,100.000000
1602005677.556101,53.000000,0.000000,4140.512695,4136.410156,4141.538574,4137.436035,4137.948730,4153.846191,4139.487305,4133.333496,4138.461426,4145.641113,4154.358887,4146.153809,4140.512695,4136.922852,0.000000,4.000000,,,,0.000000,4.000000,4.000000,4.000000,4.000000,4.000000,4.000000,4.000000,4.000000,4.000000,4.000000,4.000000,4.000000,4.000000,4.000000,100.000000
1602005677.563983,54.000000,0.000000,4137.436035,4133.333496,4141.538574,4136.410156,4140.512695,4144.102539,4142.051270,4128.205078,4139.487305,4142.563965,4150.256348,4141.538574,4137.948730,4137.948730,0.000000,4.000000,,,,0.000000,4.000000,4.000000,4.000000,4.000000,4.000000,4.000000,4.000000,4.000000,4.000000,4.000000,4.000000,4.000000,4.000000,4.000000,100.000000
1602005677.571864,55.000000,0.000000,4130.769043,4124.615234,4137.948730,4127.692383,4130.769043,4135.897461,4138.974121,4126.153809,4127.692383,4112.307617,4136.410156,4147.179688,4137.948730,4139.487305,0.000000,4.000000,,,,0.000000,4.000000,4.000000,4.000000,4.000000,4.000000,4.000000,4.000000,4.000000,4.000000,4.000000,4.000000,4.000000,4.000000,4.000000,100.000000
1602005677.579746,56.000000,0.000000,4129.743652,4123.589844,4138.974121,4128.717773,4126.153809,4132.820313,4136.410156,4129.230957,4118.974121,4114.358887,4135.384766,4151.794922,4133.846191,4136.410156,0.000000,4.000000,,,,0.000000,4.000000,4.000000,4.000000,4.000000,4.000000,4.000000,4.000000,4.000000,4.000000,4.000000,4.000000,4.000000,4.000000,4.000000,100.000000
1602005677.587628,57.000000,0.000000,4137.436035,4131.794922,4144.102539,4139.487305,4135.897461,4123.589844,4132.820313,4127.692383,4126.666504,4151.794922,4142.563965,4151.282227,4134.358887,4129.230957,0.000000,4.000000,,,,0.000000,4.000000,4.000000,4.000000,4.000000,4.000000,4.000000,4.000000,4.000000,4.000000,4.000000,4.000000,4.000000,4.000000,4.000000,100.000000
1602005677.595509,58.000000,0.000000,4135.384766,4133.846191,4141.538574,4135.897461,4134.358887,4117.436035,4127.692383,4126.153809,4131.794922,4152.820313,4146.666504,4145.641113,4137.436035,4121.538574,0.000000,4.000000,,,,0.000000,4.000000,4.000000,4.000000,4.000000,4.000000,4.000000,4.000000,4.000000,4.000000,4.000000,4.000000,4.000000,4.000000,4.000000,100.000000
1602005677.603391,59.000000,0.000000,4122.051270,4125.641113,4136.410156,4125.641113,4123.589844,4118.974121,4125.641113,4124.615234,4124.615234,4121.025879,4141.538574,4138.461426,4137.436035,4125.128418,0.000000,4.000000,,,,0.000000,4.000000,4.000000,4.000000,4.000000,4.000000,4.000000,4.000000,4.000000,4.000000,4.000000,4.000000,4.000000,4.000000,4.000000,100.000000
1602005677.611273,60.000000,0.000000,4119.487305,4120.512695,4134.358887,4130.256348,4128.717773,4116.922852,4125.641113,4123.077148,4123.077148,4115.384766,4134.358887,4137.948730,4135.897461,4134.871582,0.000000,4.000000,,,,0.000000,4.000000,4.000000,4.000000,4.000000,4.000000,4.000000,4.000000,4.000000,4.000000,4.000000,4.000000,4.000000,4.000000,4.000000,100.000000
1602005677.619054,61.000000,0.000000,4132.820313,4128.717773,4136.410156,4139.487305,4139.487305,4114.871582,4126.153809,4133.333496,4133.846191,4138.461426,4145.641113,4151.794922,4136.410156,4136.922852,0.000000,4.000000,,,,0.000000,4.000000,4.000000,4.000000,4.000000,4.000000,4.000000,4.000000,4.000000,4.000000,4.000000,4.000000,4.000000,4.000000,4.000000,100.000000
1602005677.626936,62.000000,0.000000,4140.512695,4138.461426,4147.179688,4138.461426,4137.948730,4122.051270,4126.666504,4140.512695,4137.948730,4154.358887,4163.077148,4164.102539,4146.666504,4141.025879,0.000000,4.000000,,,,0.000000,4.000000,4.000000,4.000000,4.000000,4.000000,4.000000,4.000000,4.000000,4.000000,4.000000,4.000000,4.000000,4.000000,4.000000,100.000000
1602005677.634818,63.000000,0.000000,4136.922852,4135.384766,4152.307617,4136.410156,4134.358887,4127.179688,4126.666504,4136.922852,4136.410156,4155.384766,4159.487305,4162.051270,4158.461426,4153.333496,0.000000,4.000000,,,,0.000000,4.000000,4.000000,4.000000,4.000000,4.000000,4.000000,4.000000,4.000000,4.000000,4.000000,4.000000,4.000000,4.000000,4.000000,100.000000
1602005677.642699,64.000000,0.000000,4130.769043,4127.692383,4143.589844,4136.410156,4137.948730,4122.563965,4132.820313,4136.922852,4141.025879,4153.846191,4151.282227,4158.461426,4154.358887,4155.897461,801.000000,4.000000,,,,0.000000,4.000000,4.000000,4.000000,4.000000,4.000000,4.000000,4.000000,4.000000,4.000000,4.000000,4.000000,4.000000,4.000000,4.000000,100.000000
1602005677.650581,65.000000,0.000000,4125.128418,4126.153809,4135.384766,4129.230957,4135.897461,4120.512695,4137.436035,4133.846191,4137.436035,4152.820313,4149.230957,4153.333496,4141.538574,4145.128418,785.000000,4.000000,,,,0.000000,4.000000,4.000000,4.000000,4.000000,4.000000,4.000000,4.000000,4.000000,4.000000,4.000000,4.000000,4.000000,4.000000,4.000000,100.000000
1602005677.658463,66.000000,0.000000,4117.948730,4124.615234,4133.333496,4122.563965,4127.179688,4125.641113,4130.769043,4122.051270,4121.025879,4133.846191,4141.538574,4141.025879,4138.461426,4131.794922,853.000000,4.000000,,,,0.000000,4.000000,4.000000,4.000000,4.000000,4.000000,4.000000,4.000000,4.000000,4.000000,4.000000,4.000000,4.000000,4.000000,4.000000,100.000000
1602005677.666444,67.000000,0.000000,4115.384766,4120.512695,4132.307617,4128.205078,4129.743652,4129.230957,4124.102539,4118.974121,4113.333496,4105.641113,4134.871582,4132.820313,4134.871582,4122.563965,868.000000,4.000000,,,,0.000000,4.000000,4.000000,4.000000,4.000000,4.000000,4.000000,4.000000,4.000000,4.000000,4.000000,4.000000,4.000000,4.000000,4.000000,100.000000
1602005677.674326,68.000000,0.000000,4123.589844,4126.153809,4135.384766,4136.410156,4138.974121,4126.666504,4125.128418,4120.000000,4115.384766,4103.589844,4132.820313,4134.871582,4125.641113,4120.512695,807.000000,4.000000,,,,0.000000,4.000000,4.000000,4.000000,4.000000,4.000000,4.000000,4.000000,4.000000,4.000000,4.000000,4.000000,4.000000,4.000000,4.000000,100.000000
1602005677.682208,69.000000,0.000000,4124.102539,4134.871582,4134.358887,4133.846191,4136.922852,4113.333496,4122.051270,4116.410156,4108.717773,4126.666504,4128.205078,4133.846191,4126.153809,4122.563965,819.000000,4.000000,,,,0.000000,4.000000,4.000000,4.000000,4.000000,4.000000,4.000000,4.000000,4.000000,4.000000,4.000000,4.000000,4.000000,4.000000,4.000000,100.000000
1602005677.690090,70.000000,0.000000,4123.589844,4137.436035,4129.743652,4131.794922,4134.358887,4106.666504,4117.436035,4117.948730,4110.256348,4137.436035,4132.307617,4133.333496,4136.410156,4130.769043,800.000000,4.000000,,,,0.000000,4.000000,4.000000,4.000000,4.000000,4.000000,4.000000,4.000000,4.000000,4.000000,4.000000,4.000000,4.000000,4.000000,4.000000,100.000000
1602005677.697972,71.000000,0.000000,4134.358887,4135.384766,4134.871582,4135.897461,4135.897461,4114.871582,4119.487305,4122.051270,4121.538574,4140.512695,4139.487305,4135.897461,4140.000000,4135.384766,695.000000,4.000000,,,,0.000000,4.000000,4.000000,4.000000,4.000000,4.000000,4.000000,4.000000,4.000000,4.000000,4.000000,4.000000,4.000000,4.000000,4.000000,100.000000
1602005677.705854,72.000000,0.000000,4141.025879,4136.922852,4140.512695,4136.922852,4130.256348,4125.641113,4122.563965,4125.641113,4123.077148,4144.615234,4140.000000,4134.871582,4138.974121,4135.897461,792.000000,4.000000,,,,0.000000,4.000000,4.000000,4.000000,4.000000,4.000000,4.000000,4.000000,4.000000,4.000000,4.000000,4.000000,4.000000,4.000000,4.000000,100.000000
1602005677.713736,73.000000,0.000000,4140.512695,4138.974121,4142.051270,4136.922852,4127.179688,4131.794922,4125.128418,4130.769043,4128.717773,4141.538574,4152.307617,4144.102539,4151.282227,4150.256348,840.000000,4.000000,,,,0.000000,4.000000,4.000000,4.000000,4.000000,4.000000,4.000000,4.000000,4.000000,4.000000,4.000000,4.000000,4.000000,4.000000,4.000000,100.000000
1602005677.721618,74.000000,0.000000,4140.512695,4131.794922,4144.102539,4131.282227,4127.692383,4129.743652,4125.128418,4128.717773,4140.512695,4138.974121,4161.538574,4153.333496,4156.410156,4158.974121,873.000000,4.000000,,,,0.000000,4.000000,4.000000,4.000000,4.000000,4.000000,4.000000,4.000000,4.000000,4.000000,4.000000,4.000000,4.000000,4.000000,4.000000,100.000000
1602005677.729499,75.000000,0.000000,4130.256348,4121.538574,4137.948730,4118.974121,4124.615234,4122.051270,4122.563965,4121.025879,4133.846191,4142.563965,4143.589844,4141.025879,4143.589844,4138.461426,839.000000,4.000000,,,,0.000000,4.000000,4.000000,4.000000,4.000000,4.000000,4.000000,4.000000,4.000000,4.000000,4.000000,4.000000,4.000000,4.000000,4.000000,100.000000
1602005677.737381,76.000000,0.000000,4118.974121,4120.512695,4125.128418,4116.410156,4129.230957,4122.563965,4123.589844,4119.487305,4121.538574,4140.000000,4125.641113,4125.128418,4134.358887,4120.512695,783.000000,4.000000,,,,0.000000,4.000000,4.000000,4.000000,4.000000,4.000000,4.000000,4.000000,4.000000,4.000000,4.000000,4.000000,4.000000,4.000000,4.000000,100.000000
1602005677.745163,77.000000,0.000000,4121.025879,4123.077148,4118.461426,4122.563965,4134.358887,4127.692383,4124.615234,4120.512695,4119.487305,4136.410156,4124.615234,4124.102539,4130.256348,4126.666504,760.000000,4.000000,,,,0.000000,4.000000,4.000000,4.000000,4.000000,4.000000,4.000000,4.000000,4.000000,4.000000,4.000000,4.000000,4.000000,4.000000,4.000000,100.000000
1602005677.753045,78.000000,0.000000,4122.563965,4122.563965,4117.948730,4122.563965,4125.641113,4118.974121,4115.384766,4114.358887,4111.282227,4143.589844,4129.743652,4123.077148,4122.051270,4124.615234,873.000000,4.000000,,,,0.000000,4.000000,4.000000,4.000000,4.000000,4.000000,4.000000,4.000000,4.000000,4.000000,4.000000,4.000000,4.000000,4.000000,4.000000,100.000000
1602005677.760927,79.000000,0.000000,4117.948730,4118.974121,4120.000000,4116.922852,4118.461426,4106.153809,4108.717773,4106.153809,4100.000000,4125.641113,4134.871582,4117.436035,4119.487305,4116.922852,839.000000,4.000000,,,,0.000000,4.000000,4.000000,4.000000,4.000000,4.000000,4.000000,4.000000,4.000000,4.000000,4.000000,4.000000,4.000000,4.000000,4.000000,100.000000
1602005677.768809,80.000000,0.000000,4126.153809,4120.000000,4127.692383,4118.461426,4128.205078,4111.794922,4116.922852,4109.743652,4109.743652,4097.436035,4140.000000,4123.077148,4130.769043,4128.205078,783.000000,4.000000,,,,0.000000,4.000000,4.000000,4.000000,4.000000,4.000000,4.000000,4.000000,4.000000,4.000000,4.000000,4.000000,4.000000,4.000000,4.000000,100.000000
1602005677.776691,81.000000,0.000000,4137.948730,4128.205078,4136.922852,4125.641113,4136.922852,4126.666504,4122.563965,4120.000000,4125.128418,4124.102539,4137.948730,4131.794922,4140.512695,4143.077148,760.000000,4.000000,,,,0.000000,4.000000,4.000000,4.000000,4.000000,4.000000,4.000000,4.000000,4.000000,4.000000,4.000000,4.000000,4.000000,4.000000,4.000000,100.000000
1602005677.784573,82.000000,0.000000,4137.436035,4135.384766,4136.922852,4126.666504,4136.922852,4130.769043,4118.461426,4124.102539,4127.179688,4165.641113,4137.436035,4125.641113,4139.487305,4136.922852,873.000000,4.000000,,,,0.000000,4.000000,4.000000,4.000000,4.000000,4.000000,4.000000,4.000000,4.000000,4.000000,4.000000,4.000000,4.000000,4.000000,4.000000,100.000000
1602005677.792455,83.000000,0.000000,4137.436035,4134.871582,4133.846191,4126.153809,4136.410156,4123.589844,4118.461426,4126.153809,4130.256348,4159.487305,4148.205078,4118.974121,4137.436035,4126.153809,839.000000,4.000000,,,,0.000000,4.000000,4.000000,4.000000,4.000000,4.000000,4.000000,4.000000,4.000000,4.000000,4.000000,4.000000,4.000000,4.000000,4.000000,100.000000
1602005677.800336,84.000000,0.000000,4141.025879,4137.436035,4136.410156,4132.820313,4136.410156,4123.589844,4121.538574,4129.230957,4138.461426,4146.666504,4154.358887,4127.692383,4142.563965,4132.307617,783.000000,4.000000,,,,0.000000,4.000000,4.000000,4.000000,4.000000,4.000000,4.000000,4.000000,4.000000,4.000000,4.000000,4.000000,4.000000,4.000000,4.000000,100.000000
1602005677.808218,85.000000,0.000000,4143.077148,4142.051270,4139.487305,4139.487305,4137.948730,4126.666504,4121.538574,4130.256348,4141.538574,4161.538574,4153.333496,4143.589844,4152.307617,4143.077148,760.000000,4.000000,,,,0.000000,4.000000,4.000000,4.000000,4.000000,4.000000,4.000000,4.000000,4.000000,4.000000,4.000000,4.000000,4.000000,4.000000,4.000000,100.000000
1602005677.816000,86.000000,0.000000,4146.153809,4138.461426,4144.102539,4136.922852,4138.461426,4123.077148,4122.563965,4135.384766,4138.461426,4153.333496,4154.358887,4148.717773,4153.846191,4146.153809,873.000000,4.000000,,,,0.000000,4.000000,4.000000,4.000000,4.000000,4.000000,4.000000,4.000000,4.000000,4.000000,4.000000,4.000000,4.000000,4.000000,4.000000,100.000000
1602005677.823882,87.000000,0.000000,4152.307617,4138.974121,4153.846191,4133.846191,4137.436035,4124.615234,4125.641113,4140.000000,4140.512695,4131.282227,4154.871582,4147.179688,4150.769043,4145.641113,839.000000,4.000000,,,,0.000000,4.000000,4.000000,4.000000,4.000000,4.000000,4.000000,4.000000,4.000000,4.000000,4.000000,4.000000,4.000000,4.000000,4.000000,100.000000
1602005677.831763,88.000000,0.000000,4146.153809,4140.000000,4151.794922,4132.820313,4135.384766,4129.230957,4124.615234,4132.307617,4138.974121,4143.589844,4145.128418,4138.974121,4146.666504,4139.487305,783.000000,4.000000,,,,0.000000,4.000000,4.000000,4.000000,4.000000,4.000000,4.000000,4.000000,4.000000,4.000000,4.000000,4.000000,4.000000,4.000000,4.000000,100.000000
1602005677.839645,89.000000,0.000000,4123.589844,4122.051270,4127.179688,4120.512695,4127.692383,4121.538574,4117.436035,4117.948730,4124.615234,4153.846191,4130.256348,4118.974121,4133.846191,4125.641113,760.000000,4.000000,,,,0.000000,4.000000,4.000000,4.000000,4.000000,4.000000,4.000000,4.000000,4.000000,4.000000,4.000000,4.000000,4.000000,4.000000,4.000000,100.000000
1602005677.847527,90.000000,0.000000,4105.128418,4108.717773,4106.666504,4107.692383,4122.051270,4111.282227,4110.769043,4114.358887,4112.307617,4126.666504,4122.563965,4105.128418,4119.487305,4113.333496,873.000000,4.000000,,,,0.000000,4.000000,4.000000,4.000000,4.000000,4.000000,4.000000,4.000000,4.000000,4.000000,4.000000,4.000000,4.000000,4.000000,4.000000,100.000000
1602005677.855408,91.000000,0.000000,4106.666504,4116.922852,4104.102539,4112.307617,4128.205078,4116.922852,4109.230957,4121.025879,4108.717773,4103.077148,4118.461426,4112.307617,4116.922852,4105.641113,839.000000,4.000000,,,,0.000000,4.000000,4.000000,4.000000,4.000000,4.000000,4.000000,4.000000,4.000000,4.000000,4.000000,4.000000,4.000000,4.000000,4.000000,100.000000
1602005677.863290,92.000000,0.000000,4115.897461,4123.077148,4108.717773,4122.051270,4135.897461,4123.589844,4111.282227,4122.051270,4105.128418,4106.666504,4120.512695,4122.563965,4118.974121,4102.051270,783.000000,4.000000,,,,0.000000,4.000000,4.000000,4.000000,4.000000,4.000000,4.000000,4.000000,4.000000,4.000000,4.000000,4.000000,4.000000,4.000000,4.000000,100.000000
1602005677.871271,93.000000,0.000000,4118.461426,4124.102539,4113.333496,4122.563965,4135.897461,4121.025879,4117.948730,4116.922852,4106.153809,4114.358887,4128.717773,4124.615234,4122.563965,4111.282227,760.000000,4.000000,,,,0.000000,4.000000,4.000000,4.000000,4.000000,4.000000,4.000000,4.000000,4.000000,4.000000,4.000000,4.000000,4.000000,4.000000,4.000000,100.000000
1602005677.879153,94.000000,0.000000,4127.692383,4136.922852,4121.025879,4125.641113,4138.461426,4130.256348,4128.205078,4125.641113,4121.025879,4125.128418,4142.051270,4140.000000,4136.410156,4133.333496,873.000000,4.000000,,,,0.000000,4.000000,4.000000,4.000000,4.000000,4.000000,4.000000,4.000000,4.000000,4.000000,4.000000,4.000000,4.000000,4.000000,4.000000,100.000000
1602005677.887035,95.000000,0.000000,4142.051270,4143.589844,4131.282227,4131.794922,4141.538574,4138.974121,4128.717773,4134.871582,4130.256348,4138.974121,4147.692383,4156.922852,4145.128418,4144.615234,839.000000,4.000000,,,,0.000000,4.000000,4.000000,4.000000,4.000000,4.000000,4.000000,4.000000,4.000000,4.000000,4.000000,4.000000,4.000000,4.000000,4.000000,100.000000
1602005677.894916,96.000000,0.000000,4138.974121,4131.794922,4136.410156,4127.179688,4137.436035,4125.128418,4119.487305,4129.230957,4124.615234,4139.487305,4138.974121,4151.794922,4137.436035,4137.948730,783.000000,4.000000,,,,0.000000,4.000000,4.000000,4.000000,4.000000,4.000000,4.000000,4.000000,4.000000,4.000000,4.000000,4.000000,4.000000,4.000000,4.000000,100.000000
1602005677.902798,97.000000,0.000000,4126.666504,4126.666504,4135.384766,4123.077148,4136.410156,4115.384766,4117.948730,4130.256348,4127.179688,4135.384766,4136.922852,4149.230957,4134.871582,4137.436035,760.000000,4.000000,,,,0.000000,4.000000,4.000000,4.000000,4.000000,4.000000,4.000000,4.000000,4.000000,4.000000,4.000000,4.000000,4.000000,4.000000,4.000000,100.000000
1602005677.910680,98.000000,0.000000,4123.589844,4129.230957,4127.692383,4125.128418,4137.436035,4123.077148,4118.461426,4136.410156,4138.974121,4141.025879,4143.077148,4152.820313,4140.512695,4137.436035,873.000000,4.000000,,,,0.000000,4.000000,4.000000,4.000000,4.000000,4.000000,4.000000,4.000000,4.000000,4.000000,4.000000,4.000000,4.000000,4.000000,4.000000,100.000000
1602005677.918561,99.000000,0.000000,4126.153809,4125.641113,4120.512695,4122.563965,4134.871582,4126.666504,4118.461426,4132.820313,4142.051270,4138.974121,4141.025879,4143.077148,4136.410156,4126.666504,839.000000,4.000000,,,,0.000000,4.000000,4.000000,4.000000,4.000000,4.000000,4.000000,4.000000,4.000000,4.000000,4.000000,4.000000,4.000000,4.000000,4.000000,100.000000
1602005677.926343,100.000000,0.000000,4125.128418,4121.025879,4121.538574,4121.538574,4135.384766,4122.051270,4119.487305,4127.179688,4133.333496,4120.000000,4137.436035,4134.871582,4127.179688,4121.538574,783.000000,4.000000,,,,0.000000,4.000000,4.000000,4.000000,4.000000,4.000000,4.000000,4.000000,4.000000,4.000000,4.000000,4.000000,4.000000,4.000000,4.000000,100.000000
1602005677.934225,101.000000,0.000000,4124.615234,4121.538574,4122.051270,4124.102539,4135.897461,4114.358887,4112.820313,4125.641113,4121.538574,4114.871582,4133.846191,4136.410156,4122.051270,4121.538574,760.000000,4.000000,,,,0.000000,4.000000,4.000000,4.000000,4.000000,4.000000,4.000000,4.000000,4.000000,4.000000,4.000000,4.000000,4.000000,4.000000,4.000000,100.000000
1602005677.942106,102.000000,0.000000,4131.282227,4129.230957,4124.615234,4124.102539,4133.846191,4107.179688,4109.743652,4122.051270,4111.282227,4133.333496,4125.641113,4137.948730,4125.128418,4123.077148,873.000000,4.000000,,,,0.000000,4.000000,4.000000,4.000000,4.000000,4.000000,4.000000,4.000000,4.000000,4.000000,4.000000,4.000000,4.000000,4.000000,4.000000,100.000000
1602005677.949988,103.000000,0.000000,4141.025879,4139.487305,4136.922852,4130.769043,4135.384766,4116.410156,4119.487305,4117.436035,4107.179688,4138.974121,4127.692383,4142.051270,4130.769043,4132.820313,839.000000,4.000000,,,,0.000000,4.000000,4.000000,4.000000,4.000000,4.000000,4.000000,4.000000,4.000000,4.000000,4.000000,4.000000,4.000000,4.000000,4.000000,100.000000
1602005677.957870,104.000000,0.000000,4135.897461,4142.563965,4138.461426,4136.410156,4140.000000,4127.692383,4121.538574,4109.230957,4105.641113,4123.589844,4135.897461,4141.025879,4127.692383,4133.333496,783.000000,4.000000,,,,0.000000,4.000000,4.000000,4.000000,4.000000,4.000000,4.000000,4.000000,4.000000,4.000000,4.000000,4.000000,4.000000,4.000000,4.000000,100.000000
1602005677.965751,105.000000,0.000000,4122.563965,4131.794922,4123.077148,4130.256348,4140.000000,4122.051270,4110.769043,4100.000000,4097.948730,4109.230957,4126.153809,4126.153809,4118.974121,4118.974121,760.000000,4.000000,,,,0.000000,4.000000,4.000000,4.000000,4.000000,4.000000,4.000000,4.000000,4.000000,4.000000,4.000000,4.000000,4.000000,4.000000,4.000000,100.000000
1602005677.973633,106.000000,0.000000,4123.589844,4129.743652,4118.974121,4125.128418,4139.487305,4120.512695,4108.205078,4108.205078,4100.000000,4097.436035,4118.461426,4125.641113,4119.487305,4118.974121,873.000000,4.000000,,,,0.000000,4.000000,4.000000,4.000000,4.000000,4.000000,4.000000,4.000000,4.000000,4.000000,4.000000,4.000000,4.000000,4.000000,4.000000,100.000000
1602005677.981515,107.000000,0.000000,4132.307617,4134.358887,4126.666504,4127.179688,4140.000000,4125.641113,4112.820313,4118.974121,4115.384766,4100.512695,4126.666504,4138.461426,4124.615234,4129.230957,839.000000,4.000000,,,,0.000000,4.000000,4.000000,4.000000,4.000000,4.000000,4.000000,4.000000,4.000000,4.000000,4.000000,4.000000,4.000000,4.000000,4.000000,100.000000
1602005677.989496,108.000000,0.000000,4130.256348,4128.717773,4127.179688,4125.128418,4138.974121,4122.563965,4115.897461,4121.538574,4132.307617,4123.589844,4130.769043,4138.974121,4124.615234,4124.102539,783.000000,4.000000,,,,0.000000,4.000000,4.000000,4.000000,4.000000,4.000000,4.000000,4.000000,4.000000,4.000000,4.000000,4.000000,4.000000,4.000000,4.000000,100.000000
1602005677.997378,109.000000,0.000000,4122.563965,4127.179688,4123.077148,4123.077148,4139.487305,4122.563965,4122.051270,4131.794922,4148.717773,4142.051270,4132.820313,4135.384766,4131.282227,4117.436035,760.000000,4.000000,,,,0.000000,4.000000,4.000000,4.000000,4.000000,4.000000,4.000000,4.000000,4.000000,4.000000,4.000000,4.000000,4.000000,4.000000,4.000000,100.000000
1602005678.005259,110.000000,0.000000,4121.538574,4135.897461,4124.102539,4124.102539,4140.000000,4128.717773,4128.205078,4144.102539,4155.897461,4152.307617,4142.563965,4145.641113,4142.563965,4125.641113,873.000000,4.000000,,,,0.000000,4.000000,4.000000,4.000000,4.000000,4.000000,4.000000,4.000000,4.000000,4.000000,4.000000,4.000000,4.000000,4.000000,4.000000,100.000000
1602005678.013141,111.000000,0.000000,4130.769043,4137.436035,4125.128418,4123.077148,4136.410156,4127.692383,4126.666504,4143.077148,4147.692383,4151.794922,4143.589844,4153.333496,4140.512695,4135.384766,839.000000,4.000000,,,,0.000000,4.000000,4.000000,4.000000,4.000000,4.000000,4.000000,4.000000,4.000000,4.000000,4.000000,4.000000,4.000000,4.000000,4.000000,100.000000
1602005678.021023,112.000000,0.000000,4137.436035,4132.820313,4126.153809,4121.025879,4133.846191,4124.102539,4122.051270,4136.410156,4137.436035,4135.384766,4138.974121,4149.230957,4134.358887,4136.922852,783.000000,4.000000,,,,0.000000,4.000000,4.000000,4.000000,4.000000,4.000000,4.000000,4.000000,4.000000,4.000000,4.000000,4.000000,4.000000,4.000000,4.000000,100.000000
1602005678.028904,113.000000,0.000000,4136.410156,4138.461426,4133.333496,4125.128418,4144.615234,4133.846191,4124.615234,4137.436035,4134.358887,4132.307617,4147.692383,4150.769043,4144.615234,4135.897461,760.000000,4.000000,,,,0.000000,4.000000,4.000000,4.000000,4.000000,4.000000,4.000000,4.000000,4.000000,4.000000,4.000000,4.000000,4.000000,4.000000,4.000000,100.000000
1602005678.036886,114.000000,0.000000,4137.948730,4143.077148,4137.948730,4134.871582,4151.794922,4140.000000,4128.205078,4132.307617,4122.051270,4142.563965,4158.974121,4153.846191,4153.846191,4135.897461,873.000000,4.000000,,,,0.000000,4.000000,4.000000,4.000000,4.000000,4.000000,4.000000,4.000000,4.000000,4.000000,4.000000,4.000000,4.000000,4.000000,4.000000,100.000000
1602005678.044768,115.000000,0.000000,4143.589844,4140.000000,4136.410156,4138.461426,4142.051270,4126.153809,4124.102539,4118.974121,4100.000000,4129.230957,4150.769043,4144.102539,4143.589844,4136.922852,839.000000,4.000000,,,,0.000000,4.000000,4.000000,4.000000,4.000000,4.000000,4.000000,4.000000,4.000000,4.000000,4.000000,4.000000,4.000000,4.000000,4.000000,100.000000
1602005678.052650,116.000000,0.000000,4142.563965,4138.461426,4135.384766,4130.256348,4135.384766,4116.410156,4118.974121,4115.384766,4095.897461,4113.333496,4138.974121,4137.436035,4137.948730,4137.436035,783.000000,4.000000,,,,0.000000,4.000000,4.000000,4.000000,4.000000,4.000000,4.000000,4.000000,4.000000,4.000000,4.000000,4.000000,4.000000,4.000000,4.000000,100.000000
1602005678.060532,117.000000,0.000000,4138.461426,4137.948730,4132.307617,4128.717773,4140.000000,4123.589844,4122.051270,4120.512695,4108.205078,4125.641113,4141.538574,4145.128418,4142.051270,4138.461426,760.000000,4.000000,,,,0.000000,4.000000,4.000000,4.000000,4.000000,4.000000,4.000000,4.000000,4.000000,4.000000,4.000000,4.000000,4.000000,4.000000,4.000000,100.000000
1602005678.068414,118.000000,0.000000,4141.025879,4138.974121,4127.179688,4134.871582,4142.051270,4128.205078,4121.538574,4122.563965,4112.307617,4134.358887,4137.436035,4145.641113,4133.333496,4138.974121,873.000000,4.000000,,,,0.000000,4.000000,4.000000,4.000000,4.000000,4.000000,4.000000,4.000000,4.000000,4.000000,4.000000,4.000000,4.000000,4.000000,4.000000,100.000000
1602005678.076295,119.000000,0.000000,4133.846191,4134.358887,4124.615234,4128.717773,4140.000000,4125.641113,4112.307617,4117.948730,4108.205078,4115.384766,4118.974121,4130.769043,4120.000000,4129.743652,839.000000,4.000000,,,,0.000000,4.000000,4.000000,4.000000,4.000000,4.000000,4.000000,4.000000,4.000000,4.000000,4.000000,4.000000,4.000000,4.000000,4.000000,100.000000
1602005678.084177,120.000000,0.000000,4119.487305,4128.717773,4128.717773,4120.000000,4142.051270,4129.230957,4113.333496,4121.025879,4117.948730,4093.846191,4112.307617,4124.102539,4119.487305,4113.333496,783.000000,4.000000,,,,0.000000,4.000000,4.000000,4.000000,4.000000,4.000000,4.000000,4.000000,4.000000,4.000000,4.000000,4.000000,4.000000,4.000000,4.000000,100.000000
1602005678.092059,121.000000,0.000000,4123.077148,4131.282227,4134.871582,4122.563965,4140.512695,4130.256348,4124.102539,4132.307617,4132.820313,4101.025879,4122.051270,4130.769043,4120.000000,4112.307617,760.000000,4.000000,,,,0.000000,4.000000,4.000000,4.000000,4.000000,4.000000,4.000000,4.000000,4.000000,4.000000,4.000000,4.000000,4.000000,4.000000,4.000000,100.000000
1602005678.099941,122.000000,0.000000,4139.487305,4136.410156,4139.487305,4128.205078,4130.769043,4122.563965,4127.179688,4138.461426,4142.051270,4129.743652,4132.820313,4137.436035,4120.000000,4130.769043,873.000000,4.000000,,,,0.000000,4.000000,4.000000,4.000000,4.000000,4.000000,4.000000,4.000000,4.000000,4.000000,4.000000,4.000000,4.000000,4.000000,4.000000,100.000000
1602005678.107923,123.000000,0.000000,4141.538574,4136.922852,4137.436035,4125.128418,4125.128418,4121.025879,4128.717773,4143.589844,4148.717773,4145.128418,4137.948730,4139.487305,4129.743652,4140.000000,839.000000,4.000000,,,,0.000000,4.000000,4.000000,4.000000,4.000000,4.000000,4.000000,4.000000,4.000000,4.000000,4.000000,4.000000,4.000000,4.000000,4.000000,100.000000
1602005678.115804,124.000000,0.000000,4135.897461,4136.410156,4136.410156,4123.589844,4131.794922,4122.051270,4137.436035,4150.769043,4151.794922,4143.077148,4142.051270,4144.102539,4144.102539,4136.922852,783.000000,4.000000,,,,0.000000,4.000000,4.000000,4.000000,4.000000,4.000000,4.000000,4.000000,4.000000,4.000000,4.000000,4.000000,4.000000,4.000000,4.000000,100.000000
1602005678.123686,125.000000,0.000000,4146.666504,4141.538574,4146.666504,4130.769043,4140.000000,4120.000000,4142.051270,4155.897461,4153.333496,4146.153809,4152.307617,4158.461426,4156.410156,4145.128418,760.000000,4.000000,,,,0.000000,4.000000,4.000000,4.000000,4.000000,4.000000,4.000000,4.000000,4.000000,4.000000,4.000000,4.000000,4.000000,4.000000,4.000000,100.000000
1602005678.131568,126.000000,0.000000,4160.512695,4145.128418,4156.410156,4137.948730,4140.512695,4127.692383,4137.948730,4152.307617,4149.230957,4140.512695,4159.487305,4171.282227,4158.974121,4154.871582,873.000000,4.000000,,,,0.000000,4.000000,4.000000,4.000000,4.000000,4.000000,4.000000,4.000000,4.000000,4.000000,4.000000,4.000000,4.000000,4.000000,4.000000,100.000000
1602005678.139449,127.000000,0.000000,4160.512695,4141.538574,4156.922852,4138.974121,4139.487305,4136.410156,4129.743652,4143.589844,4130.769043,4125.641113,4148.717773,4167.692383,4148.717773,4154.358887,839.000000,4.000000,,,,0.000000,4.000000,4.000000,4.000000,4.000000,4.000000,4.000000,4.000000,4.000000,4.000000,4.000000,4.000000,4.000000,4.000000,4.000000,100.000000
1602005678.147331,128.000000,0.000000,4155.897461,4138.461426,4151.282227,4134.871582,4138.974121,4136.410156,4129.230957,4137.948730,4121.025879,4129.230957,4134.871582,4157.948730,4140.000000,4150.769043,783.000000,4.000000,,,,0.000000,4.000000,4.000000,4.000000,4.000000,4.000000,4.000000,4.000000,4.000000,4.000000,4.000000,4.000000,4.000000,4.000000,4.000000,100.000000
1602005678.155312,0.000000,0.000000,4149.230957,4136.410156,4139.487305,4130.769043,4138.461426,4141.538574,4140.512695,4137.948730,4127.692383,4138.974121,4130.769043,4154.358887,4135.897461,4141.538574,802.000000,4.000000,,,,0.000000,4.000000,4.000000,4.000000,4.000000,4.000000,4.000000,4.000000,4.000000,4.000000,4.000000,4.000000,4.000000,4.000000,4.000000,100.000000
1602005678.163194,1.000000,0.000000,4134.358887,4128.205078,4126.666504,4122.051270,4138.974121,4145.128418,4146.666504,4136.410156,4125.128418,4130.256348,4126.153809,4140.000000,4122.051270,4124.102539,791.000000,4.000000,,,,0.000000,4.000000,4.000000,4.000000,4.000000,4.000000,4.000000,4.000000,4.000000,4.000000,4.000000,4.000000,4.000000,4.000000,4.000000,100.000000
1602005678.171076,2.000000,0.000000,4121.538574,4119.487305,4121.538574,4113.333496,4135.384766,4137.948730,4142.051270,4132.307617,4113.846191,4112.820313,4115.384766,4118.461426,4108.717773,4115.384766,853.000000,4.000000,,,,0.000000,4.000000,4.000000,4.000000,4.000000,4.000000,4.000000,4.000000,4.000000,4.000000,4.000000,4.000000,4.000000,4.000000,4.000000,100.000000
1602005678.178957,3.000000,0.000000,4121.025879,4123.077148,4124.102539,4115.384766,4136.410156,4140.000000,4143.077148,4135.384766,4118.461426,4108.205078,4109.230957,4122.563965,4115.384766,4121.538574,868.000000,4.000000,,,,0.000000,4.000000,4.000000,4.000000,4.000000,4.000000,4.000000,4.000000,4.000000,4.000000,4.000000,4.000000,4.000000,4.000000,4.000000,100.000000
1602005678.186839,4.000000,0.000000,4123.077148,4125.128418,4122.051270,4121.538574,4142.051270,4144.615234,4144.102539,4139.487305,4131.794922,4107.179688,4120.512695,4137.948730,4123.589844,4122.563965,807.000000,4.000000,,,,0.000000,4.000000,4.000000,4.000000,4.000000,4.000000,4.000000,4.000000,4.000000,4.000000,4.000000,4.000000,4.000000,4.000000,4.000000,100.000000
1602005678.194721,5.000000,0.000000,4125.641113,4123.589844,4123.077148,4122.563965,4142.051270,4137.436035,4133.846191,4141.025879,4136.410156,4112.820313,4136.410156,4136.922852,4121.538574,4122.051270,819.000000,4.000000,,,,0.000000,4.000000,4.000000,4.000000,4.000000,4.000000,4.000000,4.000000,4.000000,4.000000,4.000000,4.000000,4.000000,4.000000,4.000000,100.000000
1602005678.202602,6.000000,0.000000,4133.846191,4132.307617,4132.820313,4124.102539,4140.512695,4136.410156,4124.102539,4140.000000,4137.436035,4132.820313,4139.487305,4137.436035,4130.256348,4134.358887,789.000000,4.000000,,,,0.000000,4.000000,4.000000,4.000000,4.000000,4.000000,4.000000,4.000000,4.000000,4.000000,4.000000,4.000000,4.000000,4.000000,4.000000,100.000000
1602005678.210384,7.000000,0.000000,4140.512695,4139.487305,4139.487305,4128.717773,4140.000000,4130.256348,4121.538574,4131.794922,4135.384766,4146.153809,4137.436035,4148.717773,4140.000000,4142.051270,695.000000,4.000000,,,,0.000000,4.000000,4.000000,4.000000,4.000000,4.000000,4.000000,4.000000,4.000000,4.000000,4.000000,4.000000,4.000000,4.000000,4.000000,100.000000
1602005678.218266,8.000000,0.000000,4141.538574,4137.436035,4136.922852,4126.666504,4133.846191,4113.846191,4123.589844,4123.589844,4128.205078,4144.102539,4141.025879,4155.897461,4138.461426,4138.461426,792.000000,4.000000,,,,0.000000,4.000000,4.000000,4.000000,4.000000,4.000000,4.000000,4.000000,4.000000,4.000000,4.000000,4.000000,4.000000,4.000000,4.000000,100.000000
1602005678.226148,9.000000,0.000000,4142.563965,4134.358887,4135.384766,4120.512695,4124.615234,4115.897461,4126.153809,4126.666504,4118.461426,4140.512695,4141.025879,4157.436035,4138.461426,4144.102539,840.000000,4.000000,,,,0.000000,4.000000,4.000000,4.000000,4.000000,4.000000,4.000000,4.000000,4.000000,4.000000,4.000000,4.000000,4.000000,4.000000,4.000000,100.000000
1602005678.234030,10.000000,0.000000,4139.487305,4128.717773,4137.948730,4121.025879,4119.487305,4126.153809,4127.692383,4130.256348,4111.282227,4128.205078,4136.922852,4153.333496,4136.922852,4149.743652,873.000000,4.000000,,,,0.000000,4.000000,4.000000,4.000000,4.000000,4.000000,4.000000,4.000000,4.000000,4.000000,4.000000,4.000000,4.000000,4.000000,4.000000,100.000000
1602005678.241912,11.000000,0.000000,4135.384766,4122.051270,4134.871582,4122.051270,4120.000000,4123.589844,4129.743652,4124.102539,4110.256348,4100.000000,4138.974121,4143.077148,4127.179688,4142.563965,839.000000,4.000000,,,,0.000000,4.000000,4.000000,4.000000,4.000000,4.000000,4.000000,4.000000,4.000000,4.000000,4.000000,4.000000,4.000000,4.000000,4.000000,100.000000
1602005678.249794,12.000000,0.000000,4137.948730,4127.692383,4128.717773,4122.563965,4128.205078,4127.179688,4129.230957,4124.102539,4112.307617,4100.000000,4141.025879,4136.922852,4122.563965,4136.922852,783.000000,4.000000,,,,0.000000,4.000000,4.000000,4.000000,4.000000,4.000000,4.000000,4.000000,4.000000,4.000000,4.000000,4.000000,4.000000,4.000000,4.000000,100.000000
1602005678.257675,13.000000,0.000000,4132.820313,4136.410156,4125.641113,4124.102539,4137.436035,4137.948730,4125.128418,4125.641113,4110.769043,4122.051270,4132.820313,4138.461426,4124.615234,4133.846191,760.000000,4.000000,,,,0.000000,4.000000,4.000000,4.000000,4.000000,4.000000,4.000000,4.000000,4.000000,4.000000,4.000000,4.000000,4.000000,4.000000,4.000000,100.000000
1602005678.265557,14.000000,0.000000,4122.563965,4135.897461,4121.538574,4124.102539,4136.410156,4136.410156,4122.563965,4114.358887,4104.615234,4114.358887,4121.025879,4136.922852,4121.025879,4129.743652,873.000000,4.000000,,,,0.000000,4.000000,4.000000,4.000000,4.000000,4.000000,4.000000,4.000000,4.000000,4.000000,4.000000,4.000000,4.000000,4.000000,4.000000,100.000000
1602005678.273439,15.000000,0.000000,4129.743652,4134.871582,4121.538574,4123.077148,4132.307617,4132.820313,4123.077148,4102.051270,4103.077148,4096.922852,4119.487305,4128.717773,4118.461426,4133.846191,839.000000,4.000000,,,,0.000000,4.000000,4.000000,4.000000,4.000000,4.000000,4.000000,4.000000,4.000000,4.000000,4.000000,4.000000,4.000000,4.000000,4.000000,100.000000
1602005678.281220,16.000000,0.000000,4133.846191,4132.820313,4123.589844,4124.615234,4135.897461,4129.743652,4126.153809,4104.615234,4104.102539,4105.641113,4122.563965,4121.538574,4121.025879,4129.743652,0.000000,4.000000,,,,0.000000,4.000000,4.000000,4.000000,4.000000,4.000000,4.000000,4.000000,4.000000,4.000000,4.000000,4.000000,4.000000,4.000000,4.000000,100.000000
1602005678.289102,17.000000,0.000000,4125.128418,4125.641113,4122.051270,4125.128418,4135.384766,4123.589844,4128.205078,4113.846191,4103.077148,4114.871582,4123.077148,4124.102539,4120.512695,4117.436035,0.000000,4.000000,,,,0.000000,4.000000,4.000000,4.000000,4.000000,4.000000,4.000000,4.000000,4.000000,4.000000,4.000000,4.000000,4.000000,4.000000,4.000000,100.000000
1602005678.297083,18.000000,0.000000,4131.794922,4123.077148,4129.230957,4124.615234,4129.230957,4123.077148,4130.256348,4121.025879,4110.769043,4107.692383,4132.820313,4134.358887,4125.128418,4130.256348,0.000000,4.000000,,,,0.000000,4.000000,4.000000,4.000000,4.000000,4.000000,4.000000,4.000000,4.000000,4.000000,4.000000,4.000000,4.000000,4.000000,4.000000,100.000000
1602005678.304964,19.000000,0.000000,4145.641113,4126.666504,4138.974121,4126.153809,4126.153809,4126.666504,4130.769043,4131.282227,4129.743652,4120.512695,4146.666504,4141.025879,4143.077148,4152.307617,0.000000,4.000000,,,,0.000000,4.000000,4.000000,4.000000,4.000000,4.000000,4.000000,4.000000,4.000000,4.000000,4.000000,4.000000,4.000000,4.000000,4.000000,100.000000
1602005678.312746,20.000000,0.000000,4140.000000,4129.230957,4133.846191,4127.179688,4126.153809,4133.846191,4133.846191,4141.538574,4145.641113,4156.410156,4148.205078,4143.077148,4158.461426,4154.358887,0.000000,4.000000,,,,0.000000,4.000000,4.000000,4.000000,4.000000,4.000000,4.000000,4.000000,4.000000,4.000000,4.000000,4.000000,4.000000,4.000000,4.000000,100.000000
