Timestamp,EEG.Counter,EEG.Interpolated,EEG.AF3,EEG.F7,EEG.F3,EEG.FC5,EEG.T7,EEG.P7,EEG.O1,EEG.O2,EEG.P8,EEG.T8,EEG.FC6,EEG.F4,EEG.F8,EEG.AF4,EEG.RawCq,EEG.Battery,MarkerIndex,MarkerType,MarkerValueInt,EEG.MarkerHardware,CQ.AF3,CQ.F7,CQ.F3,CQ.FC5,CQ.T7,CQ.P7,CQ.O1,CQ.O2,CQ.P8,CQ.T8,CQ.FC6,CQ.F4,CQ.F8,CQ.AF4,CQ.Overall
1602005688.124300,104.000000,0.000000,4110.769043,4122.051270,4124.102539,4121.538574,4121.538574,4124.615234,4120.512695,4106.153809,4080.000000,4091.281982,4104.102539,4123.589844,4085.128174,4091.281982,797.000000,4.000000,,,,0.000000,4.000000,4.000000,4.000000,4.000000,4.000000,4.000000,4.000000,4.000000,4.000000,4.000000,4.000000,4.000000,4.000000,4.000000,100.000000
1602005688.132081,105.000000,0.000000,4102.563965,4119.487305,4119.487305,4121.538574,4122.051270,4122.563965,4112.307617,4101.538574,4079.487061,4075.897461,4107.692383,4127.692383,4088.205078,4088.718018,760.000000,4.000000,,,,0.000000,4.000000,4.000000,4.000000,4.000000,4.000000,4.000000,4.000000,4.000000,4.000000,4.000000,4.000000,4.000000,4.000000,4.000000,100.000000
1602005688.139963,106.000000,0.000000,4102.051270,4124.102539,4120.512695,4122.051270,4127.179688,4116.410156,4107.692383,4109.230957,4093.846191,4098.461426,4116.922852,4136.922852,4096.922852,4094.358887,870.000000,4.000000,,,,0.000000,4.000000,4.000000,4.000000,4.000000,4.000000,4.000000,4.000000,4.000000,4.000000,4.000000,4.000000,4.000000,4.000000,4.000000,100.000000
1602005688.147845,107.000000,0.000000,4116.922852,4134.871582,4124.102539,4126.666504,4138.461426,4121.025879,4104.102539,4117.948730,4113.846191,4146.666504,4128.205078,4143.589844,4108.717773,4105.641113,839.000000,4.000000,,,,0.000000,4.000000,4.000000,4.000000,4.000000,4.000000,4.000000,4.000000,4.000000,4.000000,4.000000,4.000000,4.000000,4.000000,4.000000,100.000000
1602005688.155726,108.000000,0.000000,4122.563965,4131.794922,4118.974121,4124.102539,4140.512695,4116.922852,4097.436035,4120.512695,4123.077148,4160.512695,4124.615234,4135.897461,4110.769043,4100.000000,797.000000,4.000000,,,,0.000000,4.000000,4.000000,4.000000,4.000000,4.000000,4.000000,4.000000,4.000000,4.000000,4.000000,4.000000,4.000000,4.000000,4.000000,100.000000
1602005688.163608,109.000000,0.000000,4118.461426,4121.025879,4112.307617,4117.948730,4132.307617,4102.563965,4099.487305,4118.974121,4122.051270,4136.410156,4114.871582,4127.692383,4105.641113,4087.692383,760.000000,4.000000,,,,0.000000,4.000000,4.000000,4.000000,4.000000,4.000000,4.000000,4.000000,4.000000,4.000000,4.000000,4.000000,4.000000,4.000000,4.000000,100.000000
1602005688.171490,110.000000,0.000000,4118.461426,4124.615234,4117.436035,4120.000000,4135.897461,4115.897461,4114.871582,4121.538574,4123.077148,4128.205078,4114.358887,4132.820313,4108.205078,4095.897461,870.000000,4.000000,,,,0.000000,4.000000,4.000000,4.000000,4.000000,4.000000,4.000000,4.000000,4.000000,4.000000,4.000000,4.000000,4.000000,4.000000,4.000000,100.000000
1602005688.179371,111.000000,0.000000,4114.358887,4130.769043,4123.077148,4124.102539,4141.538574,4140.000000,4124.615234,4125.128418,4124.615234,4130.256348,4113.333496,4135.897461,4107.179688,4100.512695,839.000000,4.000000,,,,0.000000,4.000000,4.000000,4.000000,4.000000,4.000000,4.000000,4.000000,4.000000,4.000000,4.000000,4.000000,4.000000,4.000000,4.000000,100.000000
1602005688.187353,112.000000,0.000000,4106.666504,4125.128418,4118.974121,4122.051270,4128.717773,4133.333496,4119.487305,4118.974121,4118.461426,4103.589844,4108.717773,4125.641113,4092.820557,4081.538574,797.000000,4.000000,,,,0.000000,4.000000,4.000000,4.000000,4.000000,4.000000,4.000000,4.000000,4.000000,4.000000,4.000000,4.000000,4.000000,4.000000,4.000000,100.000000
1602005688.195235,113.000000,0.000000,4113.333496,4121.025879,4122.563965,4123.077148,4117.436035,4124.102539,4119.487305,4116.410156,4110.256348,4086.153809,4108.205078,4126.666504,4086.666748,4076.410156,760.000000,4.000000,,,,0.000000,4.000000,4.000000,4.000000,4.000000,4.000000,4.000000,4.000000,4.000000,4.000000,4.000000,4.000000,4.000000,4.000000,4.000000,100.000000
1602005688.203117,114.000000,0.000000,4123.589844,4123.077148,4135.897461,4127.179688,4121.538574,4132.820313,4120.512695,4121.025879,4111.282227,4109.230957,4110.256348,4137.948730,4089.743652,4089.230713,870.000000,4.000000,,,,0.000000,4.000000,4.000000,4.000000,4.000000,4.000000,4.000000,4.000000,4.000000,4.000000,4.000000,4.000000,4.000000,4.000000,4.000000,100.000000
1602005688.210999,115.000000,0.000000,4119.487305,4126.666504,4139.487305,4129.230957,4124.102539,4130.256348,4110.769043,4119.487305,4116.922852,4136.922852,4117.948730,4132.820313,4093.333252,4091.794922,839.000000,4.000000,,,,0.000000,4.000000,4.000000,4.000000,4.000000,4.000000,4.000000,4.000000,4.000000,4.000000,4.000000,4.000000,4.000000,4.000000,4.000000,100.000000
1602005688.218880,116.000000,0.000000,4117.948730,4129.230957,4130.256348,4128.717773,4122.563965,4121.538574,4105.128418,4117.948730,4123.077148,4137.436035,4120.512695,4125.128418,4101.025879,4087.692383,797.000000,4.000000,,,,0.000000,4.000000,4.000000,4.000000,4.000000,4.000000,4.000000,4.000000,4.000000,4.000000,4.000000,4.000000,4.000000,4.000000,4.000000,100.000000
1602005688.226762,117.000000,0.000000,4125.128418,4128.205078,4122.563965,4125.641113,4125.128418,4123.589844,4107.692383,4121.538574,4122.563965,4124.615234,4107.692383,4126.666504,4106.666504,4090.256348,760.000000,4.000000,,,,0.000000,4.000000,4.000000,4.000000,4.000000,4.000000,4.000000,4.000000,4.000000,4.000000,4.000000,4.000000,4.000000,4.000000,4.000000,100.000000
1602005688.234644,118.000000,0.000000,4124.102539,4127.179688,4118.974121,4122.051270,4124.102539,4122.563965,4107.179688,4116.410156,4121.538574,4119.487305,4105.641113,4123.589844,4105.641113,4092.307617,870.000000,4.000000,,,,0.000000,4.000000,4.000000,4.000000,4.000000,4.000000,4.000000,4.000000,4.000000,4.000000,4.000000,4.000000,4.000000,4.000000,4.000000,100.000000
1602005688.242526,119.000000,0.000000,4118.461426,4133.333496,4115.897461,4125.641113,4120.512695,4121.025879,4106.666504,4107.692383,4123.077148,4121.538574,4128.205078,4124.102539,4112.820313,4093.846191,839.000000,4.000000,,,,0.000000,4.000000,4.000000,4.000000,4.000000,4.000000,4.000000,4.000000,4.000000,4.000000,4.000000,4.000000,4.000000,4.000000,4.000000,100.000000
1602005688.250408,120.000000,0.000000,4130.256348,4145.128418,4124.102539,4135.897461,4123.589844,4125.128418,4113.846191,4115.897461,4125.128418,4127.179688,4138.461426,4136.922852,4127.692383,4103.589844,797.000000,4.000000,,,,0.000000,4.000000,4.000000,4.000000,4.000000,4.000000,4.000000,4.000000,4.000000,4.000000,4.000000,4.000000,4.000000,4.000000,4.000000,100.000000
1602005688.258389,121.000000,0.000000,4142.051270,4152.820313,4137.436035,4140.000000,4123.589844,4124.615234,4115.384766,4124.102539,4129.743652,4135.384766,4133.846191,4144.615234,4134.358887,4118.461426,760.000000,4.000000,,,,0.000000,4.000000,4.000000,4.000000,4.000000,4.000000,4.000000,4.000000,4.000000,4.000000,4.000000,4.000000,4.000000,4.000000,4.000000,100.000000
1602005688.266270,122.000000,0.000000,4138.974121,4153.846191,4139.487305,4137.948730,4121.025879,4121.538574,4113.333496,4120.000000,4136.410156,4143.589844,4145.128418,4142.563965,4138.461426,4132.820313,870.000000,4.000000,,,,0.000000,4.000000,4.000000,4.000000,4.000000,4.000000,4.000000,4.000000,4.000000,4.000000,4.000000,4.000000,4.000000,4.000000,4.000000,100.000000
1602005688.274252,123.000000,0.000000,4144.615234,4153.846191,4143.589844,4138.461426,4124.102539,4127.179688,4120.512695,4128.205078,4148.205078,4153.333496,4155.384766,4152.820313,4145.641113,4139.487305,839.000000,4.000000,,,,0.000000,4.000000,4.000000,4.000000,4.000000,4.000000,4.000000,4.000000,4.000000,4.000000,4.000000,4.000000,4.000000,4.000000,4.000000,100.000000
1602005688.282133,124.000000,0.000000,4155.384766,4157.436035,4156.922852,4141.538574,4126.153809,4129.743652,4129.743652,4140.512695,4153.333496,4160.512695,4145.641113,4166.666504,4145.641113,4140.000000,797.000000,4.000000,,,,0.000000,4.000000,4.000000,4.000000,4.000000,4.000000,4.000000,4.000000,4.000000,4.000000,4.000000,4.000000,4.000000,4.000000,4.000000,100.000000
1602005688.290015,125.000000,0.000000,4146.153809,4155.897461,4156.410156,4140.512695,4122.051270,4122.563965,4128.717773,4129.230957,4143.077148,4144.615234,4133.333496,4163.077148,4137.436035,4135.384766,760.000000,4.000000,,,,0.000000,4.000000,4.000000,4.000000,4.000000,4.000000,4.000000,4.000000,4.000000,4.000000,4.000000,4.000000,4.000000,4.000000,4.000000,100.000000
1602005688.297897,126.000000,0.000000,4134.358887,4146.666504,4141.538574,4140.512695,4122.051270,4122.051270,4124.102539,4117.948730,4136.410156,4122.563965,4134.871582,4154.871582,4128.205078,4121.538574,870.000000,4.000000,,,,0.000000,4.000000,4.000000,4.000000,4.000000,4.000000,4.000000,4.000000,4.000000,4.000000,4.000000,4.000000,4.000000,4.000000,4.000000,100.000000
1602005688.305778,127.000000,0.000000,4131.794922,4138.974121,4132.307617,4136.410156,4125.128418,4127.692383,4123.077148,4118.974121,4134.358887,4128.717773,4140.000000,4149.743652,4124.102539,4108.717773,839.000000,4.000000,,,,0.000000,4.000000,4.000000,4.000000,4.000000,4.000000,4.000000,4.000000,4.000000,4.000000,4.000000,4.000000,4.000000,4.000000,4.000000,100.000000
1602005688.313660,128.000000,0.000000,4124.102539,4134.871582,4131.282227,4123.077148,4122.051270,4121.025879,4121.025879,4111.794922,4125.641113,4149.230957,4132.307617,4138.461426,4122.051270,4103.589844,797.000000,4.000000,,,,0.000000,4.000000,4.000000,4.000000,4.000000,4.000000,4.000000,4.000000,4.000000,4.000000,4.000000,4.000000,4.000000,4.000000,4.000000,100.000000
1602005688.321642,0.000000,0.000000,4124.615234,4136.410156,4134.871582,4124.615234,4124.102539,4119.487305,4120.000000,4108.717773,4130.256348,4155.897461,4129.230957,4136.410156,4124.102539,4111.282227,803.000000,4.000000,,,,0.000000,4.000000,4.000000,4.000000,4.000000,4.000000,4.000000,4.000000,4.000000,4.000000,4.000000,4.000000,4.000000,4.000000,4.000000,100.000000
1602005688.329524,1.000000,0.000000,4136.410156,4142.051270,4140.512695,4139.487305,4136.410156,4135.384766,4123.077148,4122.563965,4144.102539,4149.230957,4138.461426,4151.282227,4130.769043,4122.051270,803.000000,4.000000,,,,0.000000,4.000000,4.000000,4.000000,4.000000,4.000000,4.000000,4.000000,4.000000,4.000000,4.000000,4.000000,4.000000,4.000000,4.000000,100.000000
1602005688.337405,2.000000,0.000000,4135.384766,4142.051270,4142.051270,4141.025879,4142.051270,4145.641113,4124.102539,4129.743652,4132.820313,4130.256348,4136.922852,4155.384766,4129.230957,4112.307617,853.000000,4.000000,,,,0.000000,4.000000,4.000000,4.000000,4.000000,4.000000,4.000000,4.000000,4.000000,4.000000,4.000000,4.000000,4.000000,4.000000,4.000000,100.000000
1602005688.345287,3.000000,0.000000,4131.282227,4138.461426,4141.025879,4133.333496,4132.820313,4136.922852,4121.538574,4128.205078,4120.000000,4118.974121,4125.128418,4142.563965,4122.051270,4097.436035,868.000000,4.000000,,,,0.000000,4.000000,4.000000,4.000000,4.000000,4.000000,4.000000,4.000000,4.000000,4.000000,4.000000,4.000000,4.000000,4.000000,4.000000,100.000000
1602005688.353169,4.000000,0.000000,4135.384766,4138.461426,4140.512695,4135.384766,4125.128418,4128.205078,4115.384766,4127.692383,4125.641113,4135.384766,4121.025879,4137.948730,4118.461426,4103.589844,807.000000,4.000000,,,,0.000000,4.000000,4.000000,4.000000,4.000000,4.000000,4.000000,4.000000,4.000000,4.000000,4.000000,4.000000,4.000000,4.000000,4.000000,100.000000
1602005688.361051,5.000000,0.000000,4136.922852,4138.461426,4138.461426,4133.846191,4131.794922,4131.794922,4111.282227,4120.000000,4125.641113,4136.410156,4115.897461,4140.512695,4112.820313,4110.256348,832.000000,4.000000,,,,0.000000,4.000000,4.000000,4.000000,4.000000,4.000000,4.000000,4.000000,4.000000,4.000000,4.000000,4.000000,4.000000,4.000000,4.000000,100.000000
1602005688.368933,6.000000,0.000000,4135.384766,4138.461426,4137.436035,4125.128418,4140.512695,4137.948730,4115.897461,4114.358887,4117.948730,4121.025879,4117.436035,4142.051270,4113.846191,4107.692383,771.000000,4.000000,,,,0.000000,4.000000,4.000000,4.000000,4.000000,4.000000,4.000000,4.000000,4.000000,4.000000,4.000000,4.000000,4.000000,4.000000,4.000000,100.000000
1602005688.376815,7.000000,0.000000,4137.948730,4139.487305,4137.948730,4124.615234,4141.538574,4138.461426,4122.051270,4120.000000,4121.025879,4130.769043,4136.410156,4146.153809,4122.563965,4116.410156,687.000000,4.000000,,,,0.000000,4.000000,4.000000,4.000000,4.000000,4.000000,4.000000,4.000000,4.000000,4.000000,4.000000,4.000000,4.000000,4.000000,4.000000,100.000000
1602005688.384697,8.000000,0.000000,4141.538574,4142.563965,4137.948730,4131.794922,4141.025879,4134.358887,4120.000000,4121.025879,4130.769043,4143.589844,4145.128418,4150.769043,4126.666504,4126.153809,792.000000,4.000000,,,,0.000000,4.000000,4.000000,4.000000,4.000000,4.000000,4.000000,4.000000,4.000000,4.000000,4.000000,4.000000,4.000000,4.000000,4.000000,100.000000
1602005688.392479,9.000000,0.000000,4141.025879,4141.025879,4137.948730,4136.410156,4144.102539,4134.358887,4123.077148,4124.615234,4142.563965,4129.743652,4140.512695,4160.000000,4133.846191,4126.666504,840.000000,4.000000,,,,0.000000,4.000000,4.000000,4.000000,4.000000,4.000000,4.000000,4.000000,4.000000,4.000000,4.000000,4.000000,4.000000,4.000000,4.000000,100.000000
1602005688.400360,10.000000,0.000000,4135.384766,4136.410156,4141.025879,4135.384766,4143.589844,4138.974121,4132.307617,4137.436035,4152.307617,4123.589844,4142.563965,4170.256348,4141.538574,4128.205078,870.000000,4.000000,,,,0.000000,4.000000,4.000000,4.000000,4.000000,4.000000,4.000000,4.000000,4.000000,4.000000,4.000000,4.000000,4.000000,4.000000,4.000000,100.000000
1602005688.408242,11.000000,0.000000,4138.461426,4143.589844,4140.512695,4136.410156,4140.512695,4142.051270,4130.769043,4138.461426,4145.128418,4137.948730,4137.436035,4165.641113,4133.333496,4124.615234,839.000000,4.000000,,,,0.000000,4.000000,4.000000,4.000000,4.000000,4.000000,4.000000,4.000000,4.000000,4.000000,4.000000,4.000000,4.000000,4.000000,4.000000,100.000000
1602005688.416123,12.000000,0.000000,4152.307617,4161.538574,4131.794922,4139.487305,4137.436035,4140.512695,4124.615234,4124.615234,4128.717773,4141.538574,4124.102539,4150.769043,4114.358887,4109.743652,789.000000,4.000000,,,,0.000000,4.000000,4.000000,4.000000,4.000000,4.000000,4.000000,4.000000,4.000000,4.000000,4.000000,4.000000,4.000000,4.000000,4.000000,100.000000
1602005688.424005,13.000000,0.000000,4157.436035,4171.282227,4126.666504,4140.512695,4135.384766,4134.358887,4125.128418,4118.461426,4122.563965,4130.256348,4116.410156,4146.666504,4099.487305,4093.333252,760.000000,4.000000,,,,0.000000,4.000000,4.000000,4.000000,4.000000,4.000000,4.000000,4.000000,4.000000,4.000000,4.000000,4.000000,4.000000,4.000000,4.000000,100.000000
1602005688.431887,14.000000,0.000000,4154.358887,4166.666504,4128.205078,4138.461426,4137.948730,4132.307617,4125.641113,4123.077148,4124.102539,4116.922852,4110.769043,4151.794922,4091.794922,4090.769287,870.000000,4.000000,,,,0.000000,4.000000,4.000000,4.000000,4.000000,4.000000,4.000000,4.000000,4.000000,4.000000,4.000000,4.000000,4.000000,4.000000,4.000000,100.000000
1602005688.439768,15.000000,0.000000,4153.333496,4158.461426,4128.205078,4139.487305,4139.487305,4134.358887,4122.051270,4126.153809,4128.717773,4117.436035,4112.820313,4154.358887,4092.820557,4095.897461,839.000000,4.000000,,,,0.000000,4.000000,4.000000,4.000000,4.000000,4.000000,4.000000,4.000000,4.000000,4.000000,4.000000,4.000000,4.000000,4.000000,4.000000,100.000000
1602005688.447650,16.000000,0.000000,4146.666504,4150.256348,4125.128418,4139.487305,4135.384766,4135.897461,4122.051270,4125.641113,4138.461426,4131.282227,4122.563965,4153.846191,4096.410156,4094.871826,0.000000,4.000000,,,,0.000000,4.000000,4.000000,4.000000,4.000000,4.000000,4.000000,4.000000,4.000000,4.000000,4.000000,4.000000,4.000000,4.000000,4.000000,100.000000
1602005688.455631,17.000000,0.000000,4137.948730,4144.102539,4123.077148,4131.794922,4134.358887,4136.922852,4122.563965,4124.615234,4140.000000,4124.615234,4121.538574,4149.743652,4096.410156,4092.820557,0.000000,4.000000,,,,0.000000,4.000000,4.000000,4.000000,4.000000,4.000000,4.000000,4.000000,4.000000,4.000000,4.000000,4.000000,4.000000,4.000000,4.000000,100.000000
1602005688.463512,18.000000,0.000000,4138.461426,4141.538574,4121.025879,4127.692383,4138.974121,4137.948730,4122.563965,4124.615234,4126.666504,4098.974121,4112.820313,4146.666504,4092.307617,4088.205078,0.000000,4.000000,,,,0.000000,4.000000,4.000000,4.000000,4.000000,4.000000,4.000000,4.000000,4.000000,4.000000,4.000000,4.000000,4.000000,4.000000,4.000000,100.000000
1602005688.471393,19.000000,0.000000,4137.948730,4138.974121,4118.461426,4131.794922,4132.820313,4136.410156,4122.563965,4125.128418,4119.487305,4106.153809,4110.256348,4145.128418,4085.128174,4074.358887,0.000000,4.000000,,,,0.000000,4.000000,4.000000,4.000000,4.000000,4.000000,4.000000,4.000000,4.000000,4.000000,4.000000,4.000000,4.000000,4.000000,4.000000,100.000000
1602005688.479374,20.000000,0.000000,4134.871582,4145.128418,4119.487305,4137.436035,4121.025879,4132.307617,4123.589844,4124.615234,4120.512695,4127.692383,4109.230957,4145.641113,4086.153809,4074.871826,0.000000,4.000000,,,,0.000000,4.000000,4.000000,4.000000,4.000000,4.000000,4.000000,4.000000,4.000000,4.000000,4.000000,4.000000,4.000000,4.000000,4.000000,100.000000
1602005688.487256,21.000000,0.000000,4138.461426,4154.358887,4122.563965,4141.025879,4129.743652,4136.410156,4130.256348,4130.769043,4122.563965,4109.743652,4113.333496,4150.769043,4095.384521,4094.358887,0.000000,4.000000,,,,0.000000,4.000000,4.000000,4.000000,4.000000,4.000000,4.000000,4.000000,4.000000,4.000000,4.000000,4.000000,4.000000,4.000000,4.000000,100.000000
1602005688.495137,22.000000,0.000000,4140.000000,4156.922852,4123.589844,4143.589844,4143.589844,4148.717773,4137.436035,4138.974121,4127.692383,4094.358887,4121.538574,4155.897461,4097.948730,4095.897461,0.000000,4.000000,,,,0.000000,4.000000,4.000000,4.000000,4.000000,4.000000,4.000000,4.000000,4.000000,4.000000,4.000000,4.000000,4.000000,4.000000,4.000000,100.000000
1602005688.502918,23.000000,0.000000,4134.358887,4154.358887,4121.025879,4142.051270,4135.897461,4151.282227,4137.436035,4134.358887,4131.282227,4120.512695,4117.948730,4150.769043,4092.820557,4081.025635,0.000000,4.000000,,,,0.000000,4.000000,4.000000,4.000000,4.000000,4.000000,4.000000,4.000000,4.000000,4.000000,4.000000,4.000000,4.000000,4.000000,4.000000,100.000000
1602005688.510800,24.000000,0.000000,4131.794922,4151.282227,4120.000000,4138.461426,4123.589844,4140.000000,4130.256348,4122.051270,4122.051270,4128.717773,4106.153809,4143.589844,4089.230713,4084.615479,0.000000,4.000000,,,,0.000000,4.000000,4.000000,4.000000,4.000000,4.000000,4.000000,4.000000,4.000000,4.000000,4.000000,4.000000,4.000000,4.000000,4.000000,100.000000
1602005688.518681,25.000000,0.000000,4134.871582,4146.153809,4123.589844,4138.974121,4122.563965,4129.230957,4125.641113,4120.512695,4112.307617,4104.102539,4107.692383,4141.025879,4090.769287,4098.461426,0.000000,4.000000,,,,0.000000,4.000000,4.000000,4.000000,4.000000,4.000000,4.000000,4.000000,4.000000,4.000000,4.000000,4.000000,4.000000,4.000000,4.000000,100.000000
1602005688.526563,26.000000,0.000000,4137.436035,4141.025879,4126.666504,4137.948730,4121.025879,4124.615234,4119.487305,4123.077148,4116.922852,4106.666504,4120.512695,4137.948730,4092.307617,4091.794922,0.000000,4.000000,,,,0.000000,4.000000,4.000000,4.000000,4.000000,4.000000,4.000000,4.000000,4.000000,4.000000,4.000000,4.000000,4.000000,4.000000,4.000000,100.000000
1602005688.534444,27.000000,0.000000,4137.948730,4143.589844,4125.641113,4136.922852,4118.461426,4118.974121,4113.333496,4128.205078,4128.717773,4131.794922,4119.487305,4133.846191,4090.256348,4079.487061,0.000000,4.000000,,,,0.000000,4.000000,4.000000,4.000000,4.000000,4.000000,4.000000,4.000000,4.000000,4.000000,4.000000,4.000000,4.000000,4.000000,4.000000,100.000000
1602005688.542225,28.000000,0.000000,4138.974121,4150.769043,4126.153809,4141.538574,4122.051270,4118.461426,4114.871582,4135.897461,4137.436035,4128.205078,4114.871582,4136.410156,4094.358887,4091.794922,0.000000,4.000000,,,,0.000000,4.000000,4.000000,4.000000,4.000000,4.000000,4.000000,4.000000,4.000000,4.000000,4.000000,4.000000,4.000000,4.000000,4.000000,100.000000
1602005688.550107,29.000000,0.000000,4138.974121,4154.871582,4133.333496,4144.102539,4125.128418,4131.282227,4121.025879,4134.871582,4139.487305,4113.846191,4128.205078,4148.205078,4103.589844,4109.743652,0.000000,4.000000,,,,0.000000,4.000000,4.000000,4.000000,4.000000,4.000000,4.000000,4.000000,4.000000,4.000000,4.000000,4.000000,4.000000,4.000000,4.000000,100.000000
1602005688.557988,30.000000,0.000000,4137.948730,4149.230957,4134.358887,4141.025879,4126.666504,4135.384766,4123.077148,4127.179688,4141.538574,4124.102539,4140.512695,4152.307617,4110.256348,4100.000000,0.000000,4.000000,,,,0.000000,4.000000,4.000000,4.000000,4.000000,4.000000,4.000000,4.000000,4.000000,4.000000,4.000000,4.000000,4.000000,4.000000,4.000000,100.000000
1602005688.565870,31.000000,0.000000,4138.974121,4146.666504,4126.153809,4138.974121,4132.307617,4127.692383,4122.051270,4124.102539,4138.461426,4133.333496,4124.615234,4142.563965,4105.641113,4087.692383,0.000000,4.000000,,,,0.000000,4.000000,4.000000,4.000000,4.000000,4.000000,4.000000,4.000000,4.000000,4.000000,4.000000,4.000000,4.000000,4.000000,4.000000,100.000000
1602005688.573751,32.000000,0.000000,4140.000000,4152.820313,4121.538574,4138.461426,4136.922852,4121.025879,4118.461426,4123.077148,4126.153809,4124.102539,4104.102539,4130.769043,4092.307617,4090.256348,0.000000,4.000000,,,,0.000000,4.000000,4.000000,4.000000,4.000000,4.000000,4.000000,4.000000,4.000000,4.000000,4.000000,4.000000,4.000000,4.000000,4.000000,100.000000
1602005688.581732,33.000000,0.000000,4137.436035,4156.410156,4122.051270,4139.487305,4134.871582,4120.512695,4115.897461,4120.000000,4118.974121,4121.538574,4108.205078,4125.128418,4088.718018,4086.666748,0.000000,4.000000,,,,0.000000,4.000000,4.000000,4.000000,4.000000,4.000000,4.000000,4.000000,4.000000,4.000000,4.000000,4.000000,4.000000,4.000000,4.000000,100.000000
1602005688.589613,34.000000,0.000000,4135.384766,4156.410156,4122.563965,4144.102539,4138.461426,4124.615234,4119.487305,4120.512695,4123.077148,4120.000000,4116.410156,4123.077148,4094.358887,4084.102539,0.000000,4.000000,,,,0.000000,4.000000,4.000000,4.000000,4.000000,4.000000,4.000000,4.000000,4.000000,4.000000,4.000000,4.000000,4.000000,4.000000,4.000000,100.000000
1602005688.597595,35.000000,0.000000,4135.384766,4155.384766,4118.974121,4143.077148,4142.563965,4125.128418,4123.077148,4122.563965,4123.077148,4102.051270,4109.230957,4118.461426,4091.794922,4086.666748,0.000000,4.000000,,,,0.000000,4.000000,4.000000,4.000000,4.000000,4.000000,4.000000,4.000000,4.000000,4.000000,4.000000,4.000000,4.000000,4.000000,4.000000,100.000000
1602005688.605476,36.000000,0.000000,4135.897461,4153.333496,4118.461426,4136.922852,4137.436035,4120.000000,4122.051270,4125.128418,4118.461426,4094.871826,4104.102539,4118.461426,4090.256348,4086.666748,0.000000,4.000000,,,,0.000000,4.000000,4.000000,4.000000,4.000000,4.000000,4.000000,4.000000,4.000000,4.000000,4.000000,4.000000,4.000000,4.000000,4.000000,100.000000
1602005688.613357,37.000000,0.000000,4144.102539,4152.820313,4128.205078,4139.487305,4133.846191,4118.974121,4122.051270,4127.179688,4122.051270,4112.820313,4115.897461,4130.769043,4104.615234,4094.871826,0.000000,4.000000,,,,0.000000,4.000000,4.000000,4.000000,4.000000,4.000000,4.000000,4.000000,4.000000,4.000000,4.000000,4.000000,4.000000,4.000000,4.000000,100.000000
1602005688.621239,38.000000,0.000000,4154.358887,4155.897461,4137.436035,4141.538574,4136.410156,4124.102539,4121.538574,4126.666504,4125.128418,4126.666504,4126.666504,4142.563965,4111.794922,4107.179688,0.000000,4.000000,,,,0.000000,4.000000,4.000000,4.000000,4.000000,4.000000,4.000000,4.000000,4.000000,4.000000,4.000000,4.000000,4.000000,4.000000,4.000000,100.000000
1602005688.629120,39.000000,0.000000,4154.358887,4155.384766,4137.948730,4137.948730,4133.846191,4120.512695,4121.025879,4125.128418,4126.666504,4127.179688,4123.077148,4141.538574,4106.153809,4109.743652,0.000000,4.000000,,,,0.000000,4.000000,4.000000,4.000000,4.000000,4.000000,4.000000,4.000000,4.000000,4.000000,4.000000,4.000000,4.000000,4.000000,4.000000,100.000000
1602005688.636902,40.000000,0.000000,4151.282227,4153.846191,4134.871582,4141.025879,4132.820313,4118.974121,4128.205078,4130.769043,4136.922852,4123.077148,4123.077148,4146.153809,4109.743652,4109.743652,0.000000,4.000000,,,,0.000000,4.000000,4.000000,4.000000,4.000000,4.000000,4.000000,4.000000,4.000000,4.000000,4.000000,4.000000,4.000000,4.000000,4.000000,100.000000
1602005688.644784,41.000000,0.000000,4151.794922,4154.358887,4130.769043,4143.077148,4137.436035,4128.205078,4138.461426,4140.512695,4141.025879,4122.563965,4127.179688,4154.358887,4114.358887,4104.102539,0.000000,4.000000,,,,0.000000,4.000000,4.000000,4.000000,4.000000,4.000000,4.000000,4.000000,4.000000,4.000000,4.000000,4.000000,4.000000,4.000000,4.000000,100.000000
1602005688.652665,42.000000,0.000000,4147.692383,4152.820313,4123.077148,4136.410156,4134.358887,4129.230957,4137.436035,4136.410156,4130.256348,4125.128418,4121.538574,4143.077148,4108.717773,4089.743652,0.000000,4.000000,,,,0.000000,4.000000,4.000000,4.000000,4.000000,4.000000,4.000000,4.000000,4.000000,4.000000,4.000000,4.000000,4.000000,4.000000,4.000000,100.000000
1602005688.660547,43.000000,0.000000,4135.897461,4149.230957,4115.897461,4133.333496,4126.153809,4122.563965,4129.743652,4124.102539,4121.025879,4118.461426,4116.410156,4124.102539,4103.589844,4088.205078,0.000000,4.000000,,,,0.000000,4.000000,4.000000,4.000000,4.000000,4.000000,4.000000,4.000000,4.000000,4.000000,4.000000,4.000000,4.000000,4.000000,4.000000,100.000000
1602005688.668428,44.000000,0.000000,4125.641113,4146.666504,4109.230957,4135.897461,4126.153809,4121.025879,4125.641113,4121.025879,4117.436035,4112.307617,4121.025879,4118.974121,4098.461426,4090.769287,0.000000,4.000000,,,,0.000000,4.000000,4.000000,4.000000,4.000000,4.000000,4.000000,4.000000,4.000000,4.000000,4.000000,4.000000,4.000000,4.000000,4.000000,100.000000
1602005688.676310,45.000000,0.000000,4122.563965,4144.615234,4107.179688,4136.922852,4129.230957,4124.102539,4121.025879,4121.538574,4113.333496,4116.410156,4119.487305,4122.051270,4092.820557,4077.948730,0.000000,4.000000,,,,0.000000,4.000000,4.000000,4.000000,4.000000,4.000000,4.000000,4.000000,4.000000,4.000000,4.000000,4.000000,4.000000,4.000000,4.000000,100.000000
1602005688.684192,46.000000,0.000000,4122.563965,4142.563965,4107.692383,4135.897461,4127.692383,4126.153809,4111.794922,4113.846191,4110.769043,4122.563965,4108.717773,4120.512695,4091.794922,4069.743652,0.000000,4.000000,,,,0.000000,4.000000,4.000000,4.000000,4.000000,4.000000,4.000000,4.000000,4.000000,4.000000,4.000000,4.000000,4.000000,4.000000,4.000000,100.000000
1602005688.692073,47.000000,0.000000,4118.461426,4144.102539,4105.128418,4136.410156,4124.615234,4122.051270,4104.102539,4108.717773,4108.205078,4117.948730,4104.102539,4119.487305,4092.307617,4077.435791,0.000000,4.000000,,,,0.000000,4.000000,4.000000,4.000000,4.000000,4.000000,4.000000,4.000000,4.000000,4.000000,4.000000,4.000000,4.000000,4.000000,4.000000,100.000000
1602005688.699855,48.000000,0.000000,4120.000000,4150.256348,4110.769043,4138.461426,4129.230957,4119.487305,4106.666504,4113.846191,4111.794922,4115.384766,4109.230957,4128.205078,4095.897461,4086.666748,0.000000,4.000000,,,,0.000000,4.000000,4.000000,4.000000,4.000000,4.000000,4.000000,4.000000,4.000000,4.000000,4.000000,4.000000,4.000000,4.000000,4.000000,100.000000
1602005688.707737,49.000000,0.000000,4136.922852,4152.820313,4122.051270,4140.000000,4138.974121,4128.717773,4117.436035,4121.538574,4121.538574,4129.230957,4117.436035,4137.948730,4110.769043,4094.358887,0.000000,4.000000,,,,0.000000,4.000000,4.000000,4.000000,4.000000,4.000000,4.000000,4.000000,4.000000,4.000000,4.000000,4.000000,4.000000,4.000000,4.000000,100.000000
1602005688.715619,50.000000,0.000000,4153.846191,4151.794922,4128.205078,4139.487305,4138.461426,4140.000000,4122.563965,4126.666504,4128.205078,4133.846191,4128.717773,4143.589844,4119.487305,4106.153809,0.000000,4.000000,,,,0.000000,4.000000,4.000000,4.000000,4.000000,4.000000,4.000000,4.000000,4.000000,4.000000,4.000000,4.000000,4.000000,4.000000,4.000000,100.000000
1602005688.723501,51.000000,0.000000,4151.794922,4152.820313,4135.897461,4140.512695,4128.205078,4141.025879,4124.615234,4128.717773,4128.205078,4109.230957,4136.922852,4151.282227,4120.000000,4113.846191,0.000000,4.000000,,,,0.000000,4.000000,4.000000,4.000000,4.000000,4.000000,4.000000,4.000000,4.000000,4.000000,4.000000,4.000000,4.000000,4.000000,4.000000,100.000000
1602005688.731383,52.000000,0.000000,4140.512695,4148.205078,4138.461426,4137.948730,4120.512695,4131.282227,4124.615234,4124.102539,4127.179688,4104.102539,4131.794922,4156.922852,4119.487305,4109.230957,0.000000,4.000000,,,,0.000000,4.000000,4.000000,4.000000,4.000000,4.000000,4.000000,4.000000,4.000000,4.000000,4.000000,4.000000,4.000000,4.000000,4.000000,100.000000
1602005688.739265,53.000000,0.000000,4142.563965,4144.102539,4132.820313,4134.358887,4118.974121,4122.051270,4122.563965,4123.077148,4128.717773,4134.871582,4125.128418,4154.871582,4115.897461,4110.769043,0.000000,4.000000,,,,0.000000,4.000000,4.000000,4.000000,4.000000,4.000000,4.000000,4.000000,4.000000,4.000000,4.000000,4.000000,4.000000,4.000000,4.000000,100.000000
1602005688.747147,54.000000,0.000000,4153.846191,4151.282227,4133.846191,4137.948730,4122.563965,4127.692383,4124.615234,4132.820313,4136.410156,4137.948730,4126.153809,4152.820313,4118.461426,4123.077148,0.000000,4.000000,,,,0.000000,4.000000,4.000000,4.000000,4.000000,4.000000,4.000000,4.000000,4.000000,4.000000,4.000000,4.000000,4.000000,4.000000,4.000000,100.000000
1602005688.755029,55.000000,0.000000,4157.948730,4156.410156,4138.461426,4143.589844,4130.769043,4140.000000,4127.692383,4135.897461,4137.948730,4124.102539,4127.179688,4151.794922,4121.538574,4121.538574,0.000000,4.000000,,,,0.000000,4.000000,4.000000,4.000000,4.000000,4.000000,4.000000,4.000000,4.000000,4.000000,4.000000,4.000000,4.000000,4.000000,4.000000,100.000000
1602005688.762910,56.000000,0.000000,4154.871582,4152.307617,4135.897461,4142.051270,4136.922852,4143.077148,4125.641113,4127.692383,4126.153809,4133.846191,4123.077148,4144.615234,4112.820313,4113.333496,0.000000,4.000000,,,,0.000000,4.000000,4.000000,4.000000,4.000000,4.000000,4.000000,4.000000,4.000000,4.000000,4.000000,4.000000,4.000000,4.000000,4.000000,100.000000
1602005688.770692,57.000000,0.000000,4153.846191,4152.307617,4130.256348,4137.436035,4137.948730,4141.538574,4125.128418,4123.589844,4125.128418,4141.025879,4122.563965,4139.487305,4108.717773,4120.000000,0.000000,4.000000,,,,0.000000,4.000000,4.000000,4.000000,4.000000,4.000000,4.000000,4.000000,4.000000,4.000000,4.000000,4.000000,4.000000,4.000000,4.000000,100.000000
1602005688.778574,58.000000,0.000000,4149.743652,4151.282227,4128.205078,4136.922852,4140.512695,4140.512695,4125.641113,4125.128418,4136.922852,4126.153809,4130.256348,4137.948730,4115.897461,4125.641113,0.000000,4.000000,,,,0.000000,4.000000,4.000000,4.000000,4.000000,4.000000,4.000000,4.000000,4.000000,4.000000,4.000000,4.000000,4.000000,4.000000,4.000000,100.000000
1602005688.786456,59.000000,0.000000,4151.282227,4143.589844,4131.794922,4138.974121,4138.974121,4137.948730,4122.563965,4125.641113,4141.025879,4118.974121,4132.820313,4138.461426,4118.461426,4116.922852,0.000000,4.000000,,,,0.000000,4.000000,4.000000,4.000000,4.000000,4.000000,4.000000,4.000000,4.000000,4.000000,4.000000,4.000000,4.000000,4.000000,4.000000,100.000000
1602005688.794338,60.000000,0.000000,4163.589844,4141.538574,4140.512695,4140.512695,4131.794922,4137.436035,4122.563965,4124.102539,4133.333496,4132.307617,4130.769043,4146.666504,4118.974121,4115.384766,0.000000,4.000000,,,,0.000000,4.000000,4.000000,4.000000,4.000000,4.000000,4.000000,4.000000,4.000000,4.000000,4.000000,4.000000,4.000000,4.000000,4.000000,100.000000
1602005688.802220,61.000000,0.000000,4165.128418,4142.051270,4144.615234,4138.461426,4130.256348,4130.256348,4119.487305,4115.384766,4121.025879,4139.487305,4127.179688,4154.871582,4119.487305,4120.512695,0.000000,4.000000,,,,0.000000,4.000000,4.000000,4.000000,4.000000,4.000000,4.000000,4.000000,4.000000,4.000000,4.000000,4.000000,4.000000,4.000000,4.000000,100.000000
1602005688.810102,62.000000,0.000000,4155.384766,4138.461426,4141.538574,4137.436035,4130.256348,4123.077148,4113.333496,4109.743652,4115.897461,4135.897461,4122.051270,4154.358887,4115.384766,4121.025879,0.000000,4.000000,,,,0.000000,4.000000,4.000000,4.000000,4.000000,4.000000,4.000000,4.000000,4.000000,4.000000,4.000000,4.000000,4.000000,4.000000,4.000000,100.000000
1602005688.817984,63.000000,0.000000,4152.820313,4138.461426,4141.025879,4140.512695,4124.615234,4124.102539,4118.461426,4117.948730,4121.538574,4136.410156,4127.179688,4154.871582,4121.025879,4122.563965,0.000000,4.000000,,,,0.000000,4.000000,4.000000,4.000000,4.000000,4.000000,4.000000,4.000000,4.000000,4.000000,4.000000,4.000000,4.000000,4.000000,4.000000,100.000000
1602005688.825866,64.000000,0.000000,4156.410156,4141.025879,4140.512695,4140.000000,4119.487305,4118.461426,4124.102539,4125.641113,4128.717773,4131.794922,4136.410156,4156.410156,4125.128418,4125.128418,803.000000,4.000000,,,,0.000000,4.000000,4.000000,4.000000,4.000000,4.000000,4.000000,4.000000,4.000000,4.000000,4.000000,4.000000,4.000000,4.000000,4.000000,100.000000
1602005688.833747,65.000000,0.000000,4162.563965,4146.153809,4139.487305,4136.410156,4121.025879,4110.256348,4123.077148,4131.794922,4135.384766,4116.410156,4138.974121,4153.846191,4123.077148,4131.282227,803.000000,4.000000,,,,0.000000,4.000000,4.000000,4.000000,4.000000,4.000000,4.000000,4.000000,4.000000,4.000000,4.000000,4.000000,4.000000,4.000000,4.000000,100.000000
1602005688.841529,66.000000,0.000000,4168.205078,4152.820313,4138.974121,4138.461426,4125.641113,4119.487305,4126.153809,4137.436035,4141.538574,4122.563965,4137.436035,4152.820313,4131.794922,4136.410156,853.000000,4.000000,,,,0.000000,4.000000,4.000000,4.000000,4.000000,4.000000,4.000000,4.000000,4.000000,4.000000,4.000000,4.000000,4.000000,4.000000,4.000000,100.000000
1602005688.849411,67.000000,0.000000,4161.025879,4152.820313,4139.487305,4141.025879,4127.179688,4129.230957,4126.153809,4129.743652,4135.384766,4142.051270,4138.461426,4149.743652,4137.436035,4131.282227,868.000000,4.000000,,,,0.000000,4.000000,4.000000,4.000000,4.000000,4.000000,4.000000,4.000000,4.000000,4.000000,4.000000,4.000000,4.000000,4.000000,4.000000,100.000000
1602005688.857293,68.000000,0.000000,4149.230957,4151.282227,4136.410156,4138.974121,4130.769043,4126.153809,4115.384766,4116.922852,4126.666504,4137.436035,4138.974121,4141.025879,4128.205078,4121.025879,807.000000,4.000000,,,,0.000000,4.000000,4.000000,4.000000,4.000000,4.000000,4.000000,4.000000,4.000000,4.000000,4.000000,4.000000,4.000000,4.000000,4.000000,100.000000
1602005688.865175,69.000000,0.000000,4148.717773,4151.282227,4127.179688,4137.948730,4135.384766,4124.615234,4109.743652,4115.384766,4124.102539,4135.384766,4136.410156,4137.948730,4122.563965,4110.769043,830.000000,4.000000,,,,0.000000,4.000000,4.000000,4.000000,4.000000,4.000000,4.000000,4.000000,4.000000,4.000000,4.000000,4.000000,4.000000,4.000000,4.000000,100.000000
1602005688.873057,70.000000,0.000000,4144.102539,4143.589844,4120.000000,4133.846191,4128.205078,4119.487305,4110.769043,4112.307617,4114.358887,4141.538574,4130.769043,4137.436035,4123.077148,4102.051270,771.000000,4.000000,,,,0.000000,4.000000,4.000000,4.000000,4.000000,4.000000,4.000000,4.000000,4.000000,4.000000,4.000000,4.000000,4.000000,4.000000,4.000000,100.000000
1602005688.880939,71.000000,0.000000,4135.384766,4135.897461,4119.487305,4124.102539,4118.974121,4111.794922,4111.282227,4105.641113,4110.769043,4130.256348,4123.077148,4135.384766,4120.512695,4111.794922,687.000000,4.000000,,,,0.000000,4.000000,4.000000,4.000000,4.000000,4.000000,4.000000,4.000000,4.000000,4.000000,4.000000,4.000000,4.000000,4.000000,4.000000,100.000000
1602005688.888821,72.000000,0.000000,4134.871582,4136.922852,4119.487305,4121.538574,4122.051270,4114.358887,4115.384766,4110.256348,4121.025879,4119.487305,4120.000000,4134.871582,4118.461426,4124.615234,792.000000,4.000000,,,,0.000000,4.000000,4.000000,4.000000,4.000000,4.000000,4.000000,4.000000,4.000000,4.000000,4.000000,4.000000,4.000000,4.000000,4.000000,100.000000
1602005688.896703,73.000000,0.000000,4136.922852,4135.897461,4119.487305,4126.666504,4122.563965,4114.358887,4120.512695,4120.000000,4125.128418,4116.410156,4122.563965,4133.846191,4115.897461,4116.410156,840.000000,4.000000,,,,0.000000,4.000000,4.000000,4.000000,4.000000,4.000000,4.000000,4.000000,4.000000,4.000000,4.000000,4.000000,4.000000,4.000000,4.000000,100.000000
1602005688.904584,74.000000,0.000000,4140.512695,4137.436035,4124.102539,4134.358887,4124.615234,4112.307617,4123.589844,4123.589844,4127.179688,4118.974121,4132.820313,4142.051270,4122.563965,4118.461426,871.000000,4.000000,,,,0.000000,4.000000,4.000000,4.000000,4.000000,4.000000,4.000000,4.000000,4.000000,4.000000,4.000000,4.000000,4.000000,4.000000,4.000000,100.000000
1602005688.912566,75.000000,0.000000,4144.615234,4142.563965,4128.717773,4136.922852,4134.358887,4121.538574,4126.666504,4125.128418,4141.025879,4138.974121,4140.512695,4153.846191,4136.410156,4135.384766,839.000000,4.000000,,,,0.000000,4.000000,4.000000,4.000000,4.000000,4.000000,4.000000,4.000000,4.000000,4.000000,4.000000,4.000000,4.000000,4.000000,4.000000,100.000000
1602005688.920448,76.000000,0.000000,4144.615234,4142.563965,4125.641113,4128.717773,4134.358887,4131.794922,4127.179688,4125.128418,4144.615234,4151.282227,4131.794922,4147.692383,4132.820313,4129.230957,783.000000,4.000000,,,,0.000000,4.000000,4.000000,4.000000,4.000000,4.000000,4.000000,4.000000,4.000000,4.000000,4.000000,4.000000,4.000000,4.000000,4.000000,100.000000
1602005688.928329,77.000000,0.000000,4139.487305,4136.922852,4120.512695,4123.589844,4129.230957,4125.128418,4120.512695,4122.051270,4136.922852,4136.410156,4119.487305,4133.846191,4121.538574,4109.743652,760.000000,4.000000,,,,0.000000,4.000000,4.000000,4.000000,4.000000,4.000000,4.000000,4.000000,4.000000,4.000000,4.000000,4.000000,4.000000,4.000000,4.000000,100.000000
1602005688.936211,78.000000,0.000000,4135.897461,4135.897461,4120.512695,4130.769043,4134.871582,4115.897461,4116.410156,4121.025879,4143.589844,4131.282227,4120.000000,4132.820313,4128.205078,4111.282227,871.000000,4.000000,,,,0.000000,4.000000,4.000000,4.000000,4.000000,4.000000,4.000000,4.000000,4.000000,4.000000,4.000000,4.000000,4.000000,4.000000,4.000000,100.000000
1602005688.944093,79.000000,0.000000,4143.077148,4146.153809,4123.077148,4137.436035,4140.512695,4128.717773,4118.974121,4128.205078,4154.358887,4154.358887,4133.333496,4139.487305,4140.000000,4123.077148,839.000000,4.000000,,,,0.000000,4.000000,4.000000,4.000000,4.000000,4.000000,4.000000,4.000000,4.000000,4.000000,4.000000,4.000000,4.000000,4.000000,4.000000,100.000000
1602005688.951974,80.000000,0.000000,4156.922852,4151.794922,4126.666504,4138.974121,4140.512695,4137.436035,4122.051270,4130.769043,4150.769043,4163.077148,4145.128418,4137.436035,4142.051270,4126.666504,783.000000,4.000000,,,,0.000000,4.000000,4.000000,4.000000,4.000000,4.000000,4.000000,4.000000,4.000000,4.000000,4.000000,4.000000,4.000000,4.000000,4.000000,100.000000
1602005688.959856,81.000000,0.000000,4159.487305,4144.102539,4127.692383,4136.922852,4134.358887,4127.179688,4120.512695,4122.051270,4141.025879,4145.128418,4139.487305,4128.717773,4135.897461,4123.077148,760.000000,4.000000,,,,0.000000,4.000000,4.000000,4.000000,4.000000,4.000000,4.000000,4.000000,4.000000,4.000000,4.000000,4.000000,4.000000,4.000000,4.000000,100.000000
1602005688.967737,82.000000,0.000000,4147.692383,4135.897461,4124.102539,4130.256348,4127.179688,4125.641113,4120.512695,4114.871582,4131.282227,4129.230957,4124.102539,4123.589844,4126.153809,4121.025879,871.000000,4.000000,,,,0.000000,4.000000,4.000000,4.000000,4.000000,4.000000,4.000000,4.000000,4.000000,4.000000,4.000000,4.000000,4.000000,4.000000,4.000000,100.000000
1602005688.975719,83.000000,0.000000,4135.897461,4136.410156,4123.077148,4126.153809,4131.282227,4133.846191,4126.666504,4119.487305,4124.102539,4124.102539,4121.025879,4127.692383,4122.051270,4122.051270,839.000000,4.000000,,,,0.000000,4.000000,4.000000,4.000000,4.000000,4.000000,4.000000,4.000000,4.000000,4.000000,4.000000,4.000000,4.000000,4.000000,4.000000,100.000000
1602005688.983601,84.000000,0.000000,4142.563965,4135.897461,4123.589844,4127.179688,4139.487305,4125.641113,4127.179688,4120.000000,4120.000000,4117.436035,4125.641113,4129.743652,4125.641113,4116.410156,783.000000,4.000000,,,,0.000000,4.000000,4.000000,4.000000,4.000000,4.000000,4.000000,4.000000,4.000000,4.000000,4.000000,4.000000,4.000000,4.000000,4.000000,100.000000
1602005688.991483,85.000000,0.000000,4156.410156,4134.358887,4122.051270,4127.692383,4135.384766,4121.538574,4122.051270,4112.307617,4118.974121,4113.333496,4121.538574,4122.563965,4123.589844,4110.256348,760.000000,4.000000,,,,0.000000,4.000000,4.000000,4.000000,4.000000,4.000000,4.000000,4.000000,4.000000,4.000000,4.000000,4.000000,4.000000,4.000000,4.000000,100.000000
1602005688.999365,86.000000,0.000000,4150.256348,4138.974121,4125.128418,4132.820313,4133.333496,4137.948730,4123.589844,4114.871582,4123.589844,4127.179688,4118.974121,4122.563965,4120.512695,4109.230957,871.000000,4.000000,,,,0.000000,4.000000,4.000000,4.000000,4.000000,4.000000,4.000000,4.000000,4.000000,4.000000,4.000000,4.000000,4.000000,4.000000,4.000000,100.000000
1602005689.007247,87.000000,0.000000,4135.384766,4141.025879,4129.230957,4138.974121,4138.461426,4140.000000,4130.256348,4127.179688,4137.436035,4140.000000,4125.128418,4129.743652,4123.077148,4111.282227,839.000000,4.000000,,,,0.000000,4.000000,4.000000,4.000000,4.000000,4.000000,4.000000,4.000000,4.000000,4.000000,4.000000,4.000000,4.000000,4.000000,4.000000,100.000000
1602005689.015129,88.000000,0.000000,4137.436035,4136.922852,4124.615234,4135.897461,4134.871582,4126.666504,4126.666504,4127.692383,4143.589844,4135.897461,4124.615234,4128.717773,4120.000000,4111.282227,783.000000,4.000000,,,,0.000000,4.000000,4.000000,4.000000,4.000000,4.000000,4.000000,4.000000,4.000000,4.000000,4.000000,4.000000,4.000000,4.000000,4.000000,100.000000
1602005689.023011,89.000000,0.000000,4143.589844,4134.358887,4120.512695,4132.307617,4128.717773,4118.974121,4113.846191,4120.000000,4135.384766,4134.871582,4120.512695,4122.051270,4115.384766,4108.205078,760.000000,4.000000,,,,0.000000,4.000000,4.000000,4.000000,4.000000,4.000000,4.000000,4.000000,4.000000,4.000000,4.000000,4.000000,4.000000,4.000000,4.000000,100.000000
1602005689.030892,90.000000,0.000000,4142.051270,4137.436035,4123.077148,4136.922852,4133.846191,4122.051270,4110.256348,4118.974121,4129.230957,4140.000000,4122.051270,4120.000000,4120.512695,4113.846191,871.000000,4.000000,,,,0.000000,4.000000,4.000000,4.000000,4.000000,4.000000,4.000000,4.000000,4.000000,4.000000,4.000000,4.000000,4.000000,4.000000,4.000000,100.000000
1602005689.038774,91.000000,0.000000,4140.000000,4141.025879,4126.153809,4141.538574,4142.051270,4131.282227,4117.436035,4120.512695,4127.179688,4131.282227,4127.179688,4122.563965,4128.717773,4125.128418,839.000000,4.000000,,,,0.000000,4.000000,4.000000,4.000000,4.000000,4.000000,4.000000,4.000000,4.000000,4.000000,4.000000,4.000000,4.000000,4.000000,4.000000,100.000000
1602005689.046556,92.000000,0.000000,4143.589844,4140.000000,4130.256348,4139.487305,4141.538574,4134.871582,4123.077148,4119.487305,4123.077148,4120.000000,4135.897461,4131.282227,4133.846191,4126.666504,783.000000,4.000000,,,,0.000000,4.000000,4.000000,4.000000,4.000000,4.000000,4.000000,4.000000,4.000000,4.000000,4.000000,4.000000,4.000000,4.000000,4.000000,100.000000
1602005689.054437,93.000000,0.000000,4152.307617,4141.025879,4137.948730,4140.000000,4137.436035,4138.461426,4125.641113,4120.000000,4115.897461,4129.743652,4136.410156,4134.871582,4140.512695,4126.666504,760.000000,4.000000,,,,0.000000,4.000000,4.000000,4.000000,4.000000,4.000000,4.000000,4.000000,4.000000,4.000000,4.000000,4.000000,4.000000,4.000000,4.000000,100.000000
1602005689.062319,94.000000,0.000000,4155.384766,4139.487305,4140.512695,4140.000000,4136.922852,4140.000000,4130.256348,4119.487305,4106.666504,4138.461426,4124.615234,4127.692383,4136.410156,4125.128418,871.000000,4.000000,,,,0.000000,4.000000,4.000000,4.000000,4.000000,4.000000,4.000000,4.000000,4.000000,4.000000,4.000000,4.000000,4.000000,4.000000,4.000000,100.000000
1602005689.070200,95.000000,0.000000,4143.077148,4129.743652,4131.794922,4131.282227,4135.384766,4131.282227,4135.384766,4117.436035,4096.410156,4127.692383,4121.025879,4120.512695,4120.000000,4110.769043,839.000000,4.000000,,,,0.000000,4.000000,4.000000,4.000000,4.000000,4.000000,4.000000,4.000000,4.000000,4.000000,4.000000,4.000000,4.000000,4.000000,4.000000,100.000000
1602005689.078081,96.000000,0.000000,4134.358887,4128.205078,4128.717773,4127.692383,4135.897461,4127.179688,4140.000000,4124.102539,4098.974121,4118.461426,4132.820313,4125.128418,4123.589844,4110.256348,783.000000,4.000000,,,,0.000000,4.000000,4.000000,4.000000,4.000000,4.000000,4.000000,4.000000,4.000000,4.000000,4.000000,4.000000,4.000000,4.000000,4.000000,100.000000
1602005689.085863,97.000000,0.000000,4145.641113,4137.948730,4135.384766,4135.384766,4137.948730,4136.922852,4141.538574,4135.897461,4119.487305,4120.000000,4140.000000,4133.846191,4136.922852,4130.769043,760.000000,4.000000,,,,0.000000,4.000000,4.000000,4.000000,4.000000,4.000000,4.000000,4.000000,4.000000,4.000000,4.000000,4.000000,4.000000,4.000000,4.000000,100.000000
1602005689.093745,98.000000,0.000000,4155.897461,4139.487305,4139.487305,4138.974121,4140.000000,4143.589844,4137.948730,4137.948730,4142.563965,4127.692383,4135.384766,4134.358887,4133.333496,4134.871582,871.000000,4.000000,,,,0.000000,4.000000,4.000000,4.000000,4.000000,4.000000,4.000000,4.000000,4.000000,4.000000,4.000000,4.000000,4.000000,4.000000,4.000000,100.000000
1602005689.101627,99.000000,0.000000,4149.230957,4134.871582,4138.461426,4134.871582,4138.461426,4134.358887,4135.384766,4134.358887,4155.384766,4139.487305,4127.692383,4132.820313,4122.051270,4124.615234,839.000000,4.000000,,,,0.000000,4.000000,4.000000,4.000000,4.000000,4.000000,4.000000,4.000000,4.000000,4.000000,4.000000,4.000000,4.000000,4.000000,4.000000,100.000000
1602005689.109509,100.000000,0.000000,4142.051270,4136.922852,4138.461426,4134.871582,4135.897461,4125.128418,4134.358887,4135.897461,4160.512695,4146.666504,4129.230957,4134.871582,4126.153809,4123.589844,783.000000,4.000000,,,,0.000000,4.000000,4.000000,4.000000,4.000000,4.000000,4.000000,4.000000,4.000000,4.000000,4.000000,4.000000,4.000000,4.000000,4.000000,100.000000
1602005689.117391,101.000000,0.000000,4150.256348,4143.077148,4140.000000,4141.538574,4143.077148,4131.794922,4134.871582,4140.000000,4161.538574,4143.589844,4137.436035,4143.077148,4136.922852,4127.179688,760.000000,4.000000,,,,0.000000,4.000000,4.000000,4.000000,4.000000,4.000000,4.000000,4.000000,4.000000,4.000000,4.000000,4.000000,4.000000,4.000000,4.000000,100.000000
1602005689.125273,102.000000,0.000000,4158.974121,4144.615234,4143.589844,4146.666504,4153.333496,4141.025879,4135.897461,4145.128418,4158.974121,4133.846191,4138.461426,4149.743652,4136.922852,4127.692383,871.000000,4.000000,,,,0.000000,4.000000,4.000000,4.000000,4.000000,4.000000,4.000000,4.000000,4.000000,4.000000,4.000000,4.000000,4.000000,4.000000,4.000000,100.000000
1602005689.133155,103.000000,0.000000,4149.743652,4140.512695,4140.000000,4142.563965,4145.641113,4130.256348,4128.717773,4142.051270,4145.128418,4125.641113,4131.282227,4145.641113,4128.205078,4122.051270,839.000000,4.000000,,,,0.000000,4.000000,4.000000,4.000000,4.000000,4.000000,4.000000,4.000000,4.000000,4.000000,4.000000,4.000000,4.000000,4.000000,4.000000,100.000000
1602005689.141037,104.000000,0.000000,4129.743652,4131.794922,4124.615234,4132.820313,4131.282227,4113.846191,4119.487305,4128.205078,4122.051270,4120.512695,4125.641113,4130.256348,4114.871582,4105.641113,783.000000,4.000000,,,,0.000000,4.000000,4.000000,4.000000,4.000000,4.000000,4.000000,4.000000,4.000000,4.000000,4.000000,4.000000,4.000000,4.000000,4.000000,100.000000
1602005689.148918,105.000000,0.000000,4115.384766,4123.077148,4119.487305,4131.282227,4133.333496,4121.538574,4120.000000,4119.487305,4115.384766,4122.051270,4118.974121,4122.563965,4100.000000,4089.743652,760.000000,4.000000,,,,0.000000,4.000000,4.000000,4.000000,4.000000,4.000000,4.000000,4.000000,4.000000,4.000000,4.000000,4.000000,4.000000,4.000000,4.000000,100.000000
1602005689.156800,106.000000,0.000000,4120.512695,4126.666504,4129.230957,4137.436035,4143.077148,4132.307617,4123.589844,4122.563965,4123.589844,4125.128418,4117.948730,4131.794922,4108.205078,4103.589844,871.000000,4.000000,,,,0.000000,4.000000,4.000000,4.000000,4.000000,4.000000,4.000000,4.000000,4.000000,4.000000,4.000000,4.000000,4.000000,4.000000,4.000000,100.000000
1602005689.164582,107.000000,0.000000,4130.769043,4135.384766,4129.743652,4140.000000,4149.743652,4129.743652,4124.102539,4124.102539,4122.051270,4117.436035,4135.384766,4142.563965,4143.589844,4136.922852,839.000000,4.000000,,,,0.000000,4.000000,4.000000,4.000000,4.000000,4.000000,4.000000,4.000000,4.000000,4.000000,4.000000,4.000000,4.000000,4.000000,4.000000,100.000000
1602005689.172464,108.000000,0.000000,4125.128418,4129.743652,4120.000000,4137.948730,4149.743652,4132.820313,4123.589844,4120.000000,4117.436035,4107.179688,4156.410156,4148.717773,4169.743652,4152.307617,783.000000,4.000000,,,,0.000000,4.000000,4.000000,4.000000,4.000000,4.000000,4.000000,4.000000,4.000000,4.000000,4.000000,4.000000,4.000000,4.000000,4.000000,100.000000
1602005689.180345,109.000000,0.000000,4113.333496,4113.333496,4126.153809,4135.384766,4146.153809,4138.974121,4127.692383,4124.102539,4120.512695,4120.512695,4164.102539,4158.461426,4178.974121,4158.461426,760.000000,4.000000,,,,0.000000,4.000000,4.000000,4.000000,4.000000,4.000000,4.000000,4.000000,4.000000,4.000000,4.000000,4.000000,4.000000,4.000000,4.000000,100.000000
1602005689.188227,110.000000,0.000000,4105.641113,4104.615234,4138.461426,4130.769043,4144.102539,4139.487305,4134.871582,4134.358887,4124.615234,4148.717773,4161.025879,4170.769043,4189.230957,4169.230957,871.000000,4.000000,,,,0.000000,4.000000,4.000000,4.000000,4.000000,4.000000,4.000000,4.000000,4.000000,4.000000,4.000000,4.000000,4.000000,4.000000,4.000000,100.000000
1602005689.196109,111.000000,0.000000,4092.307617,4096.922852,4132.820313,4122.563965,4141.538574,4131.282227,4136.410156,4138.461426,4123.077148,4155.384766,4159.487305,4172.307617,4190.256348,4165.641113,839.000000,4.000000,,,,0.000000,4.000000,4.000000,4.000000,4.000000,4.000000,4.000000,4.000000,4.000000,4.000000,4.000000,4.000000,4.000000,4.000000,4.000000,100.000000
1602005689.203990,112.000000,0.000000,4089.743652,4093.846191,4126.153809,4120.512695,4135.384766,4122.563965,4134.358887,4142.051270,4125.128418,4150.769043,4164.102539,4168.717773,4186.153809,4158.461426,783.000000,4.000000,,,,0.000000,4.000000,4.000000,4.000000,4.000000,4.000000,4.000000,4.000000,4.000000,4.000000,4.000000,4.000000,4.000000,4.000000,4.000000,100.000000
1602005689.211872,113.000000,0.000000,4101.538574,4102.051270,4136.410156,4124.615234,4138.974121,4134.871582,4138.461426,4153.333496,4138.974121,4150.256348,4169.743652,4176.922852,4193.846191,4168.717773,760.000000,4.000000,,,,0.000000,4.000000,4.000000,4.000000,4.000000,4.000000,4.000000,4.000000,4.000000,4.000000,4.000000,4.000000,4.000000,4.000000,4.000000,100.000000
1602005689.219653,114.000000,0.000000,4098.974121,4102.563965,4138.461426,4123.589844,4143.589844,4157.948730,4145.128418,4160.512695,4154.871582,4138.461426,4171.282227,4185.128418,4193.846191,4172.307617,871.000000,4.000000,,,,0.000000,4.000000,4.000000,4.000000,4.000000,4.000000,4.000000,4.000000,4.000000,4.000000,4.000000,4.000000,4.000000,4.000000,4.000000,100.000000
1602005689.227534,115.000000,0.000000,4085.128174,4092.820557,4124.615234,4113.846191,4135.897461,4151.794922,4145.641113,4153.846191,4155.897461,4125.128418,4168.717773,4176.410156,4184.102539,4162.563965,839.000000,4.000000,,,,0.000000,4.000000,4.000000,4.000000,4.000000,4.000000,4.000000,4.000000,4.000000,4.000000,4.000000,4.000000,4.000000,4.000000,4.000000,100.000000
1602005689.235316,116.000000,0.000000,4087.179443,4089.743652,4122.051270,4107.692383,4132.820313,4135.384766,4140.512695,4144.615234,4152.820313,4137.948730,4169.230957,4168.717773,4183.589844,4158.974121,783.000000,4.000000,,,,0.000000,4.000000,4.000000,4.000000,4.000000,4.000000,4.000000,4.000000,4.000000,4.000000,4.000000,4.000000,4.000000,4.000000,4.000000,100.000000
1602005689.243197,117.000000,0.000000,4094.358887,4092.820557,4130.769043,4111.282227,4142.051270,4141.538574,4136.922852,4137.948730,4153.846191,4167.692383,4170.256348,4174.871582,4186.153809,4160.512695,760.000000,4.000000,,,,0.000000,4.000000,4.000000,4.000000,4.000000,4.000000,4.000000,4.000000,4.000000,4.000000,4.000000,4.000000,4.000000,4.000000,4.000000,100.000000
1602005689.251178,118.000000,0.000000,4094.871826,4100.512695,4136.410156,4119.487305,4146.666504,4147.692383,4146.153809,4135.897461,4149.230957,4173.846191,4170.769043,4183.077148,4187.692383,4165.641113,871.000000,4.000000,,,,0.000000,4.000000,4.000000,4.000000,4.000000,4.000000,4.000000,4.000000,4.000000,4.000000,4.000000,4.000000,4.000000,4.000000,4.000000,100.000000
1602005689.259059,119.000000,0.000000,4098.461426,4107.692383,4138.974121,4124.615234,4144.615234,4142.563965,4153.333496,4137.948730,4139.487305,4153.333496,4170.256348,4185.128418,4190.769043,4171.282227,839.000000,4.000000,,,,0.000000,4.000000,4.000000,4.000000,4.000000,4.000000,4.000000,4.000000,4.000000,4.000000,4.000000,4.000000,4.000000,4.000000,4.000000,100.000000
1602005689.266941,120.000000,0.000000,4098.461426,4099.487305,4135.384766,4121.025879,4137.436035,4133.333496,4142.563965,4137.948730,4128.205078,4131.282227,4164.102539,4179.487305,4183.589844,4164.102539,783.000000,4.000000,,,,0.000000,4.000000,4.000000,4.000000,4.000000,4.000000,4.000000,4.000000,4.000000,4.000000,4.000000,4.000000,4.000000,4.000000,4.000000,100.000000
1602005689.274822,121.000000,0.000000,4096.410156,4091.794922,4134.358887,4117.436035,4126.666504,4123.589844,4134.358887,4138.461426,4123.589844,4124.102539,4164.102539,4170.769043,4172.820313,4153.846191,760.000000,4.000000,,,,0.000000,4.000000,4.000000,4.000000,4.000000,4.000000,4.000000,4.000000,4.000000,4.000000,4.000000,4.000000,4.000000,4.000000,4.000000,100.000000
1602005689.282704,122.000000,0.000000,4097.436035,4098.461426,4136.922852,4121.538574,4123.589844,4126.666504,4134.358887,4142.051270,4133.333496,4127.692383,4167.179688,4169.230957,4176.410156,4153.333496,871.000000,4.000000,,,,0.000000,4.000000,4.000000,4.000000,4.000000,4.000000,4.000000,4.000000,4.000000,4.000000,4.000000,4.000000,4.000000,4.000000,4.000000,100.000000
1602005689.290585,123.000000,0.000000,4093.333252,4094.871826,4128.205078,4121.538574,4125.641113,4135.384766,4127.692383,4140.000000,4143.589844,4134.871582,4160.000000,4165.128418,4177.436035,4148.717773,839.000000,4.000000,,,,0.000000,4.000000,4.000000,4.000000,4.000000,4.000000,4.000000,4.000000,4.000000,4.000000,4.000000,4.000000,4.000000,4.000000,4.000000,100.000000
1602005689.298367,124.000000,0.000000,4088.718018,4083.076904,4119.487305,4114.358887,4122.051270,4131.794922,4123.589844,4135.384766,4150.769043,4149.230957,4158.974121,4155.897461,4171.282227,4141.538574,783.000000,4.000000,,,,0.000000,4.000000,4.000000,4.000000,4.000000,4.000000,4.000000,4.000000,4.000000,4.000000,4.000000,4.000000,4.000000,4.000000,4.000000,100.000000
1602005689.306248,125.000000,0.000000,4088.205078,4085.128174,4121.538574,4113.846191,4116.922852,4129.230957,4132.820313,4145.641113,4164.615234,4161.025879,4170.256348,4152.307617,4170.256348,4142.563965,760.000000,4.000000,,,,0.000000,4.000000,4.000000,4.000000,4.000000,4.000000,4.000000,4.000000,4.000000,4.000000,4.000000,4.000000,4.000000,4.000000,4.000000,100.000000
1602005689.314129,126.000000,0.000000,4086.666748,4092.820557,4122.051270,4119.487305,4124.102539,4144.615234,4145.641113,4156.922852,4171.282227,4154.358887,4171.282227,4154.871582,4170.769043,4141.025879,871.000000,4.000000,,,,0.000000,4.000000,4.000000,4.000000,4.000000,4.000000,4.000000,4.000000,4.000000,4.000000,4.000000,4.000000,4.000000,4.000000,4.000000,100.000000
1602005689.322011,127.000000,0.000000,4091.794922,4091.794922,4121.538574,4122.051270,4135.897461,4158.974121,4151.794922,4149.230957,4158.461426,4140.000000,4167.179688,4157.948730,4170.256348,4143.077148,839.000000,4.000000,,,,0.000000,4.000000,4.000000,4.000000,4.000000,4.000000,4.000000,4.000000,4.000000,4.000000,4.000000,4.000000,4.000000,4.000000,4.000000,100.000000
1602005689.329892,128.000000,0.000000,4098.974121,4090.769287,4127.692383,4119.487305,4138.461426,4153.333496,4148.205078,4140.512695,4143.589844,4138.974121,4166.666504,4162.051270,4172.307617,4153.333496,783.000000,4.000000,,,,0.000000,4.000000,4.000000,4.000000,4.000000,4.000000,4.000000,4.000000,4.000000,4.000000,4.000000,4.000000,4.000000,4.000000,4.000000,100.000000
1602005689.337674,0.000000,0.000000,4087.692383,4091.281982,4122.051270,4111.794922,4134.358887,4139.487305,4138.461426,4138.461426,4127.692383,4136.922852,4157.436035,4158.461426,4163.077148,4145.128418,803.000000,4.000000,,,,0.000000,4.000000,4.000000,4.000000,4.000000,4.000000,4.000000,4.000000,4.000000,4.000000,4.000000,4.000000,4.000000,4.000000,4.000000,100.000000
1602005689.345555,1.000000,0.000000,4071.281982,4090.769287,4108.205078,4106.153809,4136.410156,4142.051270,4133.846191,4129.743652,4111.794922,4114.358887,4148.717773,4152.307617,4149.230957,4124.615234,802.000000,4.000000,,,,0.000000,4.000000,4.000000,4.000000,4.000000,4.000000,4.000000,4.000000,4.000000,4.000000,4.000000,4.000000,4.000000,4.000000,4.000000,100.000000
1602005689.353437,2.000000,0.000000,4073.333252,4093.333252,4110.256348,4110.769043,4141.025879,4149.230957,4136.410156,4126.666504,4111.794922,4105.641113,4148.717773,4151.282227,4151.282227,4122.051270,853.000000,4.000000,,,,0.000000,4.000000,4.000000,4.000000,4.000000,4.000000,4.000000,4.000000,4.000000,4.000000,4.000000,4.000000,4.000000,4.000000,4.000000,100.000000
1602005689.361318,3.000000,0.000000,4077.948730,4093.333252,4113.846191,4112.820313,4138.974121,4141.538574,4138.461426,4132.820313,4118.461426,4123.589844,4143.077148,4148.205078,4153.846191,4130.769043,868.000000,4.000000,,,,0.000000,4.000000,4.000000,4.000000,4.000000,4.000000,4.000000,4.000000,4.000000,4.000000,4.000000,4.000000,4.000000,4.000000,4.000000,100.000000
1602005689.369199,4.000000,0.000000,4072.820557,4095.384521,4106.153809,4109.230957,4137.948730,4142.563965,4138.461426,4128.717773,4118.974121,4126.153809,4136.410156,4137.436035,4146.666504,4125.641113,807.000000,4.000000,,,,0.000000,4.000000,4.000000,4.000000,4.000000,4.000000,4.000000,4.000000,4.000000,4.000000,4.000000,4.000000,4.000000,4.000000,4.000000,100.000000
1602005689.377081,5.000000,0.000000,4071.281982,4102.563965,4105.641113,4112.820313,4141.538574,4153.846191,4137.948730,4120.512695,4130.256348,4122.051270,4143.077148,4134.358887,4149.743652,4120.512695,829.000000,4.000000,,,,0.000000,4.000000,4.000000,4.000000,4.000000,4.000000,4.000000,4.000000,4.000000,4.000000,4.000000,4.000000,4.000000,4.000000,4.000000,100.000000
1602005689.385062,6.000000,0.000000,4081.538574,4106.153809,4117.948730,4117.436035,4141.025879,4150.256348,4141.025879,4128.717773,4146.153809,4148.717773,4152.307617,4144.615234,4165.641113,4132.820313,771.000000,4.000000,,,,0.000000,4.000000,4.000000,4.000000,4.000000,4.000000,4.000000,4.000000,4.000000,4.000000,4.000000,4.000000,4.000000,4.000000,4.000000,100.000000
1602005689.392944,7.000000,0.000000,4092.307617,4106.666504,4122.563965,4118.461426,4137.948730,4142.563965,4141.538574,4139.487305,4144.615234,4165.641113,4153.846191,4153.333496,4171.794922,4144.615234,687.000000,4.000000,,,,0.000000,4.000000,4.000000,4.000000,4.000000,4.000000,4.000000,4.000000,4.000000,4.000000,4.000000,4.000000,4.000000,4.000000,4.000000,100.000000
1602005689.400826,8.000000,0.000000,4093.333252,4111.282227,4121.025879,4122.051270,4138.461426,4143.077148,4141.025879,4140.000000,4140.512695,4142.563965,4158.974121,4152.820313,4167.179688,4139.487305,792.000000,4.000000,,,,0.000000,4.000000,4.000000,4.000000,4.000000,4.000000,4.000000,4.000000,4.000000,4.000000,4.000000,4.000000,4.000000,4.000000,4.000000,100.000000
1602005689.408707,9.000000,0.000000,4098.461426,4112.307617,4125.128418,4126.153809,4142.563965,4142.051270,4148.205078,4145.128418,4149.743652,4133.333496,4173.846191,4150.769043,4171.794922,4143.589844,840.000000,4.000000,,,,0.000000,4.000000,4.000000,4.000000,4.000000,4.000000,4.000000,4.000000,4.000000,4.000000,4.000000,4.000000,4.000000,4.000000,4.000000,100.000000
1602005689.416589,10.000000,0.000000,4105.641113,4109.230957,4126.153809,4124.615234,4142.051270,4145.641113,4153.846191,4154.871582,4157.436035,4148.717773,4174.358887,4152.820313,4180.000000,4156.922852,871.000000,4.000000,,,,0.000000,4.000000,4.000000,4.000000,4.000000,4.000000,4.000000,4.000000,4.000000,4.000000,4.000000,4.000000,4.000000,4.000000,4.000000,100.000000
1602005689.424470,11.000000,0.000000,4104.102539,4113.333496,4123.589844,4124.102539,4138.974121,4150.769043,4153.333496,4151.794922,4150.769043,4154.871582,4161.025879,4154.871582,4176.922852,4149.743652,839.000000,4.000000,,,,0.000000,4.000000,4.000000,4.000000,4.000000,4.000000,4.000000,4.000000,4.000000,4.000000,4.000000,4.000000,4.000000,4.000000,4.000000,100.000000
1602005689.432352,12.000000,0.000000,4097.436035,4115.384766,4123.077148,4125.641113,4140.000000,4143.589844,4148.717773,4139.487305,4140.000000,4157.436035,4163.077148,4153.333496,4171.282227,4137.948730,783.000000,4.000000,,,,0.000000,4.000000,4.000000,4.000000,4.000000,4.000000,4.000000,4.000000,4.000000,4.000000,4.000000,4.000000,4.000000,4.000000,4.000000,100.000000
1602005689.440234,13.000000,0.000000,4093.846191,4109.743652,4115.897461,4122.051270,4140.000000,4131.794922,4137.436035,4134.358887,4129.743652,4154.358887,4166.153809,4144.615234,4168.717773,4138.461426,760.000000,4.000000,,,,0.000000,4.000000,4.000000,4.000000,4.000000,4.000000,4.000000,4.000000,4.000000,4.000000,4.000000,4.000000,4.000000,4.000000,4.000000,100.000000
1602005689.448215,14.000000,0.000000,4094.358887,4112.307617,4111.794922,4120.512695,4140.000000,4133.846191,4125.128418,4135.897461,4124.615234,4139.487305,4156.922852,4137.948730,4167.179688,4138.974121,871.000000,4.000000,,,,0.000000,4.000000,4.000000,4.000000,4.000000,4.000000,4.000000,4.000000,4.000000,4.000000,4.000000,4.000000,4.000000,4.000000,4.000000,100.000000
1602005689.456096,15.000000,0.000000,4095.897461,4121.025879,4116.922852,4123.077148,4144.615234,4141.538574,4120.512695,4134.871582,4131.794922,4142.051270,4153.333496,4140.000000,4168.205078,4140.512695,839.000000,4.000000,,,,0.000000,4.000000,4.000000,4.000000,4.000000,4.000000,4.000000,4.000000,4.000000,4.000000,4.000000,4.000000,4.000000,4.000000,4.000000,100.000000
1602005689.463978,16.000000,0.000000,4096.922852,4121.538574,4117.436035,4121.538574,4146.153809,4138.974121,4116.922852,4131.282227,4144.615234,4152.307617,4153.846191,4137.436035,4167.179688,4138.974121,0.000000,4.000000,,,,0.000000,4.000000,4.000000,4.000000,4.000000,4.000000,4.000000,4.000000,4.000000,4.000000,4.000000,4.000000,4.000000,4.000000,4.000000,100.000000
1602005689.471859,17.000000,0.000000,4102.563965,4121.025879,4122.563965,4123.077148,4141.025879,4138.461426,4122.563965,4137.436035,4151.282227,4151.794922,4161.025879,4139.487305,4167.692383,4134.358887,0.000000,4.000000,,,,0.000000,4.000000,4.000000,4.000000,4.000000,4.000000,4.000000,4.000000,4.000000,4.000000,4.000000,4.000000,4.000000,4.000000,4.000000,100.000000
1602005689.479741,18.000000,0.000000,4110.256348,4126.153809,4138.461426,4132.307617,4140.512695,4146.153809,4138.461426,4150.769043,4155.384766,4160.000000,4168.717773,4153.333496,4173.846191,4144.102539,0.000000,4.000000,,,,0.000000,4.000000,4.000000,4.000000,4.000000,4.000000,4.000000,4.000000,4.000000,4.000000,4.000000,4.000000,4.000000,4.000000,4.000000,100.000000
1602005689.487722,19.000000,0.000000,4114.358887,4125.641113,4142.051270,4137.436035,4141.025879,4152.820313,4145.128418,4154.358887,4153.333496,4173.846191,4159.487305,4156.410156,4172.820313,4156.922852,0.000000,4.000000,,,,0.000000,4.000000,4.000000,4.000000,4.000000,4.000000,4.000000,4.000000,4.000000,4.000000,4.000000,4.000000,4.000000,4.000000,4.000000,100.000000
1602005689.495603,20.000000,0.000000,4117.436035,4123.077148,4139.487305,4135.897461,4136.410156,4152.307617,4148.205078,4151.794922,4141.538574,4168.717773,4154.358887,4153.333496,4165.128418,4153.846191,0.000000,4.000000,,,,0.000000,4.000000,4.000000,4.000000,4.000000,4.000000,4.000000,4.000000,4.000000,4.000000,4.000000,4.000000,4.000000,4.000000,4.000000,100.000000
1602005689.503584,21.000000,0.000000,4123.077148,4125.641113,4149.743652,4136.410156,4135.384766,4144.102539,4150.769043,4153.846191,4137.436035,4152.307617,4171.794922,4162.563965,4165.128418,4151.794922,0.000000,4.000000,,,,0.000000,4.000000,4.000000,4.000000,4.000000,4.000000,4.000000,4.000000,4.000000,4.000000,4.000000,4.000000,4.000000,4.000000,4.000000,100.000000
1602005689.511466,22.000000,0.000000,4124.102539,4125.128418,4160.000000,4137.948730,4135.897461,4133.333496,4140.512695,4156.922852,4145.128418,4139.487305,4171.282227,4175.897461,4169.230957,4157.436035,0.000000,4.000000,,,,0.000000,4.000000,4.000000,4.000000,4.000000,4.000000,4.000000,4.000000,4.000000,4.000000,4.000000,4.000000,4.000000,4.000000,4.000000,100.000000
1602005689.519347,23.000000,0.000000,4121.538574,4122.563965,4157.948730,4136.922852,4135.897461,4133.333496,4133.333496,4152.307617,4149.743652,4140.512695,4158.461426,4176.410156,4169.230957,4156.410156,0.000000,4.000000,,,,0.000000,4.000000,4.000000,4.000000,4.000000,4.000000,4.000000,4.000000,4.000000,4.000000,4.000000,4.000000,4.000000,4.000000,4.000000,100.000000
1602005689.527228,24.000000,0.000000,4120.512695,4124.615234,4147.692383,4138.461426,4144.615234,4140.512695,4139.487305,4145.128418,4145.641113,4156.922852,4166.153809,4167.179688,4168.205078,4151.282227,0.000000,4.000000,,,,0.000000,4.000000,4.000000,4.000000,4.000000,4.000000,4.000000,4.000000,4.000000,4.000000,4.000000,4.000000,4.000000,4.000000,4.000000,100.000000
1602005689.535110,25.000000,0.000000,4120.512695,4127.179688,4137.948730,4137.436035,4148.717773,4137.948730,4133.846191,4137.948730,4141.538574,4162.051270,4170.256348,4157.436035,4162.051270,4143.589844,0.000000,4.000000,,,,0.000000,4.000000,4.000000,4.000000,4.000000,4.000000,4.000000,4.000000,4.000000,4.000000,4.000000,4.000000,4.000000,4.000000,4.000000,100.000000
1602005689.542892,26.000000,0.000000,4113.333496,4122.051270,4133.333496,4130.769043,4139.487305,4133.846191,4125.641113,4135.897461,4138.974121,4156.922852,4154.358887,4151.794922,4151.794922,4134.871582,0.000000,4.000000,,,,0.000000,4.000000,4.000000,4.000000,4.000000,4.000000,4.000000,4.000000,4.000000,4.000000,4.000000,4.000000,4.000000,4.000000,4.000000,100.000000
1602005689.550773,27.000000,0.000000,4108.205078,4119.487305,4138.461426,4130.769043,4136.922852,4136.410156,4133.333496,4138.974121,4136.410156,4150.256348,4145.641113,4153.333496,4151.282227,4142.563965,0.000000,4.000000,,,,0.000000,4.000000,4.000000,4.000000,4.000000,4.000000,4.000000,4.000000,4.000000,4.000000,4.000000,4.000000,4.000000,4.000000,4.000000,100.000000
1602005689.558655,28.000000,0.000000,4117.436035,4131.282227,4151.794922,4138.974121,4144.615234,4145.128418,4142.051270,4141.538574,4143.077148,4137.436035,4156.410156,4161.538574,4162.563965,4165.128418,0.000000,4.000000,,,,0.000000,4.000000,4.000000,4.000000,4.000000,4.000000,4.000000,4.000000,4.000000,4.000000,4.000000,4.000000,4.000000,4.000000,4.000000,100.000000
1602005689.566536,29.000000,0.000000,4124.615234,4138.461426,4156.922852,4140.512695,4145.128418,4154.358887,4144.102539,4145.641113,4154.358887,4140.000000,4171.794922,4163.077148,4170.256348,4170.256348,0.000000,4.000000,,,,0.000000,4.000000,4.000000,4.000000,4.000000,4.000000,4.000000,4.000000,4.000000,4.000000,4.000000,4.000000,4.000000,4.000000,4.000000,100.000000
1602005689.574418,30.000000,0.000000,4123.077148,4129.230957,4150.769043,4135.897461,4141.025879,4150.769043,4149.743652,4150.769043,4154.871582,4166.666504,4172.307617,4154.871582,4168.205078,4154.358887,0.000000,4.000000,,,,0.000000,4.000000,4.000000,4.000000,4.000000,4.000000,4.000000,4.000000,4.000000,4.000000,4.000000,4.000000,4.000000,4.000000,4.000000,100.000000
1602005689.582300,31.000000,0.000000,4125.641113,4121.025879,4150.256348,4134.871582,4140.000000,4142.051270,4155.384766,4152.820313,4151.282227,4175.384766,4164.615234,4154.358887,4165.641113,4150.769043,0.000000,4.000000,,,,0.000000,4.000000,4.000000,4.000000,4.000000,4.000000,4.000000,4.000000,4.000000,4.000000,4.000000,4.000000,4.000000,4.000000,4.000000,100.000000
1602005689.590181,32.000000,0.000000,4123.077148,4123.077148,4151.282227,4134.871582,4134.358887,4136.922852,4149.743652,4152.820313,4152.307617,4158.974121,4168.205078,4161.538574,4168.205078,4161.025879,0.000000,4.000000,,,,0.000000,4.000000,4.000000,4.000000,4.000000,4.000000,4.000000,4.000000,4.000000,4.000000,4.000000,4.000000,4.000000,4.000000,4.000000,100.000000
1602005689.598063,33.000000,0.000000,4114.871582,4121.025879,4142.051270,4128.717773,4126.153809,4126.666504,4143.077148,4153.846191,4145.128418,4154.871582,4168.205078,4158.974121,4166.666504,4151.794922,0.000000,4.000000,,,,0.000000,4.000000,4.000000,4.000000,4.000000,4.000000,4.000000,4.000000,4.000000,4.000000,4.000000,4.000000,4.000000,4.000000,4.000000,100.000000
1602005689.605845,34.000000,0.000000,4116.410156,4117.948730,4134.871582,4123.077148,4127.179688,4122.051270,4143.589844,4150.256348,4136.410156,4160.000000,4158.461426,4150.769043,4162.563965,4137.436035,0.000000,4.000000,,,,0.000000,4.000000,4.000000,4.000000,4.000000,4.000000,4.000000,4.000000,4.000000,4.000000,4.000000,4.000000,4.000000,4.000000,4.000000,100.000000
1602005689.613726,35.000000,0.000000,4126.666504,4128.717773,4140.512695,4130.256348,4140.000000,4133.846191,4146.153809,4146.666504,4144.615234,4155.897461,4164.615234,4158.974121,4168.205078,4147.692383,0.000000,4.000000,,,,0.000000,4.000000,4.000000,4.000000,4.000000,4.000000,4.000000,4.000000,4.000000,4.000000,4.000000,4.000000,4.000000,4.000000,4.000000,100.000000
1602005689.621608,36.000000,0.000000,4127.692383,4140.512695,4149.743652,4139.487305,4150.256348,4140.512695,4144.102539,4151.282227,4153.846191,4150.769043,4174.871582,4168.205078,4176.410156,4163.077148,0.000000,4.000000,,,,0.000000,4.000000,4.000000,4.000000,4.000000,4.000000,4.000000,4.000000,4.000000,4.000000,4.000000,4.000000,4.000000,4.000000,4.000000,100.000000
1602005689.629490,37.000000,0.000000,4124.102539,4140.000000,4154.871582,4141.538574,4150.769043,4136.410156,4138.461426,4150.769043,4151.282227,4157.948730,4167.179688,4160.000000,4172.820313,4155.897461,0.000000,4.000000,,,,0.000000,4.000000,4.000000,4.000000,4.000000,4.000000,4.000000,4.000000,4.000000,4.000000,4.000000,4.000000,4.000000,4.000000,4.000000,100.000000
1602005689.637371,38.000000,0.000000,4133.333496,4137.948730,4153.333496,4147.692383,4152.307617,4138.461426,4136.410156,4148.717773,4149.230957,4166.666504,4164.615234,4151.282227,4169.230957,4146.666504,0.000000,4.000000,,,,0.000000,4.000000,4.000000,4.000000,4.000000,4.000000,4.000000,4.000000,4.000000,4.000000,4.000000,4.000000,4.000000,4.000000,4.000000,100.000000
1602005689.645253,39.000000,0.000000,4140.512695,4142.563965,4152.820313,4152.307617,4154.358887,4136.922852,4137.948730,4153.846191,4153.333496,4172.307617,4168.205078,4156.922852,4171.282227,4151.282227,0.000000,4.000000,,,,0.000000,4.000000,4.000000,4.000000,4.000000,4.000000,4.000000,4.000000,4.000000,4.000000,4.000000,4.000000,4.000000,4.000000,4.000000,100.000000
1602005689.653135,40.000000,0.000000,4128.205078,4140.512695,4153.333496,4143.589844,4147.692383,4130.769043,4143.589844,4155.384766,4151.794922,4171.794922,4159.487305,4158.974121,4166.153809,4153.846191,0.000000,4.000000,,,,0.000000,4.000000,4.000000,4.000000,4.000000,4.000000,4.000000,4.000000,4.000000,4.000000,4.000000,4.000000,4.000000,4.000000,4.000000,100.000000
1602005689.661116,41.000000,0.000000,4117.948730,4129.743652,4149.230957,4134.871582,4136.922852,4132.307617,4150.769043,4149.230957,4153.333496,4155.897461,4159.487305,4154.871582,4163.077148,4150.256348,0.000000,4.000000,,,,0.000000,4.000000,4.000000,4.000000,4.000000,4.000000,4.000000,4.000000,4.000000,4.000000,4.000000,4.000000,4.000000,4.000000,4.000000,100.000000
1602005689.668998,42.000000,0.000000,4123.589844,4127.179688,4149.230957,4136.922852,4135.897461,4140.000000,4153.846191,4152.307617,4168.717773,4158.974121,4167.692383,4156.410156,4166.153809,4149.230957,0.000000,4.000000,,,,0.000000,4.000000,4.000000,4.000000,4.000000,4.000000,4.000000,4.000000,4.000000,4.000000,4.000000,4.000000,4.000000,4.000000,4.000000,100.000000
1602005689.676879,43.000000,0.000000,4125.641113,4127.692383,4149.230957,4136.922852,4141.538574,4147.179688,4153.333496,4157.436035,4169.743652,4167.692383,4159.487305,4156.410156,4160.512695,4148.717773,0.000000,4.000000,,,,0.000000,4.000000,4.000000,4.000000,4.000000,4.000000,4.000000,4.000000,4.000000,4.000000,4.000000,4.000000,4.000000,4.000000,4.000000,100.000000
1602005689.684761,44.000000,0.000000,4118.461426,4124.615234,4145.128418,4132.820313,4139.487305,4151.282227,4153.846191,4152.307617,4158.461426,4145.641113,4148.717773,4152.820313,4150.256348,4149.230957,0.000000,4.000000,,,,0.000000,4.000000,4.000000,4.000000,4.000000,4.000000,4.000000,4.000000,4.000000,4.000000,4.000000,4.000000,4.000000,4.000000,4.000000,100.000000
1602005689.692643,45.000000,0.000000,4120.512695,4123.589844,4149.743652,4133.846191,4138.974121,4153.333496,4154.358887,4151.794922,4166.666504,4138.461426,4155.384766,4154.871582,4153.333496,4149.230957,0.000000,4.000000,,,,0.000000,4.000000,4.000000,4.000000,4.000000,4.000000,4.000000,4.000000,4.000000,4.000000,4.000000,4.000000,4.000000,4.000000,4.000000,100.000000
1602005689.700524,46.000000,0.000000,4126.153809,4124.615234,4156.922852,4132.820313,4142.051270,4152.820313,4148.205078,4154.358887,4169.743652,4159.487305,4163.589844,4160.512695,4159.487305,4142.051270,0.000000,4.000000,,,,0.000000,4.000000,4.000000,4.000000,4.000000,4.000000,4.000000,4.000000,4.000000,4.000000,4.000000,4.000000,4.000000,4.000000,4.000000,100.000000
1602005689.708506,47.000000,0.000000,4118.974121,4122.051270,4150.769043,4125.641113,4133.333496,4145.128418,4137.436035,4144.615234,4144.615234,4147.692383,4156.922852,4157.436035,4151.794922,4137.436035,0.000000,4.000000,,,,0.000000,4.000000,4.000000,4.000000,4.000000,4.000000,4.000000,4.000000,4.000000,4.000000,4.000000,4.000000,4.000000,4.000000,4.000000,100.000000
1602005689.716388,48.000000,0.000000,4106.666504,4118.461426,4138.974121,4120.000000,4123.589844,4132.307617,4125.641113,4131.794922,4132.307617,4124.615234,4147.179688,4144.102539,4141.538574,4139.487305,0.000000,4.000000,,,,0.000000,4.000000,4.000000,4.000000,4.000000,4.000000,4.000000,4.000000,4.000000,4.000000,4.000000,4.000000,4.000000,4.000000,4.000000,100.000000
1602005689.724269,49.000000,0.000000,4107.692383,4119.487305,4139.487305,4124.102539,4133.333496,4138.974121,4121.025879,4129.230957,4140.512695,4136.922852,4151.794922,4140.000000,4143.589844,4137.948730,0.000000,4.000000,,,,0.000000,4.000000,4.000000,4.000000,4.000000,4.000000,4.000000,4.000000,4.000000,4.000000,4.000000,4.000000,4.000000,4.000000,4.000000,100.000000
1602005689.732151,50.000000,0.000000,4117.948730,4121.025879,4141.025879,4129.230957,4145.641113,4154.358887,4128.717773,4127.179688,4138.461426,4144.102539,4152.820313,4144.615234,4145.128418,4133.846191,0.000000,4.000000,,,,0.000000,4.000000,4.000000,4.000000,4.000000,4.000000,4.000000,4.000000,4.000000,4.000000,4.000000,4.000000,4.000000,4.000000,4.000000,100.000000
1602005689.740032,51.000000,0.000000,4120.000000,4122.563965,4137.436035,4127.179688,4140.000000,4146.153809,4135.897461,4120.000000,4132.820313,4137.436035,4138.461426,4139.487305,4136.410156,4134.358887,0.000000,4.000000,,,,0.000000,4.000000,4.000000,4.000000,4.000000,4.000000,4.000000,4.000000,4.000000,4.000000,4.000000,4.000000,4.000000,4.000000,4.000000,100.000000
1602005689.747914,52.000000,0.000000,4120.512695,4123.589844,4139.487305,4126.666504,4134.358887,4130.769043,4134.871582,4117.436035,4138.974121,4141.538574,4141.025879,4137.948730,4142.563965,4135.897461,0.000000,4.000000,,,,0.000000,4.000000,4.000000,4.000000,4.000000,4.000000,4.000000,4.000000,4.000000,4.000000,4.000000,4.000000,4.000000,4.000000,4.000000,100.000000
1602005689.755796,53.000000,0.000000,4123.077148,4124.102539,4147.179688,4131.282227,4137.948730,4132.820313,4135.384766,4126.153809,4144.102539,4138.461426,4158.461426,4148.717773,4155.897461,4136.922852,0.000000,4.000000,,,,0.000000,4.000000,4.000000,4.000000,4.000000,4.000000,4.000000,4.000000,4.000000,4.000000,4.000000,4.000000,4.000000,4.000000,4.000000,100.000000
1602005689.763577,54.000000,0.000000,4122.051270,4122.563965,4143.589844,4131.794922,4136.922852,4138.461426,4142.051270,4134.871582,4140.512695,4139.487305,4152.307617,4147.179688,4145.641113,4137.948730,0.000000,4.000000,,,,0.000000,4.000000,4.000000,4.000000,4.000000,4.000000,4.000000,4.000000,4.000000,4.000000,4.000000,4.000000,4.000000,4.000000,4.000000,100.000000
1602005689.771459,55.000000,0.000000,4120.000000,4119.487305,4136.922852,4125.128418,4129.230957,4131.794922,4145.128418,4137.436035,4137.948730,4156.410156,4139.487305,4135.384766,4138.974121,4137.948730,0.000000,4.000000,,,,0.000000,4.000000,4.000000,4.000000,4.000000,4.000000,4.000000,4.000000,4.000000,4.000000,4.000000,4.000000,4.000000,4.000000,4.000000,100.000000
1602005689.779340,56.000000,0.000000,4122.563965,4120.512695,4149.230957,4126.153809,4128.205078,4130.256348,4142.051270,4139.487305,4138.974121,4153.846191,4151.282227,4139.487305,4151.794922,4141.025879,0.000000,4.000000,,,,0.000000,4.000000,4.000000,4.000000,4.000000,4.000000,4.000000,4.000000,4.000000,4.000000,4.000000,4.000000,4.000000,4.000000,4.000000,100.000000
1602005689.787221,57.000000,0.000000,4124.615234,4123.077148,4156.410156,4129.743652,4135.897461,4134.358887,4140.512695,4142.051270,4136.922852,4127.692383,4154.358887,4144.102539,4149.230957,4138.461426,0.000000,4.000000,,,,0.000000,4.000000,4.000000,4.000000,4.000000,4.000000,4.000000,4.000000,4.000000,4.000000,4.000000,4.000000,4.000000,4.000000,4.000000,100.000000
1602005689.795103,58.000000,0.000000,4123.589844,4123.077148,4144.102539,4126.153809,4135.897461,4135.897461,4138.974121,4139.487305,4131.282227,4117.948730,4136.922852,4141.538574,4134.358887,4130.769043,0.000000,4.000000,,,,0.000000,4.000000,4.000000,4.000000,4.000000,4.000000,4.000000,4.000000,4.000000,4.000000,4.000000,4.000000,4.000000,4.000000,4.000000,100.000000
1602005689.802984,59.000000,0.000000,4123.077148,4123.077148,4144.615234,4127.179688,4134.871582,4144.615234,4140.512695,4138.974121,4141.025879,4134.871582,4140.000000,4148.205078,4143.589844,4134.871582,0.000000,4.000000,,,,0.000000,4.000000,4.000000,4.000000,4.000000,4.000000,4.000000,4.000000,4.000000,4.000000,4.000000,4.000000,4.000000,4.000000,4.000000,100.000000
1602005689.810766,60.000000,0.000000,4123.589844,4124.102539,4152.820313,4129.230957,4141.538574,4155.384766,4143.589844,4142.563965,4163.077148,4154.358887,4158.974121,4156.922852,4159.487305,4145.128418,0.000000,4.000000,,,,0.000000,4.000000,4.000000,4.000000,4.000000,4.000000,4.000000,4.000000,4.000000,4.000000,4.000000,4.000000,4.000000,4.000000,4.000000,100.000000
1602005689.818648,61.000000,0.000000,4123.589844,4125.128418,4145.128418,4125.641113,4146.153809,4153.333496,4137.948730,4136.410156,4170.769043,4171.794922,4161.025879,4154.358887,4161.538574,4142.563965,0.000000,4.000000,,,,0.000000,4.000000,4.000000,4.000000,4.000000,4.000000,4.000000,4.000000,4.000000,4.000000,4.000000,4.000000,4.000000,4.000000,4.000000,100.000000
1602005689.826530,62.000000,0.000000,4122.051270,4124.615234,4135.384766,4123.589844,4142.563965,4138.974121,4126.666504,4125.641113,4161.025879,4175.384766,4147.179688,4145.128418,4152.820313,4136.410156,0.000000,4.000000,,,,0.000000,4.000000,4.000000,4.000000,4.000000,4.000000,4.000000,4.000000,4.000000,4.000000,4.000000,4.000000,4.000000,4.000000,4.000000,100.000000
1602005689.834412,63.000000,0.000000,4120.000000,4123.077148,4136.410156,4126.666504,4139.487305,4128.205078,4125.641113,4122.051270,4143.077148,4146.666504,4142.563965,4135.384766,4140.512695,4139.487305,0.000000,4.000000,,,,0.000000,4.000000,4.000000,4.000000,4.000000,4.000000,4.000000,4.000000,4.000000,4.000000,4.000000,4.000000,4.000000,4.000000,4.000000,100.000000
1602005689.842294,64.000000,0.000000,4122.563965,4131.282227,4145.641113,4131.794922,4143.077148,4129.743652,4135.897461,4123.077148,4127.692383,4124.102539,4150.256348,4137.436035,4140.000000,4141.538574,803.000000,4.000000,,,,0.000000,4.000000,4.000000,4.000000,4.000000,4.000000,4.000000,4.000000,4.000000,4.000000,4.000000,4.000000,4.000000,4.000000,4.000000,100.000000
1602005689.850176,65.000000,0.000000,4128.205078,4135.897461,4157.436035,4138.461426,4145.641113,4133.333496,4138.461426,4123.589844,4123.589844,4131.282227,4149.743652,4151.794922,4145.128418,4138.461426,801.000000,4.000000,,,,0.000000,4.000000,4.000000,4.000000,4.000000,4.000000,4.000000,4.000000,4.000000,4.000000,4.000000,4.000000,4.000000,4.000000,4.000000,100.000000
1602005689.858058,66.000000,0.000000,4126.666504,4126.666504,4159.487305,4136.922852,4138.974121,4128.717773,4135.897461,4129.743652,4125.128418,4128.205078,4137.436035,4157.436035,4140.512695,4137.436035,853.000000,4.000000,,,,0.000000,4.000000,4.000000,4.000000,4.000000,4.000000,4.000000,4.000000,4.000000,4.000000,4.000000,4.000000,4.000000,4.000000,4.000000,100.000000
1602005689.865939,67.000000,0.000000,4120.512695,4118.461426,4150.769043,4125.128418,4134.358887,4124.615234,4137.948730,4137.948730,4122.051270,4120.000000,4136.922852,4150.769043,4135.897461,4137.436035,868.000000,4.000000,,,,0.000000,4.000000,4.000000,4.000000,4.000000,4.000000,4.000000,4.000000,4.000000,4.000000,4.000000,4.000000,4.000000,4.000000,4.000000,100.000000
1602005689.873821,68.000000,0.000000,4123.077148,4124.102539,4148.205078,4121.025879,4141.538574,4129.743652,4140.512695,4137.948730,4120.512695,4139.487305,4145.128418,4151.282227,4141.025879,4139.487305,807.000000,4.000000,,,,0.000000,4.000000,4.000000,4.000000,4.000000,4.000000,4.000000,4.000000,4.000000,4.000000,4.000000,4.000000,4.000000,4.000000,4.000000,100.000000
1602005689.881603,69.000000,0.000000,4127.692383,4126.666504,4145.641113,4130.769043,4142.563965,4133.333496,4135.384766,4135.897461,4124.615234,4140.000000,4141.538574,4156.922852,4141.538574,4142.051270,765.000000,4.000000,,,,0.000000,4.000000,4.000000,4.000000,4.000000,4.000000,4.000000,4.000000,4.000000,4.000000,4.000000,4.000000,4.000000,4.000000,4.000000,100.000000
1602005689.889485,70.000000,0.000000,4125.128418,4124.615234,4140.000000,4135.897461,4140.512695,4133.846191,4133.846191,4135.897461,4129.743652,4117.436035,4140.512695,4152.307617,4139.487305,4141.538574,771.000000,4.000000,,,,0.000000,4.000000,4.000000,4.000000,4.000000,4.000000,4.000000,4.000000,4.000000,4.000000,4.000000,4.000000,4.000000,4.000000,4.000000,100.000000
1602005689.897366,71.000000,0.000000,4129.230957,4130.256348,4145.128418,4135.897461,4149.743652,4139.487305,4138.974121,4137.948730,4138.974121,4137.436035,4151.794922,4148.205078,4149.230957,4143.589844,687.000000,4.000000,,,,0.000000,4.000000,4.000000,4.000000,4.000000,4.000000,4.000000,4.000000,4.000000,4.000000,4.000000,4.000000,4.000000,4.000000,4.000000,100.000000
1602005689.905248,72.000000,0.000000,4140.000000,4137.948730,4154.871582,4138.461426,4154.871582,4140.512695,4140.512695,4142.051270,4140.512695,4155.384766,4155.897461,4157.948730,4157.948730,4155.384766,792.000000,4.000000,,,,0.000000,4.000000,4.000000,4.000000,4.000000,4.000000,4.000000,4.000000,4.000000,4.000000,4.000000,4.000000,4.000000,4.000000,4.000000,100.000000
1602005689.913130,73.000000,0.000000,4145.128418,4142.563965,4160.512695,4143.077148,4153.333496,4141.025879,4140.000000,4145.641113,4133.846191,4140.000000,4154.871582,4169.230957,4161.538574,4170.256348,840.000000,4.000000,,,,0.000000,4.000000,4.000000,4.000000,4.000000,4.000000,4.000000,4.000000,4.000000,4.000000,4.000000,4.000000,4.000000,4.000000,4.000000,100.000000
1602005689.921011,74.000000,0.000000,4142.051270,4141.025879,4160.000000,4142.051270,4155.384766,4138.461426,4143.589844,4143.077148,4134.871582,4148.717773,4153.333496,4163.077148,4158.461426,4163.077148,871.000000,4.000000,,,,0.000000,4.000000,4.000000,4.000000,4.000000,4.000000,4.000000,4.000000,4.000000,4.000000,4.000000,4.000000,4.000000,4.000000,4.000000,100.000000
1602005689.928893,75.000000,0.000000,4131.794922,4136.922852,4152.820313,4137.436035,4156.410156,4128.205078,4142.563965,4140.000000,4133.333496,4151.794922,4149.230957,4145.641113,4145.641113,4139.487305,839.000000,4.000000,,,,0.000000,4.000000,4.000000,4.000000,4.000000,4.000000,4.000000,4.000000,4.000000,4.000000,4.000000,4.000000,4.000000,4.000000,4.000000,100.000000
1602005689.936775,76.000000,0.000000,4122.563965,4137.436035,4140.512695,4137.948730,4152.820313,4120.000000,4132.307617,4135.897461,4120.000000,4109.743652,4144.615234,4133.333496,4136.410156,4134.871582,783.000000,4.000000,,,,0.000000,4.000000,4.000000,4.000000,4.000000,4.000000,4.000000,4.000000,4.000000,4.000000,4.000000,4.000000,4.000000,4.000000,4.000000,100.000000
1602005689.944756,77.000000,0.000000,4122.051270,4132.307617,4125.641113,4135.384766,4154.358887,4120.000000,4120.512695,4129.230957,4112.820313,4097.948730,4137.948730,4130.256348,4133.846191,4138.461426,760.000000,4.000000,,,,0.000000,4.000000,4.000000,4.000000,4.000000,4.000000,4.000000,4.000000,4.000000,4.000000,4.000000,4.000000,4.000000,4.000000,4.000000,100.000000
1602005689.952637,78.000000,0.000000,4121.025879,4123.077148,4121.025879,4131.282227,4155.384766,4126.153809,4124.615234,4132.307617,4126.666504,4131.794922,4134.358887,4133.333496,4130.769043,4128.205078,871.000000,4.000000,,,,0.000000,4.000000,4.000000,4.000000,4.000000,4.000000,4.000000,4.000000,4.000000,4.000000,4.000000,4.000000,4.000000,4.000000,4.000000,100.000000
1602005689.960519,79.000000,0.000000,4109.743652,4121.538574,4119.487305,4128.205078,4146.666504,4129.230957,4137.436035,4140.000000,4140.512695,4136.922852,4133.846191,4131.282227,4126.153809,4117.436035,839.000000,4.000000,,,,0.000000,4.000000,4.000000,4.000000,4.000000,4.000000,4.000000,4.000000,4.000000,4.000000,4.000000,4.000000,4.000000,4.000000,4.000000,100.000000
1602005689.968400,80.000000,0.000000,4104.615234,4122.051270,4117.948730,4128.205078,4143.589844,4126.666504,4141.538574,4141.538574,4132.820313,4121.025879,4129.230957,4125.641113,4124.615234,4118.461426,783.000000,4.000000,,,,0.000000,4.000000,4.000000,4.000000,4.000000,4.000000,4.000000,4.000000,4.000000,4.000000,4.000000,4.000000,4.000000,4.000000,4.000000,100.000000
1602005689.976281,81.000000,0.000000,4114.358887,4120.000000,4128.205078,4132.820313,4150.256348,4128.205078,4144.615234,4145.641113,4122.051270,4126.666504,4128.205078,4131.282227,4130.256348,4121.538574,760.000000,4.000000,,,,0.000000,4.000000,4.000000,4.000000,4.000000,4.000000,4.000000,4.000000,4.000000,4.000000,4.000000,4.000000,4.000000,4.000000,4.000000,100.000000
1602005689.984163,82.000000,0.000000,4126.666504,4129.743652,4144.615234,4138.974121,4154.871582,4137.436035,4154.358887,4155.897461,4131.794922,4132.307617,4137.948730,4141.538574,4140.000000,4122.563965,871.000000,4.000000,,,,0.000000,4.000000,4.000000,4.000000,4.000000,4.000000,4.000000,4.000000,4.000000,4.000000,4.000000,4.000000,4.000000,4.000000,4.000000,100.000000
1602005689.992044,83.000000,0.000000,4127.692383,4138.974121,4144.615234,4140.512695,4151.794922,4144.102539,4152.307617,4153.333496,4143.589844,4122.051270,4141.538574,4139.487305,4140.512695,4124.102539,839.000000,4.000000,,,,0.000000,4.000000,4.000000,4.000000,4.000000,4.000000,4.000000,4.000000,4.000000,4.000000,4.000000,4.000000,4.000000,4.000000,4.000000,100.000000
1602005689.999925,84.000000,0.000000,4117.948730,4128.717773,4135.384766,4136.410156,4149.230957,4136.922852,4138.461426,4138.974121,4135.897461,4123.589844,4135.897461,4131.794922,4135.384766,4126.666504,783.000000,4.000000,,,,0.000000,4.000000,4.000000,4.000000,4.000000,4.000000,4.000000,4.000000,4.000000,4.000000,4.000000,4.000000,4.000000,4.000000,4.000000,100.000000
1602005690.007806,85.000000,0.000000,4123.589844,4124.615234,4137.436035,4136.410156,4149.230957,4126.666504,4135.897461,4140.512695,4136.922852,4146.153809,4143.589844,4140.000000,4143.077148,4137.436035,760.000000,4.000000,,,,0.000000,4.000000,4.000000,4.000000,4.000000,4.000000,4.000000,4.000000,4.000000,4.000000,4.000000,4.000000,4.000000,4.000000,4.000000,100.000000
1602005690.015588,86.000000,0.000000,4140.512695,4137.436035,4143.589844,4139.487305,4153.333496,4129.230957,4141.025879,4151.282227,4151.794922,4156.922852,4155.384766,4154.358887,4154.358887,4151.282227,871.000000,4.000000,,,,0.000000,4.000000,4.000000,4.000000,4.000000,4.000000,4.000000,4.000000,4.000000,4.000000,4.000000,4.000000,4.000000,4.000000,4.000000,100.000000
1602005690.023469,87.000000,0.000000,4137.948730,4140.000000,4142.051270,4139.487305,4153.333496,4139.487305,4140.512695,4147.692383,4147.179688,4150.256348,4152.820313,4156.922852,4153.846191,4149.743652,839.000000,4.000000,,,,0.000000,4.000000,4.000000,4.000000,4.000000,4.000000,4.000000,4.000000,4.000000,4.000000,4.000000,4.000000,4.000000,4.000000,4.000000,100.000000
1602005690.031350,88.000000,0.000000,4121.538574,4128.717773,4137.436035,4138.461426,4142.051270,4137.436035,4140.512695,4132.820313,4127.179688,4139.487305,4140.512695,4153.846191,4148.717773,4141.025879,783.000000,4.000000,,,,0.000000,4.000000,4.000000,4.000000,4.000000,4.000000,4.000000,4.000000,4.000000,4.000000,4.000000,4.000000,4.000000,4.000000,4.000000,100.000000
1602005690.039231,89.000000,0.000000,4114.871582,4122.051270,4135.897461,4134.358887,4132.820313,4125.128418,4134.871582,4122.563965,4114.358887,4120.512695,4124.615234,4153.846191,4137.948730,4137.948730,760.000000,4.000000,,,,0.000000,4.000000,4.000000,4.000000,4.000000,4.000000,4.000000,4.000000,4.000000,4.000000,4.000000,4.000000,4.000000,4.000000,4.000000,100.000000
1602005690.047013,90.000000,0.000000,4116.922852,4121.538574,4135.384766,4129.743652,4135.897461,4118.974121,4127.179688,4121.538574,4110.256348,4100.000000,4120.512695,4150.769043,4125.128418,4129.743652,871.000000,4.000000,,,,0.000000,4.000000,4.000000,4.000000,4.000000,4.000000,4.000000,4.000000,4.000000,4.000000,4.000000,4.000000,4.000000,4.000000,4.000000,100.000000
1602005690.054894,91.000000,0.000000,4120.000000,4123.077148,4136.410156,4132.307617,4142.563965,4124.615234,4130.769043,4130.256348,4111.794922,4105.128418,4133.333496,4149.743652,4127.179688,4122.563965,839.000000,4.000000,,,,0.000000,4.000000,4.000000,4.000000,4.000000,4.000000,4.000000,4.000000,4.000000,4.000000,4.000000,4.000000,4.000000,4.000000,4.000000,100.000000
1602005690.062776,92.000000,0.000000,4124.615234,4127.692383,4141.538574,4138.974121,4145.641113,4137.436035,4137.948730,4142.563965,4125.128418,4125.128418,4144.615234,4155.897461,4141.538574,4133.333496,783.000000,4.000000,,,,0.000000,4.000000,4.000000,4.000000,4.000000,4.000000,4.000000,4.000000,4.000000,4.000000,4.000000,4.000000,4.000000,4.000000,4.000000,100.000000
1602005690.070658,93.000000,0.000000,4123.077148,4128.205078,4142.563965,4137.436035,4143.589844,4136.922852,4141.538574,4145.641113,4134.871582,4133.846191,4144.615234,4157.948730,4146.153809,4145.128418,760.000000,4.000000,,,,0.000000,4.000000,4.000000,4.000000,4.000000,4.000000,4.000000,4.000000,4.000000,4.000000,4.000000,4.000000,4.000000,4.000000,4.000000,100.000000
1602005690.078539,94.000000,0.000000,4120.512695,4123.077148,4137.948730,4133.333496,4137.436035,4124.615234,4150.256348,4144.615234,4136.922852,4136.922852,4143.077148,4153.333496,4137.948730,4138.461426,871.000000,4.000000,,,,0.000000,4.000000,4.000000,4.000000,4.000000,4.000000,4.000000,4.000000,4.000000,4.000000,4.000000,4.000000,4.000000,4.000000,4.000000,100.000000
1602005690.086421,95.000000,0.000000,4124.102539,4126.153809,4136.922852,4134.871582,4138.461426,4127.692383,4152.307617,4148.205078,4146.666504,4140.512695,4140.512695,4153.846191,4136.922852,4134.871582,839.000000,4.000000,,,,0.000000,4.000000,4.000000,4.000000,4.000000,4.000000,4.000000,4.000000,4.000000,4.000000,4.000000,4.000000,4.000000,4.000000,4.000000,100.000000
1602005690.094303,96.000000,0.000000,4127.692383,4136.922852,4140.000000,4137.436035,4142.563965,4134.871582,4141.538574,4148.205078,4155.897461,4137.436035,4138.974121,4157.436035,4145.641113,4142.563965,783.000000,4.000000,,,,0.000000,4.000000,4.000000,4.000000,4.000000,4.000000,4.000000,4.000000,4.000000,4.000000,4.000000,4.000000,4.000000,4.000000,4.000000,100.000000
1602005690.102184,97.000000,0.000000,4130.256348,4137.436035,4141.025879,4137.436035,4134.358887,4126.666504,4135.897461,4139.487305,4153.333496,4138.461426,4147.179688,4156.922852,4149.743652,4141.025879,760.000000,4.000000,,,,0.000000,4.000000,4.000000,4.000000,4.000000,4.000000,4.000000,4.000000,4.000000,4.000000,4.000000,4.000000,4.000000,4.000000,4.000000,100.000000
1602005690.109966,98.000000,0.000000,4123.077148,4127.692383,4133.333496,4136.410156,4126.153809,4116.922852,4133.333496,4134.358887,4144.102539,4144.615234,4151.282227,4150.256348,4143.589844,4127.692383,871.000000,4.000000,,,,0.000000,4.000000,4.000000,4.000000,4.000000,4.000000,4.000000,4.000000,4.000000,4.000000,4.000000,4.000000,4.000000,4.000000,4.000000,100.000000
1602005690.117847,99.000000,0.000000,4117.436035,4127.692383,4126.153809,4133.846191,4130.769043,4116.922852,4123.077148,4135.384766,4131.282227,4140.000000,4146.666504,4146.153809,4137.436035,4125.128418,839.000000,4.000000,,,,0.000000,4.000000,4.000000,4.000000,4.000000,4.000000,4.000000,4.000000,4.000000,4.000000,4.000000,4.000000,4.000000,4.000000,4.000000,100.000000
1602005690.125729,100.000000,0.000000,4138.461426,4144.615234,4140.000000,4140.000000,4144.615234,4126.153809,4117.948730,4135.897461,4125.641113,4136.410156,4151.282227,4152.820313,4149.230957,4142.051270,783.000000,4.000000,,,,0.000000,4.000000,4.000000,4.000000,4.000000,4.000000,4.000000,4.000000,4.000000,4.000000,4.000000,4.000000,4.000000,4.000000,4.000000,100.000000
1602005690.133610,101.000000,0.000000,4158.974121,4155.897461,4155.384766,4151.794922,4152.820313,4136.922852,4126.153809,4135.897461,4133.333496,4136.922852,4155.897461,4158.461426,4158.974121,4149.743652,760.000000,4.000000,,,,0.000000,4.000000,4.000000,4.000000,4.000000,4.000000,4.000000,4.000000,4.000000,4.000000,4.000000,4.000000,4.000000,4.000000,4.000000,100.000000
1602005690.141491,102.000000,0.000000,4144.615234,4146.153809,4145.128418,4151.794922,4148.205078,4138.974121,4134.871582,4137.436035,4136.922852,4124.615234,4145.641113,4152.307617,4145.641113,4141.025879,871.000000,4.000000,,,,0.000000,4.000000,4.000000,4.000000,4.000000,4.000000,4.000000,4.000000,4.000000,4.000000,4.000000,4.000000,4.000000,4.000000,4.000000,100.000000
1602005690.149373,103.000000,0.000000,4126.153809,4137.436035,4136.410156,4144.102539,4145.128418,4134.358887,4140.000000,4141.025879,4134.871582,4124.615234,4131.794922,4144.102539,4132.820313,4138.461426,839.000000,4.000000,,,,0.000000,4.000000,4.000000,4.000000,4.000000,4.000000,4.000000,4.000000,4.000000,4.000000,4.000000,4.000000,4.000000,4.000000,4.000000,100.000000
1602005690.157154,104.000000,0.000000,4126.666504,4141.025879,4138.461426,4140.512695,4148.717773,4135.897461,4145.641113,4146.666504,4143.589844,4145.641113,4133.846191,4142.051270,4136.922852,4135.384766,783.000000,4.000000,,,,0.000000,4.000000,4.000000,4.000000,4.000000,4.000000,4.000000,4.000000,4.000000,4.000000,4.000000,4.000000,4.000000,4.000000,4.000000,100.000000
1602005690.165036,105.000000,0.000000,4122.563965,4140.000000,4130.256348,4137.948730,4148.717773,4137.436035,4146.153809,4153.333496,4155.384766,4154.871582,4147.692383,4142.051270,4145.128418,4128.717773,760.000000,4.000000,,,,0.000000,4.000000,4.000000,4.000000,4.000000,4.000000,4.000000,4.000000,4.000000,4.000000,4.000000,4.000000,4.000000,4.000000,4.000000,100.000000
1602005690.172917,106.000000,0.000000,4121.538574,4137.436035,4129.230957,4140.512695,4145.128418,4137.436035,4140.512695,4153.846191,4158.974121,4156.922852,4155.384766,4147.179688,4150.256348,4137.436035,871.000000,4.000000,,,,0.000000,4.000000,4.000000,4.000000,4.000000,4.000000,4.000000,4.000000,4.000000,4.000000,4.000000,4.000000,4.000000,4.000000,4.000000,100.000000
1602005690.180799,107.000000,0.000000,4134.871582,4143.589844,4147.692383,4153.333496,4144.615234,4137.436035,4136.410156,4147.179688,4153.846191,4151.794922,4153.333496,4155.897461,4154.358887,4155.897461,839.000000,4.000000,,,,0.000000,4.000000,4.000000,4.000000,4.000000,4.000000,4.000000,4.000000,4.000000,4.000000,4.000000,4.000000,4.000000,4.000000,4.000000,100.000000
1602005690.188680,108.000000,0.000000,4142.563965,4145.128418,4156.410156,4156.410156,4142.051270,4132.820313,4132.820313,4138.461426,4138.461426,4124.615234,4149.230957,4159.487305,4149.230957,4154.358887,783.000000,4.000000,,,,0.000000,4.000000,4.000000,4.000000,4.000000,4.000000,4.000000,4.000000,4.000000,4.000000,4.000000,4.000000,4.000000,4.000000,4.000000,100.000000
1602005690.196461,109.000000,0.000000,4133.846191,4133.846191,4143.589844,4144.102539,4138.461426,4126.153809,4130.769043,4135.897461,4131.794922,4121.538574,4145.641113,4153.333496,4137.948730,4134.871582,760.000000,4.000000,,,,0.000000,4.000000,4.000000,4.000000,4.000000,4.000000,4.000000,4.000000,4.000000,4.000000,4.000000,4.000000,4.000000,4.000000,4.000000,100.000000
1602005690.204343,110.000000,0.000000,4115.897461,4123.077148,4124.615234,4133.333496,4136.410156,4120.512695,4131.282227,4137.948730,4141.025879,4154.871582,4133.846191,4142.563965,4134.358887,4122.051270,871.000000,4.000000,,,,0.000000,4.000000,4.000000,4.000000,4.000000,4.000000,4.000000,4.000000,4.000000,4.000000,4.000000,4.000000,4.000000,4.000000,4.000000,100.000000
1602005690.212224,111.000000,0.000000,4108.205078,4120.512695,4118.461426,4129.743652,4133.333496,4125.641113,4129.743652,4135.897461,4136.410156,4159.487305,4128.717773,4137.436035,4134.871582,4120.000000,839.000000,4.000000,,,,0.000000,4.000000,4.000000,4.000000,4.000000,4.000000,4.000000,4.000000,4.000000,4.000000,4.000000,4.000000,4.000000,4.000000,4.000000,100.000000
1602005690.220106,112.000000,0.000000,4118.974121,4123.589844,4128.205078,4131.794922,4133.333496,4137.948730,4130.256348,4134.871582,4123.589844,4143.589844,4140.000000,4144.615234,4138.461426,4128.717773,783.000000,4.000000,,,,0.000000,4.000000,4.000000,4.000000,4.000000,4.000000,4.000000,4.000000,4.000000,4.000000,4.000000,4.000000,4.000000,4.000000,4.000000,100.000000
1602005690.227987,113.000000,0.000000,4134.871582,4125.641113,4142.051270,4135.897461,4136.410156,4144.102539,4135.897461,4136.410156,4125.128418,4135.384766,4145.641113,4152.307617,4140.000000,4139.487305,760.000000,4.000000,,,,0.000000,4.000000,4.000000,4.000000,4.000000,4.000000,4.000000,4.000000,4.000000,4.000000,4.000000,4.000000,4.000000,4.000000,4.000000,100.000000
1602005690.235968,114.000000,0.000000,4134.871582,4129.230957,4149.230957,4135.897461,4136.410156,4137.436035,4137.436035,4135.897461,4129.743652,4114.358887,4137.436035,4152.820313,4132.307617,4141.538574,871.000000,4.000000,,,,0.000000,4.000000,4.000000,4.000000,4.000000,4.000000,4.000000,4.000000,4.000000,4.000000,4.000000,4.000000,4.000000,4.000000,4.000000,100.000000
1602005690.243849,115.000000,0.000000,4125.128418,4135.897461,4147.692383,4137.948730,4136.922852,4125.641113,4132.820313,4135.897461,4132.307617,4107.692383,4133.846191,4153.846191,4127.179688,4137.948730,839.000000,4.000000,,,,0.000000,4.000000,4.000000,4.000000,4.000000,4.000000,4.000000,4.000000,4.000000,4.000000,4.000000,4.000000,4.000000,4.000000,4.000000,100.000000
1602005690.251831,116.000000,0.000000,4130.256348,4137.948730,4143.589844,4142.563965,4137.948730,4128.205078,4129.743652,4140.000000,4146.153809,4144.102539,4140.000000,4155.384766,4134.358887,4137.948730,783.000000,4.000000,,,,0.000000,4.000000,4.000000,4.000000,4.000000,4.000000,4.000000,4.000000,4.000000,4.000000,4.000000,4.000000,4.000000,4.000000,4.000000,100.000000
1602005690.259713,117.000000,0.000000,4141.538574,4135.897461,4142.563965,4144.615234,4138.974121,4132.820313,4129.743652,4142.563965,4155.384766,4167.179688,4138.974121,4153.333496,4141.025879,4138.974121,760.000000,4.000000,,,,0.000000,4.000000,4.000000,4.000000,4.000000,4.000000,4.000000,4.000000,4.000000,4.000000,4.000000,4.000000,4.000000,4.000000,4.000000,100.000000
1602005690.267594,118.000000,0.000000,4142.051270,4138.974121,4144.615234,4143.589844,4135.897461,4129.743652,4136.410156,4144.102539,4144.615234,4144.102539,4129.743652,4154.358887,4137.948730,4139.487305,871.000000,4.000000,,,,0.000000,4.000000,4.000000,4.000000,4.000000,4.000000,4.000000,4.000000,4.000000,4.000000,4.000000,4.000000,4.000000,4.000000,4.000000,100.000000
1602005690.275476,119.000000,0.000000,4137.948730,4137.948730,4145.128418,4140.512695,4130.256348,4125.641113,4140.512695,4143.077148,4130.769043,4123.589844,4125.128418,4157.948730,4133.333496,4141.025879,839.000000,4.000000,,,,0.000000,4.000000,4.000000,4.000000,4.000000,4.000000,4.000000,4.000000,4.000000,4.000000,4.000000,4.000000,4.000000,4.000000,4.000000,100.000000
1602005690.283357,120.000000,0.000000,4138.974121,4125.641113,4141.538574,4136.922852,4126.153809,4124.615234,4135.897461,4138.974121,4126.153809,4126.666504,4128.205078,4147.692383,4125.641113,4133.333496,783.000000,4.000000,,,,0.000000,4.000000,4.000000,4.000000,4.000000,4.000000,4.000000,4.000000,4.000000,4.000000,4.000000,4.000000,4.000000,4.000000,4.000000,100.000000
1602005690.291239,121.000000,0.000000,4136.410156,4122.563965,4139.487305,4135.384766,4125.641113,4124.102539,4131.794922,4135.897461,4122.563965,4118.974121,4127.692383,4136.922852,4124.102539,4127.692383,760.000000,4.000000,,,,0.000000,4.000000,4.000000,4.000000,4.000000,4.000000,4.000000,4.000000,4.000000,4.000000,4.000000,4.000000,4.000000,4.000000,4.000000,100.000000
1602005690.299121,122.000000,0.000000,4138.461426,4134.871582,4145.641113,4136.922852,4129.230957,4126.666504,4128.205078,4135.897461,4121.025879,4112.820313,4128.205078,4143.077148,4134.358887,4135.384766,871.000000,4.000000,,,,0.000000,4.000000,4.000000,4.000000,4.000000,4.000000,4.000000,4.000000,4.000000,4.000000,4.000000,4.000000,4.000000,4.000000,4.000000,100.000000
1602005690.307002,123.000000,0.000000,4148.717773,4135.897461,4151.794922,4137.948730,4130.256348,4126.666504,4128.717773,4137.436035,4136.410156,4138.974121,4137.948730,4154.358887,4140.512695,4143.589844,839.000000,4.000000,,,,0.000000,4.000000,4.000000,4.000000,4.000000,4.000000,4.000000,4.000000,4.000000,4.000000,4.000000,4.000000,4.000000,4.000000,4.000000,100.000000
1602005690.314984,124.000000,0.000000,4143.589844,4123.077148,4146.153809,4130.256348,4126.153809,4119.487305,4134.358887,4139.487305,4155.384766,4161.538574,4141.025879,4157.948730,4140.000000,4143.589844,783.000000,4.000000,,,,0.000000,4.000000,4.000000,4.000000,4.000000,4.000000,4.000000,4.000000,4.000000,4.000000,4.000000,4.000000,4.000000,4.000000,4.000000,100.000000
1602005690.322866,125.000000,0.000000,4131.794922,4118.461426,4140.512695,4120.000000,4123.077148,4126.666504,4138.461426,4140.000000,4155.384766,4144.615234,4136.922852,4156.922852,4141.538574,4141.025879,760.000000,4.000000,,,,0.000000,4.000000,4.000000,4.000000,4.000000,4.000000,4.000000,4.000000,4.000000,4.000000,4.000000,4.000000,4.000000,4.000000,4.000000,100.000000
1602005690.330748,126.000000,0.000000,4135.897461,4121.538574,4140.512695,4122.051270,4125.641113,4140.000000,4138.974121,4137.948730,4143.077148,4128.205078,4138.461426,4150.256348,4141.538574,4137.948730,871.000000,4.000000,,,,0.000000,4.000000,4.000000,4.000000,4.000000,4.000000,4.000000,4.000000,4.000000,4.000000,4.000000,4.000000,4.000000,4.000000,4.000000,100.000000
1602005690.338630,127.000000,0.000000,4141.538574,4121.538574,4140.512695,4126.153809,4127.179688,4140.000000,4140.000000,4133.333496,4134.871582,4126.153809,4138.461426,4142.051270,4136.410156,4134.871582,839.000000,4.000000,,,,0.000000,4.000000,4.000000,4.000000,4.000000,4.000000,4.000000,4.000000,4.000000,4.000000,4.000000,4.000000,4.000000,4.000000,4.000000,100.000000
1602005690.346512,128.000000,0.000000,4127.692383,4121.025879,4130.769043,4121.538574,4129.743652,4137.436035,4137.436035,4126.153809,4127.179688,4108.205078,4127.179688,4136.410156,4125.128418,4137.948730,783.000000,4.000000,,,,0.000000,4.000000,4.000000,4.000000,4.000000,4.000000,4.000000,4.000000,4.000000,4.000000,4.000000,4.000000,4.000000,4.000000,4.000000,100.000000
1602005690.354394,0.000000,0.000000,4119.487305,4122.563965,4122.563965,4123.589844,4135.897461,4138.974121,4130.769043,4118.974121,4118.974121,4101.538574,4120.000000,4130.769043,4119.487305,4135.384766,803.000000,4.000000,,,,0.000000,4.000000,4.000000,4.000000,4.000000,4.000000,4.000000,4.000000,4.000000,4.000000,4.000000,4.000000,4.000000,4.000000,4.000000,100.000000
1602005690.362275,1.000000,0.000000,4132.820313,4125.641113,4130.769043,4135.897461,4139.487305,4134.358887,4129.743652,4123.589844,4127.179688,4131.794922,4127.692383,4134.871582,4128.205078,4132.307617,800.000000,4.000000,,,,0.000000,4.000000,4.000000,4.000000,4.000000,4.000000,4.000000,4.000000,4.000000,4.000000,4.000000,4.000000,4.000000,4.000000,4.000000,100.000000
1602005690.370157,2.000000,0.000000,4141.538574,4126.666504,4143.077148,4139.487305,4139.487305,4126.666504,4131.282227,4136.922852,4140.512695,4152.820313,4137.948730,4148.205078,4142.563965,4146.666504,853.000000,4.000000,,,,0.000000,4.000000,4.000000,4.000000,4.000000,4.000000,4.000000,4.000000,4.000000,4.000000,4.000000,4.000000,4.000000,4.000000,4.000000,100.000000
1602005690.378039,3.000000,0.000000,4140.512695,4129.743652,4142.051270,4136.410156,4139.487305,4131.794922,4130.256348,4141.025879,4141.025879,4137.948730,4144.615234,4156.922852,4146.153809,4158.461426,868.000000,4.000000,,,,0.000000,4.000000,4.000000,4.000000,4.000000,4.000000,4.000000,4.000000,4.000000,4.000000,4.000000,4.000000,4.000000,4.000000,4.000000,100.000000
1602005690.386021,4.000000,0.000000,4140.000000,4135.897461,4136.410156,4137.436035,4140.000000,4140.000000,4131.282227,4134.358887,4133.846191,4130.769043,4138.974121,4155.897461,4143.077148,4145.128418,807.000000,4.000000,,,,0.000000,4.000000,4.000000,4.000000,4.000000,4.000000,4.000000,4.000000,4.000000,4.000000,4.000000,4.000000,4.000000,4.000000,4.000000,100.000000
1602005690.393902,5.000000,0.000000,4136.922852,4134.871582,4135.384766,4138.974121,4138.974121,4137.436035,4135.897461,4134.871582,4134.871582,4137.436035,4121.538574,4146.666504,4140.000000,4131.794922,806.000000,4.000000,,,,0.000000,4.000000,4.000000,4.000000,4.000000,4.000000,4.000000,4.000000,4.000000,4.000000,4.000000,4.000000,4.000000,4.000000,4.000000,100.000000
1602005690.401784,6.000000,0.000000,4138.461426,4134.871582,4138.461426,4137.948730,4138.974121,4132.820313,4135.897461,4138.461426,4141.025879,4129.743652,4123.077148,4140.000000,4137.948730,4139.487305,771.000000,4.000000,,,,0.000000,4.000000,4.000000,4.000000,4.000000,4.000000,4.000000,4.000000,4.000000,4.000000,4.000000,4.000000,4.000000,4.000000,4.000000,100.000000
1602005690.409666,7.000000,0.000000,4146.666504,4139.487305,4145.641113,4138.974121,4141.025879,4137.436035,4135.384766,4132.307617,4141.538574,4123.077148,4141.025879,4141.025879,4139.487305,4146.153809,743.000000,4.000000,,,,0.000000,4.000000,4.000000,4.000000,4.000000,4.000000,4.000000,4.000000,4.000000,4.000000,4.000000,4.000000,4.000000,4.000000,4.000000,100.000000
1602005690.417547,8.000000,0.000000,4143.077148,4134.358887,4145.641113,4139.487305,4135.384766,4141.025879,4138.461426,4123.589844,4137.948730,4123.589844,4135.897461,4140.000000,4136.410156,4140.000000,821.000000,4.000000,,,,0.000000,4.000000,4.000000,4.000000,4.000000,4.000000,4.000000,4.000000,4.000000,4.000000,4.000000,4.000000,4.000000,4.000000,4.000000,100.000000
1602005690.425429,9.000000,0.000000,4134.358887,4122.563965,4145.641113,4136.922852,4126.666504,4135.897461,4139.487305,4125.128418,4135.384766,4120.000000,4124.615234,4137.436035,4124.615234,4136.410156,840.000000,4.000000,,,,0.000000,4.000000,4.000000,4.000000,4.000000,4.000000,4.000000,4.000000,4.000000,4.000000,4.000000,4.000000,4.000000,4.000000,4.000000,100.000000
1602005690.433311,10.000000,0.000000,4136.922852,4122.051270,4154.358887,4137.948730,4127.179688,4136.410156,4140.000000,4131.794922,4137.436035,4126.153809,4131.794922,4140.512695,4118.974121,4133.846191,871.000000,4.000000,,,,0.000000,4.000000,4.000000,4.000000,4.000000,4.000000,4.000000,4.000000,4.000000,4.000000,4.000000,4.000000,4.000000,4.000000,4.000000,100.000000
1602005690.441192,11.000000,0.000000,4142.563965,4125.128418,4151.794922,4137.948730,4129.230957,4139.487305,4140.000000,4137.436035,4134.871582,4129.743652,4129.743652,4143.077148,4122.563965,4126.666504,839.000000,4.000000,,,,0.000000,4.000000,4.000000,4.000000,4.000000,4.000000,4.000000,4.000000,4.000000,4.000000,4.000000,4.000000,4.000000,4.000000,4.000000,100.000000
1602005690.448974,12.000000,0.000000,4138.461426,4122.563965,4138.974121,4130.769043,4124.102539,4129.743652,4138.974121,4136.410156,4122.563965,4110.256348,4118.974121,4135.384766,4119.487305,4124.102539,783.000000,4.000000,,,,0.000000,4.000000,4.000000,4.000000,4.000000,4.000000,4.000000,4.000000,4.000000,4.000000,4.000000,4.000000,4.000000,4.000000,4.000000,100.000000
1602005690.456856,13.000000,0.000000,4132.307617,4120.512695,4136.410156,4128.205078,4122.051270,4123.589844,4138.461426,4131.282227,4121.025879,4101.025879,4120.512695,4125.641113,4110.769043,4125.641113,800.000000,4.000000,,,,0.000000,4.000000,4.000000,4.000000,4.000000,4.000000,4.000000,4.000000,4.000000,4.000000,4.000000,4.000000,4.000000,4.000000,4.000000,100.000000
1602005690.464738,14.000000,0.000000,4132.307617,4121.538574,4141.025879,4135.384766,4130.769043,4135.897461,4141.025879,4133.333496,4134.358887,4110.769043,4120.512695,4121.538574,4110.256348,4123.589844,871.000000,4.000000,,,,0.000000,4.000000,4.000000,4.000000,4.000000,4.000000,4.000000,4.000000,4.000000,4.000000,4.000000,4.000000,4.000000,4.000000,4.000000,100.000000
1602005690.472620,15.000000,0.000000,4134.871582,4127.692383,4143.589844,4139.487305,4138.461426,4142.563965,4141.538574,4136.410156,4137.948730,4115.897461,4119.487305,4122.051270,4115.897461,4122.563965,839.000000,4.000000,,,,0.000000,4.000000,4.000000,4.000000,4.000000,4.000000,4.000000,4.000000,4.000000,4.000000,4.000000,4.000000,4.000000,4.000000,4.000000,100.000000
1602005690.480502,16.000000,0.000000,4142.051270,4136.410156,4151.282227,4137.436035,4140.000000,4136.922852,4138.461426,4137.948730,4137.948730,4132.307617,4129.743652,4129.743652,4125.128418,4133.333496,0.000000,4.000000,,,,0.000000,4.000000,4.000000,4.000000,4.000000,4.000000,4.000000,4.000000,4.000000,4.000000,4.000000,4.000000,4.000000,4.000000,4.000000,100.000000
1602005690.488384,17.000000,0.000000,4149.743652,4138.461426,4158.461426,4138.974121,4140.000000,4138.974121,4140.000000,4148.205078,4153.846191,4158.461426,4141.538574,4147.692383,4137.436035,4145.128418,0.000000,4.000000,,,,0.000000,4.000000,4.000000,4.000000,4.000000,4.000000,4.000000,4.000000,4.000000,4.000000,4.000000,4.000000,4.000000,4.000000,4.000000,100.000000
1602005690.496265,18.000000,0.000000,4145.641113,4137.436035,4153.333496,4140.512695,4138.974121,4143.077148,4143.077148,4153.846191,4163.589844,4157.436035,4143.077148,4156.410156,4142.563965,4144.102539,0.000000,4.000000,,,,0.000000,4.000000,4.000000,4.000000,4.000000,4.000000,4.000000,4.000000,4.000000,4.000000,4.000000,4.000000,4.000000,4.000000,4.000000,100.000000
1602005690.504147,19.000000,0.000000,4136.922852,4137.948730,4143.077148,4139.487305,4138.974121,4136.922852,4137.436035,4143.589844,4149.230957,4127.179688,4134.358887,4147.179688,4137.948730,4135.897461,0.000000,4.000000,,,,0.000000,4.000000,4.000000,4.000000,4.000000,4.000000,4.000000,4.000000,4.000000,4.000000,4.000000,4.000000,4.000000,4.000000,4.000000,100.000000
1602005690.512029,20.000000,0.000000,4137.436035,4136.922852,4138.974121,4138.974121,4138.461426,4133.333496,4131.794922,4132.307617,4134.871582,4104.102539,4127.179688,4135.384766,4134.871582,4134.358887,0.000000,4.000000,,,,0.000000,4.000000,4.000000,4.000000,4.000000,4.000000,4.000000,4.000000,4.000000,4.000000,4.000000,4.000000,4.000000,4.000000,4.000000,100.000000
1602005690.520011,21.000000,0.000000,4142.563965,4135.897461,4136.410156,4137.436035,4136.922852,4136.410156,4135.897461,4131.794922,4138.974121,4111.282227,4128.205078,4132.820313,4135.897461,4141.538574,0.000000,4.000000,,,,0.000000,4.000000,4.000000,4.000000,4.000000,4.000000,4.000000,4.000000,4.000000,4.000000,4.000000,4.000000,4.000000,4.000000,4.000000,100.000000
1602005690.527892,22.000000,0.000000,4139.487305,4139.487305,4135.897461,4137.948730,4137.948730,4141.538574,4141.538574,4137.436035,4142.051270,4135.384766,4128.205078,4136.410156,4135.897461,4146.666504,0.000000,4.000000,,,,0.000000,4.000000,4.000000,4.000000,4.000000,4.000000,4.000000,4.000000,4.000000,4.000000,4.000000,4.000000,4.000000,4.000000,4.000000,100.000000
1602005690.535774,23.000000,0.000000,4131.282227,4136.410156,4138.461426,4133.846191,4142.051270,4143.589844,4140.512695,4135.384766,4130.256348,4142.563965,4125.128418,4135.897461,4133.846191,4142.563965,0.000000,4.000000,,,,0.000000,4.000000,4.000000,4.000000,4.000000,4.000000,4.000000,4.000000,4.000000,4.000000,4.000000,4.000000,4.000000,4.000000,4.000000,100.000000
1602005690.543656,24.000000,0.000000,4122.051270,4124.102539,4133.846191,4125.641113,4137.948730,4140.000000,4137.436035,4124.615234,4119.487305,4132.820313,4123.077148,4123.589844,4125.128418,4128.717773,0.000000,4.000000,,,,0.000000,4.000000,4.000000,4.000000,4.000000,4.000000,4.000000,4.000000,4.000000,4.000000,4.000000,4.000000,4.000000,4.000000,4.000000,100.000000
1602005690.551537,25.000000,0.000000,4116.410156,4117.948730,4128.717773,4123.077148,4132.307617,4133.333496,4131.282227,4120.512695,4120.512695,4126.666504,4122.563965,4109.230957,4121.025879,4124.615234,0.000000,4.000000,,,,0.000000,4.000000,4.000000,4.000000,4.000000,4.000000,4.000000,4.000000,4.000000,4.000000,4.000000,4.000000,4.000000,4.000000,4.000000,100.000000
1602005690.559419,26.000000,0.000000,4127.179688,4128.717773,4134.871582,4127.692383,4135.897461,4133.333496,4124.102539,4127.692383,4125.641113,4120.000000,4127.692383,4114.358887,4132.307617,4137.436035,0.000000,4.000000,,,,0.000000,4.000000,4.000000,4.000000,4.000000,4.000000,4.000000,4.000000,4.000000,4.000000,4.000000,4.000000,4.000000,4.000000,4.000000,100.000000
1602005690.567301,27.000000,0.000000,4137.948730,4138.461426,4135.897461,4134.358887,4139.487305,4142.051270,4121.538574,4132.307617,4133.846191,4120.000000,4137.436035,4126.666504,4141.538574,4145.641113,0.000000,4.000000,,,,0.000000,4.000000,4.000000,4.000000,4.000000,4.000000,4.000000,4.000000,4.000000,4.000000,4.000000,4.000000,4.000000,4.000000,4.000000,100.000000
1602005690.575182,28.000000,0.000000,4129.230957,4134.358887,4126.153809,4134.871582,4137.436035,4142.051270,4123.589844,4134.358887,4145.641113,4128.205078,4139.487305,4126.153809,4138.974121,4139.487305,0.000000,4.000000,,,,0.000000,4.000000,4.000000,4.000000,4.000000,4.000000,4.000000,4.000000,4.000000,4.000000,4.000000,4.000000,4.000000,4.000000,4.000000,100.000000
1602005690.583164,29.000000,0.000000,4128.205078,4130.256348,4127.179688,4132.820313,4134.871582,4132.820313,4130.769043,4139.487305,4153.333496,4135.897461,4137.948730,4126.666504,4137.436035,4135.897461,0.000000,4.000000,,,,0.000000,4.000000,4.000000,4.000000,4.000000,4.000000,4.000000,4.000000,4.000000,4.000000,4.000000,4.000000,4.000000,4.000000,4.000000,100.000000
1602005690.591045,30.000000,0.000000,4150.256348,4138.461426,4142.051270,4137.948730,4142.051270,4141.538574,4136.922852,4142.051270,4155.897461,4149.230957,4141.025879,4136.922852,4141.538574,4145.641113,0.000000,4.000000,,,,0.000000,4.000000,4.000000,4.000000,4.000000,4.000000,4.000000,4.000000,4.000000,4.000000,4.000000,4.000000,4.000000,4.000000,4.000000,100.000000
1602005690.598927,31.000000,0.000000,4155.897461,4143.077148,4152.307617,4142.051270,4149.230957,4155.384766,4138.461426,4141.538574,4155.897461,4152.820313,4142.051270,4145.641113,4142.051270,4156.410156,0.000000,4.000000,,,,0.000000,4.000000,4.000000,4.000000,4.000000,4.000000,4.000000,4.000000,4.000000,4.000000,4.000000,4.000000,4.000000,4.000000,4.000000,100.000000
1602005690.606809,32.000000,0.000000,4139.487305,4130.769043,4153.846191,4134.871582,4143.077148,4144.615234,4138.461426,4139.487305,4154.871582,4140.512695,4137.948730,4143.589844,4137.948730,4149.743652,0.000000,4.000000,,,,0.000000,4.000000,4.000000,4.000000,4.000000,4.000000,4.000000,4.000000,4.000000,4.000000,4.000000,4.000000,4.000000,4.000000,4.000000,100.000000
1602005690.614690,33.000000,0.000000,4138.461426,4123.077148,4150.769043,4131.794922,4136.410156,4130.256348,4132.307617,4140.000000,4151.282227,4141.538574,4139.487305,4140.512695,4137.436035,4135.384766,0.000000,4.000000,,,,0.000000,4.000000,4.000000,4.000000,4.000000,4.000000,4.000000,4.000000,4.000000,4.000000,4.000000,4.000000,4.000000,4.000000,4.000000,100.000000
1602005690.622572,34.000000,0.000000,4144.102539,4128.717773,4143.077148,4134.358887,4139.487305,4138.461426,4124.615234,4144.102539,4143.589844,4145.641113,4143.589844,4136.922852,4141.538574,4137.948730,0.000000,4.000000,,,,0.000000,4.000000,4.000000,4.000000,4.000000,4.000000,4.000000,4.000000,4.000000,4.000000,4.000000,4.000000,4.000000,4.000000,4.000000,100.000000
1602005690.630454,35.000000,0.000000,4136.410156,4126.666504,4135.384766,4128.717773,4140.000000,4137.436035,4127.692383,4141.538574,4130.769043,4124.615234,4134.358887,4126.666504,4135.897461,4144.615234,0.000000,4.000000,,,,0.000000,4.000000,4.000000,4.000000,4.000000,4.000000,4.000000,4.000000,4.000000,4.000000,4.000000,4.000000,4.000000,4.000000,4.000000,100.000000
1602005690.638335,36.000000,0.000000,4132.820313,4119.487305,4135.384766,4126.153809,4136.410156,4126.666504,4135.897461,4134.871582,4123.077148,4115.384766,4123.077148,4123.077148,4124.615234,4136.410156,0.000000,4.000000,,,,0.000000,4.000000,4.000000,4.000000,4.000000,4.000000,4.000000,4.000000,4.000000,4.000000,4.000000,4.000000,4.000000,4.000000,4.000000,100.000000
