Timestamp,EEG.Counter,EEG.Interpolated,EEG.AF3,EEG.F7,EEG.F3,EEG.FC5,EEG.T7,EEG.P7,EEG.O1,EEG.O2,EEG.P8,EEG.T8,EEG.FC6,EEG.F4,EEG.F8,EEG.AF4,EEG.RawCq,EEG.Battery,MarkerIndex,MarkerType,MarkerValueInt,EEG.MarkerHardware,CQ.AF3,CQ.F7,CQ.F3,CQ.FC5,CQ.T7,CQ.P7,CQ.O1,CQ.O2,CQ.P8,CQ.T8,CQ.FC6,CQ.F4,CQ.F8,CQ.AF4,CQ.Overall
1602005709.946407,35.000000,0.000000,4147.692383,4138.974121,4132.820313,4136.410156,4128.205078,4129.743652,4129.230957,4122.563965,4136.922852,4136.410156,4141.538574,4151.794922,4142.563965,4145.128418,0.000000,4.000000,,,,0.000000,4.000000,4.000000,4.000000,4.000000,4.000000,4.000000,4.000000,4.000000,4.000000,4.000000,4.000000,4.000000,4.000000,4.000000,100.000000
1602005709.954189,36.000000,0.000000,4145.128418,4138.974121,4134.871582,4136.410156,4122.563965,4137.948730,4140.512695,4131.794922,4136.922852,4131.282227,4143.077148,4153.333496,4145.128418,4136.922852,0.000000,4.000000,,,,0.000000,4.000000,4.000000,4.000000,4.000000,4.000000,4.000000,4.000000,4.000000,4.000000,4.000000,4.000000,4.000000,4.000000,4.000000,100.000000
1602005709.962071,37.000000,0.000000,4135.897461,4131.282227,4137.948730,4128.205078,4122.563965,4139.487305,4140.512695,4133.846191,4124.102539,4118.974121,4137.948730,4152.820313,4134.358887,4139.487305,0.000000,4.000000,,,,0.000000,4.000000,4.000000,4.000000,4.000000,4.000000,4.000000,4.000000,4.000000,4.000000,4.000000,4.000000,4.000000,4.000000,4.000000,100.000000
1602005709.969953,38.000000,0.000000,4134.358887,4124.102539,4137.948730,4126.153809,4122.051270,4134.871582,4135.897461,4131.282227,4116.922852,4117.948730,4133.846191,4149.230957,4118.461426,4138.461426,0.000000,4.000000,,,,0.000000,4.000000,4.000000,4.000000,4.000000,4.000000,4.000000,4.000000,4.000000,4.000000,4.000000,4.000000,4.000000,4.000000,4.000000,100.000000
1602005709.977835,39.000000,0.000000,4140.512695,4132.820313,4142.563965,4137.436035,4120.512695,4132.820313,4141.025879,4136.922852,4122.563965,4126.153809,4136.922852,4153.333496,4125.128418,4138.461426,0.000000,4.000000,,,,0.000000,4.000000,4.000000,4.000000,4.000000,4.000000,4.000000,4.000000,4.000000,4.000000,4.000000,4.000000,4.000000,4.000000,4.000000,100.000000
1602005709.985717,40.000000,0.000000,4143.077148,4141.538574,4145.128418,4137.948730,4122.563965,4128.717773,4135.897461,4136.410156,4128.717773,4127.179688,4137.948730,4158.974121,4137.948730,4152.307617,0.000000,4.000000,,,,0.000000,4.000000,4.000000,4.000000,4.000000,4.000000,4.000000,4.000000,4.000000,4.000000,4.000000,4.000000,4.000000,4.000000,4.000000,100.000000
1602005709.993599,41.000000,0.000000,4136.922852,4131.794922,4136.410156,4124.615234,4122.563965,4110.256348,4109.230957,4123.077148,4129.230957,4125.128418,4135.384766,4154.871582,4131.282227,4153.333496,0.000000,4.000000,,,,0.000000,4.000000,4.000000,4.000000,4.000000,4.000000,4.000000,4.000000,4.000000,4.000000,4.000000,4.000000,4.000000,4.000000,4.000000,100.000000
1602005710.001481,42.000000,0.000000,4132.820313,4126.153809,4127.692383,4126.666504,4121.538574,4095.897461,4093.846191,4116.410156,4126.666504,4117.436035,4137.436035,4148.205078,4127.692383,4136.410156,0.000000,4.000000,,,,0.000000,4.000000,4.000000,4.000000,4.000000,4.000000,4.000000,4.000000,4.000000,4.000000,4.000000,4.000000,4.000000,4.000000,4.000000,100.000000
1602005710.009363,43.000000,0.000000,4140.512695,4137.436035,4134.358887,4138.461426,4131.794922,4110.769043,4102.051270,4121.025879,4124.102539,4101.025879,4142.563965,4152.820313,4141.538574,4139.487305,0.000000,4.000000,,,,0.000000,4.000000,4.000000,4.000000,4.000000,4.000000,4.000000,4.000000,4.000000,4.000000,4.000000,4.000000,4.000000,4.000000,4.000000,100.000000
1602005710.017244,44.000000,0.000000,4144.102539,4140.512695,4142.563965,4133.846191,4138.974121,4126.666504,4111.282227,4120.512695,4121.025879,4107.179688,4143.077148,4157.948730,4144.102539,4152.820313,0.000000,4.000000,,,,0.000000,4.000000,4.000000,4.000000,4.000000,4.000000,4.000000,4.000000,4.000000,4.000000,4.000000,4.000000,4.000000,4.000000,4.000000,100.000000
1602005710.025226,45.000000,0.000000,4129.743652,4125.128418,4131.794922,4122.563965,4129.743652,4117.948730,4115.897461,4116.922852,4115.897461,4129.230957,4137.948730,4147.692383,4126.153809,4143.077148,0.000000,4.000000,,,,0.000000,4.000000,4.000000,4.000000,4.000000,4.000000,4.000000,4.000000,4.000000,4.000000,4.000000,4.000000,4.000000,4.000000,4.000000,100.000000
1602005710.033107,46.000000,0.000000,4124.102539,4118.461426,4123.589844,4123.077148,4121.025879,4117.436035,4128.205078,4120.000000,4115.384766,4129.230957,4132.820313,4143.077148,4120.000000,4130.769043,0.000000,4.000000,,,,0.000000,4.000000,4.000000,4.000000,4.000000,4.000000,4.000000,4.000000,4.000000,4.000000,4.000000,4.000000,4.000000,4.000000,4.000000,100.000000
1602005710.040988,47.000000,0.000000,4139.487305,4127.692383,4136.410156,4130.256348,4125.128418,4136.410156,4142.563965,4134.358887,4130.256348,4128.717773,4139.487305,4150.769043,4134.358887,4136.922852,0.000000,4.000000,,,,0.000000,4.000000,4.000000,4.000000,4.000000,4.000000,4.000000,4.000000,4.000000,4.000000,4.000000,4.000000,4.000000,4.000000,4.000000,100.000000
1602005710.048870,48.000000,0.000000,4143.077148,4131.794922,4140.000000,4129.230957,4129.230957,4144.615234,4148.205078,4147.179688,4150.256348,4143.077148,4147.692383,4146.153809,4144.102539,4142.563965,0.000000,4.000000,,,,0.000000,4.000000,4.000000,4.000000,4.000000,4.000000,4.000000,4.000000,4.000000,4.000000,4.000000,4.000000,4.000000,4.000000,4.000000,100.000000
1602005710.056751,49.000000,0.000000,4126.153809,4125.128418,4124.615234,4123.077148,4124.102539,4135.384766,4143.077148,4145.128418,4160.000000,4138.461426,4142.563965,4135.897461,4136.922852,4138.461426,0.000000,4.000000,,,,0.000000,4.000000,4.000000,4.000000,4.000000,4.000000,4.000000,4.000000,4.000000,4.000000,4.000000,4.000000,4.000000,4.000000,4.000000,100.000000
1602005710.064633,50.000000,0.000000,4122.563965,4123.077148,4122.563965,4122.051270,4116.410156,4125.641113,4135.897461,4143.589844,4169.743652,4132.307617,4140.512695,4138.974121,4131.794922,4136.410156,0.000000,4.000000,,,,0.000000,4.000000,4.000000,4.000000,4.000000,4.000000,4.000000,4.000000,4.000000,4.000000,4.000000,4.000000,4.000000,4.000000,4.000000,100.000000
1602005710.072414,51.000000,0.000000,4135.897461,4129.743652,4132.820313,4124.102539,4116.410156,4123.077148,4136.410156,4145.641113,4179.487305,4143.589844,4146.666504,4141.025879,4137.436035,4135.897461,0.000000,4.000000,,,,0.000000,4.000000,4.000000,4.000000,4.000000,4.000000,4.000000,4.000000,4.000000,4.000000,4.000000,4.000000,4.000000,4.000000,4.000000,100.000000
1602005710.080296,52.000000,0.000000,4138.461426,4135.897461,4126.666504,4121.538574,4126.666504,4125.641113,4133.846191,4136.922852,4166.666504,4143.589844,4142.051270,4137.436035,4139.487305,4135.897461,0.000000,4.000000,,,,0.000000,4.000000,4.000000,4.000000,4.000000,4.000000,4.000000,4.000000,4.000000,4.000000,4.000000,4.000000,4.000000,4.000000,4.000000,100.000000
1602005710.088178,53.000000,0.000000,4133.333496,4137.436035,4120.000000,4123.589844,4134.358887,4130.256348,4126.153809,4121.025879,4138.461426,4138.461426,4134.871582,4136.410156,4137.948730,4136.410156,0.000000,4.000000,,,,0.000000,4.000000,4.000000,4.000000,4.000000,4.000000,4.000000,4.000000,4.000000,4.000000,4.000000,4.000000,4.000000,4.000000,4.000000,100.000000
1602005710.096059,54.000000,0.000000,4135.897461,4139.487305,4125.641113,4132.820313,4129.743652,4124.102539,4120.512695,4112.307617,4118.461426,4129.743652,4136.922852,4130.769043,4132.307617,4128.717773,0.000000,4.000000,,,,0.000000,4.000000,4.000000,4.000000,4.000000,4.000000,4.000000,4.000000,4.000000,4.000000,4.000000,4.000000,4.000000,4.000000,4.000000,100.000000
1602005710.103941,55.000000,0.000000,4134.871582,4136.922852,4126.666504,4131.282227,4125.641113,4117.948730,4119.487305,4111.794922,4109.230957,4124.102539,4131.794922,4126.153809,4124.615234,4124.102539,0.000000,4.000000,,,,0.000000,4.000000,4.000000,4.000000,4.000000,4.000000,4.000000,4.000000,4.000000,4.000000,4.000000,4.000000,4.000000,4.000000,4.000000,100.000000
1602005710.111823,56.000000,0.000000,4123.589844,4130.256348,4120.512695,4121.538574,4131.794922,4127.692383,4125.641113,4117.436035,4107.692383,4119.487305,4118.461426,4134.358887,4122.051270,4132.307617,0.000000,4.000000,,,,0.000000,4.000000,4.000000,4.000000,4.000000,4.000000,4.000000,4.000000,4.000000,4.000000,4.000000,4.000000,4.000000,4.000000,4.000000,100.000000
1602005710.119704,57.000000,0.000000,4120.000000,4126.153809,4124.102539,4121.538574,4138.974121,4137.948730,4135.384766,4129.743652,4122.563965,4107.179688,4120.512695,4147.692383,4124.102539,4142.051270,0.000000,4.000000,,,,0.000000,4.000000,4.000000,4.000000,4.000000,4.000000,4.000000,4.000000,4.000000,4.000000,4.000000,4.000000,4.000000,4.000000,4.000000,100.000000
1602005710.127586,58.000000,0.000000,4126.666504,4127.692383,4134.358887,4126.666504,4133.333496,4131.794922,4137.948730,4142.051270,4146.666504,4114.871582,4135.897461,4152.820313,4130.769043,4142.051270,0.000000,4.000000,,,,0.000000,4.000000,4.000000,4.000000,4.000000,4.000000,4.000000,4.000000,4.000000,4.000000,4.000000,4.000000,4.000000,4.000000,4.000000,100.000000
1602005710.135468,59.000000,0.000000,4125.128418,4131.282227,4136.922852,4122.051270,4121.025879,4120.512695,4132.820313,4145.128418,4156.410156,4136.410156,4141.025879,4149.743652,4135.384766,4143.077148,0.000000,4.000000,,,,0.000000,4.000000,4.000000,4.000000,4.000000,4.000000,4.000000,4.000000,4.000000,4.000000,4.000000,4.000000,4.000000,4.000000,4.000000,100.000000
1602005710.143249,60.000000,0.000000,4122.051270,4136.922852,4135.897461,4120.000000,4120.000000,4117.436035,4131.794922,4142.563965,4150.256348,4138.461426,4137.948730,4151.282227,4136.410156,4150.256348,0.000000,4.000000,,,,0.000000,4.000000,4.000000,4.000000,4.000000,4.000000,4.000000,4.000000,4.000000,4.000000,4.000000,4.000000,4.000000,4.000000,4.000000,100.000000
1602005710.151130,61.000000,0.000000,4133.333496,4142.051270,4140.000000,4130.256348,4130.256348,4119.487305,4137.436035,4145.641113,4152.820313,4144.102539,4149.230957,4160.512695,4145.128418,4158.974121,0.000000,4.000000,,,,0.000000,4.000000,4.000000,4.000000,4.000000,4.000000,4.000000,4.000000,4.000000,4.000000,4.000000,4.000000,4.000000,4.000000,4.000000,100.000000
1602005710.159011,62.000000,0.000000,4142.563965,4143.589844,4142.563965,4132.820313,4131.282227,4130.769043,4142.051270,4146.153809,4157.948730,4162.051270,4157.436035,4164.102539,4155.384766,4163.077148,0.000000,4.000000,,,,0.000000,4.000000,4.000000,4.000000,4.000000,4.000000,4.000000,4.000000,4.000000,4.000000,4.000000,4.000000,4.000000,4.000000,4.000000,100.000000
1602005710.166992,63.000000,0.000000,4130.769043,4138.974121,4136.410156,4124.102539,4121.538574,4136.410156,4142.051270,4130.769043,4137.948730,4136.410156,4136.922852,4151.794922,4143.077148,4151.794922,0.000000,4.000000,,,,0.000000,4.000000,4.000000,4.000000,4.000000,4.000000,4.000000,4.000000,4.000000,4.000000,4.000000,4.000000,4.000000,4.000000,4.000000,100.000000
1602005710.174774,64.000000,0.000000,4122.051270,4131.282227,4133.846191,4119.487305,4119.487305,4130.769043,4140.000000,4123.589844,4116.410156,4100.512695,4119.487305,4141.538574,4129.230957,4138.461426,802.000000,4.000000,,,,0.000000,4.000000,4.000000,4.000000,4.000000,4.000000,4.000000,4.000000,4.000000,4.000000,4.000000,4.000000,4.000000,4.000000,4.000000,100.000000
1602005710.182655,65.000000,0.000000,4120.512695,4120.512695,4139.487305,4117.948730,4124.102539,4130.769043,4144.102539,4134.358887,4120.000000,4119.487305,4133.333496,4145.128418,4133.846191,4140.000000,796.000000,4.000000,,,,0.000000,4.000000,4.000000,4.000000,4.000000,4.000000,4.000000,4.000000,4.000000,4.000000,4.000000,4.000000,4.000000,4.000000,4.000000,100.000000
1602005710.190537,66.000000,0.000000,4117.948730,4120.000000,4134.358887,4115.384766,4123.077148,4128.717773,4141.025879,4132.307617,4120.512695,4133.846191,4142.563965,4142.051270,4130.769043,4138.974121,853.000000,4.000000,,,,0.000000,4.000000,4.000000,4.000000,4.000000,4.000000,4.000000,4.000000,4.000000,4.000000,4.000000,4.000000,4.000000,4.000000,4.000000,100.000000
1602005710.198419,67.000000,0.000000,4136.410156,4143.077148,4127.692383,4124.102539,4120.000000,4121.538574,4128.717773,4120.512695,4111.282227,4119.487305,4131.794922,4127.692383,4119.487305,4134.358887,868.000000,4.000000,,,,0.000000,4.000000,4.000000,4.000000,4.000000,4.000000,4.000000,4.000000,4.000000,4.000000,4.000000,4.000000,4.000000,4.000000,4.000000,100.000000
1602005710.206300,68.000000,0.000000,4167.179688,4170.769043,4135.897461,4138.974121,4122.051270,4121.538574,4122.563965,4123.077148,4115.897461,4121.538574,4125.641113,4123.589844,4115.384766,4134.871582,807.000000,4.000000,,,,0.000000,4.000000,4.000000,4.000000,4.000000,4.000000,4.000000,4.000000,4.000000,4.000000,4.000000,4.000000,4.000000,4.000000,4.000000,100.000000
1602005710.214182,69.000000,0.000000,4177.436035,4182.051270,4144.102539,4144.102539,4128.717773,4119.487305,4125.128418,4127.179688,4125.641113,4124.615234,4122.051270,4126.153809,4102.563965,4124.615234,821.000000,4.000000,,,,0.000000,4.000000,4.000000,4.000000,4.000000,4.000000,4.000000,4.000000,4.000000,4.000000,4.000000,4.000000,4.000000,4.000000,4.000000,100.000000
1602005710.222064,70.000000,0.000000,4178.974121,4184.615234,4137.948730,4142.051270,4134.358887,4110.769043,4124.102539,4121.025879,4127.692383,4111.282227,4109.230957,4120.512695,4083.076904,4105.641113,779.000000,4.000000,,,,0.000000,4.000000,4.000000,4.000000,4.000000,4.000000,4.000000,4.000000,4.000000,4.000000,4.000000,4.000000,4.000000,4.000000,4.000000,100.000000
1602005710.229945,71.000000,0.000000,4182.051270,4186.666504,4133.333496,4138.974121,4128.205078,4113.333496,4121.538574,4123.589844,4135.897461,4113.333496,4100.512695,4120.512695,4078.461426,4103.589844,694.000000,4.000000,,,,0.000000,4.000000,4.000000,4.000000,4.000000,4.000000,4.000000,4.000000,4.000000,4.000000,4.000000,4.000000,4.000000,4.000000,4.000000,100.000000
1602005710.237927,72.000000,0.000000,4175.384766,4185.641113,4135.384766,4140.512695,4126.153809,4124.102539,4129.230957,4135.897461,4146.666504,4127.692383,4108.717773,4129.230957,4085.128174,4108.717773,792.000000,4.000000,,,,0.000000,4.000000,4.000000,4.000000,4.000000,4.000000,4.000000,4.000000,4.000000,4.000000,4.000000,4.000000,4.000000,4.000000,4.000000,100.000000
1602005710.245808,73.000000,0.000000,4171.282227,4186.153809,4136.410156,4148.717773,4136.410156,4130.256348,4137.948730,4137.948730,4143.589844,4127.692383,4122.563965,4127.179688,4090.256348,4107.179688,840.000000,4.000000,,,,0.000000,4.000000,4.000000,4.000000,4.000000,4.000000,4.000000,4.000000,4.000000,4.000000,4.000000,4.000000,4.000000,4.000000,4.000000,100.000000
1602005710.253689,74.000000,0.000000,4174.358887,4187.179688,4135.897461,4151.282227,4142.563965,4138.974121,4134.871582,4136.410156,4140.000000,4121.538574,4121.538574,4121.538574,4089.230713,4108.205078,878.000000,4.000000,,,,0.000000,4.000000,4.000000,4.000000,4.000000,4.000000,4.000000,4.000000,4.000000,4.000000,4.000000,4.000000,4.000000,4.000000,4.000000,100.000000
1602005710.261571,75.000000,0.000000,4171.794922,4187.179688,4137.436035,4145.641113,4139.487305,4141.538574,4127.179688,4135.897461,4134.871582,4116.922852,4110.769043,4124.102539,4084.102539,4102.563965,840.000000,4.000000,,,,0.000000,4.000000,4.000000,4.000000,4.000000,4.000000,4.000000,4.000000,4.000000,4.000000,4.000000,4.000000,4.000000,4.000000,4.000000,100.000000
1602005710.269452,76.000000,0.000000,4168.717773,4180.512695,4138.461426,4138.974121,4131.794922,4127.692383,4123.077148,4127.692383,4121.538574,4106.666504,4106.666504,4123.589844,4078.974365,4090.769287,779.000000,4.000000,,,,0.000000,4.000000,4.000000,4.000000,4.000000,4.000000,4.000000,4.000000,4.000000,4.000000,4.000000,4.000000,4.000000,4.000000,4.000000,100.000000
1602005710.277434,77.000000,0.000000,4165.641113,4170.256348,4136.922852,4136.410156,4125.128418,4117.436035,4126.153809,4117.436035,4114.871582,4097.948730,4107.692383,4120.000000,4074.358887,4089.230713,760.000000,4.000000,,,,0.000000,4.000000,4.000000,4.000000,4.000000,4.000000,4.000000,4.000000,4.000000,4.000000,4.000000,4.000000,4.000000,4.000000,4.000000,100.000000
1602005710.285315,78.000000,0.000000,4164.102539,4171.282227,4135.897461,4138.974121,4125.641113,4126.666504,4136.410156,4120.000000,4117.948730,4100.000000,4104.615234,4120.000000,4072.307617,4093.333252,878.000000,4.000000,,,,0.000000,4.000000,4.000000,4.000000,4.000000,4.000000,4.000000,4.000000,4.000000,4.000000,4.000000,4.000000,4.000000,4.000000,4.000000,100.000000
1602005710.293197,79.000000,0.000000,4168.717773,4173.846191,4137.948730,4141.025879,4127.179688,4136.922852,4141.538574,4122.563965,4112.307617,4105.641113,4103.077148,4116.410156,4073.333252,4093.333252,840.000000,4.000000,,,,0.000000,4.000000,4.000000,4.000000,4.000000,4.000000,4.000000,4.000000,4.000000,4.000000,4.000000,4.000000,4.000000,4.000000,4.000000,100.000000
1602005710.301079,80.000000,0.000000,4169.230957,4170.769043,4142.563965,4139.487305,4125.128418,4138.461426,4139.487305,4120.512695,4108.205078,4115.384766,4106.153809,4115.897461,4074.871826,4094.871826,779.000000,4.000000,,,,0.000000,4.000000,4.000000,4.000000,4.000000,4.000000,4.000000,4.000000,4.000000,4.000000,4.000000,4.000000,4.000000,4.000000,4.000000,100.000000
1602005710.308960,81.000000,0.000000,4160.512695,4169.743652,4147.179688,4137.948730,4126.153809,4134.871582,4136.410156,4124.615234,4120.000000,4124.102539,4109.743652,4126.666504,4074.871826,4096.410156,760.000000,4.000000,,,,0.000000,4.000000,4.000000,4.000000,4.000000,4.000000,4.000000,4.000000,4.000000,4.000000,4.000000,4.000000,4.000000,4.000000,4.000000,100.000000
1602005710.316842,82.000000,0.000000,4153.846191,4166.153809,4141.538574,4136.410156,4124.615234,4124.102539,4128.717773,4126.153809,4124.615234,4108.717773,4106.153809,4128.717773,4074.358887,4094.358887,878.000000,4.000000,,,,0.000000,4.000000,4.000000,4.000000,4.000000,4.000000,4.000000,4.000000,4.000000,4.000000,4.000000,4.000000,4.000000,4.000000,4.000000,100.000000
1602005710.324724,83.000000,0.000000,4154.358887,4160.512695,4134.871582,4134.871582,4121.538574,4113.333496,4121.025879,4122.563965,4120.000000,4089.743652,4101.538574,4122.051270,4074.358887,4090.769287,840.000000,4.000000,,,,0.000000,4.000000,4.000000,4.000000,4.000000,4.000000,4.000000,4.000000,4.000000,4.000000,4.000000,4.000000,4.000000,4.000000,4.000000,100.000000
1602005710.332605,84.000000,0.000000,4158.461426,4166.666504,4138.974121,4137.436035,4124.615234,4124.102539,4122.563965,4124.615234,4128.717773,4102.051270,4111.282227,4123.077148,4076.923096,4088.205078,779.000000,4.000000,,,,0.000000,4.000000,4.000000,4.000000,4.000000,4.000000,4.000000,4.000000,4.000000,4.000000,4.000000,4.000000,4.000000,4.000000,4.000000,100.000000
1602005710.340487,85.000000,0.000000,4154.358887,4168.205078,4134.871582,4136.922852,4125.641113,4134.871582,4123.589844,4133.846191,4141.025879,4126.153809,4119.487305,4123.589844,4079.487061,4089.230713,760.000000,4.000000,,,,0.000000,4.000000,4.000000,4.000000,4.000000,4.000000,4.000000,4.000000,4.000000,4.000000,4.000000,4.000000,4.000000,4.000000,4.000000,100.000000
1602005710.348269,86.000000,0.000000,4144.102539,4158.461426,4121.538574,4135.384766,4124.102539,4132.820313,4121.538574,4134.358887,4144.102539,4130.769043,4107.692383,4116.410156,4076.923096,4091.281982,878.000000,4.000000,,,,0.000000,4.000000,4.000000,4.000000,4.000000,4.000000,4.000000,4.000000,4.000000,4.000000,4.000000,4.000000,4.000000,4.000000,4.000000,100.000000
1602005710.356150,87.000000,0.000000,4145.641113,4160.000000,4120.000000,4138.461426,4125.128418,4135.897461,4124.102539,4125.641113,4141.538574,4125.128418,4102.051270,4116.410156,4074.358887,4092.307617,840.000000,4.000000,,,,0.000000,4.000000,4.000000,4.000000,4.000000,4.000000,4.000000,4.000000,4.000000,4.000000,4.000000,4.000000,4.000000,4.000000,4.000000,100.000000
1602005710.364032,88.000000,0.000000,4156.922852,4169.230957,4126.666504,4140.000000,4125.641113,4134.871582,4126.666504,4121.538574,4128.205078,4122.051270,4111.282227,4118.974121,4074.358887,4090.769287,779.000000,4.000000,,,,0.000000,4.000000,4.000000,4.000000,4.000000,4.000000,4.000000,4.000000,4.000000,4.000000,4.000000,4.000000,4.000000,4.000000,4.000000,100.000000
1602005710.371913,89.000000,0.000000,4155.384766,4168.717773,4122.563965,4137.948730,4123.077148,4123.077148,4127.692383,4120.512695,4109.743652,4104.615234,4107.179688,4109.743652,4074.358887,4081.538574,760.000000,4.000000,,,,0.000000,4.000000,4.000000,4.000000,4.000000,4.000000,4.000000,4.000000,4.000000,4.000000,4.000000,4.000000,4.000000,4.000000,4.000000,100.000000
1602005710.379795,90.000000,0.000000,4148.717773,4166.153809,4119.487305,4138.461426,4124.615234,4124.102539,4132.307617,4119.487305,4109.230957,4076.410156,4097.436035,4101.538574,4077.948730,4075.897461,878.000000,4.000000,,,,0.000000,4.000000,4.000000,4.000000,4.000000,4.000000,4.000000,4.000000,4.000000,4.000000,4.000000,4.000000,4.000000,4.000000,4.000000,100.000000
1602005710.387677,91.000000,0.000000,4153.846191,4170.769043,4129.230957,4141.025879,4127.692383,4131.794922,4136.410156,4126.666504,4123.589844,4088.205078,4106.666504,4110.769043,4087.692383,4087.692383,840.000000,4.000000,,,,0.000000,4.000000,4.000000,4.000000,4.000000,4.000000,4.000000,4.000000,4.000000,4.000000,4.000000,4.000000,4.000000,4.000000,4.000000,100.000000
1602005710.395558,92.000000,0.000000,4158.461426,4168.717773,4134.358887,4141.538574,4125.128418,4123.589844,4136.410156,4135.384766,4129.230957,4130.256348,4113.333496,4124.102539,4094.871826,4101.025879,779.000000,4.000000,,,,0.000000,4.000000,4.000000,4.000000,4.000000,4.000000,4.000000,4.000000,4.000000,4.000000,4.000000,4.000000,4.000000,4.000000,4.000000,100.000000
1602005710.403440,93.000000,0.000000,4148.717773,4155.897461,4125.641113,4134.358887,4120.000000,4119.487305,4133.846191,4130.769043,4124.102539,4132.307617,4106.153809,4125.128418,4090.256348,4095.897461,760.000000,4.000000,,,,0.000000,4.000000,4.000000,4.000000,4.000000,4.000000,4.000000,4.000000,4.000000,4.000000,4.000000,4.000000,4.000000,4.000000,4.000000,100.000000
1602005710.411422,94.000000,0.000000,4138.461426,4150.256348,4118.974121,4125.641113,4121.025879,4132.820313,4134.358887,4123.077148,4120.000000,4106.666504,4105.641113,4123.589844,4079.487061,4088.718018,878.000000,4.000000,,,,0.000000,4.000000,4.000000,4.000000,4.000000,4.000000,4.000000,4.000000,4.000000,4.000000,4.000000,4.000000,4.000000,4.000000,4.000000,100.000000
1602005710.419303,95.000000,0.000000,4137.436035,4153.333496,4122.051270,4125.128418,4128.205078,4137.436035,4136.922852,4122.051270,4118.974121,4108.205078,4108.717773,4123.589844,4072.820557,4091.794922,840.000000,4.000000,,,,0.000000,4.000000,4.000000,4.000000,4.000000,4.000000,4.000000,4.000000,4.000000,4.000000,4.000000,4.000000,4.000000,4.000000,4.000000,100.000000
1602005710.427185,96.000000,0.000000,4141.538574,4151.794922,4123.077148,4126.666504,4127.179688,4127.692383,4137.948730,4123.077148,4114.358887,4109.230957,4105.641113,4127.179688,4077.948730,4092.820557,779.000000,4.000000,,,,0.000000,4.000000,4.000000,4.000000,4.000000,4.000000,4.000000,4.000000,4.000000,4.000000,4.000000,4.000000,4.000000,4.000000,4.000000,100.000000
1602005710.435067,97.000000,0.000000,4144.102539,4150.256348,4121.538574,4129.743652,4122.051270,4123.589844,4137.436035,4123.077148,4105.641113,4091.281982,4105.128418,4134.871582,4087.692383,4091.281982,760.000000,4.000000,,,,0.000000,4.000000,4.000000,4.000000,4.000000,4.000000,4.000000,4.000000,4.000000,4.000000,4.000000,4.000000,4.000000,4.000000,4.000000,100.000000
1602005710.442948,98.000000,0.000000,4141.025879,4156.410156,4122.563965,4137.948730,4128.717773,4125.128418,4136.410156,4123.077148,4098.461426,4095.384521,4110.256348,4138.461426,4090.256348,4096.922852,878.000000,4.000000,,,,0.000000,4.000000,4.000000,4.000000,4.000000,4.000000,4.000000,4.000000,4.000000,4.000000,4.000000,4.000000,4.000000,4.000000,4.000000,100.000000
1602005710.450830,99.000000,0.000000,4142.051270,4158.974121,4126.666504,4141.538574,4138.974121,4122.051270,4135.384766,4122.563965,4100.512695,4118.461426,4109.230957,4136.410156,4088.205078,4101.025879,840.000000,4.000000,,,,0.000000,4.000000,4.000000,4.000000,4.000000,4.000000,4.000000,4.000000,4.000000,4.000000,4.000000,4.000000,4.000000,4.000000,4.000000,100.000000
1602005710.458711,100.000000,0.000000,4152.307617,4155.897461,4135.384766,4138.461426,4136.410156,4117.436035,4134.358887,4124.102539,4108.717773,4128.205078,4104.615234,4141.025879,4084.102539,4097.948730,779.000000,4.000000,,,,0.000000,4.000000,4.000000,4.000000,4.000000,4.000000,4.000000,4.000000,4.000000,4.000000,4.000000,4.000000,4.000000,4.000000,4.000000,100.000000
1602005710.466593,101.000000,0.000000,4154.871582,4156.922852,4139.487305,4139.487305,4127.179688,4122.563965,4136.410156,4126.153809,4113.333496,4122.563965,4106.153809,4147.179688,4081.025635,4096.922852,760.000000,4.000000,,,,0.000000,4.000000,4.000000,4.000000,4.000000,4.000000,4.000000,4.000000,4.000000,4.000000,4.000000,4.000000,4.000000,4.000000,4.000000,100.000000
1602005710.474375,102.000000,0.000000,4142.563965,4157.436035,4131.282227,4135.897461,4121.538574,4124.615234,4138.461426,4124.615234,4107.692383,4103.589844,4108.205078,4140.512695,4082.564209,4097.948730,878.000000,4.000000,,,,0.000000,4.000000,4.000000,4.000000,4.000000,4.000000,4.000000,4.000000,4.000000,4.000000,4.000000,4.000000,4.000000,4.000000,4.000000,100.000000
1602005710.482257,103.000000,0.000000,4137.436035,4148.717773,4126.666504,4128.205078,4116.922852,4118.974121,4136.410156,4124.615234,4106.153809,4088.205078,4106.153809,4134.871582,4086.666748,4101.025879,840.000000,4.000000,,,,0.000000,4.000000,4.000000,4.000000,4.000000,4.000000,4.000000,4.000000,4.000000,4.000000,4.000000,4.000000,4.000000,4.000000,4.000000,100.000000
1602005710.490139,104.000000,0.000000,4146.666504,4139.487305,4134.871582,4128.717773,4117.948730,4125.641113,4135.897461,4132.307617,4117.948730,4102.051270,4111.794922,4144.102539,4090.256348,4104.615234,779.000000,4.000000,,,,0.000000,4.000000,4.000000,4.000000,4.000000,4.000000,4.000000,4.000000,4.000000,4.000000,4.000000,4.000000,4.000000,4.000000,4.000000,100.000000
1602005710.498021,105.000000,0.000000,4150.256348,4140.000000,4140.000000,4130.256348,4123.077148,4140.000000,4137.436035,4136.410156,4124.102539,4125.641113,4123.077148,4154.871582,4092.307617,4109.743652,760.000000,4.000000,,,,0.000000,4.000000,4.000000,4.000000,4.000000,4.000000,4.000000,4.000000,4.000000,4.000000,4.000000,4.000000,4.000000,4.000000,4.000000,100.000000
1602005710.505903,106.000000,0.000000,4143.077148,4139.487305,4129.743652,4124.615234,4122.563965,4138.461426,4135.897461,4126.666504,4111.794922,4127.179688,4118.974121,4154.871582,4092.307617,4112.820313,878.000000,4.000000,,,,0.000000,4.000000,4.000000,4.000000,4.000000,4.000000,4.000000,4.000000,4.000000,4.000000,4.000000,4.000000,4.000000,4.000000,4.000000,100.000000
1602005710.513784,107.000000,0.000000,4133.333496,4135.384766,4120.512695,4120.000000,4118.461426,4129.743652,4134.358887,4113.846191,4103.077148,4120.000000,4100.000000,4146.153809,4083.076904,4104.102539,840.000000,4.000000,,,,0.000000,4.000000,4.000000,4.000000,4.000000,4.000000,4.000000,4.000000,4.000000,4.000000,4.000000,4.000000,4.000000,4.000000,4.000000,100.000000
1602005710.521666,108.000000,0.000000,4126.666504,4134.871582,4119.487305,4122.051270,4115.384766,4127.692383,4130.769043,4110.769043,4105.641113,4113.333496,4097.436035,4139.487305,4072.307617,4087.179443,779.000000,4.000000,,,,0.000000,4.000000,4.000000,4.000000,4.000000,4.000000,4.000000,4.000000,4.000000,4.000000,4.000000,4.000000,4.000000,4.000000,4.000000,100.000000
1602005710.529548,109.000000,0.000000,4128.717773,4135.384766,4117.436035,4121.538574,4114.358887,4121.025879,4122.563965,4107.692383,4097.948730,4095.897461,4108.205078,4137.948730,4076.923096,4088.718018,760.000000,4.000000,,,,0.000000,4.000000,4.000000,4.000000,4.000000,4.000000,4.000000,4.000000,4.000000,4.000000,4.000000,4.000000,4.000000,4.000000,4.000000,100.000000
1602005710.537430,110.000000,0.000000,4134.871582,4136.410156,4116.410156,4124.102539,4116.922852,4116.922852,4120.000000,4106.153809,4094.871826,4091.794922,4108.717773,4138.974121,4090.256348,4106.153809,878.000000,4.000000,,,,0.000000,4.000000,4.000000,4.000000,4.000000,4.000000,4.000000,4.000000,4.000000,4.000000,4.000000,4.000000,4.000000,4.000000,4.000000,100.000000
1602005710.545411,111.000000,0.000000,4136.410156,4138.974121,4120.000000,4127.179688,4121.538574,4122.051270,4122.051270,4115.384766,4111.282227,4106.153809,4109.743652,4138.461426,4092.307617,4110.256348,840.000000,4.000000,,,,0.000000,4.000000,4.000000,4.000000,4.000000,4.000000,4.000000,4.000000,4.000000,4.000000,4.000000,4.000000,4.000000,4.000000,4.000000,100.000000
1602005710.553292,112.000000,0.000000,4134.871582,4141.025879,4119.487305,4124.615234,4123.589844,4122.051270,4121.025879,4124.102539,4124.102539,4120.512695,4120.512695,4138.974121,4096.922852,4104.615234,779.000000,4.000000,,,,0.000000,4.000000,4.000000,4.000000,4.000000,4.000000,4.000000,4.000000,4.000000,4.000000,4.000000,4.000000,4.000000,4.000000,4.000000,100.000000
1602005710.561173,113.000000,0.000000,4136.922852,4143.077148,4117.436035,4126.153809,4124.102539,4120.512695,4119.487305,4124.102539,4125.641113,4136.410156,4125.641113,4140.000000,4107.692383,4106.666504,760.000000,4.000000,,,,0.000000,4.000000,4.000000,4.000000,4.000000,4.000000,4.000000,4.000000,4.000000,4.000000,4.000000,4.000000,4.000000,4.000000,4.000000,100.000000
1602005710.569154,114.000000,0.000000,4137.948730,4141.538574,4120.512695,4129.230957,4121.025879,4126.666504,4121.025879,4122.051270,4121.025879,4136.410156,4117.436035,4137.436035,4104.102539,4109.230957,878.000000,4.000000,,,,0.000000,4.000000,4.000000,4.000000,4.000000,4.000000,4.000000,4.000000,4.000000,4.000000,4.000000,4.000000,4.000000,4.000000,4.000000,100.000000
1602005710.577135,115.000000,0.000000,4137.948730,4135.384766,4123.077148,4124.615234,4118.461426,4129.743652,4122.563965,4120.512695,4111.794922,4116.922852,4114.871582,4141.025879,4098.461426,4106.153809,840.000000,4.000000,,,,0.000000,4.000000,4.000000,4.000000,4.000000,4.000000,4.000000,4.000000,4.000000,4.000000,4.000000,4.000000,4.000000,4.000000,4.000000,100.000000
1602005710.585017,116.000000,0.000000,4138.974121,4134.358887,4126.153809,4122.051270,4121.538574,4123.077148,4124.615234,4125.641113,4117.948730,4115.384766,4120.000000,4150.256348,4106.153809,4110.769043,779.000000,4.000000,,,,0.000000,4.000000,4.000000,4.000000,4.000000,4.000000,4.000000,4.000000,4.000000,4.000000,4.000000,4.000000,4.000000,4.000000,4.000000,100.000000
1602005710.592998,117.000000,0.000000,4142.051270,4139.487305,4133.846191,4125.641113,4125.128418,4120.000000,4127.692383,4137.436035,4136.922852,4132.307617,4129.743652,4154.358887,4114.871582,4122.051270,760.000000,4.000000,,,,0.000000,4.000000,4.000000,4.000000,4.000000,4.000000,4.000000,4.000000,4.000000,4.000000,4.000000,4.000000,4.000000,4.000000,4.000000,100.000000
1602005710.600880,118.000000,0.000000,4144.102539,4137.948730,4136.922852,4124.615234,4122.051270,4121.025879,4129.230957,4137.436035,4143.077148,4140.000000,4126.153809,4153.333496,4111.794922,4115.384766,878.000000,4.000000,,,,0.000000,4.000000,4.000000,4.000000,4.000000,4.000000,4.000000,4.000000,4.000000,4.000000,4.000000,4.000000,4.000000,4.000000,4.000000,100.000000
1602005710.608761,119.000000,0.000000,4142.563965,4135.897461,4136.922852,4123.589844,4118.461426,4119.487305,4127.692383,4128.717773,4141.025879,4138.461426,4110.256348,4152.307617,4102.051270,4105.128418,840.000000,4.000000,,,,0.000000,4.000000,4.000000,4.000000,4.000000,4.000000,4.000000,4.000000,4.000000,4.000000,4.000000,4.000000,4.000000,4.000000,4.000000,100.000000
1602005710.616643,120.000000,0.000000,4145.641113,4138.974121,4135.384766,4127.692383,4121.538574,4123.077148,4125.128418,4122.563965,4134.871582,4133.846191,4110.769043,4152.820313,4097.436035,4114.358887,779.000000,4.000000,,,,0.000000,4.000000,4.000000,4.000000,4.000000,4.000000,4.000000,4.000000,4.000000,4.000000,4.000000,4.000000,4.000000,4.000000,4.000000,100.000000
1602005710.624525,121.000000,0.000000,4149.230957,4140.000000,4127.692383,4127.692383,4124.102539,4125.128418,4121.025879,4111.282227,4115.897461,4119.487305,4116.922852,4153.333496,4096.410156,4116.922852,760.000000,4.000000,,,,0.000000,4.000000,4.000000,4.000000,4.000000,4.000000,4.000000,4.000000,4.000000,4.000000,4.000000,4.000000,4.000000,4.000000,4.000000,100.000000
1602005710.632406,122.000000,0.000000,4144.615234,4138.461426,4120.000000,4127.692383,4122.051270,4122.051270,4118.461426,4108.205078,4108.717773,4120.512695,4109.743652,4148.717773,4093.846191,4110.769043,878.000000,4.000000,,,,0.000000,4.000000,4.000000,4.000000,4.000000,4.000000,4.000000,4.000000,4.000000,4.000000,4.000000,4.000000,4.000000,4.000000,4.000000,100.000000
1602005710.640288,123.000000,0.000000,4138.974121,4140.000000,4121.538574,4129.743652,4121.538574,4123.077148,4117.948730,4119.487305,4122.051270,4130.769043,4105.641113,4145.128418,4091.281982,4114.871582,840.000000,4.000000,,,,0.000000,4.000000,4.000000,4.000000,4.000000,4.000000,4.000000,4.000000,4.000000,4.000000,4.000000,4.000000,4.000000,4.000000,4.000000,100.000000
1602005710.648069,124.000000,0.000000,4142.051270,4142.051270,4123.589844,4127.692383,4122.563965,4122.051270,4118.974121,4125.641113,4123.589844,4115.384766,4111.282227,4150.256348,4094.871826,4114.871582,779.000000,4.000000,,,,0.000000,4.000000,4.000000,4.000000,4.000000,4.000000,4.000000,4.000000,4.000000,4.000000,4.000000,4.000000,4.000000,4.000000,4.000000,100.000000
1602005710.655950,125.000000,0.000000,4148.717773,4139.487305,4121.025879,4128.717773,4123.589844,4116.410156,4118.974121,4128.717773,4118.974121,4106.666504,4113.846191,4154.871582,4101.025879,4110.256348,760.000000,4.000000,,,,0.000000,4.000000,4.000000,4.000000,4.000000,4.000000,4.000000,4.000000,4.000000,4.000000,4.000000,4.000000,4.000000,4.000000,4.000000,100.000000
1602005710.663832,126.000000,0.000000,4153.846191,4137.948730,4126.153809,4135.897461,4122.563965,4118.974121,4124.102539,4137.948730,4123.077148,4118.974121,4118.974121,4156.410156,4107.179688,4118.461426,878.000000,4.000000,,,,0.000000,4.000000,4.000000,4.000000,4.000000,4.000000,4.000000,4.000000,4.000000,4.000000,4.000000,4.000000,4.000000,4.000000,4.000000,100.000000
1602005710.671613,127.000000,0.000000,4155.897461,4141.538574,4137.436035,4138.974121,4121.538574,4125.128418,4134.871582,4140.512695,4123.077148,4123.589844,4125.641113,4163.589844,4111.282227,4128.205078,840.000000,4.000000,,,,0.000000,4.000000,4.000000,4.000000,4.000000,4.000000,4.000000,4.000000,4.000000,4.000000,4.000000,4.000000,4.000000,4.000000,4.000000,100.000000
1602005710.679494,128.000000,0.000000,4153.333496,4141.538574,4138.461426,4133.333496,4123.589844,4124.102539,4139.487305,4135.384766,4118.461426,4129.230957,4121.025879,4171.282227,4111.282227,4128.717773,779.000000,4.000000,,,,0.000000,4.000000,4.000000,4.000000,4.000000,4.000000,4.000000,4.000000,4.000000,4.000000,4.000000,4.000000,4.000000,4.000000,4.000000,100.000000
1602005710.687275,0.000000,0.000000,4155.384766,4132.307617,4129.230957,4126.666504,4125.128418,4127.179688,4137.436035,4129.230957,4117.948730,4132.307617,4122.563965,4167.692383,4109.230957,4129.230957,802.000000,4.000000,,,,0.000000,4.000000,4.000000,4.000000,4.000000,4.000000,4.000000,4.000000,4.000000,4.000000,4.000000,4.000000,4.000000,4.000000,4.000000,100.000000
1602005710.695156,1.000000,0.000000,4150.769043,4128.205078,4124.615234,4122.563965,4124.102539,4135.897461,4136.922852,4125.641113,4122.563965,4114.871582,4127.692383,4157.948730,4108.205078,4125.641113,796.000000,4.000000,,,,0.000000,4.000000,4.000000,4.000000,4.000000,4.000000,4.000000,4.000000,4.000000,4.000000,4.000000,4.000000,4.000000,4.000000,4.000000,100.000000
1602005710.703137,2.000000,0.000000,4140.000000,4134.871582,4125.128418,4123.589844,4125.641113,4139.487305,4135.384766,4127.692383,4132.820313,4105.128418,4124.102539,4152.307617,4109.743652,4123.077148,853.000000,4.000000,,,,0.000000,4.000000,4.000000,4.000000,4.000000,4.000000,4.000000,4.000000,4.000000,4.000000,4.000000,4.000000,4.000000,4.000000,4.000000,100.000000
1602005710.711119,3.000000,0.000000,4140.000000,4140.512695,4122.051270,4131.282227,4128.717773,4135.897461,4128.205078,4126.666504,4138.461426,4123.077148,4121.538574,4153.333496,4111.282227,4123.589844,868.000000,4.000000,,,,0.000000,4.000000,4.000000,4.000000,4.000000,4.000000,4.000000,4.000000,4.000000,4.000000,4.000000,4.000000,4.000000,4.000000,4.000000,100.000000
1602005710.719000,4.000000,0.000000,4143.077148,4138.461426,4117.948730,4136.922852,4127.179688,4131.282227,4123.077148,4121.538574,4135.897461,4133.846191,4121.538574,4153.333496,4110.769043,4122.563965,807.000000,4.000000,,,,0.000000,4.000000,4.000000,4.000000,4.000000,4.000000,4.000000,4.000000,4.000000,4.000000,4.000000,4.000000,4.000000,4.000000,4.000000,100.000000
1602005710.726881,5.000000,0.000000,4132.307617,4136.922852,4118.461426,4139.487305,4126.666504,4127.179688,4120.000000,4118.974121,4133.846191,4128.205078,4113.846191,4144.615234,4104.102539,4119.487305,821.000000,4.000000,,,,0.000000,4.000000,4.000000,4.000000,4.000000,4.000000,4.000000,4.000000,4.000000,4.000000,4.000000,4.000000,4.000000,4.000000,4.000000,100.000000
1602005710.734763,6.000000,0.000000,4122.563965,4139.487305,4118.461426,4137.436035,4127.179688,4125.641113,4115.384766,4121.025879,4134.871582,4121.025879,4103.589844,4138.974121,4095.384521,4106.666504,779.000000,4.000000,,,,0.000000,4.000000,4.000000,4.000000,4.000000,4.000000,4.000000,4.000000,4.000000,4.000000,4.000000,4.000000,4.000000,4.000000,4.000000,100.000000
1602005710.742644,7.000000,0.000000,4132.820313,4141.025879,4119.487305,4137.948730,4125.641113,4131.794922,4115.897461,4130.769043,4145.128418,4127.179688,4108.717773,4149.743652,4099.487305,4101.025879,694.000000,4.000000,,,,0.000000,4.000000,4.000000,4.000000,4.000000,4.000000,4.000000,4.000000,4.000000,4.000000,4.000000,4.000000,4.000000,4.000000,4.000000,100.000000
1602005710.750426,8.000000,0.000000,4146.153809,4142.563965,4122.051270,4141.025879,4123.589844,4133.846191,4119.487305,4137.436035,4152.307617,4133.333496,4125.128418,4158.461426,4113.333496,4120.000000,792.000000,4.000000,,,,0.000000,4.000000,4.000000,4.000000,4.000000,4.000000,4.000000,4.000000,4.000000,4.000000,4.000000,4.000000,4.000000,4.000000,4.000000,100.000000
1602005710.758308,9.000000,0.000000,4137.436035,4138.461426,4122.051270,4134.871582,4119.487305,4122.563965,4123.589844,4137.436035,4146.666504,4114.871582,4127.179688,4152.820313,4106.153809,4120.512695,840.000000,4.000000,,,,0.000000,4.000000,4.000000,4.000000,4.000000,4.000000,4.000000,4.000000,4.000000,4.000000,4.000000,4.000000,4.000000,4.000000,4.000000,100.000000
1602005710.766190,10.000000,0.000000,4124.102539,4136.410156,4119.487305,4125.641113,4118.974121,4123.077148,4132.307617,4139.487305,4147.692383,4111.282227,4119.487305,4150.769043,4095.897461,4105.128418,878.000000,4.000000,,,,0.000000,4.000000,4.000000,4.000000,4.000000,4.000000,4.000000,4.000000,4.000000,4.000000,4.000000,4.000000,4.000000,4.000000,4.000000,100.000000
1602005710.774072,11.000000,0.000000,4135.897461,4140.000000,4120.000000,4126.666504,4125.128418,4137.948730,4140.000000,4143.589844,4151.794922,4137.948730,4129.743652,4155.384766,4120.000000,4128.717773,838.000000,4.000000,,,,0.000000,4.000000,4.000000,4.000000,4.000000,4.000000,4.000000,4.000000,4.000000,4.000000,4.000000,4.000000,4.000000,4.000000,4.000000,100.000000
1602005710.781954,12.000000,0.000000,4147.179688,4133.333496,4121.538574,4127.692383,4126.666504,4137.948730,4136.922852,4141.025879,4143.077148,4148.205078,4142.051270,4153.333496,4145.128418,4162.051270,779.000000,4.000000,,,,0.000000,4.000000,4.000000,4.000000,4.000000,4.000000,4.000000,4.000000,4.000000,4.000000,4.000000,4.000000,4.000000,4.000000,4.000000,100.000000
1602005710.789836,13.000000,0.000000,4135.384766,4115.897461,4122.051270,4118.974121,4124.102539,4129.743652,4129.743652,4132.307617,4134.871582,4134.358887,4138.974121,4157.436035,4149.230957,4161.025879,760.000000,4.000000,,,,0.000000,4.000000,4.000000,4.000000,4.000000,4.000000,4.000000,4.000000,4.000000,4.000000,4.000000,4.000000,4.000000,4.000000,4.000000,100.000000
1602005710.797717,14.000000,0.000000,4114.871582,4099.487305,4122.563965,4108.205078,4125.128418,4127.179688,4123.077148,4123.077148,4135.897461,4121.538574,4137.436035,4169.230957,4160.000000,4151.794922,878.000000,4.000000,,,,0.000000,4.000000,4.000000,4.000000,4.000000,4.000000,4.000000,4.000000,4.000000,4.000000,4.000000,4.000000,4.000000,4.000000,4.000000,100.000000
1602005710.805599,15.000000,0.000000,4096.922852,4089.743652,4121.025879,4105.128418,4125.128418,4124.615234,4115.897461,4121.025879,4135.897461,4127.692383,4144.615234,4169.230957,4172.307617,4154.358887,838.000000,4.000000,,,,0.000000,4.000000,4.000000,4.000000,4.000000,4.000000,4.000000,4.000000,4.000000,4.000000,4.000000,4.000000,4.000000,4.000000,4.000000,100.000000
1602005710.813481,16.000000,0.000000,4093.333252,4091.281982,4121.538574,4111.282227,4123.077148,4126.153809,4115.897461,4123.077148,4137.948730,4137.436035,4151.282227,4160.000000,4169.743652,4154.871582,0.000000,4.000000,,,,0.000000,4.000000,4.000000,4.000000,4.000000,4.000000,4.000000,4.000000,4.000000,4.000000,4.000000,4.000000,4.000000,4.000000,4.000000,100.000000
1602005710.821463,17.000000,0.000000,4105.128418,4099.487305,4124.615234,4119.487305,4123.077148,4124.102539,4118.461426,4118.974121,4136.922852,4138.974121,4147.692383,4153.846191,4162.563965,4152.307617,0.000000,4.000000,,,,0.000000,4.000000,4.000000,4.000000,4.000000,4.000000,4.000000,4.000000,4.000000,4.000000,4.000000,4.000000,4.000000,4.000000,4.000000,100.000000
1602005710.829345,18.000000,0.000000,4110.769043,4103.589844,4129.230957,4121.538574,4126.153809,4120.512695,4119.487305,4124.102539,4133.333496,4146.153809,4146.153809,4154.358887,4159.487305,4152.820313,0.000000,4.000000,,,,0.000000,4.000000,4.000000,4.000000,4.000000,4.000000,4.000000,4.000000,4.000000,4.000000,4.000000,4.000000,4.000000,4.000000,4.000000,100.000000
1602005710.837227,19.000000,0.000000,4104.615234,4105.128418,4134.358887,4122.051270,4125.128418,4131.794922,4129.743652,4140.512695,4140.000000,4148.205078,4151.794922,4158.461426,4157.948730,4151.794922,0.000000,4.000000,,,,0.000000,4.000000,4.000000,4.000000,4.000000,4.000000,4.000000,4.000000,4.000000,4.000000,4.000000,4.000000,4.000000,4.000000,4.000000,100.000000
1602005710.845109,20.000000,0.000000,4104.615234,4106.666504,4135.897461,4121.538574,4118.461426,4132.307617,4138.461426,4144.102539,4138.461426,4124.615234,4149.743652,4160.512695,4157.436035,4147.692383,0.000000,4.000000,,,,0.000000,4.000000,4.000000,4.000000,4.000000,4.000000,4.000000,4.000000,4.000000,4.000000,4.000000,4.000000,4.000000,4.000000,4.000000,100.000000
1602005710.852990,21.000000,0.000000,4110.256348,4104.102539,4134.358887,4118.974121,4116.922852,4117.436035,4134.358887,4137.948730,4121.538574,4118.974121,4145.128418,4164.102539,4158.461426,4146.666504,0.000000,4.000000,,,,0.000000,4.000000,4.000000,4.000000,4.000000,4.000000,4.000000,4.000000,4.000000,4.000000,4.000000,4.000000,4.000000,4.000000,4.000000,100.000000
1602005710.860872,22.000000,0.000000,4112.820313,4106.666504,4136.922852,4122.051270,4124.102539,4126.666504,4133.333496,4137.948730,4122.051270,4146.666504,4152.820313,4169.230957,4167.692383,4155.384766,0.000000,4.000000,,,,0.000000,4.000000,4.000000,4.000000,4.000000,4.000000,4.000000,4.000000,4.000000,4.000000,4.000000,4.000000,4.000000,4.000000,4.000000,100.000000
1602005710.868754,23.000000,0.000000,4108.205078,4108.205078,4135.897461,4125.128418,4126.153809,4141.025879,4141.025879,4137.436035,4139.487305,4157.436035,4157.948730,4168.205078,4175.897461,4165.641113,0.000000,4.000000,,,,0.000000,4.000000,4.000000,4.000000,4.000000,4.000000,4.000000,4.000000,4.000000,4.000000,4.000000,4.000000,4.000000,4.000000,4.000000,100.000000
1602005710.876636,24.000000,0.000000,4110.256348,4105.128418,4128.205078,4123.589844,4118.974121,4130.256348,4138.974121,4136.922852,4142.051270,4158.461426,4157.436035,4167.692383,4172.820313,4168.717773,0.000000,4.000000,,,,0.000000,4.000000,4.000000,4.000000,4.000000,4.000000,4.000000,4.000000,4.000000,4.000000,4.000000,4.000000,4.000000,4.000000,4.000000,100.000000
1602005710.884518,25.000000,0.000000,4120.000000,4104.615234,4125.128418,4122.051270,4114.871582,4117.436035,4128.205078,4142.051270,4137.948730,4165.641113,4158.974121,4171.282227,4173.333496,4164.615234,0.000000,4.000000,,,,0.000000,4.000000,4.000000,4.000000,4.000000,4.000000,4.000000,4.000000,4.000000,4.000000,4.000000,4.000000,4.000000,4.000000,4.000000,100.000000
1602005710.892500,26.000000,0.000000,4120.512695,4104.102539,4127.692383,4120.000000,4116.410156,4118.461426,4122.051270,4142.051270,4146.666504,4150.256348,4155.384766,4163.589844,4173.846191,4158.461426,0.000000,4.000000,,,,0.000000,4.000000,4.000000,4.000000,4.000000,4.000000,4.000000,4.000000,4.000000,4.000000,4.000000,4.000000,4.000000,4.000000,4.000000,100.000000
1602005710.900382,27.000000,0.000000,4121.538574,4106.153809,4134.358887,4120.512695,4120.000000,4128.717773,4123.589844,4139.487305,4153.333496,4136.922852,4161.025879,4155.384766,4172.307617,4164.102539,0.000000,4.000000,,,,0.000000,4.000000,4.000000,4.000000,4.000000,4.000000,4.000000,4.000000,4.000000,4.000000,4.000000,4.000000,4.000000,4.000000,4.000000,100.000000
1602005710.908263,28.000000,0.000000,4127.179688,4107.179688,4138.461426,4121.538574,4122.563965,4137.948730,4126.153809,4139.487305,4146.153809,4147.179688,4168.205078,4154.358887,4174.871582,4169.743652,0.000000,4.000000,,,,0.000000,4.000000,4.000000,4.000000,4.000000,4.000000,4.000000,4.000000,4.000000,4.000000,4.000000,4.000000,4.000000,4.000000,4.000000,100.000000
1602005710.916145,29.000000,0.000000,4115.897461,4098.461426,4125.128418,4114.871582,4123.077148,4126.666504,4121.025879,4130.256348,4131.794922,4145.641113,4152.307617,4143.589844,4167.692383,4156.922852,0.000000,4.000000,,,,0.000000,4.000000,4.000000,4.000000,4.000000,4.000000,4.000000,4.000000,4.000000,4.000000,4.000000,4.000000,4.000000,4.000000,4.000000,100.000000
1602005710.924027,30.000000,0.000000,4100.512695,4095.384521,4109.743652,4110.769043,4121.025879,4115.897461,4118.974121,4116.922852,4121.025879,4130.256348,4134.871582,4131.282227,4153.333496,4144.102539,0.000000,4.000000,,,,0.000000,4.000000,4.000000,4.000000,4.000000,4.000000,4.000000,4.000000,4.000000,4.000000,4.000000,4.000000,4.000000,4.000000,4.000000,100.000000
1602005710.931909,31.000000,0.000000,4104.102539,4101.538574,4114.871582,4117.948730,4119.487305,4128.205078,4128.717773,4123.589844,4123.589844,4136.922852,4136.922852,4138.461426,4148.717773,4146.153809,0.000000,4.000000,,,,0.000000,4.000000,4.000000,4.000000,4.000000,4.000000,4.000000,4.000000,4.000000,4.000000,4.000000,4.000000,4.000000,4.000000,4.000000,100.000000
1602005710.939791,32.000000,0.000000,4108.717773,4107.179688,4125.641113,4123.589844,4128.205078,4139.487305,4138.974121,4136.410156,4134.358887,4149.230957,4146.666504,4151.794922,4157.436035,4153.333496,0.000000,4.000000,,,,0.000000,4.000000,4.000000,4.000000,4.000000,4.000000,4.000000,4.000000,4.000000,4.000000,4.000000,4.000000,4.000000,4.000000,4.000000,100.000000
1602005710.947673,33.000000,0.000000,4105.641113,4117.436035,4127.692383,4123.077148,4140.000000,4135.384766,4136.922852,4138.461426,4140.512695,4138.461426,4150.256348,4156.410156,4163.589844,4156.410156,0.000000,4.000000,,,,0.000000,4.000000,4.000000,4.000000,4.000000,4.000000,4.000000,4.000000,4.000000,4.000000,4.000000,4.000000,4.000000,4.000000,4.000000,100.000000
1602005710.955555,34.000000,0.000000,4106.666504,4118.974121,4126.666504,4122.563965,4140.000000,4127.179688,4125.641113,4133.846191,4138.461426,4130.256348,4141.025879,4153.846191,4158.461426,4154.358887,0.000000,4.000000,,,,0.000000,4.000000,4.000000,4.000000,4.000000,4.000000,4.000000,4.000000,4.000000,4.000000,4.000000,4.000000,4.000000,4.000000,4.000000,100.000000
1602005710.963536,35.000000,0.000000,4110.256348,4109.230957,4123.589844,4121.538574,4130.769043,4121.538574,4120.000000,4127.179688,4134.871582,4136.410156,4133.333496,4145.128418,4152.307617,4147.179688,0.000000,4.000000,,,,0.000000,4.000000,4.000000,4.000000,4.000000,4.000000,4.000000,4.000000,4.000000,4.000000,4.000000,4.000000,4.000000,4.000000,4.000000,100.000000
1602005710.971418,36.000000,0.000000,4110.769043,4114.871582,4126.153809,4123.077148,4124.615234,4124.615234,4121.538574,4125.641113,4136.410156,4135.897461,4147.179688,4140.000000,4152.820313,4138.974121,0.000000,4.000000,,,,0.000000,4.000000,4.000000,4.000000,4.000000,4.000000,4.000000,4.000000,4.000000,4.000000,4.000000,4.000000,4.000000,4.000000,4.000000,100.000000
1602005710.979300,37.000000,0.000000,4108.205078,4122.051270,4126.666504,4125.128418,4124.102539,4125.641113,4120.512695,4131.282227,4138.974121,4134.358887,4152.307617,4143.077148,4155.384766,4137.948730,0.000000,4.000000,,,,0.000000,4.000000,4.000000,4.000000,4.000000,4.000000,4.000000,4.000000,4.000000,4.000000,4.000000,4.000000,4.000000,4.000000,4.000000,100.000000
1602005710.987181,38.000000,0.000000,4109.743652,4114.871582,4124.615234,4123.077148,4123.589844,4126.666504,4126.666504,4136.922852,4138.461426,4137.436035,4143.077148,4150.769043,4158.974121,4143.589844,0.000000,4.000000,,,,0.000000,4.000000,4.000000,4.000000,4.000000,4.000000,4.000000,4.000000,4.000000,4.000000,4.000000,4.000000,4.000000,4.000000,4.000000,100.000000
1602005710.995063,39.000000,0.000000,4120.000000,4115.897461,4134.358887,4123.589844,4126.666504,4134.871582,4140.512695,4138.974121,4143.589844,4141.025879,4156.922852,4160.000000,4168.717773,4151.282227,0.000000,4.000000,,,,0.000000,4.000000,4.000000,4.000000,4.000000,4.000000,4.000000,4.000000,4.000000,4.000000,4.000000,4.000000,4.000000,4.000000,4.000000,100.000000
1602005711.002945,40.000000,0.000000,4126.153809,4126.666504,4144.102539,4125.128418,4135.384766,4140.000000,4144.615234,4141.025879,4152.307617,4150.256348,4172.820313,4170.256348,4176.410156,4157.948730,0.000000,4.000000,,,,0.000000,4.000000,4.000000,4.000000,4.000000,4.000000,4.000000,4.000000,4.000000,4.000000,4.000000,4.000000,4.000000,4.000000,4.000000,100.000000
1602005711.010826,41.000000,0.000000,4116.922852,4122.051270,4140.000000,4125.128418,4140.000000,4138.461426,4141.538574,4145.128418,4154.358887,4164.102539,4163.589844,4170.256348,4174.871582,4157.436035,0.000000,4.000000,,,,0.000000,4.000000,4.000000,4.000000,4.000000,4.000000,4.000000,4.000000,4.000000,4.000000,4.000000,4.000000,4.000000,4.000000,4.000000,100.000000
1602005711.018608,42.000000,0.000000,4105.641113,4111.282227,4131.794922,4124.102539,4131.282227,4140.512695,4143.589844,4151.794922,4153.846191,4155.897461,4153.846191,4158.974121,4168.717773,4154.358887,0.000000,4.000000,,,,0.000000,4.000000,4.000000,4.000000,4.000000,4.000000,4.000000,4.000000,4.000000,4.000000,4.000000,4.000000,4.000000,4.000000,4.000000,100.000000
1602005711.026489,43.000000,0.000000,4104.102539,4106.153809,4126.153809,4122.563965,4122.563965,4141.025879,4145.128418,4152.820313,4148.717773,4137.948730,4151.794922,4153.846191,4159.487305,4149.743652,0.000000,4.000000,,,,0.000000,4.000000,4.000000,4.000000,4.000000,4.000000,4.000000,4.000000,4.000000,4.000000,4.000000,4.000000,4.000000,4.000000,4.000000,100.000000
1602005711.034370,44.000000,0.000000,4104.102539,4105.641113,4120.512695,4118.974121,4123.077148,4130.769043,4134.358887,4142.563965,4138.461426,4136.410156,4142.563965,4153.333496,4151.282227,4137.948730,0.000000,4.000000,,,,0.000000,4.000000,4.000000,4.000000,4.000000,4.000000,4.000000,4.000000,4.000000,4.000000,4.000000,4.000000,4.000000,4.000000,4.000000,100.000000
1602005711.042252,45.000000,0.000000,4103.077148,4105.641113,4118.974121,4119.487305,4124.102539,4121.538574,4123.077148,4135.384766,4133.333496,4137.948730,4136.410156,4150.769043,4149.230957,4131.794922,0.000000,4.000000,,,,0.000000,4.000000,4.000000,4.000000,4.000000,4.000000,4.000000,4.000000,4.000000,4.000000,4.000000,4.000000,4.000000,4.000000,4.000000,100.000000
1602005711.050133,46.000000,0.000000,4105.641113,4106.153809,4127.692383,4123.077148,4122.051270,4122.563965,4119.487305,4139.487305,4137.436035,4144.615234,4142.563965,4156.922852,4156.922852,4144.102539,0.000000,4.000000,,,,0.000000,4.000000,4.000000,4.000000,4.000000,4.000000,4.000000,4.000000,4.000000,4.000000,4.000000,4.000000,4.000000,4.000000,4.000000,100.000000
1602005711.058015,47.000000,0.000000,4111.282227,4115.897461,4138.974121,4124.615234,4120.512695,4120.000000,4124.102539,4147.179688,4142.563965,4166.666504,4160.000000,4170.769043,4169.743652,4155.897461,0.000000,4.000000,,,,0.000000,4.000000,4.000000,4.000000,4.000000,4.000000,4.000000,4.000000,4.000000,4.000000,4.000000,4.000000,4.000000,4.000000,4.000000,100.000000
1602005711.065797,48.000000,0.000000,4112.307617,4121.025879,4134.871582,4123.589844,4122.051270,4108.717773,4126.153809,4144.615234,4138.974121,4165.641113,4172.820313,4173.333496,4173.333496,4150.256348,0.000000,4.000000,,,,0.000000,4.000000,4.000000,4.000000,4.000000,4.000000,4.000000,4.000000,4.000000,4.000000,4.000000,4.000000,4.000000,4.000000,4.000000,100.000000
1602005711.073679,49.000000,0.000000,4109.743652,4113.333496,4124.102539,4123.589844,4121.025879,4109.743652,4123.589844,4134.358887,4125.128418,4129.230957,4164.615234,4159.487305,4167.692383,4142.051270,0.000000,4.000000,,,,0.000000,4.000000,4.000000,4.000000,4.000000,4.000000,4.000000,4.000000,4.000000,4.000000,4.000000,4.000000,4.000000,4.000000,4.000000,100.000000
1602005711.081560,50.000000,0.000000,4101.538574,4109.743652,4117.436035,4120.512695,4121.025879,4123.589844,4124.615234,4133.846191,4118.461426,4111.794922,4151.282227,4146.153809,4162.563965,4142.563965,0.000000,4.000000,,,,0.000000,4.000000,4.000000,4.000000,4.000000,4.000000,4.000000,4.000000,4.000000,4.000000,4.000000,4.000000,4.000000,4.000000,4.000000,100.000000
1602005711.089442,51.000000,0.000000,4089.743652,4107.692383,4109.230957,4112.307617,4122.563965,4125.128418,4125.128418,4136.410156,4127.179688,4129.230957,4149.743652,4133.333496,4154.871582,4135.897461,0.000000,4.000000,,,,0.000000,4.000000,4.000000,4.000000,4.000000,4.000000,4.000000,4.000000,4.000000,4.000000,4.000000,4.000000,4.000000,4.000000,4.000000,100.000000
1602005711.097324,52.000000,0.000000,4093.846191,4105.641113,4110.256348,4112.820313,4123.589844,4124.615234,4128.717773,4139.487305,4138.974121,4149.230957,4151.794922,4129.230957,4149.230957,4132.820313,0.000000,4.000000,,,,0.000000,4.000000,4.000000,4.000000,4.000000,4.000000,4.000000,4.000000,4.000000,4.000000,4.000000,4.000000,4.000000,4.000000,4.000000,100.000000
1602005711.105206,53.000000,0.000000,4109.743652,4116.410156,4124.615234,4123.077148,4129.743652,4137.948730,4135.897461,4148.717773,4154.871582,4163.589844,4157.436035,4146.153809,4162.563965,4147.179688,0.000000,4.000000,,,,0.000000,4.000000,4.000000,4.000000,4.000000,4.000000,4.000000,4.000000,4.000000,4.000000,4.000000,4.000000,4.000000,4.000000,4.000000,100.000000
1602005711.113088,54.000000,0.000000,4109.230957,4121.025879,4128.717773,4125.128418,4135.897461,4141.025879,4138.461426,4156.922852,4167.692383,4171.282227,4161.538574,4158.974121,4172.307617,4149.743652,0.000000,4.000000,,,,0.000000,4.000000,4.000000,4.000000,4.000000,4.000000,4.000000,4.000000,4.000000,4.000000,4.000000,4.000000,4.000000,4.000000,4.000000,100.000000
1602005711.120970,55.000000,0.000000,4098.461426,4112.307617,4121.538574,4120.512695,4135.897461,4132.307617,4135.384766,4155.897461,4162.051270,4160.000000,4157.948730,4151.794922,4161.538574,4136.410156,0.000000,4.000000,,,,0.000000,4.000000,4.000000,4.000000,4.000000,4.000000,4.000000,4.000000,4.000000,4.000000,4.000000,4.000000,4.000000,4.000000,4.000000,100.000000
1602005711.128852,56.000000,0.000000,4103.589844,4115.384766,4122.563965,4123.077148,4134.871582,4133.333496,4134.358887,4150.769043,4153.333496,4133.846191,4155.384766,4150.769043,4153.333496,4134.358887,0.000000,4.000000,,,,0.000000,4.000000,4.000000,4.000000,4.000000,4.000000,4.000000,4.000000,4.000000,4.000000,4.000000,4.000000,4.000000,4.000000,4.000000,100.000000
1602005711.136833,57.000000,0.000000,4108.205078,4124.615234,4129.230957,4126.666504,4137.948730,4133.846191,4130.769043,4143.077148,4148.717773,4129.230957,4155.384766,4153.846191,4156.410156,4140.000000,0.000000,4.000000,,,,0.000000,4.000000,4.000000,4.000000,4.000000,4.000000,4.000000,4.000000,4.000000,4.000000,4.000000,4.000000,4.000000,4.000000,4.000000,100.000000
1602005711.144714,58.000000,0.000000,4100.000000,4121.538574,4125.128418,4126.153809,4139.487305,4118.461426,4123.589844,4135.384766,4138.974121,4153.333496,4147.179688,4144.615234,4154.871582,4138.461426,0.000000,4.000000,,,,0.000000,4.000000,4.000000,4.000000,4.000000,4.000000,4.000000,4.000000,4.000000,4.000000,4.000000,4.000000,4.000000,4.000000,4.000000,100.000000
1602005711.152595,59.000000,0.000000,4098.974121,4119.487305,4114.871582,4126.666504,4136.410156,4112.820313,4127.179688,4132.307617,4131.794922,4157.948730,4139.487305,4136.922852,4149.230957,4133.846191,0.000000,4.000000,,,,0.000000,4.000000,4.000000,4.000000,4.000000,4.000000,4.000000,4.000000,4.000000,4.000000,4.000000,4.000000,4.000000,4.000000,4.000000,100.000000
1602005711.160576,60.000000,0.000000,4107.179688,4124.615234,4112.307617,4125.128418,4133.846191,4127.692383,4136.410156,4133.846191,4133.333496,4136.922852,4140.512695,4139.487305,4151.282227,4133.846191,0.000000,4.000000,,,,0.000000,4.000000,4.000000,4.000000,4.000000,4.000000,4.000000,4.000000,4.000000,4.000000,4.000000,4.000000,4.000000,4.000000,4.000000,100.000000
1602005711.168457,61.000000,0.000000,4110.256348,4124.615234,4117.948730,4123.589844,4135.384766,4140.000000,4140.000000,4138.974121,4137.948730,4139.487305,4143.589844,4140.512695,4153.846191,4134.871582,0.000000,4.000000,,,,0.000000,4.000000,4.000000,4.000000,4.000000,4.000000,4.000000,4.000000,4.000000,4.000000,4.000000,4.000000,4.000000,4.000000,4.000000,100.000000
1602005711.176238,62.000000,0.000000,4103.589844,4114.358887,4121.538574,4122.563965,4137.948730,4135.897461,4139.487305,4141.538574,4136.410156,4141.538574,4142.051270,4138.974121,4150.256348,4128.717773,0.000000,4.000000,,,,0.000000,4.000000,4.000000,4.000000,4.000000,4.000000,4.000000,4.000000,4.000000,4.000000,4.000000,4.000000,4.000000,4.000000,4.000000,100.000000
1602005711.184020,63.000000,0.000000,4101.538574,4107.692383,4121.538574,4119.487305,4131.282227,4130.256348,4137.948730,4138.461426,4133.846191,4112.820313,4140.000000,4137.948730,4145.641113,4123.589844,0.000000,4.000000,,,,0.000000,4.000000,4.000000,4.000000,4.000000,4.000000,4.000000,4.000000,4.000000,4.000000,4.000000,4.000000,4.000000,4.000000,4.000000,100.000000
1602005711.191902,64.000000,0.000000,4115.897461,4116.922852,4124.102539,4118.974121,4125.641113,4133.846191,4140.000000,4145.641113,4142.563965,4120.512695,4148.717773,4144.615234,4150.256348,4135.384766,781.000000,4.000000,,,,0.000000,4.000000,4.000000,4.000000,4.000000,4.000000,4.000000,4.000000,4.000000,4.000000,4.000000,4.000000,4.000000,4.000000,4.000000,100.000000
1602005711.199783,65.000000,0.000000,4122.051270,4124.102539,4124.615234,4122.563965,4128.205078,4137.948730,4141.538574,4154.871582,4157.436035,4167.179688,4155.384766,4154.358887,4155.897461,4145.641113,796.000000,4.000000,,,,0.000000,4.000000,4.000000,4.000000,4.000000,4.000000,4.000000,4.000000,4.000000,4.000000,4.000000,4.000000,4.000000,4.000000,4.000000,100.000000
1602005711.207665,66.000000,0.000000,4112.307617,4118.461426,4122.563965,4123.589844,4128.717773,4132.820313,4141.538574,4148.717773,4154.871582,4167.692383,4144.615234,4151.794922,4149.230957,4140.512695,853.000000,4.000000,,,,0.000000,4.000000,4.000000,4.000000,4.000000,4.000000,4.000000,4.000000,4.000000,4.000000,4.000000,4.000000,4.000000,4.000000,4.000000,100.000000
1602005711.215547,67.000000,0.000000,4107.692383,4118.461426,4125.641113,4122.563965,4127.179688,4125.641113,4140.000000,4139.487305,4142.051270,4128.717773,4137.436035,4143.077148,4138.974121,4136.410156,868.000000,4.000000,,,,0.000000,4.000000,4.000000,4.000000,4.000000,4.000000,4.000000,4.000000,4.000000,4.000000,4.000000,4.000000,4.000000,4.000000,4.000000,100.000000
1602005711.223428,68.000000,0.000000,4110.256348,4118.974121,4127.692383,4122.051270,4123.077148,4126.153809,4132.307617,4131.282227,4136.410156,4113.846191,4138.974121,4140.000000,4134.871582,4135.384766,807.000000,4.000000,,,,0.000000,4.000000,4.000000,4.000000,4.000000,4.000000,4.000000,4.000000,4.000000,4.000000,4.000000,4.000000,4.000000,4.000000,4.000000,100.000000
1602005711.231310,69.000000,0.000000,4106.666504,4112.307617,4123.077148,4119.487305,4118.974121,4123.589844,4126.153809,4122.051270,4134.358887,4127.692383,4138.461426,4142.051270,4133.846191,4133.333496,821.000000,4.000000,,,,0.000000,4.000000,4.000000,4.000000,4.000000,4.000000,4.000000,4.000000,4.000000,4.000000,4.000000,4.000000,4.000000,4.000000,4.000000,100.000000
1602005711.239192,70.000000,0.000000,4107.179688,4113.333496,4126.153809,4121.025879,4125.641113,4118.974121,4131.282227,4126.153809,4137.948730,4137.948730,4141.538574,4148.205078,4141.538574,4134.871582,779.000000,4.000000,,,,0.000000,4.000000,4.000000,4.000000,4.000000,4.000000,4.000000,4.000000,4.000000,4.000000,4.000000,4.000000,4.000000,4.000000,4.000000,100.000000
1602005711.247173,71.000000,0.000000,4120.512695,4126.153809,4142.051270,4130.256348,4138.461426,4128.205078,4138.461426,4140.512695,4148.717773,4143.589844,4152.307617,4162.051270,4158.974121,4145.641113,667.000000,4.000000,,,,0.000000,4.000000,4.000000,4.000000,4.000000,4.000000,4.000000,4.000000,4.000000,4.000000,4.000000,4.000000,4.000000,4.000000,4.000000,100.000000
1602005711.255054,72.000000,0.000000,4132.820313,4137.948730,4154.871582,4138.461426,4142.051270,4139.487305,4142.051270,4150.256348,4161.025879,4159.487305,4161.538574,4176.922852,4172.307617,4164.615234,792.000000,4.000000,,,,0.000000,4.000000,4.000000,4.000000,4.000000,4.000000,4.000000,4.000000,4.000000,4.000000,4.000000,4.000000,4.000000,4.000000,4.000000,100.000000
1602005711.262935,73.000000,0.000000,4141.538574,4137.948730,4158.974121,4142.051270,4141.538574,4143.077148,4149.743652,4158.974121,4168.717773,4179.487305,4171.282227,4180.512695,4175.897461,4176.922852,840.000000,4.000000,,,,0.000000,4.000000,4.000000,4.000000,4.000000,4.000000,4.000000,4.000000,4.000000,4.000000,4.000000,4.000000,4.000000,4.000000,4.000000,100.000000
1602005711.270716,74.000000,0.000000,4139.487305,4128.205078,4154.358887,4136.922852,4143.077148,4145.641113,4156.410156,4163.077148,4166.666504,4171.794922,4173.333496,4169.743652,4174.871582,4174.871582,853.000000,4.000000,,,,0.000000,4.000000,4.000000,4.000000,4.000000,4.000000,4.000000,4.000000,4.000000,4.000000,4.000000,4.000000,4.000000,4.000000,4.000000,100.000000
1602005711.278597,75.000000,0.000000,4125.128418,4118.461426,4141.538574,4124.102539,4138.974121,4143.589844,4153.333496,4151.282227,4154.358887,4142.051270,4158.974121,4157.436035,4164.615234,4161.538574,803.000000,4.000000,,,,0.000000,4.000000,4.000000,4.000000,4.000000,4.000000,4.000000,4.000000,4.000000,4.000000,4.000000,4.000000,4.000000,4.000000,4.000000,100.000000
1602005711.286479,76.000000,0.000000,4115.897461,4111.794922,4135.897461,4118.461426,4134.358887,4138.974121,4147.179688,4140.512695,4142.563965,4136.410156,4148.717773,4150.769043,4151.794922,4145.128418,779.000000,4.000000,,,,0.000000,4.000000,4.000000,4.000000,4.000000,4.000000,4.000000,4.000000,4.000000,4.000000,4.000000,4.000000,4.000000,4.000000,4.000000,100.000000
1602005711.294260,77.000000,0.000000,4119.487305,4109.230957,4139.487305,4120.000000,4133.333496,4138.974121,4140.000000,4138.974121,4140.512695,4147.179688,4149.743652,4142.563965,4150.769043,4137.948730,760.000000,4.000000,,,,0.000000,4.000000,4.000000,4.000000,4.000000,4.000000,4.000000,4.000000,4.000000,4.000000,4.000000,4.000000,4.000000,4.000000,4.000000,100.000000
1602005711.302141,78.000000,0.000000,4123.589844,4115.384766,4139.487305,4125.128418,4134.871582,4136.922852,4135.897461,4137.948730,4143.589844,4147.692383,4150.769043,4139.487305,4153.846191,4143.077148,853.000000,4.000000,,,,0.000000,4.000000,4.000000,4.000000,4.000000,4.000000,4.000000,4.000000,4.000000,4.000000,4.000000,4.000000,4.000000,4.000000,4.000000,100.000000
1602005711.309922,79.000000,0.000000,4124.615234,4124.102539,4140.512695,4132.820313,4138.461426,4135.897461,4136.922852,4136.922852,4144.615234,4147.179688,4154.871582,4142.051270,4152.820313,4142.563965,803.000000,4.000000,,,,0.000000,4.000000,4.000000,4.000000,4.000000,4.000000,4.000000,4.000000,4.000000,4.000000,4.000000,4.000000,4.000000,4.000000,4.000000,100.000000
1602005711.317803,80.000000,0.000000,4127.692383,4131.794922,4139.487305,4138.974121,4139.487305,4137.436035,4136.922852,4135.897461,4141.538574,4155.384766,4156.410156,4141.538574,4151.794922,4138.974121,779.000000,4.000000,,,,0.000000,4.000000,4.000000,4.000000,4.000000,4.000000,4.000000,4.000000,4.000000,4.000000,4.000000,4.000000,4.000000,4.000000,4.000000,100.000000
1602005711.325585,81.000000,0.000000,4127.179688,4136.922852,4131.794922,4136.922852,4139.487305,4136.922852,4146.666504,4143.589844,4143.077148,4145.641113,4149.743652,4138.461426,4154.871582,4140.000000,760.000000,4.000000,,,,0.000000,4.000000,4.000000,4.000000,4.000000,4.000000,4.000000,4.000000,4.000000,4.000000,4.000000,4.000000,4.000000,4.000000,4.000000,100.000000
1602005711.333467,82.000000,0.000000,4115.897461,4130.769043,4121.025879,4129.230957,4139.487305,4134.358887,4154.358887,4151.794922,4146.153809,4120.512695,4141.025879,4133.333496,4152.307617,4130.769043,853.000000,4.000000,,,,0.000000,4.000000,4.000000,4.000000,4.000000,4.000000,4.000000,4.000000,4.000000,4.000000,4.000000,4.000000,4.000000,4.000000,4.000000,100.000000
1602005711.341348,83.000000,0.000000,4105.128418,4120.000000,4112.820313,4123.589844,4137.948730,4130.256348,4143.589844,4144.102539,4140.000000,4133.333496,4136.922852,4123.589844,4140.512695,4118.974121,803.000000,4.000000,,,,0.000000,4.000000,4.000000,4.000000,4.000000,4.000000,4.000000,4.000000,4.000000,4.000000,4.000000,4.000000,4.000000,4.000000,4.000000,100.000000
1602005711.349230,84.000000,0.000000,4105.641113,4123.077148,4109.230957,4125.128418,4143.589844,4133.333496,4134.871582,4135.384766,4135.384766,4161.538574,4137.948730,4119.487305,4137.948730,4122.563965,779.000000,4.000000,,,,0.000000,4.000000,4.000000,4.000000,4.000000,4.000000,4.000000,4.000000,4.000000,4.000000,4.000000,4.000000,4.000000,4.000000,4.000000,100.000000
1602005711.357112,85.000000,0.000000,4109.230957,4126.666504,4113.846191,4131.794922,4152.820313,4148.717773,4138.461426,4137.436035,4136.410156,4150.256348,4145.641113,4121.025879,4147.692383,4123.589844,760.000000,4.000000,,,,0.000000,4.000000,4.000000,4.000000,4.000000,4.000000,4.000000,4.000000,4.000000,4.000000,4.000000,4.000000,4.000000,4.000000,4.000000,100.000000
1602005711.364993,86.000000,0.000000,4113.333496,4126.153809,4120.512695,4136.922852,4156.410156,4153.333496,4137.436035,4137.948730,4136.922852,4137.948730,4154.871582,4121.025879,4153.846191,4119.487305,853.000000,4.000000,,,,0.000000,4.000000,4.000000,4.000000,4.000000,4.000000,4.000000,4.000000,4.000000,4.000000,4.000000,4.000000,4.000000,4.000000,4.000000,100.000000
1602005711.372875,87.000000,0.000000,4121.025879,4129.743652,4123.589844,4137.948730,4154.871582,4144.615234,4133.846191,4134.871582,4134.871582,4152.820313,4150.769043,4127.179688,4150.769043,4128.205078,803.000000,4.000000,,,,0.000000,4.000000,4.000000,4.000000,4.000000,4.000000,4.000000,4.000000,4.000000,4.000000,4.000000,4.000000,4.000000,4.000000,4.000000,100.000000
1602005711.380857,88.000000,0.000000,4122.563965,4130.769043,4122.563965,4134.358887,4154.358887,4143.077148,4138.974121,4135.897461,4136.922852,4144.102539,4139.487305,4138.461426,4146.666504,4138.461426,779.000000,4.000000,,,,0.000000,4.000000,4.000000,4.000000,4.000000,4.000000,4.000000,4.000000,4.000000,4.000000,4.000000,4.000000,4.000000,4.000000,4.000000,100.000000
1602005711.388738,89.000000,0.000000,4111.794922,4126.153809,4122.051270,4127.692383,4150.256348,4144.615234,4142.051270,4139.487305,4140.512695,4120.512695,4141.025879,4138.974121,4148.717773,4138.461426,760.000000,4.000000,,,,0.000000,4.000000,4.000000,4.000000,4.000000,4.000000,4.000000,4.000000,4.000000,4.000000,4.000000,4.000000,4.000000,4.000000,4.000000,100.000000
1602005711.396620,90.000000,0.000000,4107.692383,4123.077148,4119.487305,4123.589844,4143.589844,4140.512695,4140.512695,4146.153809,4140.000000,4134.871582,4147.692383,4129.743652,4150.256348,4136.410156,853.000000,4.000000,,,,0.000000,4.000000,4.000000,4.000000,4.000000,4.000000,4.000000,4.000000,4.000000,4.000000,4.000000,4.000000,4.000000,4.000000,4.000000,100.000000
1602005711.404501,91.000000,0.000000,4105.128418,4122.563965,4108.205078,4121.538574,4142.563965,4137.436035,4140.000000,4145.641113,4140.512695,4160.000000,4140.512695,4121.538574,4143.077148,4130.256348,803.000000,4.000000,,,,0.000000,4.000000,4.000000,4.000000,4.000000,4.000000,4.000000,4.000000,4.000000,4.000000,4.000000,4.000000,4.000000,4.000000,4.000000,100.000000
1602005711.412383,92.000000,0.000000,4095.897461,4120.512695,4098.461426,4120.512695,4144.615234,4140.512695,4141.538574,4140.512695,4145.128418,4155.384766,4132.820313,4118.974121,4135.897461,4123.077148,779.000000,4.000000,,,,0.000000,4.000000,4.000000,4.000000,4.000000,4.000000,4.000000,4.000000,4.000000,4.000000,4.000000,4.000000,4.000000,4.000000,4.000000,100.000000
1602005711.420265,93.000000,0.000000,4098.461426,4120.512695,4104.102539,4121.538574,4143.589844,4144.615234,4143.589844,4145.641113,4146.666504,4139.487305,4145.128418,4128.205078,4142.563965,4132.307617,760.000000,4.000000,,,,0.000000,4.000000,4.000000,4.000000,4.000000,4.000000,4.000000,4.000000,4.000000,4.000000,4.000000,4.000000,4.000000,4.000000,4.000000,100.000000
1602005711.428146,94.000000,0.000000,4109.230957,4123.589844,4111.282227,4125.128418,4141.025879,4140.512695,4143.077148,4148.205078,4138.461426,4134.871582,4152.820313,4136.922852,4146.153809,4140.512695,853.000000,4.000000,,,,0.000000,4.000000,4.000000,4.000000,4.000000,4.000000,4.000000,4.000000,4.000000,4.000000,4.000000,4.000000,4.000000,4.000000,4.000000,100.000000
1602005711.436028,95.000000,0.000000,4107.692383,4122.051270,4108.205078,4124.102539,4140.512695,4125.128418,4139.487305,4137.436035,4130.256348,4135.384766,4142.051270,4134.871582,4137.948730,4125.641113,803.000000,4.000000,,,,0.000000,4.000000,4.000000,4.000000,4.000000,4.000000,4.000000,4.000000,4.000000,4.000000,4.000000,4.000000,4.000000,4.000000,4.000000,100.000000
1602005711.443910,96.000000,0.000000,4101.025879,4118.974121,4110.256348,4120.512695,4138.461426,4120.512695,4138.461426,4138.461426,4132.820313,4135.897461,4136.410156,4135.897461,4136.922852,4120.512695,779.000000,4.000000,,,,0.000000,4.000000,4.000000,4.000000,4.000000,4.000000,4.000000,4.000000,4.000000,4.000000,4.000000,4.000000,4.000000,4.000000,4.000000,100.000000
1602005711.451691,97.000000,0.000000,4106.666504,4122.563965,4119.487305,4124.102539,4138.974121,4130.769043,4138.974121,4149.230957,4137.948730,4136.922852,4141.538574,4141.538574,4142.563965,4137.436035,760.000000,4.000000,,,,0.000000,4.000000,4.000000,4.000000,4.000000,4.000000,4.000000,4.000000,4.000000,4.000000,4.000000,4.000000,4.000000,4.000000,4.000000,100.000000
1602005711.459573,98.000000,0.000000,4115.384766,4128.717773,4119.487305,4128.205078,4143.077148,4130.256348,4132.307617,4144.615234,4138.461426,4137.436035,4142.563965,4140.000000,4141.538574,4142.051270,853.000000,4.000000,,,,0.000000,4.000000,4.000000,4.000000,4.000000,4.000000,4.000000,4.000000,4.000000,4.000000,4.000000,4.000000,4.000000,4.000000,4.000000,100.000000
1602005711.467455,99.000000,0.000000,4111.794922,4126.153809,4114.358887,4127.179688,4142.051270,4120.512695,4121.538574,4135.384766,4135.384766,4136.922852,4138.974121,4135.384766,4137.948730,4126.666504,803.000000,4.000000,,,,0.000000,4.000000,4.000000,4.000000,4.000000,4.000000,4.000000,4.000000,4.000000,4.000000,4.000000,4.000000,4.000000,4.000000,4.000000,100.000000
1602005711.475336,100.000000,0.000000,4105.641113,4122.563965,4117.948730,4131.794922,4138.974121,4117.436035,4123.589844,4136.922852,4131.282227,4131.794922,4137.436035,4136.922852,4137.948730,4125.128418,779.000000,4.000000,,,,0.000000,4.000000,4.000000,4.000000,4.000000,4.000000,4.000000,4.000000,4.000000,4.000000,4.000000,4.000000,4.000000,4.000000,4.000000,100.000000
1602005711.483218,101.000000,0.000000,4111.282227,4130.769043,4123.589844,4137.948730,4141.538574,4120.000000,4134.358887,4141.025879,4126.666504,4116.922852,4140.512695,4137.436035,4138.461426,4131.794922,760.000000,4.000000,,,,0.000000,4.000000,4.000000,4.000000,4.000000,4.000000,4.000000,4.000000,4.000000,4.000000,4.000000,4.000000,4.000000,4.000000,4.000000,100.000000
1602005711.491100,102.000000,0.000000,4125.128418,4137.436035,4123.589844,4137.948730,4144.102539,4120.000000,4139.487305,4140.000000,4124.102539,4119.487305,4145.128418,4136.922852,4139.487305,4126.666504,853.000000,4.000000,,,,0.000000,4.000000,4.000000,4.000000,4.000000,4.000000,4.000000,4.000000,4.000000,4.000000,4.000000,4.000000,4.000000,4.000000,4.000000,100.000000
1602005711.498981,103.000000,0.000000,4123.589844,4129.743652,4123.077148,4136.922852,4139.487305,4123.077148,4136.922852,4137.436035,4117.948730,4136.922852,4134.871582,4134.871582,4134.871582,4122.563965,803.000000,4.000000,,,,0.000000,4.000000,4.000000,4.000000,4.000000,4.000000,4.000000,4.000000,4.000000,4.000000,4.000000,4.000000,4.000000,4.000000,4.000000,100.000000
1602005711.506863,104.000000,0.000000,4107.692383,4122.051270,4119.487305,4131.282227,4137.948730,4125.641113,4130.256348,4134.871582,4106.153809,4132.307617,4120.512695,4134.358887,4123.589844,4120.512695,779.000000,4.000000,,,,0.000000,4.000000,4.000000,4.000000,4.000000,4.000000,4.000000,4.000000,4.000000,4.000000,4.000000,4.000000,4.000000,4.000000,4.000000,100.000000
1602005711.514844,105.000000,0.000000,4100.000000,4120.512695,4111.794922,4122.563965,4135.384766,4121.025879,4126.153809,4134.871582,4106.666504,4120.000000,4124.615234,4138.974121,4121.025879,4110.769043,760.000000,4.000000,,,,0.000000,4.000000,4.000000,4.000000,4.000000,4.000000,4.000000,4.000000,4.000000,4.000000,4.000000,4.000000,4.000000,4.000000,4.000000,100.000000
1602005711.522726,106.000000,0.000000,4099.487305,4114.871582,4101.538574,4120.512695,4131.282227,4118.974121,4128.205078,4134.871582,4119.487305,4118.974121,4128.717773,4137.948730,4125.641113,4104.102539,853.000000,4.000000,,,,0.000000,4.000000,4.000000,4.000000,4.000000,4.000000,4.000000,4.000000,4.000000,4.000000,4.000000,4.000000,4.000000,4.000000,4.000000,100.000000
1602005711.530608,107.000000,0.000000,4096.922852,4112.820313,4091.794922,4120.000000,4133.846191,4124.615234,4126.153809,4135.897461,4130.769043,4118.461426,4127.179688,4129.230957,4122.051270,4106.666504,803.000000,4.000000,,,,0.000000,4.000000,4.000000,4.000000,4.000000,4.000000,4.000000,4.000000,4.000000,4.000000,4.000000,4.000000,4.000000,4.000000,4.000000,100.000000
1602005711.538489,108.000000,0.000000,4102.563965,4119.487305,4098.974121,4122.051270,4139.487305,4132.820313,4126.666504,4141.025879,4136.410156,4115.384766,4135.384766,4131.282227,4126.153809,4112.820313,779.000000,4.000000,,,,0.000000,4.000000,4.000000,4.000000,4.000000,4.000000,4.000000,4.000000,4.000000,4.000000,4.000000,4.000000,4.000000,4.000000,4.000000,100.000000
1602005711.546371,109.000000,0.000000,4120.512695,4127.179688,4120.512695,4135.384766,4138.974121,4139.487305,4134.871582,4144.615234,4137.948730,4120.512695,4144.615234,4151.282227,4141.025879,4129.230957,760.000000,4.000000,,,,0.000000,4.000000,4.000000,4.000000,4.000000,4.000000,4.000000,4.000000,4.000000,4.000000,4.000000,4.000000,4.000000,4.000000,4.000000,100.000000
1602005711.554253,110.000000,0.000000,4124.615234,4130.256348,4130.256348,4140.000000,4138.974121,4135.384766,4134.871582,4141.025879,4133.846191,4128.717773,4134.358887,4158.461426,4137.948730,4140.512695,853.000000,4.000000,,,,0.000000,4.000000,4.000000,4.000000,4.000000,4.000000,4.000000,4.000000,4.000000,4.000000,4.000000,4.000000,4.000000,4.000000,4.000000,100.000000
1602005711.562134,111.000000,0.000000,4109.230957,4124.102539,4121.538574,4127.179688,4137.948730,4127.179688,4126.666504,4133.846191,4121.025879,4125.128418,4120.000000,4142.051270,4115.897461,4121.538574,803.000000,4.000000,,,,0.000000,4.000000,4.000000,4.000000,4.000000,4.000000,4.000000,4.000000,4.000000,4.000000,4.000000,4.000000,4.000000,4.000000,4.000000,100.000000
1602005711.570016,112.000000,0.000000,4105.128418,4113.333496,4110.256348,4118.974121,4127.179688,4128.205078,4124.615234,4127.179688,4107.179688,4106.666504,4118.461426,4131.794922,4107.692383,4103.077148,779.000000,4.000000,,,,0.000000,4.000000,4.000000,4.000000,4.000000,4.000000,4.000000,4.000000,4.000000,4.000000,4.000000,4.000000,4.000000,4.000000,4.000000,100.000000
1602005711.577898,113.000000,0.000000,4108.205078,4108.717773,4105.128418,4124.102539,4125.641113,4137.436035,4131.282227,4122.563965,4102.563965,4097.948730,4121.538574,4137.436035,4117.948730,4106.153809,760.000000,4.000000,,,,0.000000,4.000000,4.000000,4.000000,4.000000,4.000000,4.000000,4.000000,4.000000,4.000000,4.000000,4.000000,4.000000,4.000000,4.000000,100.000000
1602005711.585679,114.000000,0.000000,4095.897461,4109.230957,4104.102539,4125.128418,4137.436035,4143.077148,4133.846191,4119.487305,4106.666504,4109.230957,4120.000000,4135.384766,4116.410156,4108.205078,853.000000,4.000000,,,,0.000000,4.000000,4.000000,4.000000,4.000000,4.000000,4.000000,4.000000,4.000000,4.000000,4.000000,4.000000,4.000000,4.000000,4.000000,100.000000
1602005711.593561,115.000000,0.000000,4087.692383,4110.769043,4100.512695,4120.000000,4138.974121,4140.000000,4129.230957,4117.436035,4112.820313,4107.692383,4115.384766,4124.615234,4109.230957,4107.692383,803.000000,4.000000,,,,0.000000,4.000000,4.000000,4.000000,4.000000,4.000000,4.000000,4.000000,4.000000,4.000000,4.000000,4.000000,4.000000,4.000000,4.000000,100.000000
1602005711.601442,116.000000,0.000000,4107.692383,4120.000000,4109.743652,4127.692383,4135.897461,4138.461426,4129.743652,4123.077148,4120.512695,4104.615234,4123.077148,4131.282227,4115.897461,4117.436035,779.000000,4.000000,,,,0.000000,4.000000,4.000000,4.000000,4.000000,4.000000,4.000000,4.000000,4.000000,4.000000,4.000000,4.000000,4.000000,4.000000,4.000000,100.000000
1602005711.609323,117.000000,0.000000,4129.230957,4128.717773,4135.897461,4142.563965,4139.487305,4138.974121,4132.307617,4135.384766,4131.794922,4128.717773,4136.922852,4145.128418,4126.153809,4129.230957,760.000000,4.000000,,,,0.000000,4.000000,4.000000,4.000000,4.000000,4.000000,4.000000,4.000000,4.000000,4.000000,4.000000,4.000000,4.000000,4.000000,4.000000,100.000000
1602005711.617205,118.000000,0.000000,4121.538574,4123.589844,4142.051270,4138.461426,4133.333496,4128.717773,4125.641113,4140.000000,4140.000000,4148.717773,4130.256348,4143.589844,4125.128418,4121.538574,853.000000,4.000000,,,,0.000000,4.000000,4.000000,4.000000,4.000000,4.000000,4.000000,4.000000,4.000000,4.000000,4.000000,4.000000,4.000000,4.000000,4.000000,100.000000
1602005711.625086,119.000000,0.000000,4103.077148,4114.358887,4122.563965,4121.025879,4120.512695,4117.948730,4121.025879,4136.922852,4137.948730,4137.948730,4118.461426,4134.358887,4118.461426,4106.153809,803.000000,4.000000,,,,0.000000,4.000000,4.000000,4.000000,4.000000,4.000000,4.000000,4.000000,4.000000,4.000000,4.000000,4.000000,4.000000,4.000000,4.000000,100.000000
1602005711.632868,120.000000,0.000000,4108.717773,4117.948730,4120.000000,4123.077148,4123.589844,4126.153809,4131.282227,4136.922852,4124.615234,4118.974121,4129.230957,4140.512695,4118.974121,4113.846191,779.000000,4.000000,,,,0.000000,4.000000,4.000000,4.000000,4.000000,4.000000,4.000000,4.000000,4.000000,4.000000,4.000000,4.000000,4.000000,4.000000,4.000000,100.000000
1602005711.640749,121.000000,0.000000,4133.333496,4131.794922,4143.077148,4140.512695,4133.333496,4141.025879,4140.000000,4143.589844,4116.922852,4117.948730,4141.538574,4160.512695,4130.769043,4137.436035,760.000000,4.000000,,,,0.000000,4.000000,4.000000,4.000000,4.000000,4.000000,4.000000,4.000000,4.000000,4.000000,4.000000,4.000000,4.000000,4.000000,4.000000,100.000000
1602005711.648630,122.000000,0.000000,4144.102539,4134.871582,4154.358887,4142.563965,4136.922852,4143.077148,4138.461426,4144.615234,4130.256348,4131.282227,4146.666504,4173.333496,4141.538574,4146.153809,853.000000,4.000000,,,,0.000000,4.000000,4.000000,4.000000,4.000000,4.000000,4.000000,4.000000,4.000000,4.000000,4.000000,4.000000,4.000000,4.000000,4.000000,100.000000
1602005711.656512,123.000000,0.000000,4133.846191,4127.692383,4145.128418,4135.384766,4137.948730,4141.538574,4138.461426,4141.025879,4144.102539,4138.461426,4151.282227,4172.307617,4141.025879,4135.384766,803.000000,4.000000,,,,0.000000,4.000000,4.000000,4.000000,4.000000,4.000000,4.000000,4.000000,4.000000,4.000000,4.000000,4.000000,4.000000,4.000000,4.000000,100.000000
1602005711.664393,124.000000,0.000000,4123.077148,4124.615234,4131.794922,4135.384766,4138.974121,4140.000000,4132.820313,4137.436035,4137.948730,4135.384766,4142.051270,4164.615234,4138.461426,4126.153809,779.000000,4.000000,,,,0.000000,4.000000,4.000000,4.000000,4.000000,4.000000,4.000000,4.000000,4.000000,4.000000,4.000000,4.000000,4.000000,4.000000,4.000000,100.000000
1602005711.672275,125.000000,0.000000,4118.974121,4124.102539,4122.051270,4136.410156,4137.436035,4134.871582,4122.563965,4131.794922,4128.717773,4132.820313,4134.871582,4156.410156,4137.948730,4125.128418,760.000000,4.000000,,,,0.000000,4.000000,4.000000,4.000000,4.000000,4.000000,4.000000,4.000000,4.000000,4.000000,4.000000,4.000000,4.000000,4.000000,4.000000,100.000000
1602005711.680256,126.000000,0.000000,4120.512695,4126.153809,4121.538574,4136.410156,4138.974121,4135.897461,4126.666504,4132.307617,4136.410156,4140.512695,4145.128418,4151.794922,4141.538574,4126.153809,853.000000,4.000000,,,,0.000000,4.000000,4.000000,4.000000,4.000000,4.000000,4.000000,4.000000,4.000000,4.000000,4.000000,4.000000,4.000000,4.000000,4.000000,100.000000
1602005711.688138,127.000000,0.000000,4117.948730,4128.717773,4123.589844,4136.410156,4143.589844,4139.487305,4135.897461,4135.897461,4135.897461,4141.025879,4146.666504,4151.794922,4143.077148,4125.128418,803.000000,4.000000,,,,0.000000,4.000000,4.000000,4.000000,4.000000,4.000000,4.000000,4.000000,4.000000,4.000000,4.000000,4.000000,4.000000,4.000000,4.000000,100.000000
1602005711.696020,128.000000,0.000000,4106.153809,4122.051270,4114.871582,4131.794922,4134.871582,4131.794922,4128.717773,4132.307617,4118.461426,4121.025879,4132.820313,4148.205078,4131.282227,4120.000000,779.000000,4.000000,,,,0.000000,4.000000,4.000000,4.000000,4.000000,4.000000,4.000000,4.000000,4.000000,4.000000,4.000000,4.000000,4.000000,4.000000,4.000000,100.000000
1602005711.703902,0.000000,0.000000,4107.692383,4116.410156,4109.743652,4131.282227,4120.000000,4125.128418,4120.512695,4129.743652,4118.461426,4118.461426,4132.307617,4149.743652,4124.102539,4118.461426,795.000000,4.000000,,,,0.000000,4.000000,4.000000,4.000000,4.000000,4.000000,4.000000,4.000000,4.000000,4.000000,4.000000,4.000000,4.000000,4.000000,4.000000,100.000000
1602005711.711784,1.000000,0.000000,4130.769043,4129.743652,4127.692383,4138.974121,4128.205078,4134.358887,4131.794922,4136.410156,4136.922852,4149.743652,4148.717773,4166.153809,4141.025879,4127.179688,796.000000,4.000000,,,,0.000000,4.000000,4.000000,4.000000,4.000000,4.000000,4.000000,4.000000,4.000000,4.000000,4.000000,4.000000,4.000000,4.000000,4.000000,100.000000
1602005711.719666,2.000000,0.000000,4142.563965,4140.000000,4147.179688,4142.563965,4143.077148,4144.615234,4140.512695,4140.512695,4143.077148,4160.000000,4155.897461,4177.948730,4155.384766,4138.974121,853.000000,4.000000,,,,0.000000,4.000000,4.000000,4.000000,4.000000,4.000000,4.000000,4.000000,4.000000,4.000000,4.000000,4.000000,4.000000,4.000000,4.000000,100.000000
1602005711.727548,3.000000,0.000000,4137.436035,4137.948730,4150.256348,4143.077148,4138.974121,4134.871582,4136.922852,4140.000000,4137.436035,4143.589844,4149.230957,4171.282227,4151.282227,4142.563965,868.000000,4.000000,,,,0.000000,4.000000,4.000000,4.000000,4.000000,4.000000,4.000000,4.000000,4.000000,4.000000,4.000000,4.000000,4.000000,4.000000,4.000000,100.000000
1602005711.735430,4.000000,0.000000,4136.922852,4136.410156,4147.692383,4144.615234,4132.307617,4125.641113,4137.436035,4143.589844,4133.846191,4149.743652,4141.538574,4160.000000,4143.589844,4137.948730,807.000000,4.000000,,,,0.000000,4.000000,4.000000,4.000000,4.000000,4.000000,4.000000,4.000000,4.000000,4.000000,4.000000,4.000000,4.000000,4.000000,4.000000,100.000000
1602005711.743311,5.000000,0.000000,4132.307617,4134.871582,4143.077148,4142.051270,4136.410156,4133.333496,4134.358887,4141.025879,4127.692383,4157.436035,4139.487305,4153.846191,4137.948730,4131.282227,821.000000,4.000000,,,,0.000000,4.000000,4.000000,4.000000,4.000000,4.000000,4.000000,4.000000,4.000000,4.000000,4.000000,4.000000,4.000000,4.000000,4.000000,100.000000
1602005711.751293,6.000000,0.000000,4121.538574,4133.333496,4137.948730,4139.487305,4137.436035,4133.846191,4123.077148,4129.230957,4119.487305,4133.846191,4137.948730,4152.820313,4128.717773,4123.589844,779.000000,4.000000,,,,0.000000,4.000000,4.000000,4.000000,4.000000,4.000000,4.000000,4.000000,4.000000,4.000000,4.000000,4.000000,4.000000,4.000000,4.000000,100.000000
1602005711.759174,7.000000,0.000000,4121.025879,4134.358887,4138.461426,4142.051270,4136.922852,4126.666504,4118.974121,4123.077148,4125.641113,4121.025879,4135.384766,4156.922852,4124.102539,4123.589844,680.000000,4.000000,,,,0.000000,4.000000,4.000000,4.000000,4.000000,4.000000,4.000000,4.000000,4.000000,4.000000,4.000000,4.000000,4.000000,4.000000,4.000000,100.000000
1602005711.767056,8.000000,0.000000,4124.102539,4130.256348,4135.897461,4140.512695,4137.948730,4128.205078,4121.025879,4125.641113,4133.333496,4128.205078,4131.282227,4152.307617,4124.615234,4124.615234,792.000000,4.000000,,,,0.000000,4.000000,4.000000,4.000000,4.000000,4.000000,4.000000,4.000000,4.000000,4.000000,4.000000,4.000000,4.000000,4.000000,4.000000,100.000000
1602005711.774937,9.000000,0.000000,4122.563965,4123.589844,4125.128418,4134.358887,4133.333496,4130.256348,4120.512695,4129.230957,4126.666504,4122.051270,4130.769043,4141.025879,4122.563965,4120.512695,840.000000,4.000000,,,,0.000000,4.000000,4.000000,4.000000,4.000000,4.000000,4.000000,4.000000,4.000000,4.000000,4.000000,4.000000,4.000000,4.000000,4.000000,100.000000
1602005711.782818,10.000000,0.000000,4123.589844,4125.128418,4123.589844,4133.333496,4128.205078,4126.153809,4122.563965,4126.666504,4121.025879,4123.077148,4137.436035,4141.538574,4125.128418,4127.179688,865.000000,4.000000,,,,0.000000,4.000000,4.000000,4.000000,4.000000,4.000000,4.000000,4.000000,4.000000,4.000000,4.000000,4.000000,4.000000,4.000000,4.000000,100.000000
1602005711.790800,11.000000,0.000000,4126.666504,4125.128418,4131.282227,4135.897461,4126.153809,4123.589844,4125.128418,4123.589844,4123.077148,4139.487305,4140.512695,4148.205078,4133.846191,4134.871582,830.000000,4.000000,,,,0.000000,4.000000,4.000000,4.000000,4.000000,4.000000,4.000000,4.000000,4.000000,4.000000,4.000000,4.000000,4.000000,4.000000,4.000000,100.000000
1602005711.798682,12.000000,0.000000,4130.769043,4125.641113,4136.922852,4136.410156,4122.051270,4121.538574,4127.179688,4130.256348,4128.205078,4148.205078,4144.615234,4155.897461,4143.589844,4133.846191,779.000000,4.000000,,,,0.000000,4.000000,4.000000,4.000000,4.000000,4.000000,4.000000,4.000000,4.000000,4.000000,4.000000,4.000000,4.000000,4.000000,4.000000,100.000000
1602005711.806563,13.000000,0.000000,4144.102539,4134.358887,4147.692383,4137.436035,4121.025879,4118.461426,4133.333496,4140.000000,4138.974121,4158.461426,4152.820313,4166.666504,4151.282227,4136.922852,760.000000,4.000000,,,,0.000000,4.000000,4.000000,4.000000,4.000000,4.000000,4.000000,4.000000,4.000000,4.000000,4.000000,4.000000,4.000000,4.000000,4.000000,100.000000
1602005711.814445,14.000000,0.000000,4153.846191,4141.538574,4157.948730,4137.948730,4127.179688,4123.589844,4139.487305,4142.051270,4148.717773,4163.589844,4151.282227,4170.769043,4153.846191,4143.077148,865.000000,4.000000,,,,0.000000,4.000000,4.000000,4.000000,4.000000,4.000000,4.000000,4.000000,4.000000,4.000000,4.000000,4.000000,4.000000,4.000000,4.000000,100.000000
1602005711.822326,15.000000,0.000000,4143.589844,4133.333496,4146.153809,4133.333496,4129.230957,4126.666504,4133.846191,4138.461426,4144.102539,4147.179688,4145.128418,4163.077148,4147.179688,4141.538574,830.000000,4.000000,,,,0.000000,4.000000,4.000000,4.000000,4.000000,4.000000,4.000000,4.000000,4.000000,4.000000,4.000000,4.000000,4.000000,4.000000,4.000000,100.000000
1602005711.830208,16.000000,0.000000,4122.563965,4117.948730,4123.589844,4122.051270,4121.538574,4122.051270,4116.922852,4132.307617,4132.820313,4126.153809,4136.410156,4148.205078,4132.820313,4130.769043,0.000000,4.000000,,,,0.000000,4.000000,4.000000,4.000000,4.000000,4.000000,4.000000,4.000000,4.000000,4.000000,4.000000,4.000000,4.000000,4.000000,4.000000,100.000000
1602005711.838090,17.000000,0.000000,4116.410156,4113.846191,4115.384766,4116.410156,4120.512695,4121.538574,4110.256348,4121.025879,4122.563965,4119.487305,4123.077148,4135.897461,4121.538574,4122.051270,0.000000,4.000000,,,,0.000000,4.000000,4.000000,4.000000,4.000000,4.000000,4.000000,4.000000,4.000000,4.000000,4.000000,4.000000,4.000000,4.000000,4.000000,100.000000
1602005711.845971,18.000000,0.000000,4125.128418,4122.051270,4125.128418,4128.205078,4125.641113,4130.769043,4116.922852,4111.794922,4112.820313,4115.897461,4120.000000,4141.538574,4121.025879,4122.051270,0.000000,4.000000,,,,0.000000,4.000000,4.000000,4.000000,4.000000,4.000000,4.000000,4.000000,4.000000,4.000000,4.000000,4.000000,4.000000,4.000000,4.000000,100.000000
1602005711.853753,19.000000,0.000000,4128.205078,4128.717773,4136.922852,4141.538574,4127.179688,4135.897461,4122.563965,4107.179688,4108.205078,4111.794922,4125.641113,4151.282227,4122.051270,4121.538574,0.000000,4.000000,,,,0.000000,4.000000,4.000000,4.000000,4.000000,4.000000,4.000000,4.000000,4.000000,4.000000,4.000000,4.000000,4.000000,4.000000,4.000000,100.000000
1602005711.861634,20.000000,0.000000,4122.051270,4124.615234,4133.333496,4134.871582,4124.615234,4127.692383,4117.948730,4101.538574,4097.436035,4106.153809,4115.897461,4142.563965,4114.358887,4116.410156,0.000000,4.000000,,,,0.000000,4.000000,4.000000,4.000000,4.000000,4.000000,4.000000,4.000000,4.000000,4.000000,4.000000,4.000000,4.000000,4.000000,4.000000,100.000000
1602005711.869516,21.000000,0.000000,4119.487305,4120.512695,4123.077148,4124.102539,4122.563965,4123.077148,4117.436035,4102.563965,4088.718018,4097.948730,4108.717773,4137.948730,4109.743652,4115.897461,0.000000,4.000000,,,,0.000000,4.000000,4.000000,4.000000,4.000000,4.000000,4.000000,4.000000,4.000000,4.000000,4.000000,4.000000,4.000000,4.000000,4.000000,100.000000
1602005711.877397,22.000000,0.000000,4124.102539,4122.563965,4128.205078,4131.794922,4125.641113,4129.230957,4130.769043,4116.922852,4103.589844,4115.384766,4126.666504,4151.282227,4121.538574,4121.025879,0.000000,4.000000,,,,0.000000,4.000000,4.000000,4.000000,4.000000,4.000000,4.000000,4.000000,4.000000,4.000000,4.000000,4.000000,4.000000,4.000000,4.000000,100.000000
1602005711.885279,23.000000,0.000000,4134.358887,4126.666504,4141.025879,4141.025879,4133.846191,4126.153809,4141.538574,4135.897461,4126.153809,4145.128418,4141.538574,4163.589844,4135.384766,4130.256348,0.000000,4.000000,,,,0.000000,4.000000,4.000000,4.000000,4.000000,4.000000,4.000000,4.000000,4.000000,4.000000,4.000000,4.000000,4.000000,4.000000,4.000000,100.000000
1602005711.893160,24.000000,0.000000,4141.538574,4131.282227,4147.692383,4140.000000,4136.410156,4117.948730,4138.461426,4142.563965,4127.179688,4135.897461,4138.461426,4169.230957,4137.436035,4138.974121,0.000000,4.000000,,,,0.000000,4.000000,4.000000,4.000000,4.000000,4.000000,4.000000,4.000000,4.000000,4.000000,4.000000,4.000000,4.000000,4.000000,4.000000,100.000000
1602005711.900942,25.000000,0.000000,4142.563965,4135.897461,4152.820313,4137.948730,4133.846191,4126.153809,4135.897461,4143.589844,4123.589844,4118.974121,4135.384766,4171.282227,4134.358887,4140.512695,0.000000,4.000000,,,,0.000000,4.000000,4.000000,4.000000,4.000000,4.000000,4.000000,4.000000,4.000000,4.000000,4.000000,4.000000,4.000000,4.000000,4.000000,100.000000
1602005711.908823,26.000000,0.000000,4142.051270,4140.512695,4155.897461,4141.538574,4137.948730,4138.461426,4138.974121,4149.230957,4138.461426,4145.128418,4141.025879,4170.256348,4138.974121,4142.563965,0.000000,4.000000,,,,0.000000,4.000000,4.000000,4.000000,4.000000,4.000000,4.000000,4.000000,4.000000,4.000000,4.000000,4.000000,4.000000,4.000000,4.000000,100.000000
1602005711.916705,27.000000,0.000000,4138.974121,4141.538574,4149.230957,4142.563965,4143.589844,4135.897461,4133.846191,4147.179688,4147.692383,4165.641113,4146.666504,4169.743652,4146.666504,4143.077148,0.000000,4.000000,,,,0.000000,4.000000,4.000000,4.000000,4.000000,4.000000,4.000000,4.000000,4.000000,4.000000,4.000000,4.000000,4.000000,4.000000,4.000000,100.000000
1602005711.924587,28.000000,0.000000,4127.692383,4132.820313,4130.769043,4132.820313,4138.974121,4130.769043,4122.563965,4128.717773,4131.794922,4143.589844,4139.487305,4163.077148,4140.512695,4132.307617,0.000000,4.000000,,,,0.000000,4.000000,4.000000,4.000000,4.000000,4.000000,4.000000,4.000000,4.000000,4.000000,4.000000,4.000000,4.000000,4.000000,4.000000,100.000000
1602005711.932468,29.000000,0.000000,4114.358887,4118.461426,4113.846191,4121.538574,4132.307617,4134.871582,4118.461426,4109.743652,4106.666504,4122.051270,4121.025879,4149.230957,4120.512695,4122.563965,0.000000,4.000000,,,,0.000000,4.000000,4.000000,4.000000,4.000000,4.000000,4.000000,4.000000,4.000000,4.000000,4.000000,4.000000,4.000000,4.000000,4.000000,100.000000
1602005711.940350,30.000000,0.000000,4109.230957,4111.282227,4114.358887,4120.512695,4133.846191,4141.025879,4119.487305,4102.563965,4092.820557,4111.794922,4107.692383,4136.410156,4106.666504,4116.922852,0.000000,4.000000,,,,0.000000,4.000000,4.000000,4.000000,4.000000,4.000000,4.000000,4.000000,4.000000,4.000000,4.000000,4.000000,4.000000,4.000000,4.000000,100.000000
1602005711.948232,31.000000,0.000000,4107.692383,4114.871582,4121.025879,4121.538574,4134.871582,4134.358887,4121.025879,4103.077148,4095.897461,4097.948730,4104.102539,4127.179688,4103.077148,4104.102539,0.000000,4.000000,,,,0.000000,4.000000,4.000000,4.000000,4.000000,4.000000,4.000000,4.000000,4.000000,4.000000,4.000000,4.000000,4.000000,4.000000,4.000000,100.000000
1602005711.956013,32.000000,0.000000,4108.717773,4117.948730,4118.974121,4120.512695,4133.333496,4122.051270,4118.974121,4109.743652,4100.512695,4098.974121,4105.128418,4126.666504,4104.102539,4106.666504,0.000000,4.000000,,,,0.000000,4.000000,4.000000,4.000000,4.000000,4.000000,4.000000,4.000000,4.000000,4.000000,4.000000,4.000000,4.000000,4.000000,4.000000,100.000000
1602005711.963895,33.000000,0.000000,4118.974121,4123.077148,4122.563965,4129.230957,4133.333496,4112.820313,4117.948730,4120.000000,4107.692383,4104.102539,4120.000000,4133.846191,4114.871582,4125.641113,0.000000,4.000000,,,,0.000000,4.000000,4.000000,4.000000,4.000000,4.000000,4.000000,4.000000,4.000000,4.000000,4.000000,4.000000,4.000000,4.000000,4.000000,100.000000
1602005711.971777,34.000000,0.000000,4132.820313,4134.358887,4137.948730,4143.589844,4136.410156,4112.820313,4125.641113,4131.794922,4126.153809,4110.769043,4140.512695,4146.153809,4135.384766,4137.948730,0.000000,4.000000,,,,0.000000,4.000000,4.000000,4.000000,4.000000,4.000000,4.000000,4.000000,4.000000,4.000000,4.000000,4.000000,4.000000,4.000000,4.000000,100.000000
1602005711.979658,35.000000,0.000000,4144.615234,4142.051270,4151.794922,4147.692383,4139.487305,4125.641113,4137.436035,4146.153809,4144.102539,4140.512695,4144.615234,4164.102539,4147.692383,4148.717773,0.000000,4.000000,,,,0.000000,4.000000,4.000000,4.000000,4.000000,4.000000,4.000000,4.000000,4.000000,4.000000,4.000000,4.000000,4.000000,4.000000,4.000000,100.000000
1602005711.987540,36.000000,0.000000,4148.717773,4141.025879,4154.358887,4146.666504,4140.000000,4140.512695,4139.487305,4154.871582,4145.641113,4166.153809,4138.974121,4176.922852,4146.153809,4152.307617,0.000000,4.000000,,,,0.000000,4.000000,4.000000,4.000000,4.000000,4.000000,4.000000,4.000000,4.000000,4.000000,4.000000,4.000000,4.000000,4.000000,4.000000,100.000000
1602005711.995421,37.000000,0.000000,4144.615234,4138.974121,4145.128418,4144.615234,4135.897461,4142.051270,4135.897461,4156.410156,4140.512695,4159.487305,4140.000000,4172.820313,4143.077148,4141.538574,0.000000,4.000000,,,,0.000000,4.000000,4.000000,4.000000,4.000000,4.000000,4.000000,4.000000,4.000000,4.000000,4.000000,4.000000,4.000000,4.000000,4.000000,100.000000
1602005712.003303,38.000000,0.000000,4142.051270,4141.538574,4140.000000,4141.538574,4134.871582,4137.436035,4137.948730,4154.358887,4142.051270,4146.153809,4140.512695,4156.922852,4138.974121,4138.461426,0.000000,4.000000,,,,0.000000,4.000000,4.000000,4.000000,4.000000,4.000000,4.000000,4.000000,4.000000,4.000000,4.000000,4.000000,4.000000,4.000000,4.000000,100.000000
1602005712.011185,39.000000,0.000000,4137.436035,4137.948730,4142.051270,4135.897461,4134.358887,4139.487305,4141.025879,4145.641113,4138.974121,4140.000000,4134.871582,4143.589844,4127.179688,4140.000000,0.000000,4.000000,,,,0.000000,4.000000,4.000000,4.000000,4.000000,4.000000,4.000000,4.000000,4.000000,4.000000,4.000000,4.000000,4.000000,4.000000,4.000000,100.000000
1602005712.019166,40.000000,0.000000,4125.641113,4128.205078,4133.333496,4127.179688,4126.666504,4134.871582,4140.512695,4130.256348,4119.487305,4112.820313,4126.666504,4132.820313,4119.487305,4126.666504,0.000000,4.000000,,,,0.000000,4.000000,4.000000,4.000000,4.000000,4.000000,4.000000,4.000000,4.000000,4.000000,4.000000,4.000000,4.000000,4.000000,4.000000,100.000000
1602005712.027047,41.000000,0.000000,4117.436035,4120.512695,4118.974121,4121.025879,4121.538574,4122.051270,4136.922852,4121.538574,4105.641113,4089.743652,4116.410156,4127.692383,4120.512695,4116.410156,0.000000,4.000000,,,,0.000000,4.000000,4.000000,4.000000,4.000000,4.000000,4.000000,4.000000,4.000000,4.000000,4.000000,4.000000,4.000000,4.000000,4.000000,100.000000
1602005712.034929,42.000000,0.000000,4120.512695,4118.974121,4118.461426,4121.538574,4121.538574,4117.948730,4134.871582,4126.666504,4113.333496,4112.307617,4121.538574,4130.769043,4120.512695,4119.487305,0.000000,4.000000,,,,0.000000,4.000000,4.000000,4.000000,4.000000,4.000000,4.000000,4.000000,4.000000,4.000000,4.000000,4.000000,4.000000,4.000000,4.000000,100.000000
1602005712.042810,43.000000,0.000000,4122.051270,4121.025879,4125.128418,4124.615234,4126.153809,4127.692383,4136.410156,4134.871582,4128.205078,4147.692383,4137.436035,4136.922852,4125.641113,4126.666504,0.000000,4.000000,,,,0.000000,4.000000,4.000000,4.000000,4.000000,4.000000,4.000000,4.000000,4.000000,4.000000,4.000000,4.000000,4.000000,4.000000,4.000000,100.000000
1602005712.050692,44.000000,0.000000,4124.615234,4123.077148,4131.282227,4126.153809,4135.384766,4137.436035,4140.000000,4138.461426,4132.820313,4152.307617,4135.897461,4143.077148,4135.384766,4136.410156,0.000000,4.000000,,,,0.000000,4.000000,4.000000,4.000000,4.000000,4.000000,4.000000,4.000000,4.000000,4.000000,4.000000,4.000000,4.000000,4.000000,4.000000,100.000000
1602005712.058673,45.000000,0.000000,4134.358887,4126.153809,4136.410156,4126.666504,4139.487305,4138.974121,4139.487305,4137.948730,4127.179688,4129.230957,4124.102539,4144.615234,4132.307617,4140.512695,0.000000,4.000000,,,,0.000000,4.000000,4.000000,4.000000,4.000000,4.000000,4.000000,4.000000,4.000000,4.000000,4.000000,4.000000,4.000000,4.000000,4.000000,100.000000
1602005712.066554,46.000000,0.000000,4136.922852,4125.128418,4137.436035,4126.153809,4136.410156,4135.897461,4135.384766,4136.922852,4114.358887,4111.282227,4126.666504,4142.051270,4123.077148,4136.922852,0.000000,4.000000,,,,0.000000,4.000000,4.000000,4.000000,4.000000,4.000000,4.000000,4.000000,4.000000,4.000000,4.000000,4.000000,4.000000,4.000000,4.000000,100.000000
1602005712.074535,47.000000,0.000000,4134.871582,4120.512695,4137.436035,4124.102539,4134.871582,4135.897461,4133.846191,4138.461426,4109.230957,4117.948730,4130.256348,4146.153809,4121.538574,4138.974121,0.000000,4.000000,,,,0.000000,4.000000,4.000000,4.000000,4.000000,4.000000,4.000000,4.000000,4.000000,4.000000,4.000000,4.000000,4.000000,4.000000,4.000000,100.000000
1602005712.082417,48.000000,0.000000,4136.410156,4121.538574,4138.974121,4124.102539,4134.358887,4137.436035,4136.922852,4143.077148,4126.153809,4135.897461,4130.256348,4150.769043,4125.641113,4142.051270,0.000000,4.000000,,,,0.000000,4.000000,4.000000,4.000000,4.000000,4.000000,4.000000,4.000000,4.000000,4.000000,4.000000,4.000000,4.000000,4.000000,4.000000,100.000000
1602005712.090299,49.000000,0.000000,4134.358887,4126.153809,4135.897461,4128.717773,4132.820313,4143.589844,4141.025879,4147.179688,4142.051270,4138.974121,4136.922852,4145.128418,4134.871582,4143.077148,0.000000,4.000000,,,,0.000000,4.000000,4.000000,4.000000,4.000000,4.000000,4.000000,4.000000,4.000000,4.000000,4.000000,4.000000,4.000000,4.000000,4.000000,100.000000
1602005712.098180,50.000000,0.000000,4123.589844,4123.589844,4126.666504,4126.666504,4126.153809,4139.487305,4140.512695,4142.051270,4133.846191,4125.641113,4132.307617,4135.897461,4132.307617,4138.461426,0.000000,4.000000,,,,0.000000,4.000000,4.000000,4.000000,4.000000,4.000000,4.000000,4.000000,4.000000,4.000000,4.000000,4.000000,4.000000,4.000000,4.000000,100.000000
1602005712.106062,51.000000,0.000000,4122.563965,4122.563965,4122.563965,4123.077148,4118.461426,4122.563965,4135.897461,4134.358887,4120.512695,4121.025879,4118.461426,4135.897461,4118.974121,4130.769043,0.000000,4.000000,,,,0.000000,4.000000,4.000000,4.000000,4.000000,4.000000,4.000000,4.000000,4.000000,4.000000,4.000000,4.000000,4.000000,4.000000,4.000000,100.000000
1602005712.113944,52.000000,0.000000,4135.384766,4133.846191,4130.256348,4132.307617,4125.641113,4122.051270,4134.358887,4134.871582,4128.205078,4132.820313,4126.153809,4137.948730,4125.641113,4133.333496,0.000000,4.000000,,,,0.000000,4.000000,4.000000,4.000000,4.000000,4.000000,4.000000,4.000000,4.000000,4.000000,4.000000,4.000000,4.000000,4.000000,4.000000,100.000000
1602005712.121825,53.000000,0.000000,4144.102539,4140.000000,4138.461426,4137.948730,4138.461426,4136.922852,4136.922852,4139.487305,4142.563965,4147.692383,4142.051270,4139.487305,4142.051270,4140.512695,0.000000,4.000000,,,,0.000000,4.000000,4.000000,4.000000,4.000000,4.000000,4.000000,4.000000,4.000000,4.000000,4.000000,4.000000,4.000000,4.000000,4.000000,100.000000
1602005712.129707,54.000000,0.000000,4138.974121,4131.794922,4134.358887,4133.333496,4137.948730,4141.025879,4136.410156,4141.025879,4143.589844,4146.153809,4140.512695,4140.512695,4139.487305,4138.461426,0.000000,4.000000,,,,0.000000,4.000000,4.000000,4.000000,4.000000,4.000000,4.000000,4.000000,4.000000,4.000000,4.000000,4.000000,4.000000,4.000000,4.000000,100.000000
1602005712.137489,55.000000,0.000000,4131.282227,4121.538574,4126.153809,4128.717773,4133.333496,4135.897461,4126.666504,4137.436035,4137.436035,4132.307617,4133.846191,4136.410156,4133.333496,4137.436035,0.000000,4.000000,,,,0.000000,4.000000,4.000000,4.000000,4.000000,4.000000,4.000000,4.000000,4.000000,4.000000,4.000000,4.000000,4.000000,4.000000,4.000000,100.000000
1602005712.145370,56.000000,0.000000,4133.333496,4123.589844,4129.230957,4126.666504,4134.358887,4136.922852,4121.538574,4136.922852,4138.461426,4139.487305,4135.384766,4136.922852,4136.922852,4140.512695,0.000000,4.000000,,,,0.000000,4.000000,4.000000,4.000000,4.000000,4.000000,4.000000,4.000000,4.000000,4.000000,4.000000,4.000000,4.000000,4.000000,4.000000,100.000000
1602005712.153252,57.000000,0.000000,4141.025879,4136.922852,4140.000000,4130.769043,4140.000000,4143.077148,4126.153809,4139.487305,4146.153809,4159.487305,4137.436035,4142.563965,4138.461426,4137.436035,0.000000,4.000000,,,,0.000000,4.000000,4.000000,4.000000,4.000000,4.000000,4.000000,4.000000,4.000000,4.000000,4.000000,4.000000,4.000000,4.000000,4.000000,100.000000
1602005712.161134,58.000000,0.000000,4142.563965,4140.512695,4139.487305,4134.358887,4143.077148,4141.538574,4123.077148,4132.307617,4142.051270,4146.153809,4129.743652,4145.128418,4140.512695,4134.358887,0.000000,4.000000,,,,0.000000,4.000000,4.000000,4.000000,4.000000,4.000000,4.000000,4.000000,4.000000,4.000000,4.000000,4.000000,4.000000,4.000000,4.000000,100.000000
1602005712.169015,59.000000,0.000000,4137.948730,4129.230957,4126.666504,4126.153809,4131.282227,4130.769043,4112.820313,4120.000000,4120.000000,4111.282227,4116.922852,4137.948730,4133.846191,4137.436035,0.000000,4.000000,,,,0.000000,4.000000,4.000000,4.000000,4.000000,4.000000,4.000000,4.000000,4.000000,4.000000,4.000000,4.000000,4.000000,4.000000,4.000000,100.000000
1602005712.176897,60.000000,0.000000,4133.333496,4127.692383,4118.974121,4120.512695,4122.563965,4124.102539,4114.358887,4116.922852,4106.666504,4106.153809,4118.461426,4126.666504,4119.487305,4138.974121,0.000000,4.000000,,,,0.000000,4.000000,4.000000,4.000000,4.000000,4.000000,4.000000,4.000000,4.000000,4.000000,4.000000,4.000000,4.000000,4.000000,4.000000,100.000000
1602005712.184779,61.000000,0.000000,4131.794922,4136.922852,4121.025879,4129.230957,4135.897461,4128.205078,4124.102539,4121.025879,4116.410156,4122.051270,4136.922852,4129.230957,4127.692383,4139.487305,0.000000,4.000000,,,,0.000000,4.000000,4.000000,4.000000,4.000000,4.000000,4.000000,4.000000,4.000000,4.000000,4.000000,4.000000,4.000000,4.000000,4.000000,100.000000
1602005712.192660,62.000000,0.000000,4128.205078,4137.948730,4120.512695,4128.205078,4137.436035,4128.205078,4126.153809,4123.077148,4124.615234,4128.717773,4143.077148,4136.410156,4143.077148,4137.948730,0.000000,4.000000,,,,0.000000,4.000000,4.000000,4.000000,4.000000,4.000000,4.000000,4.000000,4.000000,4.000000,4.000000,4.000000,4.000000,4.000000,4.000000,100.000000
1602005712.200642,63.000000,0.000000,4125.128418,4132.820313,4121.025879,4123.589844,4120.512695,4123.077148,4123.077148,4126.666504,4128.717773,4140.000000,4137.436035,4136.410156,4136.410156,4136.410156,0.000000,4.000000,,,,0.000000,4.000000,4.000000,4.000000,4.000000,4.000000,4.000000,4.000000,4.000000,4.000000,4.000000,4.000000,4.000000,4.000000,4.000000,100.000000
1602005712.208523,64.000000,0.000000,4125.641113,4131.794922,4124.102539,4127.692383,4123.589844,4122.051270,4121.025879,4127.692383,4130.769043,4143.589844,4137.436035,4133.846191,4129.743652,4137.436035,798.000000,4.000000,,,,0.000000,4.000000,4.000000,4.000000,4.000000,4.000000,4.000000,4.000000,4.000000,4.000000,4.000000,4.000000,4.000000,4.000000,4.000000,100.000000
1602005712.216405,65.000000,0.000000,4128.717773,4127.692383,4124.102539,4126.666504,4138.461426,4122.051270,4118.974121,4123.077148,4122.563965,4124.615234,4135.384766,4133.846191,4132.820313,4132.307617,796.000000,4.000000,,,,0.000000,4.000000,4.000000,4.000000,4.000000,4.000000,4.000000,4.000000,4.000000,4.000000,4.000000,4.000000,4.000000,4.000000,4.000000,100.000000
1602005712.224287,66.000000,0.000000,4122.563965,4120.512695,4121.025879,4121.025879,4135.897461,4124.102539,4120.512695,4124.615234,4114.871582,4120.512695,4127.179688,4135.384766,4130.256348,4124.102539,853.000000,4.000000,,,,0.000000,4.000000,4.000000,4.000000,4.000000,4.000000,4.000000,4.000000,4.000000,4.000000,4.000000,4.000000,4.000000,4.000000,4.000000,100.000000
1602005712.232168,67.000000,0.000000,4116.922852,4125.641113,4118.974121,4121.538574,4133.333496,4128.717773,4123.077148,4132.820313,4120.512695,4129.230957,4121.538574,4138.974121,4130.769043,4129.230957,868.000000,4.000000,,,,0.000000,4.000000,4.000000,4.000000,4.000000,4.000000,4.000000,4.000000,4.000000,4.000000,4.000000,4.000000,4.000000,4.000000,4.000000,100.000000
1602005712.240050,68.000000,0.000000,4128.205078,4134.871582,4123.077148,4126.153809,4141.025879,4127.692383,4122.051270,4137.948730,4130.256348,4117.948730,4128.205078,4145.641113,4140.000000,4138.974121,807.000000,4.000000,,,,0.000000,4.000000,4.000000,4.000000,4.000000,4.000000,4.000000,4.000000,4.000000,4.000000,4.000000,4.000000,4.000000,4.000000,4.000000,100.000000
1602005712.247932,69.000000,0.000000,4143.077148,4138.974121,4134.358887,4128.205078,4141.538574,4126.666504,4119.487305,4138.461426,4136.922852,4122.051270,4146.666504,4152.307617,4148.205078,4141.538574,821.000000,4.000000,,,,0.000000,4.000000,4.000000,4.000000,4.000000,4.000000,4.000000,4.000000,4.000000,4.000000,4.000000,4.000000,4.000000,4.000000,4.000000,100.000000
1602005712.255813,70.000000,0.000000,4143.589844,4140.000000,4144.102539,4131.794922,4136.922852,4127.692383,4119.487305,4135.897461,4142.051270,4150.256348,4155.897461,4161.538574,4154.358887,4145.128418,779.000000,4.000000,,,,0.000000,4.000000,4.000000,4.000000,4.000000,4.000000,4.000000,4.000000,4.000000,4.000000,4.000000,4.000000,4.000000,4.000000,4.000000,100.000000
1602005712.263695,71.000000,0.000000,4135.897461,4134.871582,4143.589844,4130.769043,4138.461426,4127.179688,4121.538574,4127.179688,4133.333496,4141.538574,4142.563965,4164.102539,4147.179688,4146.666504,685.000000,4.000000,,,,0.000000,4.000000,4.000000,4.000000,4.000000,4.000000,4.000000,4.000000,4.000000,4.000000,4.000000,4.000000,4.000000,4.000000,4.000000,100.000000
1602005712.271476,72.000000,0.000000,4133.846191,4127.179688,4138.461426,4125.128418,4138.974121,4128.717773,4124.615234,4119.487305,4118.974121,4115.897461,4131.794922,4156.410156,4129.743652,4136.922852,792.000000,4.000000,,,,0.000000,4.000000,4.000000,4.000000,4.000000,4.000000,4.000000,4.000000,4.000000,4.000000,4.000000,4.000000,4.000000,4.000000,4.000000,100.000000
1602005712.279357,73.000000,0.000000,4137.436035,4131.282227,4136.922852,4128.717773,4136.922852,4139.487305,4133.333496,4123.077148,4121.025879,4131.282227,4140.000000,4154.358887,4129.743652,4131.794922,840.000000,4.000000,,,,0.000000,4.000000,4.000000,4.000000,4.000000,4.000000,4.000000,4.000000,4.000000,4.000000,4.000000,4.000000,4.000000,4.000000,4.000000,100.000000
1602005712.287238,74.000000,0.000000,4134.358887,4136.922852,4135.384766,4133.846191,4138.974121,4150.769043,4141.025879,4135.384766,4134.871582,4149.743652,4145.128418,4156.410156,4141.538574,4132.820313,870.000000,4.000000,,,,0.000000,4.000000,4.000000,4.000000,4.000000,4.000000,4.000000,4.000000,4.000000,4.000000,4.000000,4.000000,4.000000,4.000000,4.000000,100.000000
1602005712.295219,75.000000,0.000000,4118.974121,4131.282227,4129.230957,4129.743652,4137.948730,4144.615234,4138.974121,4139.487305,4140.512695,4123.589844,4132.820313,4151.282227,4134.871582,4130.769043,833.000000,4.000000,,,,0.000000,4.000000,4.000000,4.000000,4.000000,4.000000,4.000000,4.000000,4.000000,4.000000,4.000000,4.000000,4.000000,4.000000,4.000000,100.000000
1602005712.303101,76.000000,0.000000,4110.769043,4124.615234,4122.563965,4123.589844,4126.153809,4126.153809,4129.743652,4130.769043,4130.769043,4101.025879,4121.025879,4140.512695,4117.436035,4121.025879,779.000000,4.000000,,,,0.000000,4.000000,4.000000,4.000000,4.000000,4.000000,4.000000,4.000000,4.000000,4.000000,4.000000,4.000000,4.000000,4.000000,4.000000,100.000000
1602005712.310882,77.000000,0.000000,4116.922852,4125.128418,4124.615234,4123.077148,4121.025879,4114.358887,4123.589844,4127.179688,4121.538574,4113.333496,4122.563965,4133.846191,4112.820313,4110.256348,760.000000,4.000000,,,,0.000000,4.000000,4.000000,4.000000,4.000000,4.000000,4.000000,4.000000,4.000000,4.000000,4.000000,4.000000,4.000000,4.000000,4.000000,100.000000
1602005712.318763,78.000000,0.000000,4122.051270,4127.692383,4133.846191,4127.692383,4131.282227,4115.897461,4122.563965,4134.871582,4126.153809,4126.666504,4126.666504,4132.820313,4121.538574,4116.922852,870.000000,4.000000,,,,0.000000,4.000000,4.000000,4.000000,4.000000,4.000000,4.000000,4.000000,4.000000,4.000000,4.000000,4.000000,4.000000,4.000000,4.000000,100.000000
1602005712.326544,79.000000,0.000000,4130.256348,4136.410156,4143.589844,4138.974121,4141.025879,4122.563965,4123.077148,4138.461426,4138.974121,4129.743652,4127.692383,4141.025879,4125.128418,4135.897461,833.000000,4.000000,,,,0.000000,4.000000,4.000000,4.000000,4.000000,4.000000,4.000000,4.000000,4.000000,4.000000,4.000000,4.000000,4.000000,4.000000,4.000000,100.000000
1602005712.334425,80.000000,0.000000,4138.461426,4142.563965,4147.692383,4140.512695,4140.000000,4129.743652,4124.102539,4135.897461,4138.974121,4134.871582,4134.358887,4153.846191,4124.615234,4140.512695,779.000000,4.000000,,,,0.000000,4.000000,4.000000,4.000000,4.000000,4.000000,4.000000,4.000000,4.000000,4.000000,4.000000,4.000000,4.000000,4.000000,4.000000,100.000000
1602005712.342207,81.000000,0.000000,4129.230957,4133.333496,4138.461426,4125.641113,4136.410156,4136.922852,4123.589844,4131.794922,4133.333496,4141.538574,4136.410156,4155.384766,4124.615234,4128.717773,760.000000,4.000000,,,,0.000000,4.000000,4.000000,4.000000,4.000000,4.000000,4.000000,4.000000,4.000000,4.000000,4.000000,4.000000,4.000000,4.000000,4.000000,100.000000
1602005712.349988,82.000000,0.000000,4112.307617,4120.000000,4126.666504,4117.436035,4136.410156,4140.000000,4122.563965,4125.128418,4137.436035,4134.871582,4127.179688,4145.128418,4123.589844,4122.051270,870.000000,4.000000,,,,0.000000,4.000000,4.000000,4.000000,4.000000,4.000000,4.000000,4.000000,4.000000,4.000000,4.000000,4.000000,4.000000,4.000000,4.000000,100.000000
1602005712.357870,83.000000,0.000000,4108.205078,4117.948730,4119.487305,4121.025879,4136.410156,4145.641113,4123.589844,4121.538574,4134.358887,4121.025879,4122.051270,4140.000000,4122.051270,4125.641113,833.000000,4.000000,,,,0.000000,4.000000,4.000000,4.000000,4.000000,4.000000,4.000000,4.000000,4.000000,4.000000,4.000000,4.000000,4.000000,4.000000,4.000000,100.000000
1602005712.365752,84.000000,0.000000,4110.256348,4121.025879,4114.871582,4122.051270,4132.820313,4144.615234,4126.153809,4121.025879,4124.615234,4112.820313,4121.025879,4133.846191,4122.563965,4123.589844,779.000000,4.000000,,,,0.000000,4.000000,4.000000,4.000000,4.000000,4.000000,4.000000,4.000000,4.000000,4.000000,4.000000,4.000000,4.000000,4.000000,4.000000,100.000000
1602005712.373633,85.000000,0.000000,4114.871582,4127.179688,4112.820313,4121.538574,4130.256348,4127.179688,4124.102539,4118.974121,4126.153809,4114.871582,4126.666504,4125.641113,4122.563965,4118.974121,760.000000,4.000000,,,,0.000000,4.000000,4.000000,4.000000,4.000000,4.000000,4.000000,4.000000,4.000000,4.000000,4.000000,4.000000,4.000000,4.000000,4.000000,100.000000
1602005712.381515,86.000000,0.000000,4129.743652,4135.897461,4118.461426,4129.743652,4135.384766,4116.410156,4118.461426,4121.538574,4127.179688,4129.743652,4135.897461,4132.307617,4129.230957,4129.230957,870.000000,4.000000,,,,0.000000,4.000000,4.000000,4.000000,4.000000,4.000000,4.000000,4.000000,4.000000,4.000000,4.000000,4.000000,4.000000,4.000000,4.000000,100.000000
1602005712.389396,87.000000,0.000000,4138.974121,4141.025879,4131.282227,4140.000000,4140.000000,4116.410156,4116.410156,4128.205078,4120.000000,4138.461426,4140.000000,4145.128418,4137.948730,4143.077148,833.000000,4.000000,,,,0.000000,4.000000,4.000000,4.000000,4.000000,4.000000,4.000000,4.000000,4.000000,4.000000,4.000000,4.000000,4.000000,4.000000,4.000000,100.000000
1602005712.397278,88.000000,0.000000,4137.436035,4147.179688,4139.487305,4143.077148,4131.282227,4110.769043,4120.512695,4127.179688,4117.948730,4130.769043,4140.000000,4146.153809,4139.487305,4141.025879,779.000000,4.000000,,,,0.000000,4.000000,4.000000,4.000000,4.000000,4.000000,4.000000,4.000000,4.000000,4.000000,4.000000,4.000000,4.000000,4.000000,4.000000,100.000000
1602005712.405160,89.000000,0.000000,4138.974121,4152.307617,4139.487305,4141.025879,4121.538574,4113.333496,4120.512695,4123.589844,4122.051270,4125.641113,4138.974121,4136.922852,4137.436035,4139.487305,760.000000,4.000000,,,,0.000000,4.000000,4.000000,4.000000,4.000000,4.000000,4.000000,4.000000,4.000000,4.000000,4.000000,4.000000,4.000000,4.000000,4.000000,100.000000
1602005712.413041,90.000000,0.000000,4143.589844,4144.615234,4137.948730,4138.461426,4124.615234,4122.051270,4110.769043,4123.077148,4122.563965,4121.538574,4137.948730,4127.692383,4137.436035,4142.051270,870.000000,4.000000,,,,0.000000,4.000000,4.000000,4.000000,4.000000,4.000000,4.000000,4.000000,4.000000,4.000000,4.000000,4.000000,4.000000,4.000000,4.000000,100.000000
1602005712.420923,91.000000,0.000000,4137.436035,4138.461426,4136.410156,4139.487305,4129.743652,4121.538574,4107.179688,4123.589844,4120.000000,4106.666504,4134.871582,4123.589844,4138.461426,4140.512695,833.000000,4.000000,,,,0.000000,4.000000,4.000000,4.000000,4.000000,4.000000,4.000000,4.000000,4.000000,4.000000,4.000000,4.000000,4.000000,4.000000,4.000000,100.000000
1602005712.428805,92.000000,0.000000,4122.563965,4139.487305,4129.743652,4135.384766,4127.179688,4123.077148,4114.871582,4122.051270,4118.974121,4110.256348,4131.282227,4124.615234,4138.461426,4138.461426,779.000000,4.000000,,,,0.000000,4.000000,4.000000,4.000000,4.000000,4.000000,4.000000,4.000000,4.000000,4.000000,4.000000,4.000000,4.000000,4.000000,4.000000,100.000000
1602005712.436686,93.000000,0.000000,4117.948730,4132.820313,4125.128418,4127.692383,4123.589844,4129.230957,4121.025879,4126.153809,4124.615234,4135.897461,4129.743652,4121.025879,4136.922852,4135.384766,760.000000,4.000000,,,,0.000000,4.000000,4.000000,4.000000,4.000000,4.000000,4.000000,4.000000,4.000000,4.000000,4.000000,4.000000,4.000000,4.000000,4.000000,100.000000
1602005712.444568,94.000000,0.000000,4129.230957,4130.769043,4133.333496,4130.769043,4131.794922,4128.717773,4127.692383,4135.897461,4129.743652,4142.563965,4135.384766,4125.641113,4137.436035,4130.256348,870.000000,4.000000,,,,0.000000,4.000000,4.000000,4.000000,4.000000,4.000000,4.000000,4.000000,4.000000,4.000000,4.000000,4.000000,4.000000,4.000000,4.000000,100.000000
1602005712.452450,95.000000,0.000000,4140.000000,4140.000000,4141.538574,4140.000000,4136.922852,4132.820313,4137.948730,4140.000000,4127.692383,4132.820313,4142.051270,4137.436035,4141.538574,4133.333496,833.000000,4.000000,,,,0.000000,4.000000,4.000000,4.000000,4.000000,4.000000,4.000000,4.000000,4.000000,4.000000,4.000000,4.000000,4.000000,4.000000,4.000000,100.000000
1602005712.460331,96.000000,0.000000,4132.307617,4136.922852,4142.051270,4135.384766,4128.205078,4140.000000,4139.487305,4131.794922,4122.051270,4129.743652,4141.025879,4132.820313,4137.436035,4138.974121,779.000000,4.000000,,,,0.000000,4.000000,4.000000,4.000000,4.000000,4.000000,4.000000,4.000000,4.000000,4.000000,4.000000,4.000000,4.000000,4.000000,4.000000,100.000000
