Timestamp,EEG.Counter,EEG.Interpolated,EEG.AF3,EEG.F7,EEG.F3,EEG.FC5,EEG.T7,EEG.P7,EEG.O1,EEG.O2,EEG.P8,EEG.T8,EEG.FC6,EEG.F4,EEG.F8,EEG.AF4,EEG.RawCq,EEG.Battery,MarkerIndex,MarkerType,MarkerValueInt,EEG.MarkerHardware,CQ.AF3,CQ.F7,CQ.F3,CQ.FC5,CQ.T7,CQ.P7,CQ.O1,CQ.O2,CQ.P8,CQ.T8,CQ.FC6,CQ.F4,CQ.F8,CQ.AF4,CQ.Overall
1602005721.860857,128.000000,0.000000,4142.051270,4154.358887,4147.179688,4142.563965,4136.410156,4121.025879,4119.487305,4122.051270,4141.025879,4133.846191,4137.436035,4141.538574,4140.512695,4137.948730,780.000000,4.000000,,,,0.000000,4.000000,4.000000,4.000000,4.000000,4.000000,4.000000,4.000000,4.000000,4.000000,4.000000,4.000000,4.000000,4.000000,4.000000,100.000000
1602005721.868639,0.000000,0.000000,4140.512695,4151.794922,4146.666504,4143.589844,4137.436035,4118.461426,4120.512695,4126.666504,4141.538574,4144.615234,4123.077148,4140.000000,4138.974121,4135.897461,801.000000,4.000000,,,,0.000000,4.000000,4.000000,4.000000,4.000000,4.000000,4.000000,4.000000,4.000000,4.000000,4.000000,4.000000,4.000000,4.000000,4.000000,100.000000
1602005721.876521,1.000000,0.000000,4132.307617,4146.666504,4144.615234,4141.538574,4136.410156,4123.077148,4127.179688,4128.205078,4141.025879,4156.922852,4120.512695,4143.077148,4134.358887,4130.769043,796.000000,4.000000,,,,0.000000,4.000000,4.000000,4.000000,4.000000,4.000000,4.000000,4.000000,4.000000,4.000000,4.000000,4.000000,4.000000,4.000000,4.000000,100.000000
1602005721.884403,2.000000,0.000000,4122.051270,4136.410156,4133.846191,4133.333496,4125.641113,4124.615234,4135.897461,4126.153809,4128.717773,4131.794922,4123.589844,4135.384766,4123.077148,4115.897461,854.000000,4.000000,,,,0.000000,4.000000,4.000000,4.000000,4.000000,4.000000,4.000000,4.000000,4.000000,4.000000,4.000000,4.000000,4.000000,4.000000,4.000000,100.000000
1602005721.892285,3.000000,0.000000,4118.461426,4134.358887,4126.153809,4130.256348,4120.512695,4132.820313,4147.692383,4126.153809,4111.282227,4105.128418,4125.641113,4123.077148,4119.487305,4108.717773,860.000000,4.000000,,,,0.000000,4.000000,4.000000,4.000000,4.000000,4.000000,4.000000,4.000000,4.000000,4.000000,4.000000,4.000000,4.000000,4.000000,4.000000,100.000000
1602005721.900167,4.000000,0.000000,4121.025879,4136.410156,4127.692383,4131.282227,4123.589844,4140.000000,4154.871582,4129.230957,4103.589844,4102.051270,4122.563965,4116.922852,4119.487305,4116.922852,810.000000,4.000000,,,,0.000000,4.000000,4.000000,4.000000,4.000000,4.000000,4.000000,4.000000,4.000000,4.000000,4.000000,4.000000,4.000000,4.000000,4.000000,100.000000
1602005721.908049,5.000000,0.000000,4114.871582,4125.641113,4125.641113,4128.717773,4121.538574,4129.230957,4147.692383,4131.282227,4107.179688,4105.128418,4110.769043,4112.307617,4109.230957,4116.410156,825.000000,4.000000,,,,0.000000,4.000000,4.000000,4.000000,4.000000,4.000000,4.000000,4.000000,4.000000,4.000000,4.000000,4.000000,4.000000,4.000000,4.000000,100.000000
1602005721.915931,6.000000,0.000000,4111.282227,4120.512695,4122.051270,4129.230957,4120.512695,4123.589844,4140.000000,4134.871582,4118.974121,4110.769043,4113.333496,4109.230957,4108.717773,4108.205078,785.000000,4.000000,,,,0.000000,4.000000,4.000000,4.000000,4.000000,4.000000,4.000000,4.000000,4.000000,4.000000,4.000000,4.000000,4.000000,4.000000,4.000000,100.000000
1602005721.923812,7.000000,0.000000,4119.487305,4132.307617,4122.051270,4135.384766,4124.102539,4133.333496,4136.922852,4138.974121,4131.282227,4122.051270,4127.179688,4108.717773,4121.538574,4104.102539,694.000000,4.000000,,,,0.000000,4.000000,4.000000,4.000000,4.000000,4.000000,4.000000,4.000000,4.000000,4.000000,4.000000,4.000000,4.000000,4.000000,4.000000,100.000000
1602005721.931694,8.000000,0.000000,4123.589844,4138.974121,4126.153809,4138.974121,4125.641113,4131.794922,4129.230957,4132.820313,4137.948730,4130.769043,4125.128418,4111.794922,4125.128418,4108.717773,792.000000,4.000000,,,,0.000000,4.000000,4.000000,4.000000,4.000000,4.000000,4.000000,4.000000,4.000000,4.000000,4.000000,4.000000,4.000000,4.000000,4.000000,100.000000
1602005721.939676,9.000000,0.000000,4120.512695,4135.897461,4133.846191,4137.436035,4130.769043,4122.051270,4117.436035,4125.128418,4142.051270,4134.358887,4118.461426,4118.974121,4122.051270,4119.487305,839.000000,4.000000,,,,0.000000,4.000000,4.000000,4.000000,4.000000,4.000000,4.000000,4.000000,4.000000,4.000000,4.000000,4.000000,4.000000,4.000000,4.000000,100.000000
1602005721.947557,10.000000,0.000000,4120.000000,4135.384766,4136.922852,4134.871582,4136.410156,4120.512695,4107.692383,4116.410156,4133.846191,4124.615234,4122.563965,4123.077148,4123.589844,4122.051270,873.000000,4.000000,,,,0.000000,4.000000,4.000000,4.000000,4.000000,4.000000,4.000000,4.000000,4.000000,4.000000,4.000000,4.000000,4.000000,4.000000,4.000000,100.000000
1602005721.955438,11.000000,0.000000,4123.077148,4137.436035,4136.922852,4135.897461,4136.410156,4126.666504,4104.615234,4106.153809,4122.051270,4115.384766,4123.589844,4120.512695,4123.589844,4119.487305,840.000000,4.000000,,,,0.000000,4.000000,4.000000,4.000000,4.000000,4.000000,4.000000,4.000000,4.000000,4.000000,4.000000,4.000000,4.000000,4.000000,4.000000,100.000000
1602005721.963320,12.000000,0.000000,4124.102539,4138.974121,4136.410156,4138.461426,4135.897461,4133.846191,4114.871582,4108.717773,4128.205078,4134.871582,4123.589844,4123.077148,4124.615234,4124.615234,780.000000,4.000000,,,,0.000000,4.000000,4.000000,4.000000,4.000000,4.000000,4.000000,4.000000,4.000000,4.000000,4.000000,4.000000,4.000000,4.000000,4.000000,100.000000
1602005721.971302,13.000000,0.000000,4120.000000,4136.410156,4127.179688,4135.897461,4135.897461,4135.897461,4122.563965,4120.000000,4133.333496,4151.282227,4123.589844,4122.563965,4123.077148,4123.077148,762.000000,4.000000,,,,0.000000,4.000000,4.000000,4.000000,4.000000,4.000000,4.000000,4.000000,4.000000,4.000000,4.000000,4.000000,4.000000,4.000000,4.000000,100.000000
1602005721.979183,14.000000,0.000000,4117.436035,4136.922852,4124.615234,4134.871582,4135.897461,4130.769043,4122.051270,4122.051270,4121.538574,4128.205078,4121.025879,4117.436035,4120.000000,4118.974121,873.000000,4.000000,,,,0.000000,4.000000,4.000000,4.000000,4.000000,4.000000,4.000000,4.000000,4.000000,4.000000,4.000000,4.000000,4.000000,4.000000,4.000000,100.000000
1602005721.987065,15.000000,0.000000,4128.717773,4148.205078,4136.410156,4139.487305,4139.487305,4128.205078,4124.615234,4119.487305,4117.948730,4112.307617,4128.205078,4125.641113,4128.205078,4131.282227,840.000000,4.000000,,,,0.000000,4.000000,4.000000,4.000000,4.000000,4.000000,4.000000,4.000000,4.000000,4.000000,4.000000,4.000000,4.000000,4.000000,4.000000,100.000000
1602005721.994947,16.000000,0.000000,4140.512695,4150.769043,4140.512695,4140.000000,4138.974121,4126.666504,4130.769043,4128.205078,4132.307617,4136.922852,4138.461426,4138.461426,4139.487305,4143.077148,0.000000,4.000000,,,,0.000000,4.000000,4.000000,4.000000,4.000000,4.000000,4.000000,4.000000,4.000000,4.000000,4.000000,4.000000,4.000000,4.000000,4.000000,100.000000
1602005722.002829,17.000000,0.000000,4139.487305,4141.538574,4137.948730,4136.410156,4128.717773,4126.153809,4138.461426,4138.974121,4138.974121,4148.205078,4142.051270,4142.563965,4142.051270,4140.000000,0.000000,4.000000,,,,0.000000,4.000000,4.000000,4.000000,4.000000,4.000000,4.000000,4.000000,4.000000,4.000000,4.000000,4.000000,4.000000,4.000000,4.000000,100.000000
1602005722.010711,18.000000,0.000000,4136.410156,4140.000000,4141.538574,4137.948730,4122.051270,4133.333496,4144.102539,4144.102539,4138.974121,4119.487305,4144.102539,4143.077148,4143.589844,4141.538574,0.000000,4.000000,,,,0.000000,4.000000,4.000000,4.000000,4.000000,4.000000,4.000000,4.000000,4.000000,4.000000,4.000000,4.000000,4.000000,4.000000,4.000000,100.000000
1602005722.018593,19.000000,0.000000,4138.974121,4143.077148,4139.487305,4136.410156,4123.589844,4140.512695,4141.538574,4140.512695,4137.436035,4108.717773,4143.589844,4137.948730,4139.487305,4141.538574,0.000000,4.000000,,,,0.000000,4.000000,4.000000,4.000000,4.000000,4.000000,4.000000,4.000000,4.000000,4.000000,4.000000,4.000000,4.000000,4.000000,4.000000,100.000000
1602005722.026475,20.000000,0.000000,4132.307617,4132.820313,4126.153809,4127.179688,4125.128418,4137.948730,4138.461426,4128.717773,4128.717773,4131.794922,4133.333496,4125.641113,4125.641113,4128.717773,0.000000,4.000000,,,,0.000000,4.000000,4.000000,4.000000,4.000000,4.000000,4.000000,4.000000,4.000000,4.000000,4.000000,4.000000,4.000000,4.000000,4.000000,100.000000
1602005722.034357,21.000000,0.000000,4113.333496,4122.051270,4117.436035,4121.025879,4123.077148,4136.410156,4134.871582,4123.077148,4124.615234,4146.153809,4121.538574,4118.974121,4116.922852,4119.487305,0.000000,4.000000,,,,0.000000,4.000000,4.000000,4.000000,4.000000,4.000000,4.000000,4.000000,4.000000,4.000000,4.000000,4.000000,4.000000,4.000000,4.000000,100.000000
1602005722.042239,22.000000,0.000000,4108.205078,4127.179688,4120.512695,4122.051270,4121.538574,4141.025879,4126.153809,4118.974121,4127.692383,4131.794922,4120.000000,4114.358887,4120.000000,4114.358887,0.000000,4.000000,,,,0.000000,4.000000,4.000000,4.000000,4.000000,4.000000,4.000000,4.000000,4.000000,4.000000,4.000000,4.000000,4.000000,4.000000,4.000000,100.000000
1602005722.050020,23.000000,0.000000,4120.000000,4135.897461,4124.102539,4123.589844,4127.692383,4136.410156,4121.025879,4109.230957,4121.025879,4119.487305,4126.153809,4104.615234,4120.000000,4110.256348,0.000000,4.000000,,,,0.000000,4.000000,4.000000,4.000000,4.000000,4.000000,4.000000,4.000000,4.000000,4.000000,4.000000,4.000000,4.000000,4.000000,4.000000,100.000000
1602005722.057902,24.000000,0.000000,4126.666504,4140.512695,4123.077148,4129.743652,4139.487305,4117.948730,4121.025879,4109.743652,4107.179688,4136.410156,4137.436035,4106.666504,4122.563965,4116.410156,0.000000,4.000000,,,,0.000000,4.000000,4.000000,4.000000,4.000000,4.000000,4.000000,4.000000,4.000000,4.000000,4.000000,4.000000,4.000000,4.000000,4.000000,100.000000
1602005722.065784,25.000000,0.000000,4123.589844,4145.128418,4127.692383,4138.974121,4140.512695,4107.692383,4122.563965,4120.512695,4110.769043,4142.051270,4139.487305,4116.922852,4132.820313,4120.000000,0.000000,4.000000,,,,0.000000,4.000000,4.000000,4.000000,4.000000,4.000000,4.000000,4.000000,4.000000,4.000000,4.000000,4.000000,4.000000,4.000000,4.000000,100.000000
1602005722.073665,26.000000,0.000000,4124.615234,4152.307617,4135.384766,4137.948730,4132.820313,4110.769043,4125.128418,4124.102539,4120.000000,4115.897461,4133.333496,4120.000000,4137.948730,4121.538574,0.000000,4.000000,,,,0.000000,4.000000,4.000000,4.000000,4.000000,4.000000,4.000000,4.000000,4.000000,4.000000,4.000000,4.000000,4.000000,4.000000,4.000000,100.000000
1602005722.081547,27.000000,0.000000,4133.846191,4154.358887,4140.000000,4136.410156,4133.333496,4113.846191,4125.641113,4122.563965,4118.974121,4114.358887,4137.948730,4124.102539,4138.461426,4134.871582,0.000000,4.000000,,,,0.000000,4.000000,4.000000,4.000000,4.000000,4.000000,4.000000,4.000000,4.000000,4.000000,4.000000,4.000000,4.000000,4.000000,4.000000,100.000000
1602005722.089428,28.000000,0.000000,4133.846191,4148.717773,4139.487305,4139.487305,4132.820313,4115.384766,4127.179688,4123.077148,4119.487305,4144.615234,4143.589844,4127.692383,4139.487305,4137.948730,0.000000,4.000000,,,,0.000000,4.000000,4.000000,4.000000,4.000000,4.000000,4.000000,4.000000,4.000000,4.000000,4.000000,4.000000,4.000000,4.000000,4.000000,100.000000
1602005722.097310,29.000000,0.000000,4124.615234,4141.538574,4130.256348,4132.307617,4124.102539,4121.538574,4135.384766,4126.153809,4124.615234,4143.589844,4137.436035,4123.077148,4136.922852,4125.641113,0.000000,4.000000,,,,0.000000,4.000000,4.000000,4.000000,4.000000,4.000000,4.000000,4.000000,4.000000,4.000000,4.000000,4.000000,4.000000,4.000000,4.000000,100.000000
1602005722.105192,30.000000,0.000000,4124.615234,4138.974121,4124.615234,4127.179688,4121.538574,4131.794922,4143.077148,4136.922852,4130.256348,4132.820313,4144.615234,4127.179688,4137.948730,4132.307617,0.000000,4.000000,,,,0.000000,4.000000,4.000000,4.000000,4.000000,4.000000,4.000000,4.000000,4.000000,4.000000,4.000000,4.000000,4.000000,4.000000,4.000000,100.000000
1602005722.113173,31.000000,0.000000,4133.333496,4142.051270,4131.794922,4135.384766,4125.128418,4142.051270,4144.102539,4143.589844,4138.974121,4154.358887,4161.025879,4139.487305,4144.615234,4145.128418,0.000000,4.000000,,,,0.000000,4.000000,4.000000,4.000000,4.000000,4.000000,4.000000,4.000000,4.000000,4.000000,4.000000,4.000000,4.000000,4.000000,4.000000,100.000000
1602005722.121054,32.000000,0.000000,4129.743652,4141.025879,4136.922852,4134.871582,4126.666504,4144.615234,4143.077148,4138.461426,4145.128418,4148.205078,4158.974121,4139.487305,4144.615234,4140.512695,0.000000,4.000000,,,,0.000000,4.000000,4.000000,4.000000,4.000000,4.000000,4.000000,4.000000,4.000000,4.000000,4.000000,4.000000,4.000000,4.000000,4.000000,100.000000
1602005722.128936,33.000000,0.000000,4122.563965,4137.948730,4136.922852,4124.102539,4130.769043,4140.000000,4149.743652,4137.436035,4141.025879,4116.410156,4151.282227,4138.974121,4139.487305,4137.948730,0.000000,4.000000,,,,0.000000,4.000000,4.000000,4.000000,4.000000,4.000000,4.000000,4.000000,4.000000,4.000000,4.000000,4.000000,4.000000,4.000000,4.000000,100.000000
1602005722.136817,34.000000,0.000000,4125.128418,4137.436035,4135.897461,4122.051270,4132.820313,4139.487305,4154.871582,4140.000000,4135.897461,4128.205078,4155.384766,4143.589844,4142.051270,4138.461426,0.000000,4.000000,,,,0.000000,4.000000,4.000000,4.000000,4.000000,4.000000,4.000000,4.000000,4.000000,4.000000,4.000000,4.000000,4.000000,4.000000,4.000000,100.000000
1602005722.144699,35.000000,0.000000,4117.436035,4129.743652,4125.641113,4124.102539,4124.102539,4138.461426,4146.666504,4133.333496,4131.794922,4153.846191,4153.333496,4133.333496,4137.948730,4126.153809,0.000000,4.000000,,,,0.000000,4.000000,4.000000,4.000000,4.000000,4.000000,4.000000,4.000000,4.000000,4.000000,4.000000,4.000000,4.000000,4.000000,4.000000,100.000000
1602005722.152580,36.000000,0.000000,4106.153809,4121.538574,4116.410156,4121.538574,4122.563965,4135.384766,4137.948730,4130.256348,4127.692383,4152.307617,4138.461426,4119.487305,4126.666504,4118.461426,0.000000,4.000000,,,,0.000000,4.000000,4.000000,4.000000,4.000000,4.000000,4.000000,4.000000,4.000000,4.000000,4.000000,4.000000,4.000000,4.000000,4.000000,100.000000
1602005722.160561,37.000000,0.000000,4110.769043,4127.692383,4121.025879,4123.589844,4135.384766,4136.922852,4138.974121,4132.820313,4126.153809,4144.615234,4126.153809,4122.051270,4123.077148,4122.563965,0.000000,4.000000,,,,0.000000,4.000000,4.000000,4.000000,4.000000,4.000000,4.000000,4.000000,4.000000,4.000000,4.000000,4.000000,4.000000,4.000000,4.000000,100.000000
1602005722.168442,38.000000,0.000000,4121.538574,4136.922852,4124.102539,4128.717773,4140.000000,4131.794922,4137.436035,4128.205078,4124.102539,4147.692383,4124.102539,4126.666504,4123.589844,4120.512695,0.000000,4.000000,,,,0.000000,4.000000,4.000000,4.000000,4.000000,4.000000,4.000000,4.000000,4.000000,4.000000,4.000000,4.000000,4.000000,4.000000,4.000000,100.000000
1602005722.176323,39.000000,0.000000,4123.077148,4134.358887,4121.025879,4129.743652,4130.256348,4121.538574,4132.820313,4121.538574,4123.077148,4134.358887,4128.717773,4122.051270,4121.025879,4114.358887,0.000000,4.000000,,,,0.000000,4.000000,4.000000,4.000000,4.000000,4.000000,4.000000,4.000000,4.000000,4.000000,4.000000,4.000000,4.000000,4.000000,4.000000,100.000000
1602005722.184205,40.000000,0.000000,4122.051270,4131.794922,4123.077148,4128.717773,4126.666504,4121.538574,4135.384766,4122.051270,4122.563965,4104.615234,4127.179688,4122.051270,4120.512695,4114.871582,0.000000,4.000000,,,,0.000000,4.000000,4.000000,4.000000,4.000000,4.000000,4.000000,4.000000,4.000000,4.000000,4.000000,4.000000,4.000000,4.000000,4.000000,100.000000
1602005722.191986,41.000000,0.000000,4124.102539,4135.384766,4127.692383,4127.692383,4129.743652,4129.230957,4135.384766,4123.589844,4121.538574,4106.666504,4125.641113,4127.179688,4122.563965,4120.512695,0.000000,4.000000,,,,0.000000,4.000000,4.000000,4.000000,4.000000,4.000000,4.000000,4.000000,4.000000,4.000000,4.000000,4.000000,4.000000,4.000000,4.000000,100.000000
1602005722.199868,42.000000,0.000000,4128.205078,4137.436035,4132.820313,4125.641113,4126.153809,4130.256348,4128.205078,4122.051270,4123.589844,4140.000000,4134.358887,4126.153809,4123.589844,4130.256348,0.000000,4.000000,,,,0.000000,4.000000,4.000000,4.000000,4.000000,4.000000,4.000000,4.000000,4.000000,4.000000,4.000000,4.000000,4.000000,4.000000,4.000000,100.000000
1602005722.207750,43.000000,0.000000,4130.769043,4138.461426,4138.461426,4125.641113,4123.077148,4122.563965,4124.615234,4117.948730,4118.461426,4144.102539,4141.025879,4127.179688,4127.179688,4140.512695,0.000000,4.000000,,,,0.000000,4.000000,4.000000,4.000000,4.000000,4.000000,4.000000,4.000000,4.000000,4.000000,4.000000,4.000000,4.000000,4.000000,4.000000,100.000000
1602005722.215631,44.000000,0.000000,4127.692383,4137.948730,4137.948730,4127.692383,4123.589844,4121.025879,4124.615234,4113.846191,4106.666504,4115.897461,4136.410156,4136.410156,4129.743652,4142.563965,0.000000,4.000000,,,,0.000000,4.000000,4.000000,4.000000,4.000000,4.000000,4.000000,4.000000,4.000000,4.000000,4.000000,4.000000,4.000000,4.000000,4.000000,100.000000
1602005722.223513,45.000000,0.000000,4123.077148,4127.179688,4138.461426,4126.666504,4122.563965,4125.128418,4123.589844,4111.282227,4104.615234,4117.948730,4126.666504,4141.025879,4127.179688,4133.333496,0.000000,4.000000,,,,0.000000,4.000000,4.000000,4.000000,4.000000,4.000000,4.000000,4.000000,4.000000,4.000000,4.000000,4.000000,4.000000,4.000000,4.000000,100.000000
1602005722.231395,46.000000,0.000000,4123.077148,4122.051270,4136.410156,4123.589844,4122.051270,4120.512695,4121.538574,4109.743652,4110.256348,4127.692383,4120.000000,4135.897461,4124.615234,4125.128418,0.000000,4.000000,,,,0.000000,4.000000,4.000000,4.000000,4.000000,4.000000,4.000000,4.000000,4.000000,4.000000,4.000000,4.000000,4.000000,4.000000,4.000000,100.000000
1602005722.239276,47.000000,0.000000,4124.102539,4125.641113,4128.205078,4117.436035,4118.974121,4108.205078,4122.563965,4114.871582,4113.846191,4109.230957,4127.692383,4135.897461,4123.077148,4132.307617,0.000000,4.000000,,,,0.000000,4.000000,4.000000,4.000000,4.000000,4.000000,4.000000,4.000000,4.000000,4.000000,4.000000,4.000000,4.000000,4.000000,4.000000,100.000000
1602005722.247257,48.000000,0.000000,4117.436035,4112.820313,4126.666504,4110.769043,4112.307617,4106.153809,4125.128418,4124.102539,4120.512695,4104.615234,4137.436035,4141.025879,4122.563965,4136.922852,0.000000,4.000000,,,,0.000000,4.000000,4.000000,4.000000,4.000000,4.000000,4.000000,4.000000,4.000000,4.000000,4.000000,4.000000,4.000000,4.000000,4.000000,100.000000
1602005722.255138,49.000000,0.000000,4116.922852,4104.615234,4135.897461,4115.384766,4120.000000,4113.846191,4126.153809,4125.641113,4127.179688,4126.153809,4130.256348,4140.000000,4125.641113,4126.153809,0.000000,4.000000,,,,0.000000,4.000000,4.000000,4.000000,4.000000,4.000000,4.000000,4.000000,4.000000,4.000000,4.000000,4.000000,4.000000,4.000000,4.000000,100.000000
1602005722.263020,50.000000,0.000000,4135.897461,4134.358887,4141.025879,4132.307617,4136.410156,4112.307617,4123.589844,4122.051270,4125.641113,4140.000000,4123.589844,4136.410156,4123.589844,4119.487305,0.000000,4.000000,,,,0.000000,4.000000,4.000000,4.000000,4.000000,4.000000,4.000000,4.000000,4.000000,4.000000,4.000000,4.000000,4.000000,4.000000,4.000000,100.000000
1602005722.270801,51.000000,0.000000,4156.922852,4167.692383,4141.025879,4142.563965,4138.974121,4105.128418,4117.948730,4120.512695,4126.666504,4141.538574,4122.563965,4134.871582,4113.333496,4126.153809,0.000000,4.000000,,,,0.000000,4.000000,4.000000,4.000000,4.000000,4.000000,4.000000,4.000000,4.000000,4.000000,4.000000,4.000000,4.000000,4.000000,4.000000,100.000000
1602005722.278682,52.000000,0.000000,4166.153809,4170.256348,4141.538574,4141.025879,4134.871582,4104.102539,4112.307617,4115.384766,4131.282227,4143.077148,4113.333496,4132.307617,4101.538574,4122.563965,0.000000,4.000000,,,,0.000000,4.000000,4.000000,4.000000,4.000000,4.000000,4.000000,4.000000,4.000000,4.000000,4.000000,4.000000,4.000000,4.000000,4.000000,100.000000
1602005722.286563,53.000000,0.000000,4168.717773,4168.717773,4136.922852,4143.589844,4135.897461,4106.666504,4114.358887,4107.179688,4120.512695,4128.205078,4104.102539,4124.102539,4086.666748,4100.512695,0.000000,4.000000,,,,0.000000,4.000000,4.000000,4.000000,4.000000,4.000000,4.000000,4.000000,4.000000,4.000000,4.000000,4.000000,4.000000,4.000000,4.000000,100.000000
1602005722.294444,54.000000,0.000000,4170.769043,4183.077148,4138.461426,4153.333496,4140.000000,4113.333496,4119.487305,4106.153809,4100.512695,4103.077148,4101.538574,4118.461426,4073.846191,4087.692383,0.000000,4.000000,,,,0.000000,4.000000,4.000000,4.000000,4.000000,4.000000,4.000000,4.000000,4.000000,4.000000,4.000000,4.000000,4.000000,4.000000,4.000000,100.000000
1602005722.302226,55.000000,0.000000,4172.307617,4189.743652,4142.051270,4154.358887,4142.051270,4122.051270,4116.410156,4107.692383,4095.384521,4093.846191,4096.922852,4120.000000,4073.846191,4092.307617,0.000000,4.000000,,,,0.000000,4.000000,4.000000,4.000000,4.000000,4.000000,4.000000,4.000000,4.000000,4.000000,4.000000,4.000000,4.000000,4.000000,4.000000,100.000000
1602005722.310108,56.000000,0.000000,4167.179688,4177.948730,4131.282227,4141.538574,4140.000000,4115.897461,4111.794922,4106.666504,4100.512695,4092.820557,4089.743652,4121.025879,4073.846191,4092.820557,0.000000,4.000000,,,,0.000000,4.000000,4.000000,4.000000,4.000000,4.000000,4.000000,4.000000,4.000000,4.000000,4.000000,4.000000,4.000000,4.000000,4.000000,100.000000
1602005722.317989,57.000000,0.000000,4161.025879,4169.230957,4125.641113,4137.948730,4136.922852,4110.256348,4115.897461,4112.307617,4102.051270,4095.384521,4087.692383,4115.897461,4068.205078,4082.051270,0.000000,4.000000,,,,0.000000,4.000000,4.000000,4.000000,4.000000,4.000000,4.000000,4.000000,4.000000,4.000000,4.000000,4.000000,4.000000,4.000000,4.000000,100.000000
1602005722.325871,58.000000,0.000000,4166.666504,4175.384766,4136.410156,4150.769043,4138.461426,4129.230957,4126.666504,4126.666504,4111.282227,4106.153809,4094.358887,4119.487305,4077.948730,4087.179443,0.000000,4.000000,,,,0.000000,4.000000,4.000000,4.000000,4.000000,4.000000,4.000000,4.000000,4.000000,4.000000,4.000000,4.000000,4.000000,4.000000,4.000000,100.000000
1602005722.333753,59.000000,0.000000,4175.384766,4176.922852,4142.563965,4152.307617,4137.948730,4138.461426,4130.769043,4130.769043,4121.025879,4113.846191,4103.077148,4135.897461,4088.205078,4107.179688,0.000000,4.000000,,,,0.000000,4.000000,4.000000,4.000000,4.000000,4.000000,4.000000,4.000000,4.000000,4.000000,4.000000,4.000000,4.000000,4.000000,4.000000,100.000000
1602005722.341634,60.000000,0.000000,4170.256348,4169.230957,4139.487305,4138.461426,4124.615234,4122.051270,4124.102539,4123.077148,4112.307617,4116.410156,4104.102539,4137.948730,4083.076904,4106.666504,0.000000,4.000000,,,,0.000000,4.000000,4.000000,4.000000,4.000000,4.000000,4.000000,4.000000,4.000000,4.000000,4.000000,4.000000,4.000000,4.000000,4.000000,100.000000
1602005722.349516,61.000000,0.000000,4163.589844,4168.205078,4135.384766,4134.871582,4117.436035,4116.922852,4125.128418,4122.051270,4108.205078,4123.589844,4099.487305,4128.205078,4084.615479,4091.794922,0.000000,4.000000,,,,0.000000,4.000000,4.000000,4.000000,4.000000,4.000000,4.000000,4.000000,4.000000,4.000000,4.000000,4.000000,4.000000,4.000000,4.000000,100.000000
1602005722.357398,62.000000,0.000000,4160.512695,4172.307617,4128.205078,4141.538574,4130.769043,4124.615234,4136.410156,4127.179688,4114.358887,4118.461426,4095.384521,4123.589844,4088.205078,4090.769287,0.000000,4.000000,,,,0.000000,4.000000,4.000000,4.000000,4.000000,4.000000,4.000000,4.000000,4.000000,4.000000,4.000000,4.000000,4.000000,4.000000,4.000000,100.000000
1602005722.365379,63.000000,0.000000,4153.333496,4165.641113,4122.563965,4135.897461,4135.897461,4124.102539,4135.384766,4125.128418,4113.846191,4102.563965,4089.743652,4114.358887,4074.871826,4093.846191,0.000000,4.000000,,,,0.000000,4.000000,4.000000,4.000000,4.000000,4.000000,4.000000,4.000000,4.000000,4.000000,4.000000,4.000000,4.000000,4.000000,4.000000,100.000000
1602005722.373260,64.000000,0.000000,4143.589844,4153.846191,4117.436035,4122.563965,4123.077148,4118.974121,4126.153809,4120.512695,4107.179688,4108.717773,4084.102539,4099.487305,4061.538574,4079.487061,801.000000,4.000000,,,,0.000000,4.000000,4.000000,4.000000,4.000000,4.000000,4.000000,4.000000,4.000000,4.000000,4.000000,4.000000,4.000000,4.000000,4.000000,100.000000
1602005722.381142,65.000000,0.000000,4138.461426,4150.769043,4113.846191,4120.000000,4122.051270,4119.487305,4126.153809,4120.000000,4102.051270,4117.436035,4081.538574,4096.922852,4058.461426,4064.615479,796.000000,4.000000,,,,0.000000,4.000000,4.000000,4.000000,4.000000,4.000000,4.000000,4.000000,4.000000,4.000000,4.000000,4.000000,4.000000,4.000000,4.000000,100.000000
1602005722.389023,66.000000,0.000000,4140.512695,4157.948730,4114.871582,4126.153809,4135.897461,4124.102539,4127.179688,4117.948730,4102.051270,4105.128418,4076.410156,4106.153809,4057.435791,4070.256348,854.000000,4.000000,,,,0.000000,4.000000,4.000000,4.000000,4.000000,4.000000,4.000000,4.000000,4.000000,4.000000,4.000000,4.000000,4.000000,4.000000,4.000000,100.000000
1602005722.396905,67.000000,0.000000,4141.025879,4160.512695,4113.333496,4126.666504,4140.512695,4128.205078,4124.615234,4113.846191,4103.589844,4091.794922,4077.435791,4109.743652,4064.615479,4079.487061,860.000000,4.000000,,,,0.000000,4.000000,4.000000,4.000000,4.000000,4.000000,4.000000,4.000000,4.000000,4.000000,4.000000,4.000000,4.000000,4.000000,4.000000,100.000000
1602005722.404786,68.000000,0.000000,4137.948730,4156.410156,4108.205078,4121.025879,4135.897461,4129.230957,4125.128418,4116.922852,4102.051270,4089.743652,4088.718018,4108.717773,4075.897461,4085.641113,810.000000,4.000000,,,,0.000000,4.000000,4.000000,4.000000,4.000000,4.000000,4.000000,4.000000,4.000000,4.000000,4.000000,4.000000,4.000000,4.000000,4.000000,100.000000
1602005722.412567,69.000000,0.000000,4137.948730,4159.487305,4111.282227,4123.589844,4137.948730,4128.205078,4127.692383,4122.563965,4102.051270,4086.153809,4095.897461,4109.230957,4081.025635,4092.820557,825.000000,4.000000,,,,0.000000,4.000000,4.000000,4.000000,4.000000,4.000000,4.000000,4.000000,4.000000,4.000000,4.000000,4.000000,4.000000,4.000000,4.000000,100.000000
1602005722.420448,70.000000,0.000000,4136.922852,4161.025879,4115.384766,4128.717773,4135.384766,4125.128418,4131.282227,4121.538574,4111.282227,4086.666748,4090.769287,4110.769043,4080.000000,4087.179443,782.000000,4.000000,,,,0.000000,4.000000,4.000000,4.000000,4.000000,4.000000,4.000000,4.000000,4.000000,4.000000,4.000000,4.000000,4.000000,4.000000,4.000000,100.000000
1602005722.428330,71.000000,0.000000,4135.384766,4156.410156,4112.820313,4128.205078,4125.641113,4121.538574,4130.256348,4124.615234,4115.384766,4105.641113,4091.794922,4107.692383,4075.897461,4073.333252,694.000000,4.000000,,,,0.000000,4.000000,4.000000,4.000000,4.000000,4.000000,4.000000,4.000000,4.000000,4.000000,4.000000,4.000000,4.000000,4.000000,4.000000,100.000000
1602005722.436211,72.000000,0.000000,4137.436035,4160.000000,4111.282227,4129.743652,4127.179688,4124.615234,4127.692383,4131.282227,4109.230957,4125.128418,4097.948730,4104.102539,4074.871826,4072.820557,792.000000,4.000000,,,,0.000000,4.000000,4.000000,4.000000,4.000000,4.000000,4.000000,4.000000,4.000000,4.000000,4.000000,4.000000,4.000000,4.000000,4.000000,100.000000
1602005722.443992,73.000000,0.000000,4138.461426,4169.743652,4113.846191,4134.358887,4138.974121,4130.769043,4130.256348,4132.820313,4111.282227,4126.666504,4092.820557,4111.794922,4079.487061,4079.487061,839.000000,4.000000,,,,0.000000,4.000000,4.000000,4.000000,4.000000,4.000000,4.000000,4.000000,4.000000,4.000000,4.000000,4.000000,4.000000,4.000000,4.000000,100.000000
1602005722.451873,74.000000,0.000000,4140.512695,4168.205078,4119.487305,4136.922852,4143.077148,4132.820313,4131.794922,4134.358887,4122.563965,4116.410156,4095.897461,4124.615234,4083.076904,4085.641113,873.000000,4.000000,,,,0.000000,4.000000,4.000000,4.000000,4.000000,4.000000,4.000000,4.000000,4.000000,4.000000,4.000000,4.000000,4.000000,4.000000,4.000000,100.000000
1602005722.459754,75.000000,0.000000,4143.077148,4160.000000,4122.051270,4132.307617,4139.487305,4126.153809,4127.179688,4132.820313,4121.025879,4107.179688,4102.051270,4128.717773,4081.538574,4088.205078,840.000000,4.000000,,,,0.000000,4.000000,4.000000,4.000000,4.000000,4.000000,4.000000,4.000000,4.000000,4.000000,4.000000,4.000000,4.000000,4.000000,4.000000,100.000000
1602005722.467535,76.000000,0.000000,4138.974121,4155.384766,4119.487305,4127.692383,4135.897461,4118.461426,4126.153809,4129.230957,4104.615234,4093.846191,4095.897461,4122.563965,4076.410156,4082.564209,780.000000,4.000000,,,,0.000000,4.000000,4.000000,4.000000,4.000000,4.000000,4.000000,4.000000,4.000000,4.000000,4.000000,4.000000,4.000000,4.000000,4.000000,100.000000
1602005722.475317,77.000000,0.000000,4138.461426,4154.871582,4120.512695,4128.205078,4134.871582,4127.179688,4132.820313,4134.871582,4106.153809,4091.794922,4098.461426,4120.512695,4075.897461,4081.538574,762.000000,4.000000,,,,0.000000,4.000000,4.000000,4.000000,4.000000,4.000000,4.000000,4.000000,4.000000,4.000000,4.000000,4.000000,4.000000,4.000000,4.000000,100.000000
1602005722.483198,78.000000,0.000000,4138.974121,4153.846191,4121.025879,4129.230957,4137.948730,4143.589844,4140.000000,4142.563965,4124.102539,4123.077148,4111.282227,4131.282227,4086.666748,4090.769287,873.000000,4.000000,,,,0.000000,4.000000,4.000000,4.000000,4.000000,4.000000,4.000000,4.000000,4.000000,4.000000,4.000000,4.000000,4.000000,4.000000,4.000000,100.000000
1602005722.491080,79.000000,0.000000,4136.922852,4151.282227,4115.384766,4130.256348,4141.025879,4140.000000,4138.974121,4138.974121,4128.717773,4143.589844,4110.769043,4136.922852,4092.820557,4098.974121,840.000000,4.000000,,,,0.000000,4.000000,4.000000,4.000000,4.000000,4.000000,4.000000,4.000000,4.000000,4.000000,4.000000,4.000000,4.000000,4.000000,4.000000,100.000000
1602005722.498961,80.000000,0.000000,4145.128418,4158.461426,4114.871582,4134.871582,4138.461426,4118.974121,4131.794922,4135.897461,4123.589844,4126.153809,4104.102539,4132.820313,4086.153809,4101.025879,780.000000,4.000000,,,,0.000000,4.000000,4.000000,4.000000,4.000000,4.000000,4.000000,4.000000,4.000000,4.000000,4.000000,4.000000,4.000000,4.000000,4.000000,100.000000
1602005722.506842,81.000000,0.000000,4157.948730,4168.717773,4128.205078,4141.025879,4143.589844,4110.769043,4127.179688,4139.487305,4121.025879,4111.282227,4105.641113,4141.025879,4085.128174,4104.102539,762.000000,4.000000,,,,0.000000,4.000000,4.000000,4.000000,4.000000,4.000000,4.000000,4.000000,4.000000,4.000000,4.000000,4.000000,4.000000,4.000000,4.000000,100.000000
1602005722.514624,82.000000,0.000000,4157.948730,4173.333496,4138.974121,4142.051270,4155.897461,4119.487305,4125.128418,4138.974121,4127.692383,4124.615234,4111.282227,4153.846191,4093.333252,4109.230957,873.000000,4.000000,,,,0.000000,4.000000,4.000000,4.000000,4.000000,4.000000,4.000000,4.000000,4.000000,4.000000,4.000000,4.000000,4.000000,4.000000,4.000000,100.000000
1602005722.522506,83.000000,0.000000,4152.820313,4173.333496,4136.410156,4142.051270,4155.384766,4124.102539,4124.102539,4139.487305,4134.871582,4129.743652,4116.922852,4146.153809,4096.410156,4110.256348,840.000000,4.000000,,,,0.000000,4.000000,4.000000,4.000000,4.000000,4.000000,4.000000,4.000000,4.000000,4.000000,4.000000,4.000000,4.000000,4.000000,4.000000,100.000000
1602005722.530387,84.000000,0.000000,4149.230957,4165.641113,4123.589844,4138.461426,4141.538574,4115.897461,4124.102539,4135.384766,4128.717773,4104.102539,4109.743652,4130.256348,4088.205078,4094.871826,780.000000,4.000000,,,,0.000000,4.000000,4.000000,4.000000,4.000000,4.000000,4.000000,4.000000,4.000000,4.000000,4.000000,4.000000,4.000000,4.000000,4.000000,100.000000
1602005722.538269,85.000000,0.000000,4138.974121,4155.897461,4109.230957,4128.205078,4138.461426,4111.282227,4122.563965,4125.641113,4111.794922,4090.256348,4092.820557,4123.589844,4077.948730,4073.846191,762.000000,4.000000,,,,0.000000,4.000000,4.000000,4.000000,4.000000,4.000000,4.000000,4.000000,4.000000,4.000000,4.000000,4.000000,4.000000,4.000000,4.000000,100.000000
1602005722.546151,86.000000,0.000000,4124.615234,4150.256348,4097.436035,4123.589844,4144.102539,4114.358887,4120.000000,4120.000000,4102.563965,4109.743652,4085.641113,4112.307617,4073.333252,4069.743652,873.000000,4.000000,,,,0.000000,4.000000,4.000000,4.000000,4.000000,4.000000,4.000000,4.000000,4.000000,4.000000,4.000000,4.000000,4.000000,4.000000,4.000000,100.000000
1602005722.554032,87.000000,0.000000,4115.384766,4143.077148,4089.230713,4122.563965,4141.025879,4112.820313,4120.000000,4120.512695,4110.256348,4128.205078,4085.641113,4094.871826,4069.230713,4074.871826,840.000000,4.000000,,,,0.000000,4.000000,4.000000,4.000000,4.000000,4.000000,4.000000,4.000000,4.000000,4.000000,4.000000,4.000000,4.000000,4.000000,4.000000,100.000000
1602005722.561914,88.000000,0.000000,4115.384766,4141.025879,4085.641113,4121.538574,4138.974121,4108.205078,4121.538574,4125.641113,4118.974121,4117.436035,4083.076904,4089.230713,4064.102539,4071.281982,780.000000,4.000000,,,,0.000000,4.000000,4.000000,4.000000,4.000000,4.000000,4.000000,4.000000,4.000000,4.000000,4.000000,4.000000,4.000000,4.000000,4.000000,100.000000
1602005722.569796,89.000000,0.000000,4121.538574,4153.333496,4093.333252,4127.179688,4148.205078,4114.358887,4119.487305,4133.846191,4117.436035,4110.769043,4086.153809,4100.512695,4072.307617,4071.281982,762.000000,4.000000,,,,0.000000,4.000000,4.000000,4.000000,4.000000,4.000000,4.000000,4.000000,4.000000,4.000000,4.000000,4.000000,4.000000,4.000000,4.000000,100.000000
1602005722.577677,90.000000,0.000000,4127.179688,4162.563965,4112.820313,4138.461426,4155.897461,4130.256348,4120.512695,4137.948730,4116.410156,4119.487305,4100.512695,4112.820313,4089.230713,4087.692383,873.000000,4.000000,,,,0.000000,4.000000,4.000000,4.000000,4.000000,4.000000,4.000000,4.000000,4.000000,4.000000,4.000000,4.000000,4.000000,4.000000,4.000000,100.000000
1602005722.585659,91.000000,0.000000,4134.358887,4160.512695,4125.641113,4142.051270,4156.410156,4139.487305,4130.256348,4136.410156,4120.000000,4112.820313,4110.769043,4123.077148,4093.333252,4100.000000,840.000000,4.000000,,,,0.000000,4.000000,4.000000,4.000000,4.000000,4.000000,4.000000,4.000000,4.000000,4.000000,4.000000,4.000000,4.000000,4.000000,4.000000,100.000000
1602005722.593540,92.000000,0.000000,4136.922852,4157.436035,4120.512695,4133.846191,4150.256348,4141.025879,4138.974121,4133.333496,4117.948730,4096.410156,4110.769043,4135.897461,4092.820557,4094.871826,780.000000,4.000000,,,,0.000000,4.000000,4.000000,4.000000,4.000000,4.000000,4.000000,4.000000,4.000000,4.000000,4.000000,4.000000,4.000000,4.000000,4.000000,100.000000
1602005722.601421,93.000000,0.000000,4127.692383,4148.205078,4108.205078,4124.102539,4141.538574,4133.333496,4134.358887,4124.615234,4110.256348,4100.000000,4107.179688,4136.410156,4088.718018,4090.256348,762.000000,4.000000,,,,0.000000,4.000000,4.000000,4.000000,4.000000,4.000000,4.000000,4.000000,4.000000,4.000000,4.000000,4.000000,4.000000,4.000000,4.000000,100.000000
1602005722.609303,94.000000,0.000000,4119.487305,4142.051270,4103.589844,4120.512695,4137.948730,4123.589844,4124.102539,4115.897461,4102.563965,4115.897461,4104.615234,4124.615234,4076.923096,4093.333252,873.000000,4.000000,,,,0.000000,4.000000,4.000000,4.000000,4.000000,4.000000,4.000000,4.000000,4.000000,4.000000,4.000000,4.000000,4.000000,4.000000,4.000000,100.000000
1602005722.617184,95.000000,0.000000,4123.077148,4147.692383,4105.128418,4124.615234,4139.487305,4123.077148,4122.563965,4115.384766,4098.461426,4108.205078,4101.025879,4120.000000,4076.410156,4094.358887,840.000000,4.000000,,,,0.000000,4.000000,4.000000,4.000000,4.000000,4.000000,4.000000,4.000000,4.000000,4.000000,4.000000,4.000000,4.000000,4.000000,4.000000,100.000000
1602005722.625066,96.000000,0.000000,4133.846191,4153.846191,4105.128418,4128.205078,4140.512695,4122.563965,4122.051270,4112.307617,4103.589844,4100.512695,4093.846191,4125.128418,4085.128174,4090.769287,780.000000,4.000000,,,,0.000000,4.000000,4.000000,4.000000,4.000000,4.000000,4.000000,4.000000,4.000000,4.000000,4.000000,4.000000,4.000000,4.000000,4.000000,100.000000
1602005722.633047,97.000000,0.000000,4136.922852,4156.922852,4112.307617,4129.743652,4137.948730,4111.794922,4119.487305,4107.179688,4108.205078,4119.487305,4091.281982,4122.563965,4084.102539,4087.179443,762.000000,4.000000,,,,0.000000,4.000000,4.000000,4.000000,4.000000,4.000000,4.000000,4.000000,4.000000,4.000000,4.000000,4.000000,4.000000,4.000000,4.000000,100.000000
1602005722.640929,98.000000,0.000000,4129.230957,4158.461426,4123.077148,4135.897461,4139.487305,4111.282227,4118.974121,4113.333496,4105.641113,4118.974121,4096.922852,4114.358887,4081.025635,4088.718018,873.000000,4.000000,,,,0.000000,4.000000,4.000000,4.000000,4.000000,4.000000,4.000000,4.000000,4.000000,4.000000,4.000000,4.000000,4.000000,4.000000,4.000000,100.000000
1602005722.648811,99.000000,0.000000,4124.615234,4157.436035,4120.000000,4137.948730,4145.128418,4129.743652,4122.051270,4121.025879,4106.666504,4095.897461,4105.128418,4114.358887,4083.076904,4092.820557,840.000000,4.000000,,,,0.000000,4.000000,4.000000,4.000000,4.000000,4.000000,4.000000,4.000000,4.000000,4.000000,4.000000,4.000000,4.000000,4.000000,4.000000,100.000000
1602005722.656693,100.000000,0.000000,4124.102539,4152.820313,4107.692383,4128.717773,4145.641113,4138.461426,4129.230957,4120.000000,4106.153809,4101.025879,4104.102539,4121.025879,4081.025635,4090.769287,780.000000,4.000000,,,,0.000000,4.000000,4.000000,4.000000,4.000000,4.000000,4.000000,4.000000,4.000000,4.000000,4.000000,4.000000,4.000000,4.000000,4.000000,100.000000
1602005722.664575,101.000000,0.000000,4123.077148,4148.717773,4106.153809,4121.025879,4141.025879,4134.871582,4137.436035,4122.051270,4110.256348,4128.717773,4102.051270,4123.589844,4084.102539,4089.743652,762.000000,4.000000,,,,0.000000,4.000000,4.000000,4.000000,4.000000,4.000000,4.000000,4.000000,4.000000,4.000000,4.000000,4.000000,4.000000,4.000000,4.000000,100.000000
1602005722.672457,102.000000,0.000000,4122.051270,4143.077148,4108.717773,4122.563965,4137.948730,4135.897461,4136.922852,4130.256348,4125.641113,4141.538574,4108.717773,4122.051270,4093.333252,4095.384521,873.000000,4.000000,,,,0.000000,4.000000,4.000000,4.000000,4.000000,4.000000,4.000000,4.000000,4.000000,4.000000,4.000000,4.000000,4.000000,4.000000,4.000000,100.000000
1602005722.680339,103.000000,0.000000,4116.410156,4136.922852,4103.589844,4123.589844,4135.897461,4135.384766,4128.717773,4127.692383,4128.205078,4135.384766,4107.179688,4118.974121,4089.230713,4091.794922,840.000000,4.000000,,,,0.000000,4.000000,4.000000,4.000000,4.000000,4.000000,4.000000,4.000000,4.000000,4.000000,4.000000,4.000000,4.000000,4.000000,4.000000,100.000000
1602005722.688221,104.000000,0.000000,4113.846191,4135.897461,4107.179688,4121.025879,4134.871582,4123.077148,4122.051270,4116.922852,4113.846191,4119.487305,4095.384521,4122.051270,4078.974365,4088.205078,780.000000,4.000000,,,,0.000000,4.000000,4.000000,4.000000,4.000000,4.000000,4.000000,4.000000,4.000000,4.000000,4.000000,4.000000,4.000000,4.000000,4.000000,100.000000
1602005722.696102,105.000000,0.000000,4125.641113,4144.102539,4126.666504,4125.128418,4137.436035,4116.410156,4125.128418,4120.000000,4115.384766,4109.230957,4105.128418,4140.000000,4090.256348,4108.205078,762.000000,4.000000,,,,0.000000,4.000000,4.000000,4.000000,4.000000,4.000000,4.000000,4.000000,4.000000,4.000000,4.000000,4.000000,4.000000,4.000000,4.000000,100.000000
1602005722.704084,106.000000,0.000000,4143.589844,4159.487305,4144.102539,4138.461426,4140.000000,4128.205078,4134.358887,4134.358887,4135.384766,4123.589844,4128.205078,4157.436035,4114.871582,4130.769043,873.000000,4.000000,,,,0.000000,4.000000,4.000000,4.000000,4.000000,4.000000,4.000000,4.000000,4.000000,4.000000,4.000000,4.000000,4.000000,4.000000,4.000000,100.000000
1602005722.711966,107.000000,0.000000,4152.307617,4169.743652,4146.666504,4145.641113,4143.077148,4136.410156,4137.948730,4142.051270,4141.538574,4138.974121,4128.717773,4164.102539,4125.641113,4130.769043,840.000000,4.000000,,,,0.000000,4.000000,4.000000,4.000000,4.000000,4.000000,4.000000,4.000000,4.000000,4.000000,4.000000,4.000000,4.000000,4.000000,4.000000,100.000000
1602005722.719848,108.000000,0.000000,4149.743652,4170.769043,4142.051270,4142.563965,4139.487305,4127.692383,4137.436035,4146.666504,4141.025879,4141.538574,4125.128418,4165.641113,4123.077148,4129.743652,780.000000,4.000000,,,,0.000000,4.000000,4.000000,4.000000,4.000000,4.000000,4.000000,4.000000,4.000000,4.000000,4.000000,4.000000,4.000000,4.000000,4.000000,100.000000
1602005722.727730,109.000000,0.000000,4147.692383,4169.743652,4138.461426,4142.563965,4129.743652,4121.538574,4141.025879,4151.794922,4149.230957,4150.256348,4137.948730,4160.512695,4126.666504,4137.436035,762.000000,4.000000,,,,0.000000,4.000000,4.000000,4.000000,4.000000,4.000000,4.000000,4.000000,4.000000,4.000000,4.000000,4.000000,4.000000,4.000000,4.000000,100.000000
1602005722.735612,110.000000,0.000000,4152.307617,4165.641113,4134.358887,4141.025879,4132.820313,4126.666504,4143.077148,4147.179688,4149.230957,4162.563965,4138.461426,4149.230957,4129.230957,4134.358887,873.000000,4.000000,,,,0.000000,4.000000,4.000000,4.000000,4.000000,4.000000,4.000000,4.000000,4.000000,4.000000,4.000000,4.000000,4.000000,4.000000,4.000000,100.000000
1602005722.743494,111.000000,0.000000,4145.641113,4153.846191,4125.641113,4128.717773,4137.436035,4126.666504,4140.000000,4134.358887,4135.384766,4157.948730,4123.077148,4138.974121,4116.922852,4121.538574,840.000000,4.000000,,,,0.000000,4.000000,4.000000,4.000000,4.000000,4.000000,4.000000,4.000000,4.000000,4.000000,4.000000,4.000000,4.000000,4.000000,4.000000,100.000000
1602005722.751375,112.000000,0.000000,4125.641113,4140.000000,4112.307617,4116.922852,4131.282227,4119.487305,4132.820313,4122.563965,4132.307617,4140.512695,4113.333496,4127.692383,4106.666504,4109.743652,780.000000,4.000000,,,,0.000000,4.000000,4.000000,4.000000,4.000000,4.000000,4.000000,4.000000,4.000000,4.000000,4.000000,4.000000,4.000000,4.000000,4.000000,100.000000
1602005722.759257,113.000000,0.000000,4120.512695,4134.871582,4111.282227,4117.436035,4129.743652,4116.410156,4126.666504,4124.102539,4142.051270,4137.948730,4105.641113,4123.589844,4105.128418,4103.077148,762.000000,4.000000,,,,0.000000,4.000000,4.000000,4.000000,4.000000,4.000000,4.000000,4.000000,4.000000,4.000000,4.000000,4.000000,4.000000,4.000000,4.000000,100.000000
1602005722.767139,114.000000,0.000000,4131.282227,4144.102539,4126.666504,4126.666504,4138.461426,4125.128418,4128.205078,4133.333496,4143.077148,4136.410156,4107.692383,4131.282227,4105.128418,4111.794922,873.000000,4.000000,,,,0.000000,4.000000,4.000000,4.000000,4.000000,4.000000,4.000000,4.000000,4.000000,4.000000,4.000000,4.000000,4.000000,4.000000,4.000000,100.000000
1602005722.775121,115.000000,0.000000,4145.128418,4156.410156,4139.487305,4138.461426,4143.589844,4137.948730,4135.384766,4138.974121,4140.000000,4126.666504,4123.589844,4143.589844,4112.820313,4125.128418,840.000000,4.000000,,,,0.000000,4.000000,4.000000,4.000000,4.000000,4.000000,4.000000,4.000000,4.000000,4.000000,4.000000,4.000000,4.000000,4.000000,4.000000,100.000000
1602005722.783002,116.000000,0.000000,4156.410156,4161.025879,4141.538574,4143.589844,4141.025879,4138.461426,4137.948730,4136.922852,4140.512695,4141.025879,4124.615234,4150.769043,4118.974121,4125.641113,780.000000,4.000000,,,,0.000000,4.000000,4.000000,4.000000,4.000000,4.000000,4.000000,4.000000,4.000000,4.000000,4.000000,4.000000,4.000000,4.000000,4.000000,100.000000
1602005722.790884,117.000000,0.000000,4151.282227,4155.897461,4132.820313,4134.871582,4137.436035,4128.205078,4133.846191,4128.717773,4132.820313,4161.025879,4112.820313,4144.102539,4113.846191,4122.563965,762.000000,4.000000,,,,0.000000,4.000000,4.000000,4.000000,4.000000,4.000000,4.000000,4.000000,4.000000,4.000000,4.000000,4.000000,4.000000,4.000000,4.000000,100.000000
1602005722.798766,118.000000,0.000000,4140.000000,4150.769043,4122.051270,4130.769043,4136.922852,4120.512695,4130.769043,4120.512695,4123.077148,4147.179688,4123.589844,4135.897461,4115.384766,4122.051270,873.000000,4.000000,,,,0.000000,4.000000,4.000000,4.000000,4.000000,4.000000,4.000000,4.000000,4.000000,4.000000,4.000000,4.000000,4.000000,4.000000,4.000000,100.000000
1602005722.806647,119.000000,0.000000,4149.230957,4159.487305,4123.589844,4137.948730,4140.000000,4126.153809,4134.358887,4127.692383,4125.641113,4130.256348,4142.563965,4140.000000,4124.615234,4125.641113,840.000000,4.000000,,,,0.000000,4.000000,4.000000,4.000000,4.000000,4.000000,4.000000,4.000000,4.000000,4.000000,4.000000,4.000000,4.000000,4.000000,4.000000,100.000000
1602005722.814529,120.000000,0.000000,4166.666504,4171.794922,4135.897461,4141.538574,4140.512695,4137.948730,4141.538574,4141.025879,4136.410156,4137.948730,4143.077148,4146.666504,4128.205078,4134.871582,780.000000,4.000000,,,,0.000000,4.000000,4.000000,4.000000,4.000000,4.000000,4.000000,4.000000,4.000000,4.000000,4.000000,4.000000,4.000000,4.000000,4.000000,100.000000
1602005722.822411,121.000000,0.000000,4163.077148,4168.205078,4144.102539,4138.974121,4141.538574,4137.436035,4137.948730,4141.538574,4147.179688,4147.179688,4139.487305,4143.077148,4129.230957,4141.025879,762.000000,4.000000,,,,0.000000,4.000000,4.000000,4.000000,4.000000,4.000000,4.000000,4.000000,4.000000,4.000000,4.000000,4.000000,4.000000,4.000000,4.000000,100.000000
1602005722.830292,122.000000,0.000000,4152.307617,4155.897461,4143.589844,4137.948730,4134.358887,4118.974121,4126.666504,4138.974121,4148.717773,4144.615234,4144.615234,4141.025879,4129.230957,4143.077148,873.000000,4.000000,,,,0.000000,4.000000,4.000000,4.000000,4.000000,4.000000,4.000000,4.000000,4.000000,4.000000,4.000000,4.000000,4.000000,4.000000,4.000000,100.000000
1602005722.838174,123.000000,0.000000,4154.358887,4152.307617,4140.512695,4136.410156,4118.974121,4101.538574,4120.512695,4134.871582,4140.000000,4137.948730,4140.512695,4145.128418,4121.025879,4139.487305,840.000000,4.000000,,,,0.000000,4.000000,4.000000,4.000000,4.000000,4.000000,4.000000,4.000000,4.000000,4.000000,4.000000,4.000000,4.000000,4.000000,4.000000,100.000000
1602005722.845956,124.000000,0.000000,4155.384766,4152.820313,4139.487305,4131.794922,4123.077148,4101.538574,4120.000000,4127.692383,4133.333496,4137.948730,4129.743652,4144.615234,4114.358887,4126.153809,780.000000,4.000000,,,,0.000000,4.000000,4.000000,4.000000,4.000000,4.000000,4.000000,4.000000,4.000000,4.000000,4.000000,4.000000,4.000000,4.000000,4.000000,100.000000
1602005722.853837,125.000000,0.000000,4152.307617,4153.846191,4136.922852,4130.256348,4138.461426,4113.846191,4124.615234,4126.666504,4137.948730,4139.487305,4126.153809,4139.487305,4114.871582,4123.589844,762.000000,4.000000,,,,0.000000,4.000000,4.000000,4.000000,4.000000,4.000000,4.000000,4.000000,4.000000,4.000000,4.000000,4.000000,4.000000,4.000000,4.000000,100.000000
1602005722.861719,126.000000,0.000000,4154.358887,4155.897461,4129.230957,4130.256348,4138.974121,4123.077148,4127.692383,4126.153809,4137.948730,4125.128418,4122.563965,4139.487305,4115.897461,4137.948730,873.000000,4.000000,,,,0.000000,4.000000,4.000000,4.000000,4.000000,4.000000,4.000000,4.000000,4.000000,4.000000,4.000000,4.000000,4.000000,4.000000,4.000000,100.000000
1602005722.869601,127.000000,0.000000,4145.128418,4147.692383,4121.025879,4126.666504,4135.384766,4129.230957,4125.641113,4119.487305,4129.743652,4112.820313,4108.717773,4135.384766,4102.563965,4126.666504,840.000000,4.000000,,,,0.000000,4.000000,4.000000,4.000000,4.000000,4.000000,4.000000,4.000000,4.000000,4.000000,4.000000,4.000000,4.000000,4.000000,4.000000,100.000000
1602005722.877482,128.000000,0.000000,4128.205078,4137.436035,4119.487305,4128.205078,4138.974121,4133.333496,4131.794922,4118.974121,4130.769043,4128.717773,4102.563965,4125.128418,4088.205078,4097.436035,780.000000,4.000000,,,,0.000000,4.000000,4.000000,4.000000,4.000000,4.000000,4.000000,4.000000,4.000000,4.000000,4.000000,4.000000,4.000000,4.000000,4.000000,100.000000
1602005722.885364,0.000000,0.000000,4136.922852,4148.717773,4128.717773,4137.948730,4141.538574,4130.769043,4138.974121,4125.128418,4137.436035,4145.128418,4120.000000,4127.179688,4105.641113,4114.358887,801.000000,4.000000,,,,0.000000,4.000000,4.000000,4.000000,4.000000,4.000000,4.000000,4.000000,4.000000,4.000000,4.000000,4.000000,4.000000,4.000000,4.000000,100.000000
1602005722.893246,1.000000,0.000000,4148.205078,4158.974121,4138.974121,4141.025879,4138.974121,4127.692383,4130.769043,4125.128418,4136.410156,4141.538574,4137.948730,4137.948730,4135.897461,4154.358887,796.000000,4.000000,,,,0.000000,4.000000,4.000000,4.000000,4.000000,4.000000,4.000000,4.000000,4.000000,4.000000,4.000000,4.000000,4.000000,4.000000,4.000000,100.000000
1602005722.901227,2.000000,0.000000,4138.461426,4143.589844,4140.000000,4135.384766,4134.871582,4127.692383,4122.563965,4123.077148,4125.641113,4135.384766,4144.615234,4143.589844,4151.794922,4164.615234,854.000000,4.000000,,,,0.000000,4.000000,4.000000,4.000000,4.000000,4.000000,4.000000,4.000000,4.000000,4.000000,4.000000,4.000000,4.000000,4.000000,4.000000,100.000000
1602005722.909109,3.000000,0.000000,4134.358887,4132.820313,4141.025879,4135.897461,4136.410156,4125.641113,4133.846191,4127.692383,4125.128418,4137.436035,4153.846191,4154.871582,4172.820313,4172.820313,862.000000,4.000000,,,,0.000000,4.000000,4.000000,4.000000,4.000000,4.000000,4.000000,4.000000,4.000000,4.000000,4.000000,4.000000,4.000000,4.000000,4.000000,100.000000
1602005722.916990,4.000000,0.000000,4135.897461,4137.948730,4143.589844,4135.897461,4142.051270,4129.230957,4140.000000,4135.384766,4133.846191,4146.153809,4163.589844,4166.666504,4194.358887,4188.717773,810.000000,4.000000,,,,0.000000,4.000000,4.000000,4.000000,4.000000,4.000000,4.000000,4.000000,4.000000,4.000000,4.000000,4.000000,4.000000,4.000000,4.000000,100.000000
1602005722.924872,5.000000,0.000000,4124.615234,4133.846191,4135.897461,4129.230957,4144.615234,4138.974121,4129.230957,4137.948730,4138.461426,4153.846191,4160.000000,4157.948730,4187.179688,4179.487305,825.000000,4.000000,,,,0.000000,4.000000,4.000000,4.000000,4.000000,4.000000,4.000000,4.000000,4.000000,4.000000,4.000000,4.000000,4.000000,4.000000,4.000000,100.000000
1602005722.932754,6.000000,0.000000,4114.358887,4124.615234,4122.051270,4125.128418,4141.538574,4133.333496,4121.538574,4133.846191,4135.897461,4156.922852,4149.230957,4143.077148,4172.307617,4158.461426,781.000000,4.000000,,,,0.000000,4.000000,4.000000,4.000000,4.000000,4.000000,4.000000,4.000000,4.000000,4.000000,4.000000,4.000000,4.000000,4.000000,4.000000,100.000000
1602005722.940635,7.000000,0.000000,4110.769043,4123.589844,4112.307617,4119.487305,4134.871582,4119.487305,4122.563965,4127.692383,4128.205078,4157.948730,4139.487305,4138.974121,4171.282227,4150.769043,694.000000,4.000000,,,,0.000000,4.000000,4.000000,4.000000,4.000000,4.000000,4.000000,4.000000,4.000000,4.000000,4.000000,4.000000,4.000000,4.000000,4.000000,100.000000
1602005722.948517,8.000000,0.000000,4106.666504,4122.051270,4109.743652,4114.358887,4125.641113,4118.974121,4123.589844,4126.666504,4127.692383,4148.717773,4131.794922,4134.871582,4165.128418,4142.051270,792.000000,4.000000,,,,0.000000,4.000000,4.000000,4.000000,4.000000,4.000000,4.000000,4.000000,4.000000,4.000000,4.000000,4.000000,4.000000,4.000000,4.000000,100.000000
1602005722.956399,9.000000,0.000000,4112.307617,4118.461426,4119.487305,4118.974121,4122.051270,4124.102539,4125.641113,4129.230957,4136.922852,4129.743652,4135.384766,4132.820313,4156.922852,4139.487305,839.000000,4.000000,,,,0.000000,4.000000,4.000000,4.000000,4.000000,4.000000,4.000000,4.000000,4.000000,4.000000,4.000000,4.000000,4.000000,4.000000,4.000000,100.000000
1602005722.964280,10.000000,0.000000,4123.589844,4121.538574,4133.846191,4122.051270,4121.538574,4126.153809,4128.717773,4129.743652,4140.000000,4132.820313,4142.051270,4136.922852,4158.461426,4151.794922,873.000000,4.000000,,,,0.000000,4.000000,4.000000,4.000000,4.000000,4.000000,4.000000,4.000000,4.000000,4.000000,4.000000,4.000000,4.000000,4.000000,4.000000,100.000000
1602005722.972062,11.000000,0.000000,4123.077148,4121.025879,4138.461426,4115.897461,4120.000000,4126.666504,4128.205078,4125.641113,4127.692383,4152.820313,4133.846191,4138.461426,4152.307617,4151.794922,840.000000,4.000000,,,,0.000000,4.000000,4.000000,4.000000,4.000000,4.000000,4.000000,4.000000,4.000000,4.000000,4.000000,4.000000,4.000000,4.000000,4.000000,100.000000
1602005722.979943,12.000000,0.000000,4109.743652,4110.769043,4133.333496,4110.769043,4122.563965,4124.102539,4127.692383,4121.025879,4118.461426,4154.871582,4125.641113,4134.871582,4140.512695,4142.051270,780.000000,4.000000,,,,0.000000,4.000000,4.000000,4.000000,4.000000,4.000000,4.000000,4.000000,4.000000,4.000000,4.000000,4.000000,4.000000,4.000000,4.000000,100.000000
1602005722.987824,13.000000,0.000000,4102.051270,4108.717773,4128.717773,4112.307617,4123.077148,4125.641113,4128.717773,4121.025879,4126.666504,4149.743652,4135.897461,4138.974121,4143.077148,4146.666504,762.000000,4.000000,,,,0.000000,4.000000,4.000000,4.000000,4.000000,4.000000,4.000000,4.000000,4.000000,4.000000,4.000000,4.000000,4.000000,4.000000,4.000000,100.000000
1602005722.995706,14.000000,0.000000,4112.820313,4120.000000,4129.230957,4115.897461,4123.077148,4136.410156,4130.256348,4127.179688,4135.897461,4153.846191,4147.179688,4145.128418,4160.000000,4156.922852,873.000000,4.000000,,,,0.000000,4.000000,4.000000,4.000000,4.000000,4.000000,4.000000,4.000000,4.000000,4.000000,4.000000,4.000000,4.000000,4.000000,4.000000,100.000000
1602005723.003587,15.000000,0.000000,4124.615234,4125.641113,4127.179688,4121.025879,4132.820313,4143.077148,4129.230957,4133.846191,4144.102539,4156.922852,4142.051270,4141.025879,4168.205078,4159.487305,840.000000,4.000000,,,,0.000000,4.000000,4.000000,4.000000,4.000000,4.000000,4.000000,4.000000,4.000000,4.000000,4.000000,4.000000,4.000000,4.000000,4.000000,100.000000
1602005723.011569,16.000000,0.000000,4120.512695,4122.563965,4120.000000,4121.538574,4140.000000,4138.974121,4125.641113,4136.410156,4155.384766,4149.230957,4141.025879,4135.384766,4168.205078,4157.948730,0.000000,4.000000,,,,0.000000,4.000000,4.000000,4.000000,4.000000,4.000000,4.000000,4.000000,4.000000,4.000000,4.000000,4.000000,4.000000,4.000000,4.000000,100.000000
1602005723.019450,17.000000,0.000000,4113.333496,4126.666504,4121.025879,4120.000000,4136.922852,4134.871582,4130.769043,4138.974121,4160.000000,4145.641113,4155.384766,4136.922852,4175.897461,4154.871582,0.000000,4.000000,,,,0.000000,4.000000,4.000000,4.000000,4.000000,4.000000,4.000000,4.000000,4.000000,4.000000,4.000000,4.000000,4.000000,4.000000,4.000000,100.000000
1602005723.027332,18.000000,0.000000,4114.358887,4132.820313,4121.538574,4123.077148,4136.922852,4137.436035,4139.487305,4142.051270,4157.436035,4166.153809,4161.025879,4139.487305,4184.615234,4154.871582,0.000000,4.000000,,,,0.000000,4.000000,4.000000,4.000000,4.000000,4.000000,4.000000,4.000000,4.000000,4.000000,4.000000,4.000000,4.000000,4.000000,4.000000,100.000000
1602005723.035214,19.000000,0.000000,4108.717773,4128.717773,4111.794922,4123.077148,4142.563965,4140.512695,4139.487305,4140.512695,4158.461426,4188.205078,4152.820313,4135.897461,4179.487305,4156.922852,0.000000,4.000000,,,,0.000000,4.000000,4.000000,4.000000,4.000000,4.000000,4.000000,4.000000,4.000000,4.000000,4.000000,4.000000,4.000000,4.000000,4.000000,100.000000
1602005723.043095,20.000000,0.000000,4102.051270,4126.153809,4114.871582,4121.538574,4143.589844,4139.487305,4135.897461,4137.948730,4154.358887,4183.077148,4152.307617,4140.512695,4172.820313,4162.051270,0.000000,4.000000,,,,0.000000,4.000000,4.000000,4.000000,4.000000,4.000000,4.000000,4.000000,4.000000,4.000000,4.000000,4.000000,4.000000,4.000000,4.000000,100.000000
1602005723.050977,21.000000,0.000000,4113.333496,4128.717773,4134.871582,4124.102539,4139.487305,4135.384766,4130.256348,4134.358887,4137.436035,4162.051270,4161.025879,4156.410156,4181.025879,4177.436035,0.000000,4.000000,,,,0.000000,4.000000,4.000000,4.000000,4.000000,4.000000,4.000000,4.000000,4.000000,4.000000,4.000000,4.000000,4.000000,4.000000,4.000000,100.000000
1602005723.058859,22.000000,0.000000,4122.563965,4124.615234,4141.025879,4121.025879,4134.358887,4134.358887,4123.589844,4123.589844,4122.051270,4143.589844,4156.410156,4158.974121,4181.538574,4185.641113,0.000000,4.000000,,,,0.000000,4.000000,4.000000,4.000000,4.000000,4.000000,4.000000,4.000000,4.000000,4.000000,4.000000,4.000000,4.000000,4.000000,4.000000,100.000000
1602005723.066840,23.000000,0.000000,4112.820313,4121.025879,4130.256348,4113.333496,4134.871582,4138.974121,4124.102539,4117.948730,4113.333496,4133.333496,4148.717773,4146.666504,4169.743652,4176.410156,0.000000,4.000000,,,,0.000000,4.000000,4.000000,4.000000,4.000000,4.000000,4.000000,4.000000,4.000000,4.000000,4.000000,4.000000,4.000000,4.000000,4.000000,100.000000
1602005723.074722,24.000000,0.000000,4105.641113,4120.000000,4124.615234,4110.256348,4141.538574,4138.974121,4125.641113,4122.051270,4116.410156,4144.615234,4155.897461,4138.461426,4169.743652,4167.692383,0.000000,4.000000,,,,0.000000,4.000000,4.000000,4.000000,4.000000,4.000000,4.000000,4.000000,4.000000,4.000000,4.000000,4.000000,4.000000,4.000000,4.000000,100.000000
1602005723.082604,25.000000,0.000000,4105.128418,4111.282227,4120.512695,4109.743652,4137.436035,4127.692383,4120.000000,4122.563965,4123.589844,4167.179688,4151.282227,4132.307617,4167.692383,4160.000000,0.000000,4.000000,,,,0.000000,4.000000,4.000000,4.000000,4.000000,4.000000,4.000000,4.000000,4.000000,4.000000,4.000000,4.000000,4.000000,4.000000,4.000000,100.000000
1602005723.090485,26.000000,0.000000,4102.563965,4103.589844,4112.820313,4106.666504,4127.179688,4123.077148,4127.179688,4121.538574,4120.512695,4167.179688,4136.410156,4122.051270,4158.974121,4151.794922,0.000000,4.000000,,,,0.000000,4.000000,4.000000,4.000000,4.000000,4.000000,4.000000,4.000000,4.000000,4.000000,4.000000,4.000000,4.000000,4.000000,4.000000,100.000000
1602005723.098367,27.000000,0.000000,4111.282227,4113.846191,4115.384766,4106.153809,4132.307617,4134.871582,4136.410156,4125.641113,4123.077148,4150.256348,4144.102539,4123.077148,4165.641113,4155.897461,0.000000,4.000000,,,,0.000000,4.000000,4.000000,4.000000,4.000000,4.000000,4.000000,4.000000,4.000000,4.000000,4.000000,4.000000,4.000000,4.000000,4.000000,100.000000
1602005723.106248,28.000000,0.000000,4123.077148,4125.641113,4124.615234,4113.846191,4142.563965,4142.051270,4127.692383,4127.179688,4142.051270,4147.179688,4159.487305,4131.794922,4179.487305,4160.000000,0.000000,4.000000,,,,0.000000,4.000000,4.000000,4.000000,4.000000,4.000000,4.000000,4.000000,4.000000,4.000000,4.000000,4.000000,4.000000,4.000000,4.000000,100.000000
1602005723.114130,29.000000,0.000000,4120.000000,4123.589844,4124.615234,4120.512695,4143.589844,4133.333496,4119.487305,4125.128418,4154.358887,4156.922852,4157.436035,4128.205078,4178.461426,4149.230957,0.000000,4.000000,,,,0.000000,4.000000,4.000000,4.000000,4.000000,4.000000,4.000000,4.000000,4.000000,4.000000,4.000000,4.000000,4.000000,4.000000,4.000000,100.000000
1602005723.122012,30.000000,0.000000,4113.333496,4117.948730,4118.974121,4116.922852,4138.974121,4127.179688,4123.589844,4124.615234,4145.641113,4159.487305,4150.256348,4115.897461,4168.205078,4134.871582,0.000000,4.000000,,,,0.000000,4.000000,4.000000,4.000000,4.000000,4.000000,4.000000,4.000000,4.000000,4.000000,4.000000,4.000000,4.000000,4.000000,4.000000,100.000000
1602005723.129893,31.000000,0.000000,4106.666504,4112.820313,4111.282227,4106.666504,4129.230957,4121.025879,4121.538574,4119.487305,4132.307617,4152.820313,4143.077148,4107.692383,4152.820313,4125.128418,0.000000,4.000000,,,,0.000000,4.000000,4.000000,4.000000,4.000000,4.000000,4.000000,4.000000,4.000000,4.000000,4.000000,4.000000,4.000000,4.000000,4.000000,100.000000
1602005723.137675,32.000000,0.000000,4091.281982,4105.641113,4102.051270,4103.077148,4120.000000,4107.179688,4115.384766,4115.897461,4121.538574,4149.743652,4133.333496,4102.051270,4139.487305,4123.589844,0.000000,4.000000,,,,0.000000,4.000000,4.000000,4.000000,4.000000,4.000000,4.000000,4.000000,4.000000,4.000000,4.000000,4.000000,4.000000,4.000000,4.000000,100.000000
1602005723.145557,33.000000,0.000000,4093.333252,4111.794922,4103.589844,4110.256348,4127.692383,4110.256348,4127.692383,4126.153809,4122.051270,4152.307617,4138.974121,4112.820313,4152.820313,4136.922852,0.000000,4.000000,,,,0.000000,4.000000,4.000000,4.000000,4.000000,4.000000,4.000000,4.000000,4.000000,4.000000,4.000000,4.000000,4.000000,4.000000,4.000000,100.000000
1602005723.153438,34.000000,0.000000,4123.077148,4131.282227,4121.538574,4118.974121,4138.974121,4131.794922,4141.025879,4142.563965,4141.025879,4155.897461,4159.487305,4141.538574,4179.487305,4160.512695,0.000000,4.000000,,,,0.000000,4.000000,4.000000,4.000000,4.000000,4.000000,4.000000,4.000000,4.000000,4.000000,4.000000,4.000000,4.000000,4.000000,4.000000,100.000000
1602005723.161320,35.000000,0.000000,4141.538574,4139.487305,4139.487305,4126.666504,4138.461426,4135.384766,4131.794922,4147.179688,4152.820313,4157.948730,4172.820313,4159.487305,4188.205078,4178.461426,0.000000,4.000000,,,,0.000000,4.000000,4.000000,4.000000,4.000000,4.000000,4.000000,4.000000,4.000000,4.000000,4.000000,4.000000,4.000000,4.000000,4.000000,100.000000
1602005723.169202,36.000000,0.000000,4143.077148,4138.974121,4146.666504,4133.333496,4138.974121,4126.666504,4116.410156,4141.538574,4144.102539,4163.589844,4173.846191,4158.974121,4185.641113,4182.563965,0.000000,4.000000,,,,0.000000,4.000000,4.000000,4.000000,4.000000,4.000000,4.000000,4.000000,4.000000,4.000000,4.000000,4.000000,4.000000,4.000000,4.000000,100.000000
1602005723.177083,37.000000,0.000000,4143.077148,4138.974121,4144.102539,4131.794922,4141.538574,4133.846191,4116.410156,4135.897461,4135.897461,4170.256348,4166.153809,4155.897461,4185.641113,4184.615234,0.000000,4.000000,,,,0.000000,4.000000,4.000000,4.000000,4.000000,4.000000,4.000000,4.000000,4.000000,4.000000,4.000000,4.000000,4.000000,4.000000,4.000000,100.000000
1602005723.184965,38.000000,0.000000,4130.769043,4131.794922,4134.871582,4123.077148,4140.512695,4135.384766,4121.538574,4135.897461,4141.025879,4160.512695,4154.358887,4154.871582,4178.974121,4183.077148,0.000000,4.000000,,,,0.000000,4.000000,4.000000,4.000000,4.000000,4.000000,4.000000,4.000000,4.000000,4.000000,4.000000,4.000000,4.000000,4.000000,4.000000,100.000000
1602005723.192847,39.000000,0.000000,4112.307617,4121.538574,4121.538574,4121.538574,4142.563965,4123.589844,4122.563965,4137.436035,4143.077148,4147.179688,4150.256348,4153.846191,4171.282227,4166.153809,0.000000,4.000000,,,,0.000000,4.000000,4.000000,4.000000,4.000000,4.000000,4.000000,4.000000,4.000000,4.000000,4.000000,4.000000,4.000000,4.000000,4.000000,100.000000
1602005723.200728,40.000000,0.000000,4107.692383,4121.538574,4108.205078,4124.102539,4143.589844,4123.077148,4125.641113,4136.922852,4133.333496,4138.461426,4152.820313,4151.794922,4167.179688,4150.769043,0.000000,4.000000,,,,0.000000,4.000000,4.000000,4.000000,4.000000,4.000000,4.000000,4.000000,4.000000,4.000000,4.000000,4.000000,4.000000,4.000000,4.000000,100.000000
1602005723.208509,41.000000,0.000000,4105.128418,4122.051270,4102.563965,4120.000000,4139.487305,4125.128418,4126.153809,4133.333496,4126.666504,4125.641113,4154.358887,4151.282227,4167.692383,4156.922852,0.000000,4.000000,,,,0.000000,4.000000,4.000000,4.000000,4.000000,4.000000,4.000000,4.000000,4.000000,4.000000,4.000000,4.000000,4.000000,4.000000,4.000000,100.000000
1602005723.216391,42.000000,0.000000,4106.153809,4122.051270,4111.282227,4120.512695,4137.436035,4125.128418,4123.077148,4137.948730,4131.794922,4131.282227,4160.000000,4162.051270,4177.948730,4171.282227,0.000000,4.000000,,,,0.000000,4.000000,4.000000,4.000000,4.000000,4.000000,4.000000,4.000000,4.000000,4.000000,4.000000,4.000000,4.000000,4.000000,4.000000,100.000000
1602005723.224272,43.000000,0.000000,4126.153809,4130.769043,4130.256348,4130.769043,4138.974121,4123.077148,4124.102539,4148.205078,4142.051270,4159.487305,4168.717773,4182.051270,4189.743652,4181.538574,0.000000,4.000000,,,,0.000000,4.000000,4.000000,4.000000,4.000000,4.000000,4.000000,4.000000,4.000000,4.000000,4.000000,4.000000,4.000000,4.000000,4.000000,100.000000
1602005723.232053,44.000000,0.000000,4141.025879,4137.948730,4142.563965,4136.410156,4137.436035,4117.948730,4129.230957,4154.358887,4155.897461,4176.922852,4171.282227,4186.153809,4188.205078,4186.153809,0.000000,4.000000,,,,0.000000,4.000000,4.000000,4.000000,4.000000,4.000000,4.000000,4.000000,4.000000,4.000000,4.000000,4.000000,4.000000,4.000000,4.000000,100.000000
1602005723.239834,45.000000,0.000000,4137.436035,4139.487305,4144.102539,4138.461426,4138.461426,4129.230957,4137.948730,4156.922852,4167.179688,4175.897461,4167.692383,4174.358887,4181.538574,4184.615234,0.000000,4.000000,,,,0.000000,4.000000,4.000000,4.000000,4.000000,4.000000,4.000000,4.000000,4.000000,4.000000,4.000000,4.000000,4.000000,4.000000,4.000000,100.000000
1602005723.247715,46.000000,0.000000,4132.820313,4133.846191,4137.436035,4133.846191,4141.538574,4142.563965,4142.051270,4150.256348,4156.922852,4160.000000,4160.000000,4165.128418,4178.461426,4170.769043,0.000000,4.000000,,,,0.000000,4.000000,4.000000,4.000000,4.000000,4.000000,4.000000,4.000000,4.000000,4.000000,4.000000,4.000000,4.000000,4.000000,4.000000,100.000000
1602005723.255596,47.000000,0.000000,4118.461426,4116.410156,4122.563965,4121.538574,4131.794922,4127.692383,4134.358887,4133.333496,4127.179688,4127.692383,4140.000000,4152.820313,4160.000000,4145.641113,0.000000,4.000000,,,,0.000000,4.000000,4.000000,4.000000,4.000000,4.000000,4.000000,4.000000,4.000000,4.000000,4.000000,4.000000,4.000000,4.000000,4.000000,100.000000
1602005723.263478,48.000000,0.000000,4102.563965,4104.615234,4112.820313,4113.333496,4119.487305,4118.974121,4130.256348,4126.666504,4115.384766,4113.333496,4124.615234,4138.974121,4136.922852,4133.333496,0.000000,4.000000,,,,0.000000,4.000000,4.000000,4.000000,4.000000,4.000000,4.000000,4.000000,4.000000,4.000000,4.000000,4.000000,4.000000,4.000000,4.000000,100.000000
1602005723.271459,49.000000,0.000000,4111.794922,4114.358887,4117.436035,4120.512695,4126.153809,4137.436035,4137.948730,4134.871582,4130.769043,4128.717773,4135.897461,4141.025879,4141.025879,4146.153809,0.000000,4.000000,,,,0.000000,4.000000,4.000000,4.000000,4.000000,4.000000,4.000000,4.000000,4.000000,4.000000,4.000000,4.000000,4.000000,4.000000,4.000000,100.000000
1602005723.279340,50.000000,0.000000,4126.666504,4126.666504,4127.692383,4134.358887,4140.512695,4147.179688,4140.512695,4144.102539,4142.563965,4135.897461,4151.794922,4153.846191,4158.974121,4157.436035,0.000000,4.000000,,,,0.000000,4.000000,4.000000,4.000000,4.000000,4.000000,4.000000,4.000000,4.000000,4.000000,4.000000,4.000000,4.000000,4.000000,4.000000,100.000000
1602005723.287222,51.000000,0.000000,4124.615234,4125.641113,4131.794922,4134.871582,4143.589844,4142.563965,4137.436035,4150.256348,4142.051270,4136.410156,4154.871582,4155.384766,4163.077148,4155.384766,0.000000,4.000000,,,,0.000000,4.000000,4.000000,4.000000,4.000000,4.000000,4.000000,4.000000,4.000000,4.000000,4.000000,4.000000,4.000000,4.000000,4.000000,100.000000
1602005723.295103,52.000000,0.000000,4120.512695,4121.538574,4125.641113,4125.128418,4140.000000,4137.436035,4136.922852,4151.794922,4145.641113,4142.051270,4153.846191,4143.077148,4154.871582,4152.820313,0.000000,4.000000,,,,0.000000,4.000000,4.000000,4.000000,4.000000,4.000000,4.000000,4.000000,4.000000,4.000000,4.000000,4.000000,4.000000,4.000000,4.000000,100.000000
1602005723.302985,53.000000,0.000000,4120.000000,4122.563965,4114.358887,4122.051270,4138.461426,4126.153809,4131.282227,4142.051270,4143.077148,4131.794922,4148.205078,4130.256348,4152.820313,4144.102539,0.000000,4.000000,,,,0.000000,4.000000,4.000000,4.000000,4.000000,4.000000,4.000000,4.000000,4.000000,4.000000,4.000000,4.000000,4.000000,4.000000,4.000000,100.000000
1602005723.310966,54.000000,0.000000,4112.820313,4125.641113,4108.717773,4125.641113,4136.410156,4121.025879,4122.051270,4135.384766,4123.589844,4122.051270,4141.025879,4124.102539,4156.410156,4131.282227,0.000000,4.000000,,,,0.000000,4.000000,4.000000,4.000000,4.000000,4.000000,4.000000,4.000000,4.000000,4.000000,4.000000,4.000000,4.000000,4.000000,4.000000,100.000000
1602005723.318847,55.000000,0.000000,4103.589844,4123.589844,4109.743652,4125.128418,4134.871582,4123.077148,4123.589844,4136.922852,4116.410156,4137.436035,4136.922852,4121.025879,4146.666504,4124.615234,0.000000,4.000000,,,,0.000000,4.000000,4.000000,4.000000,4.000000,4.000000,4.000000,4.000000,4.000000,4.000000,4.000000,4.000000,4.000000,4.000000,4.000000,100.000000
1602005723.326729,56.000000,0.000000,4108.717773,4125.128418,4116.410156,4127.179688,4134.871582,4120.000000,4125.128418,4137.436035,4127.692383,4147.692383,4135.897461,4126.666504,4139.487305,4126.666504,0.000000,4.000000,,,,0.000000,4.000000,4.000000,4.000000,4.000000,4.000000,4.000000,4.000000,4.000000,4.000000,4.000000,4.000000,4.000000,4.000000,4.000000,100.000000
1602005723.334610,57.000000,0.000000,4129.230957,4133.846191,4134.358887,4139.487305,4135.897461,4121.538574,4123.589844,4137.948730,4133.333496,4140.512695,4144.102539,4146.153809,4150.256348,4134.871582,0.000000,4.000000,,,,0.000000,4.000000,4.000000,4.000000,4.000000,4.000000,4.000000,4.000000,4.000000,4.000000,4.000000,4.000000,4.000000,4.000000,4.000000,100.000000
1602005723.342491,58.000000,0.000000,4132.307617,4133.846191,4145.128418,4138.974121,4131.794922,4125.128418,4128.717773,4139.487305,4129.230957,4135.897461,4151.794922,4152.307617,4153.846191,4140.000000,0.000000,4.000000,,,,0.000000,4.000000,4.000000,4.000000,4.000000,4.000000,4.000000,4.000000,4.000000,4.000000,4.000000,4.000000,4.000000,4.000000,4.000000,100.000000
1602005723.350373,59.000000,0.000000,4109.230957,4117.436035,4134.358887,4121.025879,4121.025879,4118.974121,4135.897461,4135.897461,4125.641113,4123.589844,4141.538574,4134.871582,4136.922852,4134.358887,0.000000,4.000000,,,,0.000000,4.000000,4.000000,4.000000,4.000000,4.000000,4.000000,4.000000,4.000000,4.000000,4.000000,4.000000,4.000000,4.000000,4.000000,100.000000
1602005723.358255,60.000000,0.000000,4101.538574,4108.205078,4125.641113,4109.230957,4116.922852,4115.897461,4136.410156,4130.769043,4123.077148,4107.692383,4129.743652,4132.820313,4130.769043,4133.846191,0.000000,4.000000,,,,0.000000,4.000000,4.000000,4.000000,4.000000,4.000000,4.000000,4.000000,4.000000,4.000000,4.000000,4.000000,4.000000,4.000000,4.000000,100.000000
1602005723.366136,61.000000,0.000000,4111.282227,4114.358887,4127.692383,4114.871582,4123.589844,4124.102539,4136.410156,4131.282227,4121.538574,4115.897461,4135.897461,4150.769043,4137.436035,4137.948730,0.000000,4.000000,,,,0.000000,4.000000,4.000000,4.000000,4.000000,4.000000,4.000000,4.000000,4.000000,4.000000,4.000000,4.000000,4.000000,4.000000,4.000000,100.000000
1602005723.374018,62.000000,0.000000,4109.230957,4119.487305,4126.153809,4122.051270,4126.666504,4129.743652,4137.948730,4135.384766,4126.153809,4133.333496,4140.512695,4155.384766,4136.922852,4136.410156,0.000000,4.000000,,,,0.000000,4.000000,4.000000,4.000000,4.000000,4.000000,4.000000,4.000000,4.000000,4.000000,4.000000,4.000000,4.000000,4.000000,4.000000,100.000000
1602005723.381900,63.000000,0.000000,4112.820313,4121.025879,4121.538574,4121.025879,4125.128418,4124.102539,4132.820313,4133.846191,4129.743652,4136.410156,4138.974121,4155.897461,4144.102539,4143.077148,0.000000,4.000000,,,,0.000000,4.000000,4.000000,4.000000,4.000000,4.000000,4.000000,4.000000,4.000000,4.000000,4.000000,4.000000,4.000000,4.000000,4.000000,100.000000
1602005723.389781,64.000000,0.000000,4124.102539,4123.077148,4124.615234,4120.512695,4126.153809,4117.436035,4123.589844,4127.179688,4123.077148,4137.948730,4143.589844,4167.179688,4156.410156,4155.384766,801.000000,4.000000,,,,0.000000,4.000000,4.000000,4.000000,4.000000,4.000000,4.000000,4.000000,4.000000,4.000000,4.000000,4.000000,4.000000,4.000000,4.000000,100.000000
1602005723.397663,65.000000,0.000000,4123.589844,4125.128418,4128.205078,4124.615234,4127.179688,4118.461426,4121.538574,4124.615234,4123.589844,4134.358887,4152.307617,4169.743652,4157.948730,4158.461426,796.000000,4.000000,,,,0.000000,4.000000,4.000000,4.000000,4.000000,4.000000,4.000000,4.000000,4.000000,4.000000,4.000000,4.000000,4.000000,4.000000,4.000000,100.000000
1602005723.405545,66.000000,0.000000,4118.461426,4124.615234,4126.153809,4123.077148,4124.102539,4119.487305,4124.102539,4124.615234,4132.820313,4121.538574,4155.384766,4161.025879,4156.922852,4154.871582,854.000000,4.000000,,,,0.000000,4.000000,4.000000,4.000000,4.000000,4.000000,4.000000,4.000000,4.000000,4.000000,4.000000,4.000000,4.000000,4.000000,4.000000,100.000000
1602005723.413526,67.000000,0.000000,4116.922852,4119.487305,4122.563965,4116.410156,4122.563965,4112.307617,4123.077148,4122.563965,4128.205078,4133.846191,4146.666504,4154.871582,4155.384766,4153.333496,862.000000,4.000000,,,,0.000000,4.000000,4.000000,4.000000,4.000000,4.000000,4.000000,4.000000,4.000000,4.000000,4.000000,4.000000,4.000000,4.000000,4.000000,100.000000
1602005723.421408,68.000000,0.000000,4112.820313,4113.333496,4123.077148,4114.871582,4124.102539,4110.256348,4122.563965,4122.563965,4118.974121,4153.846191,4139.487305,4154.871582,4152.307617,4154.358887,810.000000,4.000000,,,,0.000000,4.000000,4.000000,4.000000,4.000000,4.000000,4.000000,4.000000,4.000000,4.000000,4.000000,4.000000,4.000000,4.000000,4.000000,100.000000
1602005723.429289,69.000000,0.000000,4104.615234,4107.692383,4122.563965,4118.461426,4123.077148,4116.410156,4124.102539,4120.512695,4120.000000,4149.230957,4138.461426,4150.769043,4150.769043,4153.846191,825.000000,4.000000,,,,0.000000,4.000000,4.000000,4.000000,4.000000,4.000000,4.000000,4.000000,4.000000,4.000000,4.000000,4.000000,4.000000,4.000000,4.000000,100.000000
1602005723.437171,70.000000,0.000000,4103.589844,4108.205078,4114.358887,4121.025879,4120.000000,4122.051270,4124.102539,4114.358887,4114.871582,4134.871582,4135.897461,4142.051270,4145.641113,4147.179688,780.000000,4.000000,,,,0.000000,4.000000,4.000000,4.000000,4.000000,4.000000,4.000000,4.000000,4.000000,4.000000,4.000000,4.000000,4.000000,4.000000,4.000000,100.000000
1602005723.445053,71.000000,0.000000,4103.589844,4116.922852,4107.179688,4122.051270,4122.051270,4124.615234,4123.077148,4112.820313,4105.128418,4110.256348,4134.871582,4136.410156,4136.922852,4137.948730,693.000000,4.000000,,,,0.000000,4.000000,4.000000,4.000000,4.000000,4.000000,4.000000,4.000000,4.000000,4.000000,4.000000,4.000000,4.000000,4.000000,4.000000,100.000000
1602005723.452934,72.000000,0.000000,4100.512695,4122.563965,4105.641113,4122.563965,4129.743652,4126.666504,4127.692383,4120.512695,4114.871582,4089.230713,4136.922852,4137.436035,4136.922852,4135.897461,792.000000,4.000000,,,,0.000000,4.000000,4.000000,4.000000,4.000000,4.000000,4.000000,4.000000,4.000000,4.000000,4.000000,4.000000,4.000000,4.000000,4.000000,100.000000
1602005723.460816,73.000000,0.000000,4099.487305,4123.589844,4105.641113,4122.563965,4135.384766,4126.153809,4135.384766,4132.307617,4135.384766,4119.487305,4137.948730,4137.948730,4146.153809,4138.974121,839.000000,4.000000,,,,0.000000,4.000000,4.000000,4.000000,4.000000,4.000000,4.000000,4.000000,4.000000,4.000000,4.000000,4.000000,4.000000,4.000000,4.000000,100.000000
1602005723.468597,74.000000,0.000000,4106.153809,4129.743652,4104.615234,4126.666504,4135.897461,4125.128418,4131.282227,4138.974121,4145.128418,4157.948730,4138.461426,4135.897461,4151.794922,4141.025879,873.000000,4.000000,,,,0.000000,4.000000,4.000000,4.000000,4.000000,4.000000,4.000000,4.000000,4.000000,4.000000,4.000000,4.000000,4.000000,4.000000,4.000000,100.000000
1602005723.476479,75.000000,0.000000,4112.307617,4138.974121,4106.153809,4132.307617,4134.871582,4124.615234,4122.563965,4142.051270,4140.512695,4146.153809,4140.000000,4136.410156,4151.794922,4141.538574,840.000000,4.000000,,,,0.000000,4.000000,4.000000,4.000000,4.000000,4.000000,4.000000,4.000000,4.000000,4.000000,4.000000,4.000000,4.000000,4.000000,4.000000,100.000000
1602005723.484360,76.000000,0.000000,4112.307617,4138.461426,4113.333496,4129.230957,4135.384766,4129.230957,4121.538574,4138.461426,4137.948730,4138.461426,4138.461426,4132.307617,4147.692383,4137.948730,780.000000,4.000000,,,,0.000000,4.000000,4.000000,4.000000,4.000000,4.000000,4.000000,4.000000,4.000000,4.000000,4.000000,4.000000,4.000000,4.000000,4.000000,100.000000
1602005723.492242,77.000000,0.000000,4109.230957,4133.846191,4116.922852,4125.128418,4136.410156,4127.179688,4122.563965,4128.205078,4142.563965,4146.153809,4137.436035,4122.563965,4140.512695,4131.794922,762.000000,4.000000,,,,0.000000,4.000000,4.000000,4.000000,4.000000,4.000000,4.000000,4.000000,4.000000,4.000000,4.000000,4.000000,4.000000,4.000000,4.000000,100.000000
1602005723.500123,78.000000,0.000000,4106.666504,4133.333496,4115.897461,4124.102539,4136.410156,4119.487305,4118.974121,4121.025879,4140.000000,4122.051270,4138.974121,4122.051270,4137.436035,4129.743652,873.000000,4.000000,,,,0.000000,4.000000,4.000000,4.000000,4.000000,4.000000,4.000000,4.000000,4.000000,4.000000,4.000000,4.000000,4.000000,4.000000,4.000000,100.000000
1602005723.507905,79.000000,0.000000,4112.307617,4134.871582,4118.461426,4123.077148,4134.871582,4125.641113,4118.461426,4122.051270,4130.256348,4108.717773,4139.487305,4136.410156,4144.102539,4131.282227,840.000000,4.000000,,,,0.000000,4.000000,4.000000,4.000000,4.000000,4.000000,4.000000,4.000000,4.000000,4.000000,4.000000,4.000000,4.000000,4.000000,4.000000,100.000000
1602005723.515786,80.000000,0.000000,4122.051270,4136.922852,4122.051270,4129.743652,4135.897461,4137.436035,4126.666504,4128.717773,4135.897461,4140.000000,4144.615234,4153.333496,4153.846191,4142.563965,780.000000,4.000000,,,,0.000000,4.000000,4.000000,4.000000,4.000000,4.000000,4.000000,4.000000,4.000000,4.000000,4.000000,4.000000,4.000000,4.000000,4.000000,100.000000
1602005723.523668,81.000000,0.000000,4127.179688,4137.436035,4123.077148,4138.461426,4141.025879,4140.000000,4135.897461,4130.769043,4151.794922,4168.205078,4155.897461,4158.461426,4157.948730,4153.846191,762.000000,4.000000,,,,0.000000,4.000000,4.000000,4.000000,4.000000,4.000000,4.000000,4.000000,4.000000,4.000000,4.000000,4.000000,4.000000,4.000000,4.000000,100.000000
1602005723.531550,82.000000,0.000000,4129.230957,4138.461426,4124.615234,4133.846191,4143.077148,4140.512695,4138.461426,4128.717773,4149.743652,4160.512695,4158.974121,4155.384766,4156.922852,4148.717773,873.000000,4.000000,,,,0.000000,4.000000,4.000000,4.000000,4.000000,4.000000,4.000000,4.000000,4.000000,4.000000,4.000000,4.000000,4.000000,4.000000,4.000000,100.000000
1602005723.539431,83.000000,0.000000,4125.641113,4137.436035,4123.077148,4123.077148,4137.436035,4140.512695,4134.358887,4124.102539,4135.897461,4131.282227,4148.205078,4152.820313,4152.307617,4134.871582,840.000000,4.000000,,,,0.000000,4.000000,4.000000,4.000000,4.000000,4.000000,4.000000,4.000000,4.000000,4.000000,4.000000,4.000000,4.000000,4.000000,4.000000,100.000000
1602005723.547313,84.000000,0.000000,4128.205078,4136.410156,4121.538574,4123.589844,4135.384766,4137.436035,4135.897461,4122.051270,4134.871582,4117.436035,4143.077148,4154.358887,4152.820313,4138.974121,780.000000,4.000000,,,,0.000000,4.000000,4.000000,4.000000,4.000000,4.000000,4.000000,4.000000,4.000000,4.000000,4.000000,4.000000,4.000000,4.000000,4.000000,100.000000
1602005723.555195,85.000000,0.000000,4135.384766,4136.922852,4124.615234,4125.641113,4137.436035,4136.922852,4142.563965,4126.666504,4137.436035,4137.436035,4150.769043,4155.897461,4157.948730,4154.871582,762.000000,4.000000,,,,0.000000,4.000000,4.000000,4.000000,4.000000,4.000000,4.000000,4.000000,4.000000,4.000000,4.000000,4.000000,4.000000,4.000000,4.000000,100.000000
1602005723.563076,86.000000,0.000000,4129.743652,4131.794922,4124.615234,4120.512695,4135.897461,4140.512695,4142.563965,4133.846191,4136.922852,4155.384766,4154.871582,4154.871582,4156.410156,4155.384766,873.000000,4.000000,,,,0.000000,4.000000,4.000000,4.000000,4.000000,4.000000,4.000000,4.000000,4.000000,4.000000,4.000000,4.000000,4.000000,4.000000,4.000000,100.000000
1602005723.570858,87.000000,0.000000,4124.615234,4128.205078,4124.615234,4120.000000,4136.410156,4143.077148,4141.025879,4141.538574,4147.179688,4155.897461,4157.436035,4156.410156,4154.871582,4153.846191,840.000000,4.000000,,,,0.000000,4.000000,4.000000,4.000000,4.000000,4.000000,4.000000,4.000000,4.000000,4.000000,4.000000,4.000000,4.000000,4.000000,4.000000,100.000000
1602005723.578739,88.000000,0.000000,4127.692383,4127.692383,4123.589844,4122.051270,4134.871582,4143.077148,4141.025879,4142.051270,4152.820313,4155.897461,4154.871582,4158.974121,4155.384766,4153.846191,780.000000,4.000000,,,,0.000000,4.000000,4.000000,4.000000,4.000000,4.000000,4.000000,4.000000,4.000000,4.000000,4.000000,4.000000,4.000000,4.000000,4.000000,100.000000
1602005723.586621,89.000000,0.000000,4125.128418,4123.589844,4120.512695,4120.000000,4127.692383,4135.384766,4139.487305,4135.897461,4137.948730,4147.179688,4145.641113,4154.358887,4151.794922,4146.666504,762.000000,4.000000,,,,0.000000,4.000000,4.000000,4.000000,4.000000,4.000000,4.000000,4.000000,4.000000,4.000000,4.000000,4.000000,4.000000,4.000000,4.000000,100.000000
1602005723.594502,90.000000,0.000000,4123.077148,4123.589844,4121.025879,4120.000000,4131.282227,4132.820313,4137.948730,4133.333496,4135.384766,4133.333496,4147.179688,4144.615234,4151.282227,4137.948730,873.000000,4.000000,,,,0.000000,4.000000,4.000000,4.000000,4.000000,4.000000,4.000000,4.000000,4.000000,4.000000,4.000000,4.000000,4.000000,4.000000,4.000000,100.000000
1602005723.602383,91.000000,0.000000,4125.128418,4128.205078,4125.128418,4124.102539,4136.922852,4135.897461,4129.743652,4131.794922,4146.153809,4137.948730,4157.948730,4142.563965,4153.333496,4133.846191,840.000000,4.000000,,,,0.000000,4.000000,4.000000,4.000000,4.000000,4.000000,4.000000,4.000000,4.000000,4.000000,4.000000,4.000000,4.000000,4.000000,4.000000,100.000000
1602005723.610265,92.000000,0.000000,4127.179688,4126.666504,4130.256348,4125.128418,4128.717773,4130.256348,4121.538574,4126.666504,4146.153809,4150.256348,4156.410156,4148.717773,4152.820313,4141.538574,780.000000,4.000000,,,,0.000000,4.000000,4.000000,4.000000,4.000000,4.000000,4.000000,4.000000,4.000000,4.000000,4.000000,4.000000,4.000000,4.000000,4.000000,100.000000
1602005723.618146,93.000000,0.000000,4135.897461,4127.179688,4135.897461,4126.153809,4128.205078,4124.102539,4124.102539,4123.077148,4140.000000,4153.333496,4151.282227,4155.384766,4153.846191,4155.897461,762.000000,4.000000,,,,0.000000,4.000000,4.000000,4.000000,4.000000,4.000000,4.000000,4.000000,4.000000,4.000000,4.000000,4.000000,4.000000,4.000000,4.000000,100.000000
1602005723.625928,94.000000,0.000000,4135.897461,4129.230957,4138.974121,4127.692383,4136.922852,4128.205078,4126.666504,4125.641113,4139.487305,4153.333496,4150.256348,4152.820313,4152.820313,4153.846191,873.000000,4.000000,,,,0.000000,4.000000,4.000000,4.000000,4.000000,4.000000,4.000000,4.000000,4.000000,4.000000,4.000000,4.000000,4.000000,4.000000,4.000000,100.000000
1602005723.633809,95.000000,0.000000,4120.000000,4118.974121,4135.897461,4123.077148,4130.769043,4135.897461,4126.666504,4129.230957,4145.128418,4143.077148,4142.563965,4145.128418,4141.025879,4137.436035,840.000000,4.000000,,,,0.000000,4.000000,4.000000,4.000000,4.000000,4.000000,4.000000,4.000000,4.000000,4.000000,4.000000,4.000000,4.000000,4.000000,4.000000,100.000000
1602005723.641691,96.000000,0.000000,4123.077148,4116.410156,4137.436035,4120.512695,4123.077148,4140.000000,4136.410156,4137.948730,4151.794922,4134.358887,4140.000000,4151.282227,4136.922852,4138.461426,780.000000,4.000000,,,,0.000000,4.000000,4.000000,4.000000,4.000000,4.000000,4.000000,4.000000,4.000000,4.000000,4.000000,4.000000,4.000000,4.000000,4.000000,100.000000
1602005723.649572,97.000000,0.000000,4133.333496,4123.077148,4142.051270,4121.538574,4125.641113,4141.025879,4144.102539,4144.102539,4145.641113,4138.974121,4145.641113,4158.461426,4142.563965,4145.641113,762.000000,4.000000,,,,0.000000,4.000000,4.000000,4.000000,4.000000,4.000000,4.000000,4.000000,4.000000,4.000000,4.000000,4.000000,4.000000,4.000000,4.000000,100.000000
1602005723.657453,98.000000,0.000000,4116.922852,4115.897461,4130.769043,4117.436035,4124.615234,4135.897461,4139.487305,4133.333496,4128.717773,4131.794922,4136.922852,4145.128418,4132.820313,4132.820313,873.000000,4.000000,,,,0.000000,4.000000,4.000000,4.000000,4.000000,4.000000,4.000000,4.000000,4.000000,4.000000,4.000000,4.000000,4.000000,4.000000,4.000000,100.000000
1602005723.665335,99.000000,0.000000,4106.666504,4110.769043,4116.922852,4117.436035,4122.051270,4133.846191,4136.410156,4122.051270,4123.589844,4117.948730,4125.128418,4129.743652,4120.512695,4118.974121,840.000000,4.000000,,,,0.000000,4.000000,4.000000,4.000000,4.000000,4.000000,4.000000,4.000000,4.000000,4.000000,4.000000,4.000000,4.000000,4.000000,4.000000,100.000000
1602005723.673116,100.000000,0.000000,4118.461426,4120.000000,4123.077148,4123.589844,4126.666504,4136.922852,4132.820313,4122.051270,4125.641113,4117.948730,4124.102539,4135.897461,4118.974121,4120.000000,780.000000,4.000000,,,,0.000000,4.000000,4.000000,4.000000,4.000000,4.000000,4.000000,4.000000,4.000000,4.000000,4.000000,4.000000,4.000000,4.000000,4.000000,100.000000
1602005723.680998,101.000000,0.000000,4123.589844,4127.179688,4137.436035,4126.153809,4131.282227,4125.128418,4124.102539,4122.563965,4128.205078,4113.846191,4121.538574,4145.128418,4120.512695,4128.717773,762.000000,4.000000,,,,0.000000,4.000000,4.000000,4.000000,4.000000,4.000000,4.000000,4.000000,4.000000,4.000000,4.000000,4.000000,4.000000,4.000000,4.000000,100.000000
1602005723.688880,102.000000,0.000000,4126.153809,4131.794922,4147.692383,4130.256348,4136.922852,4111.282227,4120.512695,4124.615234,4135.384766,4110.769043,4126.666504,4149.743652,4128.205078,4143.077148,873.000000,4.000000,,,,0.000000,4.000000,4.000000,4.000000,4.000000,4.000000,4.000000,4.000000,4.000000,4.000000,4.000000,4.000000,4.000000,4.000000,4.000000,100.000000
1602005723.696761,103.000000,0.000000,4140.512695,4140.512695,4156.922852,4138.974121,4137.436035,4116.922852,4121.025879,4128.717773,4138.974121,4131.794922,4147.692383,4162.563965,4140.512695,4155.384766,840.000000,4.000000,,,,0.000000,4.000000,4.000000,4.000000,4.000000,4.000000,4.000000,4.000000,4.000000,4.000000,4.000000,4.000000,4.000000,4.000000,4.000000,100.000000
1602005723.704643,104.000000,0.000000,4145.641113,4140.512695,4159.487305,4140.512695,4128.205078,4124.102539,4116.410156,4128.205078,4136.922852,4147.692383,4154.358887,4167.179688,4141.538574,4154.358887,780.000000,4.000000,,,,0.000000,4.000000,4.000000,4.000000,4.000000,4.000000,4.000000,4.000000,4.000000,4.000000,4.000000,4.000000,4.000000,4.000000,4.000000,100.000000
1602005723.712525,105.000000,0.000000,4137.436035,4136.922852,4152.820313,4136.410156,4121.538574,4123.589844,4115.384766,4124.102539,4138.461426,4140.512695,4147.692383,4161.025879,4138.974121,4150.256348,762.000000,4.000000,,,,0.000000,4.000000,4.000000,4.000000,4.000000,4.000000,4.000000,4.000000,4.000000,4.000000,4.000000,4.000000,4.000000,4.000000,4.000000,100.000000
1602005723.720406,106.000000,0.000000,4143.589844,4139.487305,4151.282227,4136.922852,4125.641113,4133.333496,4122.563965,4124.102539,4143.589844,4139.487305,4149.743652,4161.025879,4143.589844,4155.897461,873.000000,4.000000,,,,0.000000,4.000000,4.000000,4.000000,4.000000,4.000000,4.000000,4.000000,4.000000,4.000000,4.000000,4.000000,4.000000,4.000000,4.000000,100.000000
1602005723.728288,107.000000,0.000000,4151.794922,4141.025879,4155.384766,4136.922852,4128.205078,4141.538574,4121.538574,4124.102539,4140.000000,4135.897461,4149.743652,4161.025879,4142.051270,4158.974121,840.000000,4.000000,,,,0.000000,4.000000,4.000000,4.000000,4.000000,4.000000,4.000000,4.000000,4.000000,4.000000,4.000000,4.000000,4.000000,4.000000,4.000000,100.000000
1602005723.736170,108.000000,0.000000,4142.563965,4137.436035,4150.256348,4134.871582,4122.563965,4129.743652,4113.846191,4122.563965,4135.897461,4117.436035,4141.538574,4153.333496,4138.461426,4154.871582,780.000000,4.000000,,,,0.000000,4.000000,4.000000,4.000000,4.000000,4.000000,4.000000,4.000000,4.000000,4.000000,4.000000,4.000000,4.000000,4.000000,4.000000,100.000000
1602005723.743951,109.000000,0.000000,4142.563965,4136.922852,4143.589844,4135.384766,4124.615234,4127.179688,4117.948730,4123.589844,4141.538574,4124.615234,4150.769043,4151.282227,4149.743652,4155.897461,762.000000,4.000000,,,,0.000000,4.000000,4.000000,4.000000,4.000000,4.000000,4.000000,4.000000,4.000000,4.000000,4.000000,4.000000,4.000000,4.000000,4.000000,100.000000
1602005723.751833,110.000000,0.000000,4153.333496,4138.974121,4140.512695,4136.410156,4133.846191,4136.922852,4127.692383,4124.102539,4143.589844,4154.358887,4160.512695,4156.922852,4158.974121,4158.974121,873.000000,4.000000,,,,0.000000,4.000000,4.000000,4.000000,4.000000,4.000000,4.000000,4.000000,4.000000,4.000000,4.000000,4.000000,4.000000,4.000000,4.000000,100.000000
1602005723.759715,111.000000,0.000000,4145.641113,4140.000000,4133.333496,4134.358887,4135.897461,4133.846191,4122.051270,4120.000000,4132.307617,4156.410156,4148.205078,4152.307617,4153.333496,4154.871582,840.000000,4.000000,,,,0.000000,4.000000,4.000000,4.000000,4.000000,4.000000,4.000000,4.000000,4.000000,4.000000,4.000000,4.000000,4.000000,4.000000,4.000000,100.000000
1602005723.767596,112.000000,0.000000,4131.794922,4138.461426,4124.615234,4133.333496,4134.871582,4124.102539,4111.794922,4109.230957,4118.974121,4139.487305,4138.461426,4141.025879,4146.666504,4149.230957,780.000000,4.000000,,,,0.000000,4.000000,4.000000,4.000000,4.000000,4.000000,4.000000,4.000000,4.000000,4.000000,4.000000,4.000000,4.000000,4.000000,4.000000,100.000000
1602005723.775478,113.000000,0.000000,4140.512695,4138.461426,4132.307617,4134.871582,4133.846191,4124.615234,4113.846191,4107.692383,4113.846191,4135.384766,4149.743652,4143.077148,4150.769043,4152.820313,762.000000,4.000000,,,,0.000000,4.000000,4.000000,4.000000,4.000000,4.000000,4.000000,4.000000,4.000000,4.000000,4.000000,4.000000,4.000000,4.000000,4.000000,100.000000
1602005723.783360,114.000000,0.000000,4154.871582,4146.153809,4150.769043,4137.436035,4132.820313,4135.897461,4122.051270,4125.128418,4126.666504,4136.922852,4167.179688,4162.563965,4162.051270,4168.205078,873.000000,4.000000,,,,0.000000,4.000000,4.000000,4.000000,4.000000,4.000000,4.000000,4.000000,4.000000,4.000000,4.000000,4.000000,4.000000,4.000000,4.000000,100.000000
1602005723.791241,115.000000,0.000000,4157.948730,4153.333496,4156.922852,4138.461426,4135.384766,4141.538574,4127.692383,4142.051270,4155.897461,4142.051270,4173.846191,4174.871582,4171.794922,4180.512695,840.000000,4.000000,,,,0.000000,4.000000,4.000000,4.000000,4.000000,4.000000,4.000000,4.000000,4.000000,4.000000,4.000000,4.000000,4.000000,4.000000,4.000000,100.000000
1602005723.799123,116.000000,0.000000,4154.358887,4146.153809,4152.820313,4136.922852,4134.871582,4139.487305,4127.179688,4141.538574,4172.307617,4158.461426,4170.256348,4171.282227,4169.230957,4175.897461,780.000000,4.000000,,,,0.000000,4.000000,4.000000,4.000000,4.000000,4.000000,4.000000,4.000000,4.000000,4.000000,4.000000,4.000000,4.000000,4.000000,4.000000,100.000000
1602005723.807104,117.000000,0.000000,4152.307617,4138.974121,4151.794922,4135.897461,4127.692383,4138.974121,4127.179688,4136.922852,4169.230957,4171.794922,4160.512695,4166.666504,4160.000000,4168.205078,762.000000,4.000000,,,,0.000000,4.000000,4.000000,4.000000,4.000000,4.000000,4.000000,4.000000,4.000000,4.000000,4.000000,4.000000,4.000000,4.000000,4.000000,100.000000
1602005723.814985,118.000000,0.000000,4154.358887,4141.025879,4153.333496,4135.897461,4130.256348,4145.128418,4136.410156,4143.589844,4170.256348,4175.897461,4153.333496,4161.538574,4156.410156,4168.205078,873.000000,4.000000,,,,0.000000,4.000000,4.000000,4.000000,4.000000,4.000000,4.000000,4.000000,4.000000,4.000000,4.000000,4.000000,4.000000,4.000000,4.000000,100.000000
1602005723.822866,119.000000,0.000000,4155.384766,4135.897461,4151.794922,4136.922852,4139.487305,4143.589844,4143.589844,4153.846191,4169.743652,4171.282227,4160.000000,4157.436035,4160.512695,4171.794922,840.000000,4.000000,,,,0.000000,4.000000,4.000000,4.000000,4.000000,4.000000,4.000000,4.000000,4.000000,4.000000,4.000000,4.000000,4.000000,4.000000,4.000000,100.000000
1602005723.830847,120.000000,0.000000,4158.461426,4137.948730,4151.282227,4137.948730,4137.948730,4133.333496,4138.461426,4153.333496,4150.769043,4153.333496,4167.692383,4162.563965,4166.666504,4175.384766,780.000000,4.000000,,,,0.000000,4.000000,4.000000,4.000000,4.000000,4.000000,4.000000,4.000000,4.000000,4.000000,4.000000,4.000000,4.000000,4.000000,4.000000,100.000000
1602005723.838828,121.000000,0.000000,4164.102539,4153.846191,4155.897461,4138.974121,4134.358887,4127.692383,4135.897461,4143.077148,4136.410156,4136.922852,4162.051270,4169.743652,4170.256348,4177.948730,762.000000,4.000000,,,,0.000000,4.000000,4.000000,4.000000,4.000000,4.000000,4.000000,4.000000,4.000000,4.000000,4.000000,4.000000,4.000000,4.000000,4.000000,100.000000
1602005723.846710,122.000000,0.000000,4160.000000,4154.358887,4154.871582,4138.461426,4136.922852,4122.563965,4136.922852,4130.769043,4134.358887,4131.794922,4156.922852,4169.743652,4166.153809,4173.333496,873.000000,4.000000,,,,0.000000,4.000000,4.000000,4.000000,4.000000,4.000000,4.000000,4.000000,4.000000,4.000000,4.000000,4.000000,4.000000,4.000000,4.000000,100.000000
1602005723.854591,123.000000,0.000000,4156.922852,4147.179688,4149.743652,4136.410156,4135.384766,4116.922852,4128.717773,4122.051270,4121.538574,4135.384766,4158.974121,4163.589844,4156.922852,4167.692383,840.000000,4.000000,,,,0.000000,4.000000,4.000000,4.000000,4.000000,4.000000,4.000000,4.000000,4.000000,4.000000,4.000000,4.000000,4.000000,4.000000,4.000000,100.000000
1602005723.862473,124.000000,0.000000,4166.666504,4153.333496,4150.256348,4137.948730,4134.358887,4123.589844,4118.461426,4115.897461,4104.615234,4146.153809,4156.410156,4160.000000,4151.794922,4170.769043,780.000000,4.000000,,,,0.000000,4.000000,4.000000,4.000000,4.000000,4.000000,4.000000,4.000000,4.000000,4.000000,4.000000,4.000000,4.000000,4.000000,4.000000,100.000000
1602005723.870354,125.000000,0.000000,4169.230957,4155.897461,4149.230957,4139.487305,4137.948730,4138.461426,4119.487305,4116.922852,4114.358887,4152.307617,4152.820313,4160.000000,4154.871582,4174.358887,762.000000,4.000000,,,,0.000000,4.000000,4.000000,4.000000,4.000000,4.000000,4.000000,4.000000,4.000000,4.000000,4.000000,4.000000,4.000000,4.000000,4.000000,100.000000
1602005723.878235,126.000000,0.000000,4158.974121,4143.589844,4138.461426,4133.333496,4132.820313,4147.179688,4128.205078,4128.205078,4143.077148,4158.974121,4156.922852,4156.922852,4152.820313,4167.179688,873.000000,4.000000,,,,0.000000,4.000000,4.000000,4.000000,4.000000,4.000000,4.000000,4.000000,4.000000,4.000000,4.000000,4.000000,4.000000,4.000000,4.000000,100.000000
1602005723.886017,127.000000,0.000000,4152.820313,4137.436035,4132.820313,4127.692383,4126.153809,4152.307617,4136.410156,4145.128418,4164.615234,4163.077148,4155.897461,4155.897461,4143.589844,4158.461426,840.000000,4.000000,,,,0.000000,4.000000,4.000000,4.000000,4.000000,4.000000,4.000000,4.000000,4.000000,4.000000,4.000000,4.000000,4.000000,4.000000,4.000000,100.000000
1602005723.893899,128.000000,0.000000,4154.358887,4140.000000,4147.179688,4132.820313,4126.666504,4151.282227,4140.000000,4155.897461,4175.384766,4144.102539,4151.282227,4166.666504,4147.179688,4160.000000,780.000000,4.000000,,,,0.000000,4.000000,4.000000,4.000000,4.000000,4.000000,4.000000,4.000000,4.000000,4.000000,4.000000,4.000000,4.000000,4.000000,4.000000,100.000000
1602005723.901780,0.000000,0.000000,4153.846191,4138.974121,4153.333496,4131.794922,4127.692383,4136.922852,4135.897461,4153.846191,4169.230957,4122.051270,4155.897461,4170.256348,4152.307617,4160.512695,801.000000,4.000000,,,,0.000000,4.000000,4.000000,4.000000,4.000000,4.000000,4.000000,4.000000,4.000000,4.000000,4.000000,4.000000,4.000000,4.000000,4.000000,100.000000
1602005723.909662,1.000000,0.000000,4148.205078,4134.358887,4141.025879,4121.025879,4122.563965,4120.000000,4129.230957,4144.615234,4146.666504,4130.769043,4156.410156,4159.487305,4142.563965,4154.358887,796.000000,4.000000,,,,0.000000,4.000000,4.000000,4.000000,4.000000,4.000000,4.000000,4.000000,4.000000,4.000000,4.000000,4.000000,4.000000,4.000000,4.000000,100.000000
1602005723.917544,2.000000,0.000000,4146.153809,4135.384766,4135.897461,4124.102539,4118.461426,4112.820313,4125.641113,4132.307617,4131.794922,4145.641113,4143.077148,4153.333496,4136.922852,4154.358887,854.000000,4.000000,,,,0.000000,4.000000,4.000000,4.000000,4.000000,4.000000,4.000000,4.000000,4.000000,4.000000,4.000000,4.000000,4.000000,4.000000,4.000000,100.000000
1602005723.925425,3.000000,0.000000,4150.769043,4137.948730,4140.000000,4136.410156,4124.615234,4112.820313,4120.000000,4125.128418,4132.820313,4149.743652,4137.948730,4148.205078,4142.563965,4153.333496,863.000000,4.000000,,,,0.000000,4.000000,4.000000,4.000000,4.000000,4.000000,4.000000,4.000000,4.000000,4.000000,4.000000,4.000000,4.000000,4.000000,4.000000,100.000000
1602005723.933307,4.000000,0.000000,4153.846191,4142.563965,4140.512695,4138.461426,4136.410156,4119.487305,4119.487305,4130.256348,4136.410156,4165.128418,4150.256348,4144.102539,4142.563965,4151.282227,810.000000,4.000000,,,,0.000000,4.000000,4.000000,4.000000,4.000000,4.000000,4.000000,4.000000,4.000000,4.000000,4.000000,4.000000,4.000000,4.000000,4.000000,100.000000
1602005723.941189,5.000000,0.000000,4153.846191,4149.743652,4141.025879,4137.436035,4141.025879,4129.743652,4130.256348,4136.922852,4132.307617,4163.589844,4158.461426,4148.205078,4139.487305,4153.846191,825.000000,4.000000,,,,0.000000,4.000000,4.000000,4.000000,4.000000,4.000000,4.000000,4.000000,4.000000,4.000000,4.000000,4.000000,4.000000,4.000000,4.000000,100.000000
1602005723.949170,6.000000,0.000000,4150.769043,4149.230957,4138.974121,4137.948730,4137.436035,4137.948730,4137.948730,4135.897461,4122.051270,4123.589844,4148.717773,4152.820313,4141.538574,4157.436035,780.000000,4.000000,,,,0.000000,4.000000,4.000000,4.000000,4.000000,4.000000,4.000000,4.000000,4.000000,4.000000,4.000000,4.000000,4.000000,4.000000,4.000000,100.000000
1602005723.957052,7.000000,0.000000,4151.282227,4146.153809,4140.512695,4137.948730,4137.948730,4147.179688,4142.051270,4135.384766,4118.974121,4107.692383,4141.025879,4159.487305,4141.025879,4163.077148,693.000000,4.000000,,,,0.000000,4.000000,4.000000,4.000000,4.000000,4.000000,4.000000,4.000000,4.000000,4.000000,4.000000,4.000000,4.000000,4.000000,4.000000,100.000000
1602005723.964934,8.000000,0.000000,4164.615234,4151.282227,4153.333496,4139.487305,4141.025879,4154.871582,4150.256348,4147.179688,4135.384766,4130.256348,4146.153809,4171.794922,4146.153809,4166.666504,792.000000,4.000000,,,,0.000000,4.000000,4.000000,4.000000,4.000000,4.000000,4.000000,4.000000,4.000000,4.000000,4.000000,4.000000,4.000000,4.000000,4.000000,100.000000
1602005723.972816,9.000000,0.000000,4170.769043,4149.743652,4157.948730,4139.487305,4136.922852,4154.358887,4154.871582,4161.538574,4152.820313,4140.000000,4152.820313,4180.000000,4155.384766,4161.025879,839.000000,4.000000,,,,0.000000,4.000000,4.000000,4.000000,4.000000,4.000000,4.000000,4.000000,4.000000,4.000000,4.000000,4.000000,4.000000,4.000000,4.000000,100.000000
1602005723.980698,10.000000,0.000000,4159.487305,4140.000000,4153.846191,4137.948730,4134.871582,4153.333496,4154.358887,4170.769043,4158.461426,4145.128418,4162.051270,4184.102539,4157.436035,4164.102539,850.000000,4.000000,,,,0.000000,4.000000,4.000000,4.000000,4.000000,4.000000,4.000000,4.000000,4.000000,4.000000,4.000000,4.000000,4.000000,4.000000,4.000000,100.000000
1602005723.988580,11.000000,0.000000,4154.871582,4140.000000,4151.794922,4138.974121,4138.461426,4155.897461,4152.820313,4169.230957,4159.487305,4161.538574,4169.743652,4189.230957,4157.436035,4177.436035,840.000000,4.000000,,,,0.000000,4.000000,4.000000,4.000000,4.000000,4.000000,4.000000,4.000000,4.000000,4.000000,4.000000,4.000000,4.000000,4.000000,4.000000,100.000000
1602005723.996462,12.000000,0.000000,4158.461426,4143.589844,4146.153809,4137.948730,4138.461426,4149.743652,4144.615234,4154.358887,4146.153809,4151.794922,4164.102539,4186.666504,4154.358887,4171.282227,780.000000,4.000000,,,,0.000000,4.000000,4.000000,4.000000,4.000000,4.000000,4.000000,4.000000,4.000000,4.000000,4.000000,4.000000,4.000000,4.000000,4.000000,100.000000
1602005724.004344,13.000000,0.000000,4151.282227,4140.000000,4136.410156,4137.436035,4136.410156,4138.974121,4134.358887,4137.948730,4125.641113,4122.563965,4150.256348,4175.384766,4143.589844,4155.384766,761.000000,4.000000,,,,0.000000,4.000000,4.000000,4.000000,4.000000,4.000000,4.000000,4.000000,4.000000,4.000000,4.000000,4.000000,4.000000,4.000000,4.000000,100.000000
1602005724.012225,14.000000,0.000000,4136.410156,4136.410156,4129.743652,4137.436035,4140.000000,4141.025879,4135.897461,4134.358887,4117.948730,4122.051270,4141.538574,4163.077148,4135.384766,4151.282227,850.000000,4.000000,,,,0.000000,4.000000,4.000000,4.000000,4.000000,4.000000,4.000000,4.000000,4.000000,4.000000,4.000000,4.000000,4.000000,4.000000,4.000000,100.000000
1602005724.020107,15.000000,0.000000,4127.179688,4129.743652,4121.538574,4131.794922,4135.384766,4145.128418,4141.025879,4138.461426,4115.384766,4129.230957,4136.922852,4153.333496,4132.307617,4145.128418,840.000000,4.000000,,,,0.000000,4.000000,4.000000,4.000000,4.000000,4.000000,4.000000,4.000000,4.000000,4.000000,4.000000,4.000000,4.000000,4.000000,4.000000,100.000000
1602005724.027889,16.000000,0.000000,4127.692383,4123.589844,4119.487305,4127.179688,4123.589844,4139.487305,4138.974121,4135.897461,4109.743652,4108.205078,4135.897461,4154.358887,4126.153809,4139.487305,0.000000,4.000000,,,,0.000000,4.000000,4.000000,4.000000,4.000000,4.000000,4.000000,4.000000,4.000000,4.000000,4.000000,4.000000,4.000000,4.000000,4.000000,100.000000
1602005724.035770,17.000000,0.000000,4127.179688,4121.538574,4124.102539,4125.641113,4119.487305,4133.846191,4135.897461,4134.358887,4114.871582,4102.051270,4133.846191,4154.358887,4120.000000,4136.922852,0.000000,4.000000,,,,0.000000,4.000000,4.000000,4.000000,4.000000,4.000000,4.000000,4.000000,4.000000,4.000000,4.000000,4.000000,4.000000,4.000000,4.000000,100.000000
1602005724.043651,18.000000,0.000000,4121.025879,4121.025879,4124.615234,4121.538574,4120.000000,4135.384766,4136.922852,4138.461426,4129.230957,4124.615234,4129.230957,4151.282227,4118.461426,4130.256348,0.000000,4.000000,,,,0.000000,4.000000,4.000000,4.000000,4.000000,4.000000,4.000000,4.000000,4.000000,4.000000,4.000000,4.000000,4.000000,4.000000,4.000000,100.000000
1602005724.051532,19.000000,0.000000,4121.025879,4123.077148,4125.128418,4121.538574,4120.512695,4140.512695,4140.512695,4142.563965,4136.410156,4120.512695,4132.820313,4153.846191,4120.000000,4131.794922,0.000000,4.000000,,,,0.000000,4.000000,4.000000,4.000000,4.000000,4.000000,4.000000,4.000000,4.000000,4.000000,4.000000,4.000000,4.000000,4.000000,4.000000,100.000000
1602005724.059314,20.000000,0.000000,4120.000000,4123.077148,4123.589844,4123.589844,4119.487305,4137.948730,4136.922852,4142.563965,4136.922852,4100.000000,4136.410156,4151.794922,4119.487305,4138.974121,0.000000,4.000000,,,,0.000000,4.000000,4.000000,4.000000,4.000000,4.000000,4.000000,4.000000,4.000000,4.000000,4.000000,4.000000,4.000000,4.000000,4.000000,100.000000
1602005724.067195,21.000000,0.000000,4118.974121,4121.025879,4120.512695,4120.000000,4115.897461,4130.769043,4132.307617,4146.153809,4136.922852,4120.000000,4139.487305,4143.589844,4122.051270,4136.410156,0.000000,4.000000,,,,0.000000,4.000000,4.000000,4.000000,4.000000,4.000000,4.000000,4.000000,4.000000,4.000000,4.000000,4.000000,4.000000,4.000000,4.000000,100.000000
1602005724.075077,22.000000,0.000000,4133.846191,4134.358887,4131.282227,4127.179688,4122.563965,4143.589844,4142.563965,4161.538574,4148.717773,4154.871582,4151.282227,4154.358887,4137.436035,4139.487305,0.000000,4.000000,,,,0.000000,4.000000,4.000000,4.000000,4.000000,4.000000,4.000000,4.000000,4.000000,4.000000,4.000000,4.000000,4.000000,4.000000,4.000000,100.000000
1602005724.082959,23.000000,0.000000,4147.179688,4150.769043,4144.615234,4142.563965,4136.922852,4161.025879,4157.436035,4177.436035,4163.077148,4148.717773,4161.025879,4173.333496,4152.307617,4150.769043,0.000000,4.000000,,,,0.000000,4.000000,4.000000,4.000000,4.000000,4.000000,4.000000,4.000000,4.000000,4.000000,4.000000,4.000000,4.000000,4.000000,4.000000,100.000000
1602005724.090840,24.000000,0.000000,4139.487305,4146.153809,4141.025879,4142.563965,4136.410156,4146.666504,4154.358887,4172.820313,4156.410156,4129.230957,4159.487305,4167.179688,4145.128418,4146.666504,0.000000,4.000000,,,,0.000000,4.000000,4.000000,4.000000,4.000000,4.000000,4.000000,4.000000,4.000000,4.000000,4.000000,4.000000,4.000000,4.000000,4.000000,100.000000
1602005724.098722,25.000000,0.000000,4132.307617,4136.922852,4134.358887,4135.897461,4132.307617,4130.769043,4143.077148,4158.461426,4137.948730,4129.230957,4148.717773,4151.282227,4134.358887,4136.410156,0.000000,4.000000,,,,0.000000,4.000000,4.000000,4.000000,4.000000,4.000000,4.000000,4.000000,4.000000,4.000000,4.000000,4.000000,4.000000,4.000000,4.000000,100.000000
1602005724.106604,26.000000,0.000000,4141.538574,4145.128418,4141.538574,4141.025879,4140.000000,4140.512695,4139.487305,4150.256348,4125.641113,4131.282227,4140.000000,4151.282227,4140.000000,4140.512695,0.000000,4.000000,,,,0.000000,4.000000,4.000000,4.000000,4.000000,4.000000,4.000000,4.000000,4.000000,4.000000,4.000000,4.000000,4.000000,4.000000,4.000000,100.000000
1602005724.114485,27.000000,0.000000,4141.538574,4145.641113,4140.512695,4142.051270,4133.846191,4140.000000,4131.794922,4137.436035,4117.948730,4123.589844,4136.922852,4148.205078,4138.461426,4140.512695,0.000000,4.000000,,,,0.000000,4.000000,4.000000,4.000000,4.000000,4.000000,4.000000,4.000000,4.000000,4.000000,4.000000,4.000000,4.000000,4.000000,4.000000,100.000000
1602005724.122467,28.000000,0.000000,4127.179688,4129.743652,4124.102539,4129.230957,4117.436035,4124.615234,4121.025879,4119.487305,4110.256348,4124.615234,4134.871582,4135.897461,4124.102539,4132.820313,0.000000,4.000000,,,,0.000000,4.000000,4.000000,4.000000,4.000000,4.000000,4.000000,4.000000,4.000000,4.000000,4.000000,4.000000,4.000000,4.000000,4.000000,100.000000
1602005724.130348,29.000000,0.000000,4126.153809,4126.153809,4124.102539,4128.717773,4120.000000,4131.282227,4128.205078,4121.025879,4109.743652,4135.384766,4137.436035,4139.487305,4127.692383,4141.025879,0.000000,4.000000,,,,0.000000,4.000000,4.000000,4.000000,4.000000,4.000000,4.000000,4.000000,4.000000,4.000000,4.000000,4.000000,4.000000,4.000000,4.000000,100.000000
1602005724.138229,30.000000,0.000000,4138.461426,4137.948730,4133.333496,4135.384766,4130.769043,4149.230957,4142.051270,4138.461426,4125.128418,4138.461426,4151.282227,4152.307617,4149.230957,4155.897461,0.000000,4.000000,,,,0.000000,4.000000,4.000000,4.000000,4.000000,4.000000,4.000000,4.000000,4.000000,4.000000,4.000000,4.000000,4.000000,4.000000,4.000000,100.000000
1602005724.146111,31.000000,0.000000,4138.461426,4139.487305,4127.179688,4129.230957,4124.615234,4141.025879,4141.025879,4143.077148,4143.077148,4137.436035,4157.436035,4154.871582,4156.410156,4154.358887,0.000000,4.000000,,,,0.000000,4.000000,4.000000,4.000000,4.000000,4.000000,4.000000,4.000000,4.000000,4.000000,4.000000,4.000000,4.000000,4.000000,4.000000,100.000000
1602005724.153992,32.000000,0.000000,4137.948730,4132.307617,4127.692383,4126.666504,4117.436035,4129.230957,4135.384766,4142.051270,4152.820313,4137.436035,4157.948730,4162.563965,4151.282227,4152.820313,0.000000,4.000000,,,,0.000000,4.000000,4.000000,4.000000,4.000000,4.000000,4.000000,4.000000,4.000000,4.000000,4.000000,4.000000,4.000000,4.000000,4.000000,100.000000
1602005724.161974,33.000000,0.000000,4151.282227,4141.538574,4145.128418,4137.948730,4126.153809,4140.000000,4137.436035,4151.282227,4163.589844,4141.025879,4169.230957,4176.410156,4157.436035,4166.153809,0.000000,4.000000,,,,0.000000,4.000000,4.000000,4.000000,4.000000,4.000000,4.000000,4.000000,4.000000,4.000000,4.000000,4.000000,4.000000,4.000000,4.000000,100.000000
1602005724.169856,34.000000,0.000000,4156.410156,4154.871582,4149.230957,4142.563965,4131.282227,4147.179688,4138.974121,4159.487305,4175.897461,4157.948730,4171.794922,4176.922852,4169.230957,4171.794922,0.000000,4.000000,,,,0.000000,4.000000,4.000000,4.000000,4.000000,4.000000,4.000000,4.000000,4.000000,4.000000,4.000000,4.000000,4.000000,4.000000,4.000000,100.000000
1602005724.177738,35.000000,0.000000,4153.846191,4153.333496,4141.025879,4140.512695,4133.333496,4141.025879,4137.948730,4157.948730,4177.436035,4172.820313,4158.974121,4171.794922,4169.743652,4170.769043,0.000000,4.000000,,,,0.000000,4.000000,4.000000,4.000000,4.000000,4.000000,4.000000,4.000000,4.000000,4.000000,4.000000,4.000000,4.000000,4.000000,4.000000,100.000000
1602005724.185620,36.000000,0.000000,4151.282227,4145.128418,4142.563965,4141.538574,4133.846191,4139.487305,4135.384766,4151.282227,4167.692383,4163.077148,4161.538574,4171.282227,4161.025879,4171.282227,0.000000,4.000000,,,,0.000000,4.000000,4.000000,4.000000,4.000000,4.000000,4.000000,4.000000,4.000000,4.000000,4.000000,4.000000,4.000000,4.000000,4.000000,100.000000
1602005724.193502,37.000000,0.000000,4142.051270,4140.512695,4142.051270,4137.436035,4128.717773,4141.025879,4134.358887,4143.077148,4153.846191,4141.538574,4168.717773,4170.769043,4155.897461,4161.538574,0.000000,4.000000,,,,0.000000,4.000000,4.000000,4.000000,4.000000,4.000000,4.000000,4.000000,4.000000,4.000000,4.000000,4.000000,4.000000,4.000000,4.000000,100.000000
1602005724.201383,38.000000,0.000000,4134.871582,4138.461426,4138.974121,4134.871582,4128.717773,4138.974121,4135.897461,4138.974121,4142.563965,4136.410156,4161.025879,4168.717773,4156.410156,4151.794922,0.000000,4.000000,,,,0.000000,4.000000,4.000000,4.000000,4.000000,4.000000,4.000000,4.000000,4.000000,4.000000,4.000000,4.000000,4.000000,4.000000,4.000000,100.000000
1602005724.209265,39.000000,0.000000,4131.282227,4131.794922,4140.000000,4133.333496,4133.333496,4141.538574,4136.410156,4132.820313,4129.743652,4140.000000,4152.307617,4161.025879,4148.205078,4150.256348,0.000000,4.000000,,,,0.000000,4.000000,4.000000,4.000000,4.000000,4.000000,4.000000,4.000000,4.000000,4.000000,4.000000,4.000000,4.000000,4.000000,4.000000,100.000000
1602005724.217147,40.000000,0.000000,4121.025879,4123.077148,4132.820313,4123.589844,4126.666504,4137.948730,4136.922852,4121.025879,4118.461426,4131.282227,4146.666504,4144.615234,4135.897461,4141.538574,0.000000,4.000000,,,,0.000000,4.000000,4.000000,4.000000,4.000000,4.000000,4.000000,4.000000,4.000000,4.000000,4.000000,4.000000,4.000000,4.000000,4.000000,100.000000
1602005724.225029,41.000000,0.000000,4116.410156,4120.512695,4121.538574,4120.512695,4113.846191,4128.717773,4139.487305,4120.000000,4127.179688,4128.205078,4142.563965,4144.102539,4138.461426,4136.922852,0.000000,4.000000,,,,0.000000,4.000000,4.000000,4.000000,4.000000,4.000000,4.000000,4.000000,4.000000,4.000000,4.000000,4.000000,4.000000,4.000000,4.000000,100.000000
1602005724.232911,42.000000,0.000000,4123.077148,4123.589844,4118.461426,4126.153809,4118.974121,4134.871582,4141.025879,4127.692383,4141.538574,4142.051270,4143.589844,4152.307617,4143.077148,4138.461426,0.000000,4.000000,,,,0.000000,4.000000,4.000000,4.000000,4.000000,4.000000,4.000000,4.000000,4.000000,4.000000,4.000000,4.000000,4.000000,4.000000,4.000000,100.000000
1602005724.240692,43.000000,0.000000,4123.077148,4122.051270,4120.000000,4126.666504,4121.538574,4136.922852,4134.358887,4124.102539,4135.384766,4143.589844,4137.948730,4142.563965,4132.820313,4124.102539,0.000000,4.000000,,,,0.000000,4.000000,4.000000,4.000000,4.000000,4.000000,4.000000,4.000000,4.000000,4.000000,4.000000,4.000000,4.000000,4.000000,4.000000,100.000000
1602005724.248573,44.000000,0.000000,4126.153809,4127.692383,4128.717773,4130.256348,4120.000000,4134.358887,4131.794922,4127.179688,4144.102539,4138.974121,4136.410156,4142.563965,4136.410156,4123.589844,0.000000,4.000000,,,,0.000000,4.000000,4.000000,4.000000,4.000000,4.000000,4.000000,4.000000,4.000000,4.000000,4.000000,4.000000,4.000000,4.000000,4.000000,100.000000
1602005724.256355,45.000000,0.000000,4141.538574,4141.025879,4142.563965,4142.051270,4130.256348,4146.666504,4137.436035,4149.230957,4168.205078,4144.102539,4154.871582,4165.641113,4158.974121,4148.717773,0.000000,4.000000,,,,0.000000,4.000000,4.000000,4.000000,4.000000,4.000000,4.000000,4.000000,4.000000,4.000000,4.000000,4.000000,4.000000,4.000000,4.000000,100.000000
1602005724.264237,46.000000,0.000000,4141.025879,4138.461426,4138.974121,4140.512695,4133.846191,4154.871582,4138.461426,4157.436035,4165.641113,4142.563965,4160.000000,4163.589844,4159.487305,4151.794922,0.000000,4.000000,,,,0.000000,4.000000,4.000000,4.000000,4.000000,4.000000,4.000000,4.000000,4.000000,4.000000,4.000000,4.000000,4.000000,4.000000,4.000000,100.000000
1602005724.272118,47.000000,0.000000,4124.615234,4126.666504,4123.077148,4128.205078,4124.102539,4148.205078,4131.794922,4145.641113,4153.846191,4138.974121,4140.512695,4138.461426,4142.563965,4134.358887,0.000000,4.000000,,,,0.000000,4.000000,4.000000,4.000000,4.000000,4.000000,4.000000,4.000000,4.000000,4.000000,4.000000,4.000000,4.000000,4.000000,4.000000,100.000000
1602005724.280000,48.000000,0.000000,4120.512695,4124.615234,4120.512695,4123.077148,4118.461426,4148.717773,4127.692383,4138.461426,4150.769043,4142.051270,4131.794922,4133.333496,4133.846191,4126.153809,0.000000,4.000000,,,,0.000000,4.000000,4.000000,4.000000,4.000000,4.000000,4.000000,4.000000,4.000000,4.000000,4.000000,4.000000,4.000000,4.000000,4.000000,100.000000
1602005724.287882,49.000000,0.000000,4126.666504,4125.641113,4125.641113,4127.179688,4121.538574,4155.384766,4130.769043,4137.436035,4135.897461,4134.871582,4136.410156,4140.512695,4127.692383,4127.692383,0.000000,4.000000,,,,0.000000,4.000000,4.000000,4.000000,4.000000,4.000000,4.000000,4.000000,4.000000,4.000000,4.000000,4.000000,4.000000,4.000000,4.000000,100.000000
1602005724.295763,50.000000,0.000000,4122.563965,4127.179688,4124.102539,4131.794922,4122.051270,4149.743652,4140.000000,4135.384766,4120.000000,4121.025879,4138.461426,4143.077148,4125.641113,4132.307617,0.000000,4.000000,,,,0.000000,4.000000,4.000000,4.000000,4.000000,4.000000,4.000000,4.000000,4.000000,4.000000,4.000000,4.000000,4.000000,4.000000,4.000000,100.000000
1602005724.303645,51.000000,0.000000,4122.051270,4135.897461,4122.563965,4136.922852,4123.077148,4141.025879,4147.692383,4136.410156,4120.000000,4113.846191,4138.461426,4142.051270,4135.384766,4134.358887,0.000000,4.000000,,,,0.000000,4.000000,4.000000,4.000000,4.000000,4.000000,4.000000,4.000000,4.000000,4.000000,4.000000,4.000000,4.000000,4.000000,4.000000,100.000000
1602005724.311427,52.000000,0.000000,4131.794922,4140.000000,4128.205078,4138.461426,4122.563965,4136.410156,4143.589844,4131.282227,4115.384766,4114.871582,4135.384766,4138.974121,4139.487305,4131.794922,0.000000,4.000000,,,,0.000000,4.000000,4.000000,4.000000,4.000000,4.000000,4.000000,4.000000,4.000000,4.000000,4.000000,4.000000,4.000000,4.000000,4.000000,100.000000
1602005724.319308,53.000000,0.000000,4134.871582,4131.794922,4135.384766,4133.846191,4115.897461,4133.846191,4132.820313,4117.948730,4104.102539,4119.487305,4134.358887,4143.589844,4133.846191,4136.410156,0.000000,4.000000,,,,0.000000,4.000000,4.000000,4.000000,4.000000,4.000000,4.000000,4.000000,4.000000,4.000000,4.000000,4.000000,4.000000,4.000000,4.000000,100.000000
1602005724.327190,54.000000,0.000000,4132.820313,4123.589844,4137.948730,4132.820313,4116.922852,4134.358887,4132.820313,4115.384766,4106.153809,4122.051270,4136.410156,4153.846191,4130.256348,4144.615234,0.000000,4.000000,,,,0.000000,4.000000,4.000000,4.000000,4.000000,4.000000,4.000000,4.000000,4.000000,4.000000,4.000000,4.000000,4.000000,4.000000,4.000000,100.000000
1602005724.335072,55.000000,0.000000,4135.384766,4125.641113,4137.436035,4135.897461,4121.538574,4133.846191,4137.436035,4120.000000,4112.307617,4118.974121,4130.769043,4153.333496,4124.102539,4143.077148,0.000000,4.000000,,,,0.000000,4.000000,4.000000,4.000000,4.000000,4.000000,4.000000,4.000000,4.000000,4.000000,4.000000,4.000000,4.000000,4.000000,4.000000,100.000000
1602005724.342953,56.000000,0.000000,4140.000000,4132.820313,4137.436035,4137.436035,4122.051270,4134.871582,4131.794922,4123.077148,4116.410156,4119.487305,4126.666504,4149.743652,4122.563965,4140.000000,0.000000,4.000000,,,,0.000000,4.000000,4.000000,4.000000,4.000000,4.000000,4.000000,4.000000,4.000000,4.000000,4.000000,4.000000,4.000000,4.000000,4.000000,100.000000
1602005724.350835,57.000000,0.000000,4141.025879,4137.436035,4138.461426,4137.948730,4122.051270,4137.436035,4122.051270,4130.256348,4125.641113,4125.641113,4136.410156,4156.410156,4135.384766,4142.563965,0.000000,4.000000,,,,0.000000,4.000000,4.000000,4.000000,4.000000,4.000000,4.000000,4.000000,4.000000,4.000000,4.000000,4.000000,4.000000,4.000000,4.000000,100.000000
1602005724.358717,58.000000,0.000000,4140.000000,4140.000000,4139.487305,4138.461426,4124.102539,4142.563965,4120.512695,4137.948730,4139.487305,4126.666504,4150.256348,4160.512695,4145.641113,4146.666504,0.000000,4.000000,,,,0.000000,4.000000,4.000000,4.000000,4.000000,4.000000,4.000000,4.000000,4.000000,4.000000,4.000000,4.000000,4.000000,4.000000,4.000000,100.000000
1602005724.366598,59.000000,0.000000,4135.897461,4137.436035,4133.333496,4137.948730,4123.589844,4151.282227,4124.102539,4136.410156,4145.128418,4127.692383,4152.307617,4150.256348,4141.538574,4143.589844,0.000000,4.000000,,,,0.000000,4.000000,4.000000,4.000000,4.000000,4.000000,4.000000,4.000000,4.000000,4.000000,4.000000,4.000000,4.000000,4.000000,4.000000,100.000000
1602005724.374480,60.000000,0.000000,4129.230957,4128.717773,4122.563965,4131.794922,4121.538574,4155.897461,4131.282227,4135.897461,4142.563965,4132.820313,4141.025879,4137.436035,4130.769043,4134.358887,0.000000,4.000000,,,,0.000000,4.000000,4.000000,4.000000,4.000000,4.000000,4.000000,4.000000,4.000000,4.000000,4.000000,4.000000,4.000000,4.000000,4.000000,100.000000
