Timestamp,EEG.Counter,EEG.Interpolated,EEG.AF3,EEG.F7,EEG.F3,EEG.FC5,EEG.T7,EEG.P7,EEG.O1,EEG.O2,EEG.P8,EEG.T8,EEG.FC6,EEG.F4,EEG.F8,EEG.AF4,EEG.RawCq,EEG.Battery,MarkerIndex,MarkerType,MarkerValueInt,EEG.MarkerHardware,CQ.AF3,CQ.F7,CQ.F3,CQ.FC5,CQ.T7,CQ.P7,CQ.O1,CQ.O2,CQ.P8,CQ.T8,CQ.FC6,CQ.F4,CQ.F8,CQ.AF4,CQ.Overall
1602005734.871129,102.000000,0.000000,4178.974121,4138.974121,4137.948730,4151.794922,4136.922852,4134.871582,4134.871582,4126.666504,4132.820313,4137.436035,4091.794922,4142.563965,4138.461426,4201.025879,874.000000,4.000000,,,,0.000000,4.000000,4.000000,4.000000,4.000000,4.000000,4.000000,4.000000,4.000000,4.000000,4.000000,4.000000,4.000000,4.000000,4.000000,100.000000
1602005734.879110,103.000000,0.000000,4186.666504,4138.461426,4138.974121,4152.307617,4135.897461,4136.922852,4128.205078,4115.384766,4115.897461,4146.666504,4088.718018,4136.410156,4132.307617,4198.974121,841.000000,4.000000,,,,0.000000,4.000000,4.000000,4.000000,4.000000,4.000000,4.000000,4.000000,4.000000,4.000000,4.000000,4.000000,4.000000,4.000000,4.000000,100.000000
1602005734.886991,104.000000,0.000000,4190.256348,4147.179688,4143.077148,4157.948730,4134.358887,4137.436035,4124.615234,4108.717773,4107.179688,4151.794922,4092.820557,4148.205078,4137.436035,4204.102539,785.000000,4.000000,,,,0.000000,4.000000,4.000000,4.000000,4.000000,4.000000,4.000000,4.000000,4.000000,4.000000,4.000000,4.000000,4.000000,4.000000,4.000000,100.000000
1602005734.894872,105.000000,0.000000,4190.256348,4155.897461,4143.589844,4155.897461,4126.666504,4130.256348,4124.102539,4109.743652,4107.692383,4133.333496,4102.563965,4155.384766,4142.563965,4206.666504,769.000000,4.000000,,,,0.000000,4.000000,4.000000,4.000000,4.000000,4.000000,4.000000,4.000000,4.000000,4.000000,4.000000,4.000000,4.000000,4.000000,4.000000,100.000000
1602005734.902654,106.000000,0.000000,4193.846191,4154.871582,4144.615234,4159.487305,4120.512695,4123.589844,4125.128418,4123.589844,4117.436035,4135.384766,4110.769043,4152.307617,4142.051270,4208.205078,874.000000,4.000000,,,,0.000000,4.000000,4.000000,4.000000,4.000000,4.000000,4.000000,4.000000,4.000000,4.000000,4.000000,4.000000,4.000000,4.000000,4.000000,100.000000
1602005734.910535,107.000000,0.000000,4205.128418,4156.410156,4153.846191,4166.666504,4135.384766,4132.820313,4135.897461,4139.487305,4133.333496,4153.333496,4107.692383,4154.871582,4145.128418,4214.871582,841.000000,4.000000,,,,0.000000,4.000000,4.000000,4.000000,4.000000,4.000000,4.000000,4.000000,4.000000,4.000000,4.000000,4.000000,4.000000,4.000000,4.000000,100.000000
1602005734.918416,108.000000,0.000000,4205.641113,4156.922852,4150.769043,4158.974121,4145.128418,4144.615234,4145.641113,4143.589844,4146.153809,4144.615234,4097.948730,4158.461426,4142.051270,4210.256348,785.000000,4.000000,,,,0.000000,4.000000,4.000000,4.000000,4.000000,4.000000,4.000000,4.000000,4.000000,4.000000,4.000000,4.000000,4.000000,4.000000,4.000000,100.000000
1602005734.926297,109.000000,0.000000,4191.282227,4148.205078,4138.461426,4147.692383,4130.256348,4137.948730,4142.051270,4139.487305,4149.743652,4140.512695,4092.307617,4149.743652,4129.743652,4195.384766,769.000000,4.000000,,,,0.000000,4.000000,4.000000,4.000000,4.000000,4.000000,4.000000,4.000000,4.000000,4.000000,4.000000,4.000000,4.000000,4.000000,4.000000,100.000000
1602005734.934079,110.000000,0.000000,4184.615234,4140.512695,4138.461426,4149.743652,4129.230957,4133.333496,4138.461426,4133.846191,4145.641113,4153.333496,4086.666748,4142.563965,4122.563965,4188.717773,874.000000,4.000000,,,,0.000000,4.000000,4.000000,4.000000,4.000000,4.000000,4.000000,4.000000,4.000000,4.000000,4.000000,4.000000,4.000000,4.000000,4.000000,100.000000
1602005734.941960,111.000000,0.000000,4191.282227,4142.563965,4141.025879,4152.307617,4132.820313,4139.487305,4139.487305,4125.641113,4136.410156,4145.641113,4081.025635,4145.128418,4122.563965,4189.743652,841.000000,4.000000,,,,0.000000,4.000000,4.000000,4.000000,4.000000,4.000000,4.000000,4.000000,4.000000,4.000000,4.000000,4.000000,4.000000,4.000000,4.000000,100.000000
1602005734.949842,112.000000,0.000000,4202.051270,4148.717773,4140.512695,4152.307617,4123.077148,4141.538574,4138.461426,4124.615234,4137.948730,4150.256348,4093.333252,4152.307617,4132.820313,4197.436035,785.000000,4.000000,,,,0.000000,4.000000,4.000000,4.000000,4.000000,4.000000,4.000000,4.000000,4.000000,4.000000,4.000000,4.000000,4.000000,4.000000,4.000000,100.000000
1602005734.957724,113.000000,0.000000,4208.205078,4156.410156,4143.589844,4155.897461,4131.794922,4143.589844,4136.410156,4130.256348,4148.717773,4172.307617,4112.820313,4154.871582,4149.230957,4210.256348,769.000000,4.000000,,,,0.000000,4.000000,4.000000,4.000000,4.000000,4.000000,4.000000,4.000000,4.000000,4.000000,4.000000,4.000000,4.000000,4.000000,4.000000,100.000000
1602005734.965605,114.000000,0.000000,4199.487305,4153.846191,4142.051270,4154.358887,4144.615234,4141.538574,4134.871582,4128.717773,4144.102539,4162.563965,4106.666504,4145.641113,4147.692383,4208.205078,874.000000,4.000000,,,,0.000000,4.000000,4.000000,4.000000,4.000000,4.000000,4.000000,4.000000,4.000000,4.000000,4.000000,4.000000,4.000000,4.000000,4.000000,100.000000
1602005734.973487,115.000000,0.000000,4185.641113,4141.538574,4135.897461,4149.230957,4134.358887,4136.922852,4135.384766,4127.692383,4127.692383,4149.743652,4091.794922,4135.384766,4128.717773,4190.256348,841.000000,4.000000,,,,0.000000,4.000000,4.000000,4.000000,4.000000,4.000000,4.000000,4.000000,4.000000,4.000000,4.000000,4.000000,4.000000,4.000000,4.000000,100.000000
1602005734.981369,116.000000,0.000000,4180.512695,4136.410156,4135.384766,4150.769043,4121.538574,4135.897461,4135.897461,4133.333496,4125.641113,4151.794922,4094.871826,4136.922852,4125.128418,4180.000000,785.000000,4.000000,,,,0.000000,4.000000,4.000000,4.000000,4.000000,4.000000,4.000000,4.000000,4.000000,4.000000,4.000000,4.000000,4.000000,4.000000,4.000000,100.000000
1602005734.989250,117.000000,0.000000,4185.641113,4140.000000,4138.461426,4150.769043,4123.589844,4141.025879,4136.922852,4137.948730,4138.461426,4134.871582,4099.487305,4137.436035,4137.436035,4190.769043,769.000000,4.000000,,,,0.000000,4.000000,4.000000,4.000000,4.000000,4.000000,4.000000,4.000000,4.000000,4.000000,4.000000,4.000000,4.000000,4.000000,4.000000,100.000000
1602005734.997132,118.000000,0.000000,4190.769043,4141.025879,4140.000000,4144.102539,4132.307617,4147.179688,4138.461426,4138.974121,4141.538574,4130.769043,4098.974121,4140.512695,4141.025879,4201.538574,874.000000,4.000000,,,,0.000000,4.000000,4.000000,4.000000,4.000000,4.000000,4.000000,4.000000,4.000000,4.000000,4.000000,4.000000,4.000000,4.000000,4.000000,100.000000
1602005735.004913,119.000000,0.000000,4188.205078,4140.512695,4141.025879,4145.641113,4142.051270,4146.153809,4139.487305,4138.974121,4138.974121,4157.436035,4103.589844,4150.769043,4139.487305,4197.948730,841.000000,4.000000,,,,0.000000,4.000000,4.000000,4.000000,4.000000,4.000000,4.000000,4.000000,4.000000,4.000000,4.000000,4.000000,4.000000,4.000000,4.000000,100.000000
1602005735.012794,120.000000,0.000000,4190.256348,4147.179688,4142.563965,4153.333496,4142.051270,4139.487305,4137.948730,4138.974121,4140.512695,4164.102539,4108.717773,4153.846191,4141.538574,4198.974121,785.000000,4.000000,,,,0.000000,4.000000,4.000000,4.000000,4.000000,4.000000,4.000000,4.000000,4.000000,4.000000,4.000000,4.000000,4.000000,4.000000,4.000000,100.000000
1602005735.020675,121.000000,0.000000,4195.897461,4154.358887,4145.128418,4153.846191,4131.282227,4132.307617,4138.461426,4136.922852,4134.871582,4146.153809,4108.205078,4148.205078,4144.102539,4211.794922,769.000000,4.000000,,,,0.000000,4.000000,4.000000,4.000000,4.000000,4.000000,4.000000,4.000000,4.000000,4.000000,4.000000,4.000000,4.000000,4.000000,4.000000,100.000000
1602005735.028557,122.000000,0.000000,4195.384766,4151.282227,4146.666504,4151.282227,4124.615234,4131.282227,4144.102539,4131.282227,4120.512695,4144.102539,4111.282227,4153.333496,4146.666504,4218.974121,874.000000,4.000000,,,,0.000000,4.000000,4.000000,4.000000,4.000000,4.000000,4.000000,4.000000,4.000000,4.000000,4.000000,4.000000,4.000000,4.000000,4.000000,100.000000
1602005735.036338,123.000000,0.000000,4187.179688,4140.000000,4144.615234,4152.307617,4122.563965,4124.615234,4136.410156,4115.384766,4098.974121,4134.871582,4110.256348,4155.897461,4141.538574,4210.256348,841.000000,4.000000,,,,0.000000,4.000000,4.000000,4.000000,4.000000,4.000000,4.000000,4.000000,4.000000,4.000000,4.000000,4.000000,4.000000,4.000000,4.000000,100.000000
1602005735.044220,124.000000,0.000000,4181.025879,4132.820313,4140.000000,4149.743652,4120.000000,4105.641113,4120.000000,4104.102539,4082.564209,4122.051270,4094.871826,4140.512695,4123.077148,4200.512695,785.000000,4.000000,,,,0.000000,4.000000,4.000000,4.000000,4.000000,4.000000,4.000000,4.000000,4.000000,4.000000,4.000000,4.000000,4.000000,4.000000,4.000000,100.000000
1602005735.052102,125.000000,0.000000,4187.179688,4137.948730,4141.538574,4149.230957,4121.025879,4101.538574,4118.461426,4111.282227,4084.102539,4136.922852,4090.256348,4135.384766,4122.051270,4198.974121,769.000000,4.000000,,,,0.000000,4.000000,4.000000,4.000000,4.000000,4.000000,4.000000,4.000000,4.000000,4.000000,4.000000,4.000000,4.000000,4.000000,4.000000,100.000000
1602005735.059983,126.000000,0.000000,4193.846191,4143.589844,4143.589844,4154.871582,4122.563965,4121.538574,4122.051270,4117.948730,4102.563965,4158.461426,4102.051270,4145.641113,4136.922852,4198.461426,874.000000,4.000000,,,,0.000000,4.000000,4.000000,4.000000,4.000000,4.000000,4.000000,4.000000,4.000000,4.000000,4.000000,4.000000,4.000000,4.000000,4.000000,100.000000
1602005735.067865,127.000000,0.000000,4181.538574,4136.922852,4132.307617,4148.717773,4116.410156,4124.615234,4115.897461,4115.384766,4118.461426,4149.230957,4102.051270,4144.102539,4130.769043,4191.794922,841.000000,4.000000,,,,0.000000,4.000000,4.000000,4.000000,4.000000,4.000000,4.000000,4.000000,4.000000,4.000000,4.000000,4.000000,4.000000,4.000000,4.000000,100.000000
1602005735.075747,128.000000,0.000000,4167.179688,4129.230957,4123.077148,4137.948730,4113.846191,4100.000000,4114.358887,4115.897461,4110.256348,4112.820313,4093.333252,4134.358887,4114.871582,4183.589844,785.000000,4.000000,,,,0.000000,4.000000,4.000000,4.000000,4.000000,4.000000,4.000000,4.000000,4.000000,4.000000,4.000000,4.000000,4.000000,4.000000,4.000000,100.000000
1602005735.083628,0.000000,0.000000,4176.922852,4139.487305,4133.333496,4144.615234,4128.717773,4105.641113,4123.589844,4122.563965,4106.153809,4109.230957,4095.897461,4141.538574,4119.487305,4184.102539,802.000000,4.000000,,,,0.000000,4.000000,4.000000,4.000000,4.000000,4.000000,4.000000,4.000000,4.000000,4.000000,4.000000,4.000000,4.000000,4.000000,4.000000,100.000000
1602005735.091609,1.000000,0.000000,4188.717773,4155.384766,4144.102539,4155.897461,4147.179688,4148.205078,4132.820313,4131.794922,4130.256348,4143.077148,4095.384521,4155.384766,4126.666504,4189.743652,802.000000,4.000000,,,,0.000000,4.000000,4.000000,4.000000,4.000000,4.000000,4.000000,4.000000,4.000000,4.000000,4.000000,4.000000,4.000000,4.000000,4.000000,100.000000
1602005735.099490,2.000000,0.000000,4186.153809,4153.333496,4138.461426,4152.307617,4144.615234,4169.743652,4136.410156,4134.358887,4147.179688,4161.538574,4093.846191,4151.282227,4122.563965,4187.179688,853.000000,4.000000,,,,0.000000,4.000000,4.000000,4.000000,4.000000,4.000000,4.000000,4.000000,4.000000,4.000000,4.000000,4.000000,4.000000,4.000000,4.000000,100.000000
1602005735.107372,3.000000,0.000000,4184.102539,4143.077148,4136.922852,4149.743652,4131.282227,4155.897461,4135.897461,4128.717773,4138.974121,4154.871582,4104.102539,4142.563965,4118.974121,4186.666504,867.000000,4.000000,,,,0.000000,4.000000,4.000000,4.000000,4.000000,4.000000,4.000000,4.000000,4.000000,4.000000,4.000000,4.000000,4.000000,4.000000,4.000000,100.000000
1602005735.115253,4.000000,0.000000,4186.153809,4142.563965,4147.692383,4154.871582,4131.282227,4138.974121,4136.410156,4128.717773,4133.846191,4149.743652,4112.307617,4149.230957,4124.615234,4196.410156,813.000000,4.000000,,,,0.000000,4.000000,4.000000,4.000000,4.000000,4.000000,4.000000,4.000000,4.000000,4.000000,4.000000,4.000000,4.000000,4.000000,4.000000,100.000000
1602005735.123234,5.000000,0.000000,4191.282227,4149.743652,4155.897461,4155.384766,4138.461426,4136.922852,4138.461426,4137.948730,4140.512695,4140.000000,4116.922852,4162.051270,4134.358887,4203.077148,828.000000,4.000000,,,,0.000000,4.000000,4.000000,4.000000,4.000000,4.000000,4.000000,4.000000,4.000000,4.000000,4.000000,4.000000,4.000000,4.000000,4.000000,100.000000
1602005735.131115,6.000000,0.000000,4197.948730,4153.846191,4156.922852,4152.820313,4134.358887,4141.538574,4138.461426,4138.461426,4141.025879,4134.871582,4121.538574,4160.512695,4140.000000,4201.025879,770.000000,4.000000,,,,0.000000,4.000000,4.000000,4.000000,4.000000,4.000000,4.000000,4.000000,4.000000,4.000000,4.000000,4.000000,4.000000,4.000000,4.000000,100.000000
1602005735.138997,7.000000,0.000000,4194.871582,4147.179688,4153.846191,4149.230957,4127.692383,4138.974121,4139.487305,4137.436035,4134.358887,4158.974121,4115.384766,4152.820313,4140.512695,4202.563965,699.000000,4.000000,,,,0.000000,4.000000,4.000000,4.000000,4.000000,4.000000,4.000000,4.000000,4.000000,4.000000,4.000000,4.000000,4.000000,4.000000,4.000000,100.000000
1602005735.146878,8.000000,0.000000,4175.384766,4122.563965,4144.102539,4134.871582,4129.230957,4128.205078,4142.563965,4141.538574,4129.743652,4174.358887,4104.615234,4153.846191,4133.333496,4203.077148,797.000000,4.000000,,,,0.000000,4.000000,4.000000,4.000000,4.000000,4.000000,4.000000,4.000000,4.000000,4.000000,4.000000,4.000000,4.000000,4.000000,4.000000,100.000000
1602005735.154760,9.000000,0.000000,4172.307617,4115.384766,4137.948730,4128.205078,4124.615234,4132.307617,4142.051270,4141.025879,4134.871582,4162.563965,4106.666504,4152.307617,4123.589844,4198.974121,839.000000,4.000000,,,,0.000000,4.000000,4.000000,4.000000,4.000000,4.000000,4.000000,4.000000,4.000000,4.000000,4.000000,4.000000,4.000000,4.000000,4.000000,100.000000
1602005735.162641,10.000000,0.000000,4199.487305,4149.230957,4142.051270,4144.615234,4117.436035,4142.051270,4138.974121,4140.000000,4141.538574,4146.666504,4110.769043,4144.102539,4122.563965,4202.563965,874.000000,4.000000,,,,0.000000,4.000000,4.000000,4.000000,4.000000,4.000000,4.000000,4.000000,4.000000,4.000000,4.000000,4.000000,4.000000,4.000000,4.000000,100.000000
1602005735.170423,11.000000,0.000000,4222.051270,4180.000000,4143.077148,4162.563965,4127.179688,4138.461426,4135.897461,4140.512695,4143.589844,4140.512695,4108.717773,4140.000000,4119.487305,4202.051270,841.000000,4.000000,,,,0.000000,4.000000,4.000000,4.000000,4.000000,4.000000,4.000000,4.000000,4.000000,4.000000,4.000000,4.000000,4.000000,4.000000,4.000000,100.000000
1602005735.178304,12.000000,0.000000,4225.641113,4184.615234,4138.461426,4167.692383,4144.102539,4141.538574,4135.384766,4141.025879,4150.769043,4143.077148,4101.538574,4139.487305,4104.102539,4189.743652,785.000000,4.000000,,,,0.000000,4.000000,4.000000,4.000000,4.000000,4.000000,4.000000,4.000000,4.000000,4.000000,4.000000,4.000000,4.000000,4.000000,4.000000,100.000000
1602005735.186186,13.000000,0.000000,4231.282227,4194.871582,4141.538574,4173.333496,4147.692383,4154.871582,4139.487305,4143.077148,4151.282227,4134.871582,4099.487305,4140.000000,4093.846191,4180.000000,764.000000,4.000000,,,,0.000000,4.000000,4.000000,4.000000,4.000000,4.000000,4.000000,4.000000,4.000000,4.000000,4.000000,4.000000,4.000000,4.000000,4.000000,100.000000
1602005735.194068,14.000000,0.000000,4233.333496,4201.538574,4145.128418,4174.358887,4140.512695,4148.717773,4141.025879,4143.589844,4137.436035,4116.922852,4092.307617,4141.538574,4088.718018,4169.743652,874.000000,4.000000,,,,0.000000,4.000000,4.000000,4.000000,4.000000,4.000000,4.000000,4.000000,4.000000,4.000000,4.000000,4.000000,4.000000,4.000000,4.000000,100.000000
1602005735.201949,15.000000,0.000000,4217.436035,4186.153809,4134.358887,4161.025879,4133.846191,4135.384766,4132.307617,4133.333496,4125.641113,4119.487305,4068.718018,4138.974121,4071.281982,4155.384766,841.000000,4.000000,,,,0.000000,4.000000,4.000000,4.000000,4.000000,4.000000,4.000000,4.000000,4.000000,4.000000,4.000000,4.000000,4.000000,4.000000,4.000000,100.000000
1602005735.209831,16.000000,0.000000,4211.282227,4179.487305,4127.179688,4157.436035,4134.871582,4137.436035,4126.666504,4124.102539,4121.538574,4123.589844,4065.641113,4133.846191,4068.718018,4154.358887,0.000000,4.000000,,,,0.000000,4.000000,4.000000,4.000000,4.000000,4.000000,4.000000,4.000000,4.000000,4.000000,4.000000,4.000000,4.000000,4.000000,4.000000,100.000000
1602005735.217713,17.000000,0.000000,4224.615234,4187.692383,4142.563965,4170.256348,4141.025879,4138.974121,4135.384766,4131.794922,4115.384766,4105.128418,4097.948730,4147.179688,4087.179443,4170.256348,0.000000,4.000000,,,,0.000000,4.000000,4.000000,4.000000,4.000000,4.000000,4.000000,4.000000,4.000000,4.000000,4.000000,4.000000,4.000000,4.000000,4.000000,100.000000
1602005735.225594,18.000000,0.000000,4227.179688,4187.179688,4157.436035,4173.333496,4143.589844,4134.871582,4138.974121,4136.410156,4110.256348,4108.205078,4109.230957,4169.230957,4096.410156,4183.077148,0.000000,4.000000,,,,0.000000,4.000000,4.000000,4.000000,4.000000,4.000000,4.000000,4.000000,4.000000,4.000000,4.000000,4.000000,4.000000,4.000000,4.000000,100.000000
1602005735.233476,19.000000,0.000000,4216.922852,4181.538574,4151.282227,4166.153809,4138.461426,4135.897461,4133.846191,4126.153809,4109.230957,4132.307617,4090.256348,4169.230957,4092.307617,4186.666504,0.000000,4.000000,,,,0.000000,4.000000,4.000000,4.000000,4.000000,4.000000,4.000000,4.000000,4.000000,4.000000,4.000000,4.000000,4.000000,4.000000,4.000000,100.000000
1602005735.241457,20.000000,0.000000,4213.846191,4183.077148,4147.179688,4166.666504,4136.922852,4142.051270,4134.871582,4122.563965,4106.153809,4120.000000,4087.692383,4155.897461,4090.256348,4186.666504,0.000000,4.000000,,,,0.000000,4.000000,4.000000,4.000000,4.000000,4.000000,4.000000,4.000000,4.000000,4.000000,4.000000,4.000000,4.000000,4.000000,4.000000,100.000000
1602005735.249338,21.000000,0.000000,4222.563965,4187.179688,4151.794922,4172.820313,4140.512695,4147.179688,4141.538574,4126.666504,4110.769043,4101.538574,4094.358887,4152.820313,4092.820557,4181.538574,0.000000,4.000000,,,,0.000000,4.000000,4.000000,4.000000,4.000000,4.000000,4.000000,4.000000,4.000000,4.000000,4.000000,4.000000,4.000000,4.000000,4.000000,100.000000
1602005735.257319,22.000000,0.000000,4215.897461,4182.051270,4144.615234,4165.641113,4145.128418,4146.153809,4141.538574,4125.128418,4121.538574,4121.025879,4088.205078,4154.358887,4089.230713,4171.282227,0.000000,4.000000,,,,0.000000,4.000000,4.000000,4.000000,4.000000,4.000000,4.000000,4.000000,4.000000,4.000000,4.000000,4.000000,4.000000,4.000000,4.000000,100.000000
1602005735.265201,23.000000,0.000000,4198.461426,4172.820313,4134.358887,4155.897461,4138.974121,4140.000000,4141.025879,4128.717773,4126.153809,4130.256348,4082.051270,4148.205078,4080.512939,4166.153809,0.000000,4.000000,,,,0.000000,4.000000,4.000000,4.000000,4.000000,4.000000,4.000000,4.000000,4.000000,4.000000,4.000000,4.000000,4.000000,4.000000,4.000000,100.000000
1602005735.273082,24.000000,0.000000,4196.922852,4171.282227,4135.384766,4160.512695,4123.077148,4132.307617,4142.563965,4138.974121,4132.820313,4117.948730,4085.128174,4142.051270,4075.384521,4169.743652,0.000000,4.000000,,,,0.000000,4.000000,4.000000,4.000000,4.000000,4.000000,4.000000,4.000000,4.000000,4.000000,4.000000,4.000000,4.000000,4.000000,4.000000,100.000000
1602005735.280964,25.000000,0.000000,4202.051270,4172.307617,4133.333496,4162.563965,4125.641113,4124.102539,4137.948730,4140.512695,4139.487305,4123.077148,4085.641113,4139.487305,4076.923096,4162.051270,0.000000,4.000000,,,,0.000000,4.000000,4.000000,4.000000,4.000000,4.000000,4.000000,4.000000,4.000000,4.000000,4.000000,4.000000,4.000000,4.000000,4.000000,100.000000
1602005735.288845,26.000000,0.000000,4195.897461,4168.717773,4125.128418,4152.307617,4140.000000,4117.436035,4123.077148,4135.384766,4131.282227,4123.077148,4081.538574,4136.922852,4072.820557,4150.769043,0.000000,4.000000,,,,0.000000,4.000000,4.000000,4.000000,4.000000,4.000000,4.000000,4.000000,4.000000,4.000000,4.000000,4.000000,4.000000,4.000000,4.000000,100.000000
1602005735.296727,27.000000,0.000000,4194.358887,4171.794922,4122.563965,4156.922852,4138.974121,4119.487305,4113.846191,4135.897461,4129.230957,4115.384766,4088.205078,4138.461426,4074.871826,4160.512695,0.000000,4.000000,,,,0.000000,4.000000,4.000000,4.000000,4.000000,4.000000,4.000000,4.000000,4.000000,4.000000,4.000000,4.000000,4.000000,4.000000,4.000000,100.000000
1602005735.304508,28.000000,0.000000,4200.512695,4177.948730,4126.666504,4168.717773,4133.846191,4123.077148,4118.974121,4140.000000,4145.641113,4137.948730,4089.230713,4141.538574,4091.281982,4173.846191,0.000000,4.000000,,,,0.000000,4.000000,4.000000,4.000000,4.000000,4.000000,4.000000,4.000000,4.000000,4.000000,4.000000,4.000000,4.000000,4.000000,4.000000,100.000000
1602005735.312389,29.000000,0.000000,4198.461426,4173.846191,4127.692383,4161.025879,4138.974121,4121.025879,4120.000000,4134.871582,4146.666504,4143.589844,4077.948730,4141.538574,4089.743652,4171.282227,0.000000,4.000000,,,,0.000000,4.000000,4.000000,4.000000,4.000000,4.000000,4.000000,4.000000,4.000000,4.000000,4.000000,4.000000,4.000000,4.000000,4.000000,100.000000
1602005735.320271,30.000000,0.000000,4198.974121,4170.769043,4124.615234,4153.846191,4138.461426,4127.692383,4114.358887,4124.615234,4127.179688,4104.102539,4081.025635,4138.461426,4072.820557,4167.179688,0.000000,4.000000,,,,0.000000,4.000000,4.000000,4.000000,4.000000,4.000000,4.000000,4.000000,4.000000,4.000000,4.000000,4.000000,4.000000,4.000000,4.000000,100.000000
1602005735.328152,31.000000,0.000000,4201.538574,4172.820313,4123.077148,4158.974121,4136.922852,4138.461426,4118.974121,4122.563965,4115.897461,4102.563965,4089.743652,4138.461426,4072.307617,4170.769043,0.000000,4.000000,,,,0.000000,4.000000,4.000000,4.000000,4.000000,4.000000,4.000000,4.000000,4.000000,4.000000,4.000000,4.000000,4.000000,4.000000,4.000000,100.000000
1602005735.336034,32.000000,0.000000,4190.769043,4169.743652,4124.102539,4157.436035,4141.025879,4143.077148,4131.794922,4125.641113,4121.025879,4127.179688,4077.948730,4138.461426,4076.410156,4171.282227,0.000000,4.000000,,,,0.000000,4.000000,4.000000,4.000000,4.000000,4.000000,4.000000,4.000000,4.000000,4.000000,4.000000,4.000000,4.000000,4.000000,4.000000,100.000000
1602005735.343915,33.000000,0.000000,4186.666504,4166.666504,4125.128418,4152.307617,4133.846191,4141.025879,4136.922852,4123.589844,4121.538574,4097.436035,4070.256348,4137.436035,4068.718018,4167.179688,0.000000,4.000000,,,,0.000000,4.000000,4.000000,4.000000,4.000000,4.000000,4.000000,4.000000,4.000000,4.000000,4.000000,4.000000,4.000000,4.000000,4.000000,100.000000
1602005735.351896,34.000000,0.000000,4200.512695,4169.230957,4128.717773,4153.333496,4128.205078,4134.358887,4134.871582,4123.077148,4114.871582,4078.461426,4086.153809,4146.666504,4072.820557,4167.692383,0.000000,4.000000,,,,0.000000,4.000000,4.000000,4.000000,4.000000,4.000000,4.000000,4.000000,4.000000,4.000000,4.000000,4.000000,4.000000,4.000000,4.000000,100.000000
1602005735.359778,35.000000,0.000000,4199.487305,4161.538574,4129.743652,4153.333496,4134.358887,4130.256348,4137.436035,4131.794922,4126.666504,4125.641113,4096.922852,4154.871582,4090.256348,4176.922852,0.000000,4.000000,,,,0.000000,4.000000,4.000000,4.000000,4.000000,4.000000,4.000000,4.000000,4.000000,4.000000,4.000000,4.000000,4.000000,4.000000,4.000000,100.000000
1602005735.367659,36.000000,0.000000,4185.641113,4154.871582,4124.615234,4151.794922,4133.846191,4130.256348,4138.974121,4137.436035,4138.461426,4146.666504,4091.281982,4141.538574,4089.230713,4182.051270,0.000000,4.000000,,,,0.000000,4.000000,4.000000,4.000000,4.000000,4.000000,4.000000,4.000000,4.000000,4.000000,4.000000,4.000000,4.000000,4.000000,4.000000,100.000000
1602005735.375541,37.000000,0.000000,4186.153809,4165.641113,4123.077148,4155.384766,4121.025879,4126.153809,4130.256348,4129.230957,4121.025879,4109.743652,4082.051270,4126.666504,4074.871826,4174.358887,0.000000,4.000000,,,,0.000000,4.000000,4.000000,4.000000,4.000000,4.000000,4.000000,4.000000,4.000000,4.000000,4.000000,4.000000,4.000000,4.000000,4.000000,100.000000
1602005735.383422,38.000000,0.000000,4190.769043,4167.692383,4124.615234,4155.384766,4120.000000,4122.563965,4121.025879,4122.563965,4111.282227,4104.102539,4082.564209,4134.358887,4074.871826,4168.717773,0.000000,4.000000,,,,0.000000,4.000000,4.000000,4.000000,4.000000,4.000000,4.000000,4.000000,4.000000,4.000000,4.000000,4.000000,4.000000,4.000000,4.000000,100.000000
1602005735.391403,39.000000,0.000000,4184.615234,4153.846191,4123.589844,4143.077148,4123.589844,4123.077148,4123.077148,4122.563965,4120.000000,4124.615234,4092.307617,4137.436035,4081.025635,4168.717773,0.000000,4.000000,,,,0.000000,4.000000,4.000000,4.000000,4.000000,4.000000,4.000000,4.000000,4.000000,4.000000,4.000000,4.000000,4.000000,4.000000,4.000000,100.000000
1602005735.399285,40.000000,0.000000,4179.487305,4151.282227,4120.000000,4138.461426,4117.436035,4119.487305,4124.102539,4120.512695,4111.794922,4113.333496,4094.358887,4127.692383,4078.461426,4165.128418,0.000000,4.000000,,,,0.000000,4.000000,4.000000,4.000000,4.000000,4.000000,4.000000,4.000000,4.000000,4.000000,4.000000,4.000000,4.000000,4.000000,4.000000,100.000000
1602005735.407167,41.000000,0.000000,4184.102539,4164.615234,4121.538574,4150.256348,4128.205078,4121.025879,4121.538574,4119.487305,4100.000000,4103.077148,4094.871826,4134.871582,4082.564209,4167.692383,0.000000,4.000000,,,,0.000000,4.000000,4.000000,4.000000,4.000000,4.000000,4.000000,4.000000,4.000000,4.000000,4.000000,4.000000,4.000000,4.000000,4.000000,100.000000
1602005735.415048,42.000000,0.000000,4189.743652,4170.256348,4124.615234,4158.974121,4140.512695,4121.025879,4123.077148,4122.051270,4108.205078,4109.743652,4099.487305,4147.692383,4092.820557,4176.410156,0.000000,4.000000,,,,0.000000,4.000000,4.000000,4.000000,4.000000,4.000000,4.000000,4.000000,4.000000,4.000000,4.000000,4.000000,4.000000,4.000000,4.000000,100.000000
1602005735.422930,43.000000,0.000000,4186.666504,4162.563965,4122.051270,4154.358887,4133.333496,4111.794922,4122.563965,4120.512695,4115.897461,4103.589844,4093.333252,4143.077148,4087.692383,4172.307617,0.000000,4.000000,,,,0.000000,4.000000,4.000000,4.000000,4.000000,4.000000,4.000000,4.000000,4.000000,4.000000,4.000000,4.000000,4.000000,4.000000,4.000000,100.000000
1602005735.430812,44.000000,0.000000,4179.487305,4153.846191,4118.461426,4146.666504,4130.256348,4118.974121,4117.948730,4118.974121,4123.589844,4106.153809,4085.641113,4137.436035,4080.512939,4165.641113,0.000000,4.000000,,,,0.000000,4.000000,4.000000,4.000000,4.000000,4.000000,4.000000,4.000000,4.000000,4.000000,4.000000,4.000000,4.000000,4.000000,4.000000,100.000000
1602005735.438693,45.000000,0.000000,4181.025879,4154.358887,4120.512695,4147.692383,4133.333496,4127.692383,4117.948730,4121.538574,4137.436035,4137.436035,4091.281982,4139.487305,4086.153809,4169.743652,0.000000,4.000000,,,,0.000000,4.000000,4.000000,4.000000,4.000000,4.000000,4.000000,4.000000,4.000000,4.000000,4.000000,4.000000,4.000000,4.000000,4.000000,100.000000
1602005735.446575,46.000000,0.000000,4188.205078,4165.128418,4126.153809,4152.307617,4135.384766,4116.922852,4122.563965,4127.692383,4138.461426,4140.512695,4100.000000,4137.948730,4092.307617,4174.358887,0.000000,4.000000,,,,0.000000,4.000000,4.000000,4.000000,4.000000,4.000000,4.000000,4.000000,4.000000,4.000000,4.000000,4.000000,4.000000,4.000000,4.000000,100.000000
1602005735.454457,47.000000,0.000000,4189.230957,4166.666504,4127.692383,4150.256348,4137.436035,4112.820313,4123.589844,4136.410156,4136.410156,4119.487305,4097.948730,4138.974121,4093.846191,4171.282227,0.000000,4.000000,,,,0.000000,4.000000,4.000000,4.000000,4.000000,4.000000,4.000000,4.000000,4.000000,4.000000,4.000000,4.000000,4.000000,4.000000,4.000000,100.000000
1602005735.462438,48.000000,0.000000,4180.000000,4156.410156,4124.615234,4141.538574,4132.820313,4121.025879,4125.128418,4135.897461,4144.102539,4129.230957,4091.281982,4143.589844,4094.871826,4161.538574,0.000000,4.000000,,,,0.000000,4.000000,4.000000,4.000000,4.000000,4.000000,4.000000,4.000000,4.000000,4.000000,4.000000,4.000000,4.000000,4.000000,4.000000,100.000000
1602005735.470320,49.000000,0.000000,4170.769043,4149.743652,4121.025879,4136.410156,4126.666504,4125.128418,4132.307617,4125.128418,4135.384766,4129.230957,4091.794922,4133.846191,4085.128174,4155.384766,0.000000,4.000000,,,,0.000000,4.000000,4.000000,4.000000,4.000000,4.000000,4.000000,4.000000,4.000000,4.000000,4.000000,4.000000,4.000000,4.000000,4.000000,100.000000
1602005735.478202,50.000000,0.000000,4170.256348,4153.846191,4121.538574,4142.051270,4130.256348,4127.179688,4137.948730,4120.512695,4115.384766,4103.589844,4085.641113,4124.102539,4072.307617,4162.051270,0.000000,4.000000,,,,0.000000,4.000000,4.000000,4.000000,4.000000,4.000000,4.000000,4.000000,4.000000,4.000000,4.000000,4.000000,4.000000,4.000000,4.000000,100.000000
1602005735.486084,51.000000,0.000000,4173.846191,4155.897461,4124.102539,4150.256348,4126.153809,4124.615234,4138.461426,4123.077148,4112.820313,4105.641113,4082.564209,4130.769043,4078.461426,4170.769043,0.000000,4.000000,,,,0.000000,4.000000,4.000000,4.000000,4.000000,4.000000,4.000000,4.000000,4.000000,4.000000,4.000000,4.000000,4.000000,4.000000,4.000000,100.000000
1602005735.493966,52.000000,0.000000,4177.948730,4153.846191,4129.230957,4151.794922,4121.025879,4120.000000,4136.922852,4126.666504,4121.025879,4128.717773,4096.922852,4142.051270,4091.794922,4173.333496,0.000000,4.000000,,,,0.000000,4.000000,4.000000,4.000000,4.000000,4.000000,4.000000,4.000000,4.000000,4.000000,4.000000,4.000000,4.000000,4.000000,4.000000,100.000000
1602005735.501848,53.000000,0.000000,4183.077148,4155.897461,4135.897461,4150.256348,4132.307617,4120.512695,4132.820313,4128.717773,4122.563965,4126.153809,4112.307617,4146.153809,4100.000000,4175.384766,0.000000,4.000000,,,,0.000000,4.000000,4.000000,4.000000,4.000000,4.000000,4.000000,4.000000,4.000000,4.000000,4.000000,4.000000,4.000000,4.000000,4.000000,100.000000
1602005735.509730,54.000000,0.000000,4185.128418,4157.436035,4134.871582,4153.333496,4134.871582,4121.025879,4125.641113,4125.641113,4121.025879,4116.410156,4108.205078,4144.615234,4103.077148,4177.948730,0.000000,4.000000,,,,0.000000,4.000000,4.000000,4.000000,4.000000,4.000000,4.000000,4.000000,4.000000,4.000000,4.000000,4.000000,4.000000,4.000000,4.000000,100.000000
1602005735.517612,55.000000,0.000000,4183.589844,4155.897461,4128.717773,4154.358887,4133.846191,4120.000000,4123.589844,4121.538574,4118.461426,4119.487305,4102.563965,4142.563965,4101.025879,4182.051270,0.000000,4.000000,,,,0.000000,4.000000,4.000000,4.000000,4.000000,4.000000,4.000000,4.000000,4.000000,4.000000,4.000000,4.000000,4.000000,4.000000,4.000000,100.000000
1602005735.525493,56.000000,0.000000,4178.974121,4155.384766,4126.153809,4153.333496,4142.051270,4126.153809,4124.615234,4124.102539,4119.487305,4118.974121,4110.256348,4143.589844,4100.000000,4189.743652,0.000000,4.000000,,,,0.000000,4.000000,4.000000,4.000000,4.000000,4.000000,4.000000,4.000000,4.000000,4.000000,4.000000,4.000000,4.000000,4.000000,4.000000,100.000000
1602005735.533375,57.000000,0.000000,4165.641113,4152.820313,4123.077148,4151.794922,4133.846191,4124.615234,4119.487305,4121.538574,4121.538574,4125.641113,4103.077148,4140.512695,4093.333252,4182.563965,0.000000,4.000000,,,,0.000000,4.000000,4.000000,4.000000,4.000000,4.000000,4.000000,4.000000,4.000000,4.000000,4.000000,4.000000,4.000000,4.000000,4.000000,100.000000
1602005735.541157,58.000000,0.000000,4166.153809,4149.230957,4120.512695,4149.230957,4124.615234,4116.922852,4112.307617,4115.384766,4118.974121,4137.436035,4093.333252,4134.871582,4091.281982,4170.256348,0.000000,4.000000,,,,0.000000,4.000000,4.000000,4.000000,4.000000,4.000000,4.000000,4.000000,4.000000,4.000000,4.000000,4.000000,4.000000,4.000000,4.000000,100.000000
1602005735.549039,59.000000,0.000000,4191.794922,4160.000000,4131.794922,4156.410156,4143.077148,4126.153809,4116.922852,4122.563965,4126.153809,4137.436035,4106.666504,4145.641113,4108.205078,4184.615234,0.000000,4.000000,,,,0.000000,4.000000,4.000000,4.000000,4.000000,4.000000,4.000000,4.000000,4.000000,4.000000,4.000000,4.000000,4.000000,4.000000,4.000000,100.000000
1602005735.556920,60.000000,0.000000,4199.487305,4171.282227,4144.615234,4164.102539,4160.000000,4144.102539,4132.307617,4134.871582,4141.538574,4137.436035,4119.487305,4156.922852,4122.563965,4202.051270,0.000000,4.000000,,,,0.000000,4.000000,4.000000,4.000000,4.000000,4.000000,4.000000,4.000000,4.000000,4.000000,4.000000,4.000000,4.000000,4.000000,4.000000,100.000000
1602005735.564802,61.000000,0.000000,4182.563965,4162.051270,4139.487305,4156.410156,4146.666504,4145.641113,4140.512695,4136.410156,4143.077148,4147.179688,4118.461426,4146.153809,4113.333496,4193.333496,0.000000,4.000000,,,,0.000000,4.000000,4.000000,4.000000,4.000000,4.000000,4.000000,4.000000,4.000000,4.000000,4.000000,4.000000,4.000000,4.000000,4.000000,100.000000
1602005735.572684,62.000000,0.000000,4178.461426,4151.282227,4131.282227,4149.230957,4132.307617,4134.871582,4140.512695,4135.897461,4137.436035,4145.641113,4117.436035,4134.871582,4107.692383,4181.538574,0.000000,4.000000,,,,0.000000,4.000000,4.000000,4.000000,4.000000,4.000000,4.000000,4.000000,4.000000,4.000000,4.000000,4.000000,4.000000,4.000000,4.000000,100.000000
1602005735.580565,63.000000,0.000000,4184.102539,4153.846191,4133.333496,4151.282227,4134.871582,4131.794922,4141.538574,4137.948730,4136.922852,4125.641113,4113.333496,4137.948730,4108.717773,4185.128418,0.000000,4.000000,,,,0.000000,4.000000,4.000000,4.000000,4.000000,4.000000,4.000000,4.000000,4.000000,4.000000,4.000000,4.000000,4.000000,4.000000,4.000000,100.000000
1602005735.588447,64.000000,0.000000,4183.077148,4154.358887,4137.436035,4151.794922,4145.641113,4136.922852,4141.538574,4136.922852,4136.410156,4121.025879,4109.230957,4143.077148,4103.077148,4188.205078,802.000000,4.000000,,,,0.000000,4.000000,4.000000,4.000000,4.000000,4.000000,4.000000,4.000000,4.000000,4.000000,4.000000,4.000000,4.000000,4.000000,4.000000,100.000000
1602005735.596329,65.000000,0.000000,4183.077148,4154.358887,4138.461426,4152.307617,4149.230957,4140.000000,4140.000000,4136.410156,4135.897461,4144.102539,4122.051270,4150.769043,4112.820313,4192.820313,802.000000,4.000000,,,,0.000000,4.000000,4.000000,4.000000,4.000000,4.000000,4.000000,4.000000,4.000000,4.000000,4.000000,4.000000,4.000000,4.000000,4.000000,100.000000
1602005735.604210,66.000000,0.000000,4186.153809,4158.974121,4140.000000,4155.897461,4141.538574,4137.436035,4138.461426,4137.436035,4136.922852,4154.871582,4136.410156,4165.128418,4126.153809,4206.666504,853.000000,4.000000,,,,0.000000,4.000000,4.000000,4.000000,4.000000,4.000000,4.000000,4.000000,4.000000,4.000000,4.000000,4.000000,4.000000,4.000000,4.000000,100.000000
1602005735.611992,67.000000,0.000000,4186.666504,4158.461426,4137.948730,4156.922852,4144.615234,4135.897461,4134.358887,4135.384766,4140.000000,4148.717773,4135.384766,4168.717773,4129.230957,4212.820313,867.000000,4.000000,,,,0.000000,4.000000,4.000000,4.000000,4.000000,4.000000,4.000000,4.000000,4.000000,4.000000,4.000000,4.000000,4.000000,4.000000,4.000000,100.000000
1602005735.619874,68.000000,0.000000,4188.717773,4158.974121,4137.436035,4160.000000,4152.307617,4141.538574,4128.205078,4132.820313,4144.102539,4161.025879,4134.358887,4161.025879,4134.358887,4206.153809,813.000000,4.000000,,,,0.000000,4.000000,4.000000,4.000000,4.000000,4.000000,4.000000,4.000000,4.000000,4.000000,4.000000,4.000000,4.000000,4.000000,4.000000,100.000000
1602005735.627755,69.000000,0.000000,4186.666504,4161.025879,4137.436035,4160.512695,4146.153809,4141.025879,4124.615234,4129.230957,4141.025879,4163.589844,4131.282227,4151.794922,4132.820313,4199.487305,824.000000,4.000000,,,,0.000000,4.000000,4.000000,4.000000,4.000000,4.000000,4.000000,4.000000,4.000000,4.000000,4.000000,4.000000,4.000000,4.000000,4.000000,100.000000
1602005735.635637,70.000000,0.000000,4178.974121,4154.358887,4131.282227,4152.820313,4133.333496,4123.077148,4120.512695,4124.102539,4134.358887,4138.974121,4124.102539,4143.589844,4120.000000,4197.436035,770.000000,4.000000,,,,0.000000,4.000000,4.000000,4.000000,4.000000,4.000000,4.000000,4.000000,4.000000,4.000000,4.000000,4.000000,4.000000,4.000000,4.000000,100.000000
1602005735.643518,71.000000,0.000000,4177.948730,4149.230957,4131.282227,4149.743652,4126.153809,4111.282227,4118.461426,4127.692383,4133.846191,4133.846191,4127.692383,4142.563965,4116.922852,4197.436035,694.000000,4.000000,,,,0.000000,4.000000,4.000000,4.000000,4.000000,4.000000,4.000000,4.000000,4.000000,4.000000,4.000000,4.000000,4.000000,4.000000,4.000000,100.000000
1602005735.651400,72.000000,0.000000,4187.179688,4154.871582,4144.102539,4155.384766,4131.794922,4126.666504,4129.230957,4137.948730,4143.589844,4145.641113,4139.487305,4157.948730,4126.153809,4203.589844,795.000000,4.000000,,,,0.000000,4.000000,4.000000,4.000000,4.000000,4.000000,4.000000,4.000000,4.000000,4.000000,4.000000,4.000000,4.000000,4.000000,4.000000,100.000000
1602005735.659282,73.000000,0.000000,4192.307617,4157.436035,4147.692383,4156.922852,4141.025879,4143.077148,4141.025879,4140.512695,4153.846191,4139.487305,4137.948730,4165.641113,4128.205078,4206.666504,840.000000,4.000000,,,,0.000000,4.000000,4.000000,4.000000,4.000000,4.000000,4.000000,4.000000,4.000000,4.000000,4.000000,4.000000,4.000000,4.000000,4.000000,100.000000
1602005735.667263,74.000000,0.000000,4186.666504,4152.307617,4137.948730,4151.794922,4140.000000,4137.948730,4140.000000,4137.948730,4151.282227,4141.025879,4131.282227,4153.333496,4126.153809,4200.000000,874.000000,4.000000,,,,0.000000,4.000000,4.000000,4.000000,4.000000,4.000000,4.000000,4.000000,4.000000,4.000000,4.000000,4.000000,4.000000,4.000000,4.000000,100.000000
1602005735.675144,75.000000,0.000000,4183.589844,4149.743652,4134.358887,4151.794922,4136.922852,4127.179688,4138.974121,4137.948730,4142.563965,4156.922852,4137.436035,4149.230957,4132.820313,4202.051270,841.000000,4.000000,,,,0.000000,4.000000,4.000000,4.000000,4.000000,4.000000,4.000000,4.000000,4.000000,4.000000,4.000000,4.000000,4.000000,4.000000,4.000000,100.000000
1602005735.683125,76.000000,0.000000,4185.641113,4149.743652,4136.922852,4155.897461,4138.461426,4124.102539,4140.512695,4137.948730,4140.512695,4147.692383,4136.410156,4151.282227,4135.384766,4208.717773,783.000000,4.000000,,,,0.000000,4.000000,4.000000,4.000000,4.000000,4.000000,4.000000,4.000000,4.000000,4.000000,4.000000,4.000000,4.000000,4.000000,4.000000,100.000000
1602005735.691007,77.000000,0.000000,4183.589844,4150.769043,4137.436035,4155.384766,4135.384766,4132.820313,4136.922852,4135.897461,4139.487305,4131.282227,4128.205078,4141.025879,4123.589844,4206.153809,761.000000,4.000000,,,,0.000000,4.000000,4.000000,4.000000,4.000000,4.000000,4.000000,4.000000,4.000000,4.000000,4.000000,4.000000,4.000000,4.000000,4.000000,100.000000
1602005735.698888,78.000000,0.000000,4182.563965,4151.282227,4137.948730,4152.307617,4139.487305,4140.000000,4134.871582,4136.410156,4137.948730,4142.563965,4132.820313,4134.358887,4121.025879,4206.153809,874.000000,4.000000,,,,0.000000,4.000000,4.000000,4.000000,4.000000,4.000000,4.000000,4.000000,4.000000,4.000000,4.000000,4.000000,4.000000,4.000000,4.000000,100.000000
1602005735.706770,79.000000,0.000000,4186.153809,4153.846191,4138.461426,4153.333496,4145.128418,4130.769043,4135.897461,4138.461426,4143.077148,4155.384766,4144.102539,4140.000000,4137.436035,4213.846191,841.000000,4.000000,,,,0.000000,4.000000,4.000000,4.000000,4.000000,4.000000,4.000000,4.000000,4.000000,4.000000,4.000000,4.000000,4.000000,4.000000,4.000000,100.000000
1602005735.714651,80.000000,0.000000,4186.666504,4157.948730,4138.974121,4156.922852,4132.820313,4122.563965,4128.717773,4137.436035,4145.128418,4145.128418,4141.025879,4141.538574,4142.563965,4215.384766,783.000000,4.000000,,,,0.000000,4.000000,4.000000,4.000000,4.000000,4.000000,4.000000,4.000000,4.000000,4.000000,4.000000,4.000000,4.000000,4.000000,4.000000,100.000000
1602005735.722433,81.000000,0.000000,4186.153809,4157.436035,4138.461426,4154.358887,4128.205078,4126.666504,4121.538574,4134.871582,4137.948730,4137.436035,4130.769043,4137.948730,4129.743652,4209.743652,761.000000,4.000000,,,,0.000000,4.000000,4.000000,4.000000,4.000000,4.000000,4.000000,4.000000,4.000000,4.000000,4.000000,4.000000,4.000000,4.000000,4.000000,100.000000
1602005735.730314,82.000000,0.000000,4185.641113,4154.358887,4137.436035,4153.846191,4142.051270,4130.256348,4128.205078,4135.384766,4137.436035,4152.820313,4134.358887,4141.538574,4126.153809,4206.153809,874.000000,4.000000,,,,0.000000,4.000000,4.000000,4.000000,4.000000,4.000000,4.000000,4.000000,4.000000,4.000000,4.000000,4.000000,4.000000,4.000000,4.000000,100.000000
1602005735.738196,83.000000,0.000000,4177.436035,4147.179688,4136.922852,4154.358887,4140.000000,4126.153809,4135.897461,4137.436035,4144.102539,4165.128418,4139.487305,4142.051270,4126.666504,4205.128418,841.000000,4.000000,,,,0.000000,4.000000,4.000000,4.000000,4.000000,4.000000,4.000000,4.000000,4.000000,4.000000,4.000000,4.000000,4.000000,4.000000,4.000000,100.000000
1602005735.746078,84.000000,0.000000,4167.692383,4135.384766,4133.333496,4149.230957,4124.102539,4122.563965,4134.358887,4135.384766,4135.897461,4143.589844,4127.179688,4135.384766,4112.820313,4203.589844,783.000000,4.000000,,,,0.000000,4.000000,4.000000,4.000000,4.000000,4.000000,4.000000,4.000000,4.000000,4.000000,4.000000,4.000000,4.000000,4.000000,4.000000,100.000000
1602005735.753959,85.000000,0.000000,4167.179688,4133.846191,4135.897461,4148.205078,4120.000000,4125.641113,4138.461426,4136.922852,4124.102539,4118.461426,4117.948730,4135.897461,4107.692383,4204.102539,761.000000,4.000000,,,,0.000000,4.000000,4.000000,4.000000,4.000000,4.000000,4.000000,4.000000,4.000000,4.000000,4.000000,4.000000,4.000000,4.000000,4.000000,100.000000
1602005735.761841,86.000000,0.000000,4168.717773,4138.461426,4137.948730,4149.743652,4115.384766,4126.666504,4143.077148,4142.563965,4131.282227,4120.512695,4124.102539,4142.563965,4116.410156,4204.615234,874.000000,4.000000,,,,0.000000,4.000000,4.000000,4.000000,4.000000,4.000000,4.000000,4.000000,4.000000,4.000000,4.000000,4.000000,4.000000,4.000000,4.000000,100.000000
1602005735.769723,87.000000,0.000000,4165.641113,4136.922852,4127.692383,4144.102539,4114.358887,4126.153809,4134.871582,4145.641113,4137.948730,4123.589844,4123.077148,4138.461426,4115.897461,4200.512695,841.000000,4.000000,,,,0.000000,4.000000,4.000000,4.000000,4.000000,4.000000,4.000000,4.000000,4.000000,4.000000,4.000000,4.000000,4.000000,4.000000,4.000000,100.000000
1602005735.777704,88.000000,0.000000,4169.743652,4140.512695,4126.153809,4144.615234,4131.282227,4135.897461,4129.230957,4150.256348,4135.897461,4117.436035,4122.051270,4134.871582,4114.871582,4196.922852,783.000000,4.000000,,,,0.000000,4.000000,4.000000,4.000000,4.000000,4.000000,4.000000,4.000000,4.000000,4.000000,4.000000,4.000000,4.000000,4.000000,4.000000,100.000000
1602005735.785586,89.000000,0.000000,4178.974121,4154.358887,4140.512695,4154.358887,4144.615234,4146.153809,4137.948730,4155.384766,4137.436035,4134.358887,4135.897461,4146.666504,4123.589844,4201.538574,761.000000,4.000000,,,,0.000000,4.000000,4.000000,4.000000,4.000000,4.000000,4.000000,4.000000,4.000000,4.000000,4.000000,4.000000,4.000000,4.000000,4.000000,100.000000
1602005735.793467,90.000000,0.000000,4178.461426,4155.384766,4146.666504,4156.922852,4142.563965,4136.922852,4137.948730,4150.769043,4141.538574,4161.025879,4142.051270,4157.436035,4126.153809,4206.153809,874.000000,4.000000,,,,0.000000,4.000000,4.000000,4.000000,4.000000,4.000000,4.000000,4.000000,4.000000,4.000000,4.000000,4.000000,4.000000,4.000000,4.000000,100.000000
1602005735.801349,91.000000,0.000000,4170.769043,4144.102539,4139.487305,4150.256348,4132.820313,4131.282227,4125.641113,4140.000000,4145.641113,4165.641113,4137.948730,4154.871582,4121.538574,4202.051270,841.000000,4.000000,,,,0.000000,4.000000,4.000000,4.000000,4.000000,4.000000,4.000000,4.000000,4.000000,4.000000,4.000000,4.000000,4.000000,4.000000,4.000000,100.000000
1602005735.809231,92.000000,0.000000,4166.666504,4137.948730,4134.871582,4143.589844,4128.205078,4136.410156,4128.205078,4140.000000,4152.820313,4171.794922,4136.410156,4148.717773,4121.025879,4195.384766,783.000000,4.000000,,,,0.000000,4.000000,4.000000,4.000000,4.000000,4.000000,4.000000,4.000000,4.000000,4.000000,4.000000,4.000000,4.000000,4.000000,4.000000,100.000000
1602005735.817112,93.000000,0.000000,4166.666504,4138.461426,4133.333496,4138.461426,4134.358887,4136.922852,4138.974121,4149.743652,4155.897461,4166.153809,4138.974121,4151.794922,4127.692383,4200.000000,761.000000,4.000000,,,,0.000000,4.000000,4.000000,4.000000,4.000000,4.000000,4.000000,4.000000,4.000000,4.000000,4.000000,4.000000,4.000000,4.000000,4.000000,100.000000
1602005735.824994,94.000000,0.000000,4168.717773,4138.974121,4135.384766,4137.948730,4135.897461,4138.461426,4140.000000,4155.897461,4156.922852,4132.820313,4144.102539,4158.461426,4139.487305,4212.820313,874.000000,4.000000,,,,0.000000,4.000000,4.000000,4.000000,4.000000,4.000000,4.000000,4.000000,4.000000,4.000000,4.000000,4.000000,4.000000,4.000000,4.000000,100.000000
1602005735.832876,95.000000,0.000000,4170.769043,4135.897461,4140.512695,4142.051270,4124.615234,4135.384766,4135.897461,4155.897461,4154.871582,4130.769043,4143.589844,4160.000000,4140.000000,4219.487305,841.000000,4.000000,,,,0.000000,4.000000,4.000000,4.000000,4.000000,4.000000,4.000000,4.000000,4.000000,4.000000,4.000000,4.000000,4.000000,4.000000,4.000000,100.000000
1602005735.840757,96.000000,0.000000,4167.179688,4130.256348,4135.384766,4139.487305,4122.563965,4124.615234,4133.846191,4150.769043,4143.589844,4161.025879,4133.333496,4156.410156,4126.666504,4213.846191,783.000000,4.000000,,,,0.000000,4.000000,4.000000,4.000000,4.000000,4.000000,4.000000,4.000000,4.000000,4.000000,4.000000,4.000000,4.000000,4.000000,4.000000,100.000000
1602005735.848539,97.000000,0.000000,4154.871582,4121.538574,4122.563965,4126.666504,4124.615234,4121.025879,4127.692383,4143.589844,4135.897461,4153.333496,4117.436035,4146.666504,4108.717773,4195.384766,761.000000,4.000000,,,,0.000000,4.000000,4.000000,4.000000,4.000000,4.000000,4.000000,4.000000,4.000000,4.000000,4.000000,4.000000,4.000000,4.000000,4.000000,100.000000
1602005735.856421,98.000000,0.000000,4148.717773,4116.922852,4123.589844,4124.615234,4120.512695,4127.692383,4122.563965,4138.974121,4136.410156,4132.820313,4116.922852,4142.563965,4105.128418,4189.743652,874.000000,4.000000,,,,0.000000,4.000000,4.000000,4.000000,4.000000,4.000000,4.000000,4.000000,4.000000,4.000000,4.000000,4.000000,4.000000,4.000000,4.000000,100.000000
1602005735.864302,99.000000,0.000000,4158.974121,4123.589844,4134.871582,4135.384766,4123.589844,4123.589844,4124.102539,4137.436035,4135.384766,4148.205078,4137.436035,4150.769043,4133.846191,4213.846191,841.000000,4.000000,,,,0.000000,4.000000,4.000000,4.000000,4.000000,4.000000,4.000000,4.000000,4.000000,4.000000,4.000000,4.000000,4.000000,4.000000,4.000000,100.000000
1602005735.872184,100.000000,0.000000,4160.512695,4124.102539,4129.743652,4131.794922,4127.179688,4110.256348,4119.487305,4129.743652,4133.333496,4152.820313,4153.846191,4153.846191,4163.589844,4232.307617,783.000000,4.000000,,,,0.000000,4.000000,4.000000,4.000000,4.000000,4.000000,4.000000,4.000000,4.000000,4.000000,4.000000,4.000000,4.000000,4.000000,4.000000,100.000000
1602005735.880065,101.000000,0.000000,4144.615234,4114.358887,4117.948730,4120.000000,4126.153809,4112.307617,4114.358887,4124.102539,4133.333496,4138.974121,4156.922852,4148.205078,4171.794922,4231.794922,761.000000,4.000000,,,,0.000000,4.000000,4.000000,4.000000,4.000000,4.000000,4.000000,4.000000,4.000000,4.000000,4.000000,4.000000,4.000000,4.000000,4.000000,100.000000
1602005735.887947,102.000000,0.000000,4137.948730,4104.102539,4123.589844,4123.077148,4128.205078,4125.128418,4116.410156,4129.743652,4136.410156,4158.974121,4166.153809,4152.820313,4187.692383,4245.128418,874.000000,4.000000,,,,0.000000,4.000000,4.000000,4.000000,4.000000,4.000000,4.000000,4.000000,4.000000,4.000000,4.000000,4.000000,4.000000,4.000000,4.000000,100.000000
1602005735.895829,103.000000,0.000000,4135.897461,4094.871826,4130.769043,4123.077148,4123.589844,4127.692383,4120.000000,4136.922852,4141.025879,4186.666504,4177.436035,4160.000000,4202.051270,4256.410156,841.000000,4.000000,,,,0.000000,4.000000,4.000000,4.000000,4.000000,4.000000,4.000000,4.000000,4.000000,4.000000,4.000000,4.000000,4.000000,4.000000,4.000000,100.000000
1602005735.903710,104.000000,0.000000,4124.102539,4091.281982,4121.025879,4118.461426,4123.077148,4128.205078,4121.025879,4137.436035,4140.512695,4184.102539,4171.794922,4153.846191,4192.307617,4240.512695,783.000000,4.000000,,,,0.000000,4.000000,4.000000,4.000000,4.000000,4.000000,4.000000,4.000000,4.000000,4.000000,4.000000,4.000000,4.000000,4.000000,4.000000,100.000000
1602005735.911592,105.000000,0.000000,4118.974121,4095.384521,4113.846191,4121.025879,4135.897461,4133.333496,4123.077148,4136.922852,4136.922852,4166.666504,4162.563965,4150.769043,4185.128418,4230.769043,761.000000,4.000000,,,,0.000000,4.000000,4.000000,4.000000,4.000000,4.000000,4.000000,4.000000,4.000000,4.000000,4.000000,4.000000,4.000000,4.000000,4.000000,100.000000
1602005735.919374,106.000000,0.000000,4123.589844,4094.358887,4118.461426,4113.846191,4136.922852,4127.692383,4129.230957,4142.563965,4142.051270,4151.794922,4158.974121,4155.384766,4188.717773,4236.410156,874.000000,4.000000,,,,0.000000,4.000000,4.000000,4.000000,4.000000,4.000000,4.000000,4.000000,4.000000,4.000000,4.000000,4.000000,4.000000,4.000000,4.000000,100.000000
1602005735.927255,107.000000,0.000000,4123.589844,4088.718018,4120.512695,4106.153809,4124.102539,4121.025879,4136.410156,4153.333496,4153.846191,4146.666504,4157.436035,4154.358887,4182.051270,4235.384766,841.000000,4.000000,,,,0.000000,4.000000,4.000000,4.000000,4.000000,4.000000,4.000000,4.000000,4.000000,4.000000,4.000000,4.000000,4.000000,4.000000,4.000000,100.000000
1602005735.935137,108.000000,0.000000,4125.128418,4092.820557,4121.025879,4115.897461,4118.461426,4128.205078,4140.512695,4155.384766,4156.410156,4154.871582,4158.974121,4151.794922,4175.897461,4230.769043,783.000000,4.000000,,,,0.000000,4.000000,4.000000,4.000000,4.000000,4.000000,4.000000,4.000000,4.000000,4.000000,4.000000,4.000000,4.000000,4.000000,4.000000,100.000000
1602005735.943019,109.000000,0.000000,4127.692383,4097.436035,4125.641113,4125.128418,4122.563965,4128.205078,4137.436035,4143.589844,4139.487305,4152.820313,4152.307617,4155.897461,4168.717773,4229.230957,761.000000,4.000000,,,,0.000000,4.000000,4.000000,4.000000,4.000000,4.000000,4.000000,4.000000,4.000000,4.000000,4.000000,4.000000,4.000000,4.000000,4.000000,100.000000
1602005735.950900,110.000000,0.000000,4122.051270,4091.281982,4124.102539,4117.436035,4123.077148,4115.897461,4129.230957,4133.333496,4122.051270,4138.461426,4140.512695,4153.333496,4155.384766,4228.717773,874.000000,4.000000,,,,0.000000,4.000000,4.000000,4.000000,4.000000,4.000000,4.000000,4.000000,4.000000,4.000000,4.000000,4.000000,4.000000,4.000000,4.000000,100.000000
1602005735.958782,111.000000,0.000000,4124.102539,4086.666748,4125.128418,4110.769043,4119.487305,4115.897461,4127.179688,4135.384766,4127.692383,4141.025879,4146.666504,4150.769043,4158.461426,4231.282227,841.000000,4.000000,,,,0.000000,4.000000,4.000000,4.000000,4.000000,4.000000,4.000000,4.000000,4.000000,4.000000,4.000000,4.000000,4.000000,4.000000,4.000000,100.000000
1602005735.966664,112.000000,0.000000,4135.384766,4093.333252,4137.948730,4114.358887,4121.538574,4133.333496,4135.897461,4140.000000,4138.974121,4153.846191,4164.615234,4164.615234,4172.307617,4236.922852,783.000000,4.000000,,,,0.000000,4.000000,4.000000,4.000000,4.000000,4.000000,4.000000,4.000000,4.000000,4.000000,4.000000,4.000000,4.000000,4.000000,4.000000,100.000000
1602005735.974545,113.000000,0.000000,4138.974121,4098.461426,4141.538574,4118.461426,4131.282227,4144.102539,4143.589844,4142.563965,4138.461426,4155.897461,4164.102539,4171.794922,4174.358887,4237.436035,761.000000,4.000000,,,,0.000000,4.000000,4.000000,4.000000,4.000000,4.000000,4.000000,4.000000,4.000000,4.000000,4.000000,4.000000,4.000000,4.000000,4.000000,100.000000
1602005735.982427,114.000000,0.000000,4135.384766,4098.461426,4135.384766,4118.461426,4130.769043,4134.871582,4136.922852,4143.077148,4142.563965,4151.794922,4152.820313,4160.512695,4169.230957,4234.358887,874.000000,4.000000,,,,0.000000,4.000000,4.000000,4.000000,4.000000,4.000000,4.000000,4.000000,4.000000,4.000000,4.000000,4.000000,4.000000,4.000000,4.000000,100.000000
1602005735.990408,115.000000,0.000000,4136.410156,4103.589844,4137.436035,4118.974121,4121.025879,4118.461426,4128.205078,4145.641113,4150.769043,4149.743652,4152.307617,4151.794922,4169.743652,4234.358887,841.000000,4.000000,,,,0.000000,4.000000,4.000000,4.000000,4.000000,4.000000,4.000000,4.000000,4.000000,4.000000,4.000000,4.000000,4.000000,4.000000,4.000000,100.000000
1602005735.998290,116.000000,0.000000,4140.512695,4109.743652,4137.436035,4123.077148,4125.641113,4119.487305,4132.307617,4150.256348,4151.794922,4152.820313,4152.820313,4152.820313,4171.794922,4234.871582,783.000000,4.000000,,,,0.000000,4.000000,4.000000,4.000000,4.000000,4.000000,4.000000,4.000000,4.000000,4.000000,4.000000,4.000000,4.000000,4.000000,4.000000,100.000000
1602005736.006172,117.000000,0.000000,4140.000000,4109.743652,4129.230957,4123.077148,4134.871582,4134.358887,4139.487305,4154.358887,4153.846191,4157.436035,4151.794922,4150.769043,4170.256348,4233.333496,761.000000,4.000000,,,,0.000000,4.000000,4.000000,4.000000,4.000000,4.000000,4.000000,4.000000,4.000000,4.000000,4.000000,4.000000,4.000000,4.000000,4.000000,100.000000
1602005736.014053,118.000000,0.000000,4140.512695,4109.230957,4126.153809,4123.589844,4135.897461,4136.410156,4138.461426,4153.333496,4148.717773,4153.846191,4156.410156,4144.615234,4171.794922,4232.307617,874.000000,4.000000,,,,0.000000,4.000000,4.000000,4.000000,4.000000,4.000000,4.000000,4.000000,4.000000,4.000000,4.000000,4.000000,4.000000,4.000000,4.000000,100.000000
1602005736.021935,119.000000,0.000000,4138.974121,4110.256348,4125.641113,4126.666504,4134.358887,4131.794922,4138.461426,4147.692383,4130.769043,4143.589844,4157.436035,4138.974121,4170.769043,4231.794922,841.000000,4.000000,,,,0.000000,4.000000,4.000000,4.000000,4.000000,4.000000,4.000000,4.000000,4.000000,4.000000,4.000000,4.000000,4.000000,4.000000,4.000000,100.000000
1602005736.029817,120.000000,0.000000,4128.205078,4107.179688,4120.512695,4120.512695,4136.922852,4133.846191,4138.974121,4140.512695,4124.102539,4133.846191,4152.307617,4140.000000,4163.077148,4227.179688,783.000000,4.000000,,,,0.000000,4.000000,4.000000,4.000000,4.000000,4.000000,4.000000,4.000000,4.000000,4.000000,4.000000,4.000000,4.000000,4.000000,4.000000,100.000000
1602005736.037698,121.000000,0.000000,4119.487305,4101.538574,4115.384766,4114.871582,4136.410156,4130.256348,4131.794922,4136.410156,4126.666504,4125.128418,4152.307617,4144.615234,4155.384766,4223.077148,761.000000,4.000000,,,,0.000000,4.000000,4.000000,4.000000,4.000000,4.000000,4.000000,4.000000,4.000000,4.000000,4.000000,4.000000,4.000000,4.000000,4.000000,100.000000
1602005736.045580,122.000000,0.000000,4122.051270,4096.410156,4114.358887,4118.461426,4126.666504,4121.538574,4125.128418,4136.410156,4122.563965,4120.000000,4146.666504,4140.000000,4155.384766,4221.025879,874.000000,4.000000,,,,0.000000,4.000000,4.000000,4.000000,4.000000,4.000000,4.000000,4.000000,4.000000,4.000000,4.000000,4.000000,4.000000,4.000000,4.000000,100.000000
1602005736.053462,123.000000,0.000000,4123.589844,4094.358887,4114.871582,4117.948730,4122.051270,4125.128418,4124.615234,4137.436035,4120.512695,4118.461426,4137.948730,4135.897461,4150.769043,4212.820313,841.000000,4.000000,,,,0.000000,4.000000,4.000000,4.000000,4.000000,4.000000,4.000000,4.000000,4.000000,4.000000,4.000000,4.000000,4.000000,4.000000,4.000000,100.000000
1602005736.061443,124.000000,0.000000,4112.307617,4087.179443,4110.769043,4108.205078,4123.589844,4128.205078,4121.538574,4134.871582,4124.102539,4116.410156,4136.922852,4136.410156,4140.000000,4201.538574,783.000000,4.000000,,,,0.000000,4.000000,4.000000,4.000000,4.000000,4.000000,4.000000,4.000000,4.000000,4.000000,4.000000,4.000000,4.000000,4.000000,4.000000,100.000000
1602005736.069324,125.000000,0.000000,4103.077148,4076.410156,4105.128418,4102.051270,4120.000000,4116.410156,4120.512695,4125.128418,4120.000000,4117.436035,4132.307617,4127.692383,4133.333496,4195.384766,761.000000,4.000000,,,,0.000000,4.000000,4.000000,4.000000,4.000000,4.000000,4.000000,4.000000,4.000000,4.000000,4.000000,4.000000,4.000000,4.000000,4.000000,100.000000
1602005736.077206,126.000000,0.000000,4105.641113,4073.333252,4105.128418,4102.051270,4109.743652,4106.153809,4118.974121,4121.025879,4113.846191,4124.615234,4128.205078,4121.025879,4133.846191,4197.436035,874.000000,4.000000,,,,0.000000,4.000000,4.000000,4.000000,4.000000,4.000000,4.000000,4.000000,4.000000,4.000000,4.000000,4.000000,4.000000,4.000000,4.000000,100.000000
1602005736.085087,127.000000,0.000000,4107.692383,4073.333252,4106.666504,4101.538574,4105.128418,4108.717773,4121.538574,4131.282227,4117.948730,4134.358887,4143.077148,4132.820313,4144.102539,4207.179688,841.000000,4.000000,,,,0.000000,4.000000,4.000000,4.000000,4.000000,4.000000,4.000000,4.000000,4.000000,4.000000,4.000000,4.000000,4.000000,4.000000,4.000000,100.000000
1602005736.092969,128.000000,0.000000,4110.769043,4080.000000,4107.179688,4106.666504,4114.871582,4124.102539,4132.820313,4140.512695,4128.205078,4142.051270,4157.436035,4143.589844,4155.384766,4217.948730,783.000000,4.000000,,,,0.000000,4.000000,4.000000,4.000000,4.000000,4.000000,4.000000,4.000000,4.000000,4.000000,4.000000,4.000000,4.000000,4.000000,4.000000,100.000000
1602005736.100850,0.000000,0.000000,4117.948730,4090.769287,4108.717773,4114.871582,4136.922852,4128.717773,4132.820313,4134.871582,4124.615234,4127.179688,4149.230957,4138.461426,4152.307617,4217.948730,802.000000,4.000000,,,,0.000000,4.000000,4.000000,4.000000,4.000000,4.000000,4.000000,4.000000,4.000000,4.000000,4.000000,4.000000,4.000000,4.000000,4.000000,100.000000
1602005736.108731,1.000000,0.000000,4121.025879,4093.846191,4111.794922,4119.487305,4139.487305,4116.410156,4120.512695,4126.153809,4111.282227,4096.410156,4148.717773,4135.897461,4150.256348,4216.410156,802.000000,4.000000,,,,0.000000,4.000000,4.000000,4.000000,4.000000,4.000000,4.000000,4.000000,4.000000,4.000000,4.000000,4.000000,4.000000,4.000000,4.000000,100.000000
1602005736.116513,2.000000,0.000000,4122.563965,4095.384521,4118.974121,4123.077148,4125.128418,4117.948730,4116.410156,4123.077148,4108.717773,4101.538574,4158.974121,4141.538574,4157.948730,4220.512695,853.000000,4.000000,,,,0.000000,4.000000,4.000000,4.000000,4.000000,4.000000,4.000000,4.000000,4.000000,4.000000,4.000000,4.000000,4.000000,4.000000,4.000000,100.000000
1602005736.124395,3.000000,0.000000,4124.615234,4100.512695,4124.615234,4124.102539,4125.641113,4119.487305,4115.384766,4115.384766,4109.743652,4136.922852,4149.230957,4135.384766,4154.358887,4220.000000,867.000000,4.000000,,,,0.000000,4.000000,4.000000,4.000000,4.000000,4.000000,4.000000,4.000000,4.000000,4.000000,4.000000,4.000000,4.000000,4.000000,4.000000,100.000000
1602005736.132276,4.000000,0.000000,4117.948730,4095.384521,4116.922852,4117.436035,4121.538574,4096.410156,4105.641113,4105.641113,4103.589844,4137.948730,4134.871582,4122.563965,4142.051270,4210.256348,813.000000,4.000000,,,,0.000000,4.000000,4.000000,4.000000,4.000000,4.000000,4.000000,4.000000,4.000000,4.000000,4.000000,4.000000,4.000000,4.000000,4.000000,100.000000
1602005736.140158,5.000000,0.000000,4107.692383,4087.179443,4106.153809,4108.205078,4109.743652,4084.102539,4102.563965,4104.615234,4103.077148,4114.871582,4136.922852,4122.051270,4140.512695,4203.589844,824.000000,4.000000,,,,0.000000,4.000000,4.000000,4.000000,4.000000,4.000000,4.000000,4.000000,4.000000,4.000000,4.000000,4.000000,4.000000,4.000000,4.000000,100.000000
1602005736.148040,6.000000,0.000000,4104.102539,4089.230713,4102.563965,4111.282227,4117.948730,4104.102539,4112.820313,4108.717773,4109.230957,4112.820313,4139.487305,4123.077148,4138.974121,4197.436035,770.000000,4.000000,,,,0.000000,4.000000,4.000000,4.000000,4.000000,4.000000,4.000000,4.000000,4.000000,4.000000,4.000000,4.000000,4.000000,4.000000,4.000000,100.000000
1602005736.155921,7.000000,0.000000,4110.769043,4094.358887,4101.538574,4120.512695,4129.230957,4118.461426,4118.974121,4113.333496,4111.282227,4106.153809,4140.000000,4118.461426,4136.410156,4192.820313,693.000000,4.000000,,,,0.000000,4.000000,4.000000,4.000000,4.000000,4.000000,4.000000,4.000000,4.000000,4.000000,4.000000,4.000000,4.000000,4.000000,4.000000,100.000000
1602005736.163803,8.000000,0.000000,4128.205078,4102.051270,4112.820313,4125.641113,4121.025879,4115.384766,4119.487305,4126.153809,4119.487305,4102.563965,4150.769043,4129.743652,4146.666504,4205.128418,794.000000,4.000000,,,,0.000000,4.000000,4.000000,4.000000,4.000000,4.000000,4.000000,4.000000,4.000000,4.000000,4.000000,4.000000,4.000000,4.000000,4.000000,100.000000
1602005736.171685,9.000000,0.000000,4140.512695,4110.256348,4134.871582,4128.205078,4121.538574,4116.922852,4123.589844,4144.102539,4141.538574,4133.333496,4161.025879,4151.794922,4160.000000,4223.077148,840.000000,4.000000,,,,0.000000,4.000000,4.000000,4.000000,4.000000,4.000000,4.000000,4.000000,4.000000,4.000000,4.000000,4.000000,4.000000,4.000000,4.000000,100.000000
1602005736.179566,10.000000,0.000000,4137.436035,4107.179688,4138.461426,4126.153809,4133.846191,4121.025879,4132.307617,4149.230957,4149.743652,4164.102539,4165.128418,4157.948730,4166.153809,4224.102539,874.000000,4.000000,,,,0.000000,4.000000,4.000000,4.000000,4.000000,4.000000,4.000000,4.000000,4.000000,4.000000,4.000000,4.000000,4.000000,4.000000,4.000000,100.000000
1602005736.187548,11.000000,0.000000,4137.436035,4104.102539,4125.641113,4121.538574,4134.358887,4125.128418,4131.794922,4143.589844,4143.589844,4162.051270,4168.205078,4152.307617,4170.256348,4218.974121,841.000000,4.000000,,,,0.000000,4.000000,4.000000,4.000000,4.000000,4.000000,4.000000,4.000000,4.000000,4.000000,4.000000,4.000000,4.000000,4.000000,4.000000,100.000000
1602005736.195429,12.000000,0.000000,4134.871582,4104.615234,4121.025879,4120.512695,4127.692383,4125.128418,4123.589844,4135.897461,4140.000000,4139.487305,4155.897461,4146.153809,4165.128418,4217.948730,783.000000,4.000000,,,,0.000000,4.000000,4.000000,4.000000,4.000000,4.000000,4.000000,4.000000,4.000000,4.000000,4.000000,4.000000,4.000000,4.000000,4.000000,100.000000
1602005736.203311,13.000000,0.000000,4117.948730,4097.436035,4115.897461,4117.436035,4127.179688,4121.025879,4122.051270,4127.179688,4130.769043,4124.102539,4138.974121,4135.384766,4149.743652,4208.717773,761.000000,4.000000,,,,0.000000,4.000000,4.000000,4.000000,4.000000,4.000000,4.000000,4.000000,4.000000,4.000000,4.000000,4.000000,4.000000,4.000000,4.000000,100.000000
1602005736.211193,14.000000,0.000000,4113.333496,4094.358887,4109.230957,4114.871582,4131.794922,4121.538574,4118.461426,4117.436035,4118.974121,4120.000000,4137.436035,4124.102539,4140.512695,4197.948730,874.000000,4.000000,,,,0.000000,4.000000,4.000000,4.000000,4.000000,4.000000,4.000000,4.000000,4.000000,4.000000,4.000000,4.000000,4.000000,4.000000,4.000000,100.000000
1602005736.219074,15.000000,0.000000,4124.615234,4103.077148,4115.897461,4119.487305,4127.692383,4116.922852,4110.256348,4113.846191,4118.974121,4110.769043,4139.487305,4125.641113,4139.487305,4198.974121,841.000000,4.000000,,,,0.000000,4.000000,4.000000,4.000000,4.000000,4.000000,4.000000,4.000000,4.000000,4.000000,4.000000,4.000000,4.000000,4.000000,4.000000,100.000000
1602005736.226956,16.000000,0.000000,4127.179688,4109.230957,4126.153809,4123.589844,4120.512695,4107.692383,4111.794922,4118.461426,4122.563965,4103.077148,4141.025879,4139.487305,4137.436035,4209.743652,0.000000,4.000000,,,,0.000000,4.000000,4.000000,4.000000,4.000000,4.000000,4.000000,4.000000,4.000000,4.000000,4.000000,4.000000,4.000000,4.000000,4.000000,100.000000
1602005736.234838,17.000000,0.000000,4124.102539,4106.666504,4126.666504,4121.538574,4113.333496,4106.666504,4122.051270,4123.589844,4124.615234,4122.051270,4145.641113,4148.205078,4138.974121,4215.897461,0.000000,4.000000,,,,0.000000,4.000000,4.000000,4.000000,4.000000,4.000000,4.000000,4.000000,4.000000,4.000000,4.000000,4.000000,4.000000,4.000000,4.000000,100.000000
1602005736.242719,18.000000,0.000000,4121.025879,4100.000000,4123.589844,4117.436035,4107.692383,4110.769043,4124.102539,4123.077148,4128.205078,4143.077148,4145.641113,4145.641113,4144.102539,4210.769043,0.000000,4.000000,,,,0.000000,4.000000,4.000000,4.000000,4.000000,4.000000,4.000000,4.000000,4.000000,4.000000,4.000000,4.000000,4.000000,4.000000,4.000000,100.000000
1602005736.250500,19.000000,0.000000,4126.153809,4100.000000,4128.205078,4117.436035,4116.922852,4117.948730,4121.538574,4124.102539,4132.820313,4138.974121,4145.641113,4149.743652,4150.256348,4214.358887,0.000000,4.000000,,,,0.000000,4.000000,4.000000,4.000000,4.000000,4.000000,4.000000,4.000000,4.000000,4.000000,4.000000,4.000000,4.000000,4.000000,4.000000,100.000000
1602005736.258382,20.000000,0.000000,4136.922852,4107.692383,4140.000000,4124.102539,4130.769043,4131.794922,4129.230957,4128.717773,4136.922852,4135.897461,4160.000000,4164.615234,4163.077148,4234.358887,0.000000,4.000000,,,,0.000000,4.000000,4.000000,4.000000,4.000000,4.000000,4.000000,4.000000,4.000000,4.000000,4.000000,4.000000,4.000000,4.000000,4.000000,100.000000
1602005736.266263,21.000000,0.000000,4132.307617,4110.769043,4133.333496,4126.153809,4127.179688,4138.974121,4134.871582,4130.256348,4144.102539,4140.000000,4169.743652,4162.563965,4171.282227,4236.410156,0.000000,4.000000,,,,0.000000,4.000000,4.000000,4.000000,4.000000,4.000000,4.000000,4.000000,4.000000,4.000000,4.000000,4.000000,4.000000,4.000000,4.000000,100.000000
1602005736.274044,22.000000,0.000000,4116.922852,4104.615234,4111.282227,4116.922852,4120.000000,4126.153809,4129.230957,4128.717773,4144.615234,4143.589844,4160.000000,4144.615234,4162.051270,4217.948730,0.000000,4.000000,,,,0.000000,4.000000,4.000000,4.000000,4.000000,4.000000,4.000000,4.000000,4.000000,4.000000,4.000000,4.000000,4.000000,4.000000,4.000000,100.000000
1602005736.281925,23.000000,0.000000,4117.436035,4102.051270,4108.205078,4115.384766,4123.077148,4111.282227,4126.153809,4129.230957,4140.512695,4152.820313,4152.820313,4137.948730,4154.358887,4211.282227,0.000000,4.000000,,,,0.000000,4.000000,4.000000,4.000000,4.000000,4.000000,4.000000,4.000000,4.000000,4.000000,4.000000,4.000000,4.000000,4.000000,4.000000,100.000000
1602005736.289806,24.000000,0.000000,4125.128418,4108.205078,4123.077148,4121.538574,4124.615234,4116.410156,4128.205078,4128.717773,4141.538574,4156.410156,4155.897461,4142.563965,4154.871582,4216.410156,0.000000,4.000000,,,,0.000000,4.000000,4.000000,4.000000,4.000000,4.000000,4.000000,4.000000,4.000000,4.000000,4.000000,4.000000,4.000000,4.000000,4.000000,100.000000
1602005736.297588,25.000000,0.000000,4121.025879,4108.205078,4126.666504,4113.846191,4118.974121,4128.205078,4125.641113,4124.615234,4137.948730,4135.897461,4151.282227,4140.512695,4145.128418,4213.846191,0.000000,4.000000,,,,0.000000,4.000000,4.000000,4.000000,4.000000,4.000000,4.000000,4.000000,4.000000,4.000000,4.000000,4.000000,4.000000,4.000000,4.000000,100.000000
1602005736.305469,26.000000,0.000000,4110.769043,4097.436035,4117.436035,4105.128418,4109.743652,4120.512695,4121.025879,4122.563965,4125.641113,4112.307617,4137.948730,4136.410156,4132.820313,4204.615234,0.000000,4.000000,,,,0.000000,4.000000,4.000000,4.000000,4.000000,4.000000,4.000000,4.000000,4.000000,4.000000,4.000000,4.000000,4.000000,4.000000,4.000000,100.000000
1602005736.313351,27.000000,0.000000,4111.282227,4092.820557,4110.256348,4109.743652,4102.051270,4107.179688,4120.000000,4121.538574,4116.922852,4114.871582,4134.358887,4138.974121,4128.205078,4202.051270,0.000000,4.000000,,,,0.000000,4.000000,4.000000,4.000000,4.000000,4.000000,4.000000,4.000000,4.000000,4.000000,4.000000,4.000000,4.000000,4.000000,4.000000,100.000000
1602005736.321232,28.000000,0.000000,4119.487305,4101.025879,4111.794922,4112.307617,4103.589844,4114.871582,4120.512695,4121.025879,4123.589844,4130.769043,4138.974121,4140.512695,4124.615234,4206.666504,0.000000,4.000000,,,,0.000000,4.000000,4.000000,4.000000,4.000000,4.000000,4.000000,4.000000,4.000000,4.000000,4.000000,4.000000,4.000000,4.000000,4.000000,100.000000
1602005736.329114,29.000000,0.000000,4116.410156,4105.641113,4109.743652,4106.153809,4113.333496,4122.563965,4123.589844,4122.563965,4125.641113,4131.282227,4137.948730,4134.358887,4122.051270,4204.102539,0.000000,4.000000,,,,0.000000,4.000000,4.000000,4.000000,4.000000,4.000000,4.000000,4.000000,4.000000,4.000000,4.000000,4.000000,4.000000,4.000000,4.000000,100.000000
1602005736.336995,30.000000,0.000000,4110.256348,4102.051270,4105.128418,4107.179688,4120.000000,4111.282227,4128.717773,4122.051270,4113.846191,4115.384766,4132.307617,4130.769043,4121.025879,4196.922852,0.000000,4.000000,,,,0.000000,4.000000,4.000000,4.000000,4.000000,4.000000,4.000000,4.000000,4.000000,4.000000,4.000000,4.000000,4.000000,4.000000,4.000000,100.000000
1602005736.344976,31.000000,0.000000,4119.487305,4104.102539,4112.307617,4114.871582,4118.974121,4108.205078,4130.769043,4121.025879,4115.897461,4108.205078,4132.820313,4133.333496,4123.589844,4203.077148,0.000000,4.000000,,,,0.000000,4.000000,4.000000,4.000000,4.000000,4.000000,4.000000,4.000000,4.000000,4.000000,4.000000,4.000000,4.000000,4.000000,4.000000,100.000000
1602005736.352858,32.000000,0.000000,4134.871582,4114.871582,4123.589844,4121.025879,4122.051270,4125.128418,4130.769043,4128.717773,4136.410156,4129.743652,4145.641113,4142.563965,4141.538574,4221.025879,0.000000,4.000000,,,,0.000000,4.000000,4.000000,4.000000,4.000000,4.000000,4.000000,4.000000,4.000000,4.000000,4.000000,4.000000,4.000000,4.000000,4.000000,100.000000
1602005736.360739,33.000000,0.000000,4140.512695,4124.102539,4125.128418,4125.641113,4122.563965,4130.256348,4125.641113,4140.512695,4148.717773,4160.512695,4158.974121,4154.358887,4161.025879,4230.769043,0.000000,4.000000,,,,0.000000,4.000000,4.000000,4.000000,4.000000,4.000000,4.000000,4.000000,4.000000,4.000000,4.000000,4.000000,4.000000,4.000000,4.000000,100.000000
1602005736.368620,34.000000,0.000000,4132.307617,4120.000000,4117.948730,4123.077148,4110.256348,4112.307617,4116.922852,4134.871582,4136.410156,4157.436035,4157.948730,4151.794922,4151.282227,4222.563965,0.000000,4.000000,,,,0.000000,4.000000,4.000000,4.000000,4.000000,4.000000,4.000000,4.000000,4.000000,4.000000,4.000000,4.000000,4.000000,4.000000,4.000000,100.000000
1602005736.376502,35.000000,0.000000,4125.641113,4117.948730,4113.333496,4118.461426,4105.128418,4108.205078,4115.897461,4122.563965,4127.179688,4136.410156,4148.717773,4143.589844,4138.461426,4218.974121,0.000000,4.000000,,,,0.000000,4.000000,4.000000,4.000000,4.000000,4.000000,4.000000,4.000000,4.000000,4.000000,4.000000,4.000000,4.000000,4.000000,4.000000,100.000000
1602005736.384383,36.000000,0.000000,4136.410156,4130.256348,4124.102539,4127.179688,4118.974121,4125.128418,4121.538574,4128.205078,4140.512695,4145.641113,4155.384766,4156.410156,4153.846191,4234.871582,0.000000,4.000000,,,,0.000000,4.000000,4.000000,4.000000,4.000000,4.000000,4.000000,4.000000,4.000000,4.000000,4.000000,4.000000,4.000000,4.000000,4.000000,100.000000
1602005736.392365,37.000000,0.000000,4152.307617,4141.025879,4140.000000,4138.974121,4134.358887,4128.717773,4122.051270,4141.538574,4157.948730,4176.410156,4172.307617,4171.794922,4174.871582,4249.230957,0.000000,4.000000,,,,0.000000,4.000000,4.000000,4.000000,4.000000,4.000000,4.000000,4.000000,4.000000,4.000000,4.000000,4.000000,4.000000,4.000000,4.000000,100.000000
1602005736.400246,38.000000,0.000000,4151.794922,4141.538574,4137.436035,4138.974121,4138.974121,4120.512695,4120.512695,4142.563965,4157.436035,4177.436035,4171.282227,4166.153809,4173.846191,4243.589844,0.000000,4.000000,,,,0.000000,4.000000,4.000000,4.000000,4.000000,4.000000,4.000000,4.000000,4.000000,4.000000,4.000000,4.000000,4.000000,4.000000,4.000000,100.000000
1602005736.408127,39.000000,0.000000,4141.538574,4137.948730,4119.487305,4131.282227,4135.897461,4121.025879,4126.153809,4132.820313,4135.897461,4131.794922,4152.820313,4146.153809,4158.974121,4228.717773,0.000000,4.000000,,,,0.000000,4.000000,4.000000,4.000000,4.000000,4.000000,4.000000,4.000000,4.000000,4.000000,4.000000,4.000000,4.000000,4.000000,4.000000,100.000000
1602005736.416009,40.000000,0.000000,4131.794922,4130.256348,4108.205078,4125.641113,4126.666504,4116.410156,4126.666504,4123.589844,4113.333496,4102.051270,4139.487305,4125.128418,4145.128418,4213.846191,0.000000,4.000000,,,,0.000000,4.000000,4.000000,4.000000,4.000000,4.000000,4.000000,4.000000,4.000000,4.000000,4.000000,4.000000,4.000000,4.000000,4.000000,100.000000
1602005736.423890,41.000000,0.000000,4126.666504,4123.077148,4110.769043,4123.589844,4115.897461,4105.128418,4115.384766,4118.461426,4105.641113,4125.641113,4138.461426,4120.000000,4138.461426,4203.589844,0.000000,4.000000,,,,0.000000,4.000000,4.000000,4.000000,4.000000,4.000000,4.000000,4.000000,4.000000,4.000000,4.000000,4.000000,4.000000,4.000000,4.000000,100.000000
1602005736.431772,42.000000,0.000000,4124.102539,4120.512695,4112.307617,4122.563965,4115.897461,4108.205078,4108.717773,4112.307617,4108.205078,4144.102539,4138.461426,4126.666504,4137.948730,4201.025879,0.000000,4.000000,,,,0.000000,4.000000,4.000000,4.000000,4.000000,4.000000,4.000000,4.000000,4.000000,4.000000,4.000000,4.000000,4.000000,4.000000,4.000000,100.000000
1602005736.439653,43.000000,0.000000,4120.000000,4118.974121,4105.128418,4118.974121,4120.512695,4109.743652,4109.743652,4107.179688,4104.102539,4128.205078,4134.871582,4122.563965,4136.410156,4200.512695,0.000000,4.000000,,,,0.000000,4.000000,4.000000,4.000000,4.000000,4.000000,4.000000,4.000000,4.000000,4.000000,4.000000,4.000000,4.000000,4.000000,4.000000,100.000000
1602005736.447435,44.000000,0.000000,4121.025879,4118.974121,4110.769043,4118.974121,4117.436035,4110.256348,4112.307617,4114.358887,4104.615234,4121.025879,4137.436035,4126.666504,4137.948730,4201.538574,0.000000,4.000000,,,,0.000000,4.000000,4.000000,4.000000,4.000000,4.000000,4.000000,4.000000,4.000000,4.000000,4.000000,4.000000,4.000000,4.000000,4.000000,100.000000
1602005736.455316,45.000000,0.000000,4127.692383,4121.538574,4121.538574,4122.563965,4106.666504,4115.384766,4109.230957,4117.948730,4112.307617,4127.692383,4141.538574,4136.922852,4143.077148,4204.615234,0.000000,4.000000,,,,0.000000,4.000000,4.000000,4.000000,4.000000,4.000000,4.000000,4.000000,4.000000,4.000000,4.000000,4.000000,4.000000,4.000000,4.000000,100.000000
1602005736.463198,46.000000,0.000000,4130.256348,4122.051270,4117.436035,4120.000000,4101.025879,4114.358887,4103.589844,4110.769043,4110.256348,4120.512695,4136.922852,4129.743652,4141.025879,4203.589844,0.000000,4.000000,,,,0.000000,4.000000,4.000000,4.000000,4.000000,4.000000,4.000000,4.000000,4.000000,4.000000,4.000000,4.000000,4.000000,4.000000,4.000000,100.000000
1602005736.471080,47.000000,0.000000,4127.692383,4120.512695,4112.307617,4118.461426,4111.282227,4117.436035,4108.205078,4115.384766,4102.051270,4116.410156,4134.358887,4121.025879,4137.948730,4200.000000,0.000000,4.000000,,,,0.000000,4.000000,4.000000,4.000000,4.000000,4.000000,4.000000,4.000000,4.000000,4.000000,4.000000,4.000000,4.000000,4.000000,4.000000,100.000000
1602005736.478961,48.000000,0.000000,4123.589844,4121.025879,4116.410156,4121.025879,4123.589844,4128.717773,4120.512695,4127.179688,4109.230957,4128.205078,4136.922852,4128.205078,4136.410156,4202.051270,0.000000,4.000000,,,,0.000000,4.000000,4.000000,4.000000,4.000000,4.000000,4.000000,4.000000,4.000000,4.000000,4.000000,4.000000,4.000000,4.000000,4.000000,100.000000
1602005736.486843,49.000000,0.000000,4121.025879,4121.538574,4115.897461,4121.025879,4122.563965,4130.769043,4126.153809,4126.153809,4121.538574,4142.563965,4129.743652,4132.820313,4131.282227,4206.153809,0.000000,4.000000,,,,0.000000,4.000000,4.000000,4.000000,4.000000,4.000000,4.000000,4.000000,4.000000,4.000000,4.000000,4.000000,4.000000,4.000000,4.000000,100.000000
1602005736.494725,50.000000,0.000000,4120.512695,4115.897461,4106.666504,4114.871582,4115.384766,4127.692383,4125.641113,4123.077148,4114.358887,4136.410156,4121.025879,4127.179688,4123.589844,4201.025879,0.000000,4.000000,,,,0.000000,4.000000,4.000000,4.000000,4.000000,4.000000,4.000000,4.000000,4.000000,4.000000,4.000000,4.000000,4.000000,4.000000,4.000000,100.000000
1602005736.502706,51.000000,0.000000,4116.410156,4107.179688,4097.948730,4109.230957,4115.384766,4128.717773,4127.179688,4126.153809,4101.538574,4114.871582,4120.512695,4121.025879,4118.974121,4187.179688,0.000000,4.000000,,,,0.000000,4.000000,4.000000,4.000000,4.000000,4.000000,4.000000,4.000000,4.000000,4.000000,4.000000,4.000000,4.000000,4.000000,4.000000,100.000000
1602005736.510587,52.000000,0.000000,4113.333496,4110.256348,4096.410156,4114.358887,4112.820313,4114.871582,4124.615234,4123.589844,4102.563965,4108.717773,4120.000000,4116.922852,4117.436035,4182.563965,0.000000,4.000000,,,,0.000000,4.000000,4.000000,4.000000,4.000000,4.000000,4.000000,4.000000,4.000000,4.000000,4.000000,4.000000,4.000000,4.000000,4.000000,100.000000
1602005736.518469,53.000000,0.000000,4121.025879,4122.051270,4107.179688,4124.102539,4110.256348,4103.589844,4123.077148,4122.563965,4108.205078,4108.717773,4130.256348,4121.025879,4123.077148,4191.794922,0.000000,4.000000,,,,0.000000,4.000000,4.000000,4.000000,4.000000,4.000000,4.000000,4.000000,4.000000,4.000000,4.000000,4.000000,4.000000,4.000000,4.000000,100.000000
1602005736.526350,54.000000,0.000000,4132.820313,4127.692383,4121.025879,4125.641113,4117.948730,4116.922852,4119.487305,4124.615234,4111.282227,4110.769043,4136.922852,4124.102539,4127.692383,4194.871582,0.000000,4.000000,,,,0.000000,4.000000,4.000000,4.000000,4.000000,4.000000,4.000000,4.000000,4.000000,4.000000,4.000000,4.000000,4.000000,4.000000,4.000000,100.000000
1602005736.534231,55.000000,0.000000,4137.948730,4125.641113,4125.128418,4125.641113,4122.563965,4126.153809,4109.230957,4121.538574,4117.436035,4128.717773,4124.615234,4121.025879,4125.641113,4193.333496,0.000000,4.000000,,,,0.000000,4.000000,4.000000,4.000000,4.000000,4.000000,4.000000,4.000000,4.000000,4.000000,4.000000,4.000000,4.000000,4.000000,4.000000,100.000000
1602005736.542113,56.000000,0.000000,4135.897461,4127.179688,4121.025879,4129.230957,4125.641113,4124.102539,4110.256348,4120.512695,4128.205078,4152.307617,4125.641113,4125.128418,4130.769043,4195.897461,0.000000,4.000000,,,,0.000000,4.000000,4.000000,4.000000,4.000000,4.000000,4.000000,4.000000,4.000000,4.000000,4.000000,4.000000,4.000000,4.000000,4.000000,100.000000
1602005736.549894,57.000000,0.000000,4135.897461,4129.230957,4117.436035,4127.179688,4122.563965,4126.153809,4123.077148,4125.128418,4133.846191,4155.384766,4143.589844,4136.922852,4141.025879,4204.102539,0.000000,4.000000,,,,0.000000,4.000000,4.000000,4.000000,4.000000,4.000000,4.000000,4.000000,4.000000,4.000000,4.000000,4.000000,4.000000,4.000000,4.000000,100.000000
1602005736.557776,58.000000,0.000000,4140.512695,4128.717773,4123.589844,4124.102539,4112.307617,4126.666504,4123.589844,4127.692383,4127.179688,4145.641113,4145.128418,4146.666504,4141.025879,4212.307617,0.000000,4.000000,,,,0.000000,4.000000,4.000000,4.000000,4.000000,4.000000,4.000000,4.000000,4.000000,4.000000,4.000000,4.000000,4.000000,4.000000,4.000000,100.000000
1602005736.565657,59.000000,0.000000,4138.974121,4124.102539,4120.000000,4124.615234,4113.333496,4121.025879,4118.461426,4124.615234,4120.512695,4132.307617,4130.256348,4143.077148,4129.743652,4207.692383,0.000000,4.000000,,,,0.000000,4.000000,4.000000,4.000000,4.000000,4.000000,4.000000,4.000000,4.000000,4.000000,4.000000,4.000000,4.000000,4.000000,4.000000,100.000000
1602005736.573539,60.000000,0.000000,4133.333496,4119.487305,4107.692383,4123.589844,4117.436035,4120.512695,4122.563965,4122.051270,4125.128418,4114.358887,4124.102539,4128.205078,4123.077148,4201.025879,0.000000,4.000000,,,,0.000000,4.000000,4.000000,4.000000,4.000000,4.000000,4.000000,4.000000,4.000000,4.000000,4.000000,4.000000,4.000000,4.000000,4.000000,100.000000
1602005736.581420,61.000000,0.000000,4135.897461,4122.563965,4112.820313,4122.563965,4114.871582,4123.589844,4126.666504,4124.102539,4120.512695,4104.615234,4122.563965,4113.846191,4121.538574,4202.563965,0.000000,4.000000,,,,0.000000,4.000000,4.000000,4.000000,4.000000,4.000000,4.000000,4.000000,4.000000,4.000000,4.000000,4.000000,4.000000,4.000000,4.000000,100.000000
1602005736.589301,62.000000,0.000000,4133.333496,4124.615234,4118.461426,4123.589844,4116.922852,4118.974121,4125.128418,4123.077148,4111.282227,4095.897461,4117.948730,4107.692383,4115.897461,4192.820313,0.000000,4.000000,,,,0.000000,4.000000,4.000000,4.000000,4.000000,4.000000,4.000000,4.000000,4.000000,4.000000,4.000000,4.000000,4.000000,4.000000,4.000000,100.000000
1602005736.597183,63.000000,0.000000,4121.025879,4119.487305,4107.692383,4121.025879,4118.461426,4109.230957,4122.563965,4120.512695,4125.128418,4113.846191,4119.487305,4111.794922,4115.897461,4176.922852,0.000000,4.000000,,,,0.000000,4.000000,4.000000,4.000000,4.000000,4.000000,4.000000,4.000000,4.000000,4.000000,4.000000,4.000000,4.000000,4.000000,4.000000,100.000000
1602005736.605064,64.000000,0.000000,4125.128418,4118.974121,4106.666504,4120.512695,4112.820313,4108.205078,4122.563965,4130.256348,4146.153809,4163.077148,4130.769043,4117.948730,4128.717773,4187.179688,748.000000,4.000000,,,,0.000000,4.000000,4.000000,4.000000,4.000000,4.000000,4.000000,4.000000,4.000000,4.000000,4.000000,4.000000,4.000000,4.000000,4.000000,100.000000
1602005736.612946,65.000000,0.000000,4140.000000,4127.692383,4121.538574,4124.615234,4117.948730,4112.820313,4122.563965,4138.461426,4143.589844,4172.820313,4140.000000,4121.025879,4140.000000,4203.077148,1145.000000,4.000000,,,,0.000000,4.000000,4.000000,4.000000,4.000000,4.000000,4.000000,4.000000,4.000000,4.000000,4.000000,4.000000,4.000000,4.000000,4.000000,100.000000
1602005736.620827,66.000000,0.000000,4141.025879,4129.230957,4125.641113,4125.641113,4124.615234,4111.794922,4115.897461,4128.717773,4129.743652,4144.102539,4140.512695,4125.641113,4138.974121,4199.487305,853.000000,4.000000,,,,0.000000,4.000000,4.000000,4.000000,4.000000,4.000000,4.000000,4.000000,4.000000,4.000000,4.000000,4.000000,4.000000,4.000000,4.000000,100.000000
1602005736.628708,67.000000,0.000000,4139.487305,4124.102539,4120.512695,4124.102539,4118.974121,4114.871582,4112.307617,4124.102539,4128.205078,4144.615234,4137.436035,4135.897461,4134.358887,4198.974121,867.000000,4.000000,,,,0.000000,4.000000,4.000000,4.000000,4.000000,4.000000,4.000000,4.000000,4.000000,4.000000,4.000000,4.000000,4.000000,4.000000,4.000000,100.000000
1602005736.636590,68.000000,0.000000,4146.666504,4126.666504,4124.102539,4125.128418,4118.461426,4123.589844,4119.487305,4135.384766,4128.717773,4147.692383,4132.307617,4139.487305,4130.769043,4205.641113,813.000000,4.000000,,,,0.000000,4.000000,4.000000,4.000000,4.000000,4.000000,4.000000,4.000000,4.000000,4.000000,4.000000,4.000000,4.000000,4.000000,4.000000,100.000000
1602005736.644571,69.000000,0.000000,4143.077148,4126.666504,4123.077148,4124.615234,4116.922852,4126.666504,4126.153809,4137.436035,4120.512695,4111.282227,4123.589844,4128.717773,4121.538574,4198.461426,824.000000,4.000000,,,,0.000000,4.000000,4.000000,4.000000,4.000000,4.000000,4.000000,4.000000,4.000000,4.000000,4.000000,4.000000,4.000000,4.000000,4.000000,100.000000
1602005736.652453,70.000000,0.000000,4132.820313,4117.436035,4116.922852,4122.563965,4100.000000,4121.538574,4123.077148,4127.179688,4115.384766,4097.948730,4118.974121,4121.538574,4108.717773,4182.051270,773.000000,4.000000,,,,0.000000,4.000000,4.000000,4.000000,4.000000,4.000000,4.000000,4.000000,4.000000,4.000000,4.000000,4.000000,4.000000,4.000000,4.000000,100.000000
1602005736.660334,71.000000,0.000000,4131.282227,4108.717773,4115.897461,4116.922852,4089.230713,4108.717773,4115.384766,4122.051270,4121.025879,4121.538574,4117.948730,4121.025879,4102.051270,4178.974121,693.000000,4.000000,,,,0.000000,4.000000,4.000000,4.000000,4.000000,4.000000,4.000000,4.000000,4.000000,4.000000,4.000000,4.000000,4.000000,4.000000,4.000000,100.000000
1602005736.668215,72.000000,0.000000,4133.846191,4106.666504,4114.871582,4109.230957,4103.589844,4097.948730,4115.384766,4122.563965,4121.538574,4127.179688,4118.461426,4117.436035,4103.589844,4184.615234,794.000000,4.000000,,,,0.000000,4.000000,4.000000,4.000000,4.000000,4.000000,4.000000,4.000000,4.000000,4.000000,4.000000,4.000000,4.000000,4.000000,4.000000,100.000000
1602005736.676097,73.000000,0.000000,4137.436035,4108.717773,4113.846191,4112.820313,4118.461426,4104.102539,4123.077148,4124.615234,4113.333496,4127.179688,4123.077148,4118.974121,4115.897461,4189.743652,840.000000,4.000000,,,,0.000000,4.000000,4.000000,4.000000,4.000000,4.000000,4.000000,4.000000,4.000000,4.000000,4.000000,4.000000,4.000000,4.000000,4.000000,100.000000
1602005736.683978,74.000000,0.000000,4135.384766,4108.205078,4111.282227,4122.051270,4103.589844,4110.769043,4126.666504,4126.153809,4111.794922,4137.436035,4123.589844,4124.615234,4122.051270,4188.717773,874.000000,4.000000,,,,0.000000,4.000000,4.000000,4.000000,4.000000,4.000000,4.000000,4.000000,4.000000,4.000000,4.000000,4.000000,4.000000,4.000000,4.000000,100.000000
1602005736.691860,75.000000,0.000000,4126.153809,4107.179688,4107.179688,4116.922852,4097.436035,4101.538574,4126.153809,4129.743652,4119.487305,4140.000000,4118.461426,4122.051270,4118.461426,4182.563965,841.000000,4.000000,,,,0.000000,4.000000,4.000000,4.000000,4.000000,4.000000,4.000000,4.000000,4.000000,4.000000,4.000000,4.000000,4.000000,4.000000,4.000000,100.000000
1602005736.699641,76.000000,0.000000,4132.820313,4115.384766,4116.410156,4114.871582,4129.743652,4107.692383,4134.358887,4139.487305,4129.230957,4137.948730,4129.230957,4128.717773,4130.769043,4189.230957,783.000000,4.000000,,,,0.000000,4.000000,4.000000,4.000000,4.000000,4.000000,4.000000,4.000000,4.000000,4.000000,4.000000,4.000000,4.000000,4.000000,4.000000,100.000000
1602005736.707523,77.000000,0.000000,4157.436035,4134.871582,4138.974121,4133.333496,4147.179688,4136.410156,4142.051270,4146.153809,4137.948730,4136.922852,4154.358887,4152.820313,4158.461426,4214.871582,761.000000,4.000000,,,,0.000000,4.000000,4.000000,4.000000,4.000000,4.000000,4.000000,4.000000,4.000000,4.000000,4.000000,4.000000,4.000000,4.000000,4.000000,100.000000
1602005736.715405,78.000000,0.000000,4162.563965,4141.538574,4143.077148,4140.000000,4126.666504,4143.077148,4135.897461,4143.077148,4140.512695,4137.948730,4158.461426,4157.948730,4161.538574,4224.615234,874.000000,4.000000,,,,0.000000,4.000000,4.000000,4.000000,4.000000,4.000000,4.000000,4.000000,4.000000,4.000000,4.000000,4.000000,4.000000,4.000000,4.000000,100.000000
1602005736.723286,79.000000,0.000000,4142.563965,4124.102539,4125.641113,4125.641113,4113.333496,4122.563965,4126.666504,4134.871582,4131.794922,4143.077148,4140.000000,4138.974121,4136.922852,4203.589844,841.000000,4.000000,,,,0.000000,4.000000,4.000000,4.000000,4.000000,4.000000,4.000000,4.000000,4.000000,4.000000,4.000000,4.000000,4.000000,4.000000,4.000000,100.000000
1602005736.731168,80.000000,0.000000,4133.846191,4113.333496,4121.025879,4121.025879,4119.487305,4118.461426,4125.641113,4127.179688,4121.538574,4152.307617,4129.743652,4128.717773,4125.641113,4188.205078,783.000000,4.000000,,,,0.000000,4.000000,4.000000,4.000000,4.000000,4.000000,4.000000,4.000000,4.000000,4.000000,4.000000,4.000000,4.000000,4.000000,4.000000,100.000000
1602005736.739049,81.000000,0.000000,4131.794922,4117.436035,4123.589844,4123.077148,4120.512695,4126.666504,4125.128418,4125.641113,4121.025879,4142.563965,4127.179688,4124.102539,4122.563965,4184.615234,761.000000,4.000000,,,,0.000000,4.000000,4.000000,4.000000,4.000000,4.000000,4.000000,4.000000,4.000000,4.000000,4.000000,4.000000,4.000000,4.000000,4.000000,100.000000
1602005736.746931,82.000000,0.000000,4127.692383,4121.025879,4121.538574,4122.563965,4116.410156,4115.897461,4121.538574,4130.256348,4127.179688,4120.000000,4127.179688,4122.051270,4118.461426,4183.077148,874.000000,4.000000,,,,0.000000,4.000000,4.000000,4.000000,4.000000,4.000000,4.000000,4.000000,4.000000,4.000000,4.000000,4.000000,4.000000,4.000000,4.000000,100.000000
1602005736.754813,83.000000,0.000000,4134.358887,4121.025879,4124.615234,4126.153809,4121.538574,4110.769043,4120.512695,4135.897461,4130.769043,4124.615234,4135.897461,4133.333496,4128.717773,4191.794922,841.000000,4.000000,,,,0.000000,4.000000,4.000000,4.000000,4.000000,4.000000,4.000000,4.000000,4.000000,4.000000,4.000000,4.000000,4.000000,4.000000,4.000000,100.000000
1602005736.762794,84.000000,0.000000,4142.051270,4123.589844,4129.230957,4129.743652,4125.641113,4117.948730,4121.025879,4136.410156,4127.179688,4141.538574,4143.589844,4142.051270,4138.461426,4203.077148,783.000000,4.000000,,,,0.000000,4.000000,4.000000,4.000000,4.000000,4.000000,4.000000,4.000000,4.000000,4.000000,4.000000,4.000000,4.000000,4.000000,4.000000,100.000000
1602005736.770676,85.000000,0.000000,4141.025879,4122.051270,4125.128418,4124.615234,4121.538574,4120.512695,4125.128418,4131.282227,4124.615234,4128.205078,4135.897461,4140.000000,4130.256348,4200.000000,761.000000,4.000000,,,,0.000000,4.000000,4.000000,4.000000,4.000000,4.000000,4.000000,4.000000,4.000000,4.000000,4.000000,4.000000,4.000000,4.000000,4.000000,100.000000
1602005736.778558,86.000000,0.000000,4138.461426,4116.922852,4119.487305,4120.512695,4120.000000,4124.102539,4135.384766,4126.666504,4118.974121,4110.256348,4121.538574,4132.820313,4118.461426,4189.230957,874.000000,4.000000,,,,0.000000,4.000000,4.000000,4.000000,4.000000,4.000000,4.000000,4.000000,4.000000,4.000000,4.000000,4.000000,4.000000,4.000000,4.000000,100.000000
1602005736.786439,87.000000,0.000000,4131.794922,4117.436035,4121.538574,4123.077148,4131.282227,4139.487305,4142.051270,4131.794922,4122.051270,4131.282227,4124.615234,4124.102539,4121.538574,4182.563965,841.000000,4.000000,,,,0.000000,4.000000,4.000000,4.000000,4.000000,4.000000,4.000000,4.000000,4.000000,4.000000,4.000000,4.000000,4.000000,4.000000,4.000000,100.000000
1602005736.794321,88.000000,0.000000,4121.025879,4119.487305,4122.051270,4122.563965,4131.794922,4142.563965,4134.358887,4134.871582,4134.358887,4152.307617,4135.897461,4122.051270,4126.666504,4180.512695,783.000000,4.000000,,,,0.000000,4.000000,4.000000,4.000000,4.000000,4.000000,4.000000,4.000000,4.000000,4.000000,4.000000,4.000000,4.000000,4.000000,4.000000,100.000000
1602005736.802203,89.000000,0.000000,4127.179688,4123.077148,4120.000000,4125.641113,4118.461426,4120.000000,4122.051270,4127.179688,4131.282227,4137.436035,4136.922852,4132.820313,4126.153809,4186.153809,761.000000,4.000000,,,,0.000000,4.000000,4.000000,4.000000,4.000000,4.000000,4.000000,4.000000,4.000000,4.000000,4.000000,4.000000,4.000000,4.000000,4.000000,100.000000
1602005736.810084,90.000000,0.000000,4146.153809,4130.256348,4128.717773,4133.846191,4126.153809,4104.102539,4118.461426,4128.205078,4126.153809,4136.410156,4142.563965,4150.256348,4138.461426,4199.487305,874.000000,4.000000,,,,0.000000,4.000000,4.000000,4.000000,4.000000,4.000000,4.000000,4.000000,4.000000,4.000000,4.000000,4.000000,4.000000,4.000000,4.000000,100.000000
1602005736.817966,91.000000,0.000000,4160.512695,4142.051270,4149.230957,4140.000000,4139.487305,4111.282227,4121.538574,4138.974121,4144.102539,4160.000000,4158.461426,4167.692383,4156.410156,4212.820313,841.000000,4.000000,,,,0.000000,4.000000,4.000000,4.000000,4.000000,4.000000,4.000000,4.000000,4.000000,4.000000,4.000000,4.000000,4.000000,4.000000,4.000000,100.000000
1602005736.825847,92.000000,0.000000,4164.615234,4153.333496,4157.948730,4147.179688,4138.974121,4125.128418,4128.717773,4141.538574,4153.846191,4158.461426,4161.538574,4171.282227,4161.025879,4220.000000,783.000000,4.000000,,,,0.000000,4.000000,4.000000,4.000000,4.000000,4.000000,4.000000,4.000000,4.000000,4.000000,4.000000,4.000000,4.000000,4.000000,4.000000,100.000000
1602005736.833629,93.000000,0.000000,4158.974121,4153.846191,4146.153809,4150.769043,4146.153809,4128.205078,4134.871582,4137.948730,4132.820313,4134.871582,4149.230957,4157.948730,4152.820313,4215.897461,761.000000,4.000000,,,,0.000000,4.000000,4.000000,4.000000,4.000000,4.000000,4.000000,4.000000,4.000000,4.000000,4.000000,4.000000,4.000000,4.000000,4.000000,100.000000
1602005736.841511,94.000000,0.000000,4153.333496,4145.641113,4135.897461,4144.102539,4154.871582,4124.102539,4137.436035,4138.461426,4117.948730,4134.871582,4140.000000,4148.717773,4140.512695,4203.077148,874.000000,4.000000,,,,0.000000,4.000000,4.000000,4.000000,4.000000,4.000000,4.000000,4.000000,4.000000,4.000000,4.000000,4.000000,4.000000,4.000000,4.000000,100.000000
1602005736.849392,95.000000,0.000000,4152.307617,4141.025879,4134.871582,4136.410156,4145.128418,4121.025879,4135.897461,4137.948730,4124.615234,4136.410156,4135.897461,4150.769043,4134.871582,4200.000000,841.000000,4.000000,,,,0.000000,4.000000,4.000000,4.000000,4.000000,4.000000,4.000000,4.000000,4.000000,4.000000,4.000000,4.000000,4.000000,4.000000,4.000000,100.000000
1602005736.857274,96.000000,0.000000,4152.820313,4142.563965,4135.897461,4138.974121,4135.384766,4128.717773,4136.922852,4138.974121,4134.871582,4131.282227,4140.000000,4161.025879,4145.128418,4208.717773,783.000000,4.000000,,,,0.000000,4.000000,4.000000,4.000000,4.000000,4.000000,4.000000,4.000000,4.000000,4.000000,4.000000,4.000000,4.000000,4.000000,4.000000,100.000000
1602005736.865156,97.000000,0.000000,4152.307617,4141.025879,4132.307617,4141.538574,4138.461426,4140.512695,4139.487305,4142.563965,4141.538574,4145.128418,4145.128418,4166.153809,4152.820313,4207.179688,761.000000,4.000000,,,,0.000000,4.000000,4.000000,4.000000,4.000000,4.000000,4.000000,4.000000,4.000000,4.000000,4.000000,4.000000,4.000000,4.000000,4.000000,100.000000
1602005736.873037,98.000000,0.000000,4147.692383,4134.871582,4126.153809,4134.358887,4139.487305,4132.307617,4137.436035,4138.974121,4138.974121,4148.205078,4141.538574,4155.384766,4141.025879,4197.948730,874.000000,4.000000,,,,0.000000,4.000000,4.000000,4.000000,4.000000,4.000000,4.000000,4.000000,4.000000,4.000000,4.000000,4.000000,4.000000,4.000000,4.000000,100.000000
1602005736.880919,99.000000,0.000000,4143.589844,4134.358887,4124.615234,4129.743652,4132.307617,4120.512695,4132.307617,4130.769043,4130.769043,4136.410156,4140.512695,4147.692383,4134.358887,4198.974121,841.000000,4.000000,,,,0.000000,4.000000,4.000000,4.000000,4.000000,4.000000,4.000000,4.000000,4.000000,4.000000,4.000000,4.000000,4.000000,4.000000,4.000000,100.000000
1602005736.888801,100.000000,0.000000,4142.051270,4137.436035,4126.153809,4132.307617,4126.153809,4125.128418,4124.615234,4123.077148,4121.025879,4135.384766,4139.487305,4150.769043,4139.487305,4199.487305,783.000000,4.000000,,,,0.000000,4.000000,4.000000,4.000000,4.000000,4.000000,4.000000,4.000000,4.000000,4.000000,4.000000,4.000000,4.000000,4.000000,4.000000,100.000000
1602005736.896782,101.000000,0.000000,4140.000000,4136.410156,4127.692383,4135.384766,4134.871582,4125.641113,4123.589844,4120.000000,4114.358887,4112.820313,4136.410156,4153.846191,4139.487305,4187.179688,761.000000,4.000000,,,,0.000000,4.000000,4.000000,4.000000,4.000000,4.000000,4.000000,4.000000,4.000000,4.000000,4.000000,4.000000,4.000000,4.000000,4.000000,100.000000
1602005736.904664,102.000000,0.000000,4146.666504,4136.922852,4133.846191,4138.461426,4150.769043,4120.512695,4132.820313,4129.230957,4123.077148,4097.948730,4146.153809,4158.974121,4139.487305,4188.205078,874.000000,4.000000,,,,0.000000,4.000000,4.000000,4.000000,4.000000,4.000000,4.000000,4.000000,4.000000,4.000000,4.000000,4.000000,4.000000,4.000000,4.000000,100.000000
1602005736.912545,103.000000,0.000000,4157.436035,4142.051270,4139.487305,4139.487305,4142.563965,4125.641113,4140.000000,4139.487305,4135.897461,4138.974121,4151.282227,4161.538574,4142.563965,4203.589844,841.000000,4.000000,,,,0.000000,4.000000,4.000000,4.000000,4.000000,4.000000,4.000000,4.000000,4.000000,4.000000,4.000000,4.000000,4.000000,4.000000,4.000000,100.000000
1602005736.920427,104.000000,0.000000,4151.282227,4136.410156,4131.282227,4136.410156,4129.230957,4129.230957,4138.461426,4138.974121,4136.922852,4162.051270,4141.538574,4153.333496,4139.487305,4198.974121,783.000000,4.000000,,,,0.000000,4.000000,4.000000,4.000000,4.000000,4.000000,4.000000,4.000000,4.000000,4.000000,4.000000,4.000000,4.000000,4.000000,4.000000,100.000000
1602005736.928309,105.000000,0.000000,4134.871582,4125.128418,4123.077148,4134.358887,4134.871582,4126.153809,4135.897461,4136.410156,4131.794922,4136.922852,4134.871582,4149.230957,4134.358887,4181.025879,761.000000,4.000000,,,,0.000000,4.000000,4.000000,4.000000,4.000000,4.000000,4.000000,4.000000,4.000000,4.000000,4.000000,4.000000,4.000000,4.000000,4.000000,100.000000
1602005736.936190,106.000000,0.000000,4133.846191,4127.692383,4130.256348,4137.436035,4143.589844,4130.256348,4135.897461,4138.974121,4132.820313,4130.256348,4137.948730,4151.794922,4133.846191,4186.153809,874.000000,4.000000,,,,0.000000,4.000000,4.000000,4.000000,4.000000,4.000000,4.000000,4.000000,4.000000,4.000000,4.000000,4.000000,4.000000,4.000000,4.000000,100.000000
1602005736.944072,107.000000,0.000000,4146.666504,4136.410156,4137.436035,4137.948730,4142.051270,4141.538574,4138.461426,4142.563965,4142.563965,4145.641113,4140.512695,4153.846191,4140.512695,4202.563965,841.000000,4.000000,,,,0.000000,4.000000,4.000000,4.000000,4.000000,4.000000,4.000000,4.000000,4.000000,4.000000,4.000000,4.000000,4.000000,4.000000,4.000000,100.000000
1602005736.951954,108.000000,0.000000,4153.846191,4135.384766,4136.410156,4136.410156,4132.307617,4143.077148,4142.051270,4146.666504,4144.615234,4140.512695,4145.128418,4160.512695,4145.128418,4201.538574,783.000000,4.000000,,,,0.000000,4.000000,4.000000,4.000000,4.000000,4.000000,4.000000,4.000000,4.000000,4.000000,4.000000,4.000000,4.000000,4.000000,4.000000,100.000000
1602005736.959835,109.000000,0.000000,4153.846191,4134.871582,4144.102539,4138.461426,4121.025879,4131.282227,4141.538574,4151.282227,4138.461426,4135.897461,4153.333496,4171.282227,4146.666504,4204.102539,761.000000,4.000000,,,,0.000000,4.000000,4.000000,4.000000,4.000000,4.000000,4.000000,4.000000,4.000000,4.000000,4.000000,4.000000,4.000000,4.000000,4.000000,100.000000
1602005736.967617,110.000000,0.000000,4152.307617,4135.897461,4155.384766,4136.922852,4124.102539,4118.974121,4137.436035,4151.282227,4144.615234,4155.384766,4151.282227,4174.871582,4147.692383,4212.820313,874.000000,4.000000,,,,0.000000,4.000000,4.000000,4.000000,4.000000,4.000000,4.000000,4.000000,4.000000,4.000000,4.000000,4.000000,4.000000,4.000000,4.000000,100.000000
1602005736.975498,111.000000,0.000000,4153.846191,4128.205078,4149.230957,4130.769043,4137.948730,4122.563965,4144.615234,4151.282227,4152.820313,4156.410156,4143.589844,4172.307617,4144.615234,4206.666504,841.000000,4.000000,,,,0.000000,4.000000,4.000000,4.000000,4.000000,4.000000,4.000000,4.000000,4.000000,4.000000,4.000000,4.000000,4.000000,4.000000,4.000000,100.000000
1602005736.983379,112.000000,0.000000,4155.384766,4121.538574,4140.512695,4130.256348,4138.974121,4128.205078,4153.846191,4152.307617,4142.051270,4133.333496,4136.922852,4168.205078,4136.922852,4196.922852,783.000000,4.000000,,,,0.000000,4.000000,4.000000,4.000000,4.000000,4.000000,4.000000,4.000000,4.000000,4.000000,4.000000,4.000000,4.000000,4.000000,4.000000,100.000000
1602005736.991360,113.000000,0.000000,4153.333496,4126.666504,4147.692383,4134.871582,4120.000000,4120.000000,4147.692383,4150.256348,4133.846191,4137.948730,4136.922852,4164.615234,4133.846191,4200.512695,761.000000,4.000000,,,,0.000000,4.000000,4.000000,4.000000,4.000000,4.000000,4.000000,4.000000,4.000000,4.000000,4.000000,4.000000,4.000000,4.000000,4.000000,100.000000
1602005736.999142,114.000000,0.000000,4156.410156,4135.384766,4155.897461,4137.436035,4116.922852,4125.128418,4144.615234,4151.794922,4142.051270,4165.128418,4144.615234,4167.692383,4143.589844,4209.743652,874.000000,4.000000,,,,0.000000,4.000000,4.000000,4.000000,4.000000,4.000000,4.000000,4.000000,4.000000,4.000000,4.000000,4.000000,4.000000,4.000000,4.000000,100.000000
1602005737.007023,115.000000,0.000000,4163.077148,4139.487305,4158.461426,4138.461426,4144.615234,4146.153809,4150.769043,4156.410156,4144.102539,4153.846191,4154.871582,4173.333496,4153.846191,4219.487305,841.000000,4.000000,,,,0.000000,4.000000,4.000000,4.000000,4.000000,4.000000,4.000000,4.000000,4.000000,4.000000,4.000000,4.000000,4.000000,4.000000,4.000000,100.000000
1602005737.014905,116.000000,0.000000,4163.589844,4140.000000,4160.000000,4139.487305,4151.282227,4148.205078,4146.153809,4151.282227,4143.589844,4131.794922,4159.487305,4173.333496,4154.871582,4217.948730,783.000000,4.000000,,,,0.000000,4.000000,4.000000,4.000000,4.000000,4.000000,4.000000,4.000000,4.000000,4.000000,4.000000,4.000000,4.000000,4.000000,4.000000,100.000000
1602005737.022786,117.000000,0.000000,4155.897461,4134.871582,4151.282227,4134.871582,4121.538574,4133.846191,4135.384766,4140.000000,4150.769043,4142.563965,4156.922852,4172.307617,4152.820313,4203.077148,761.000000,4.000000,,,,0.000000,4.000000,4.000000,4.000000,4.000000,4.000000,4.000000,4.000000,4.000000,4.000000,4.000000,4.000000,4.000000,4.000000,4.000000,100.000000
1602005737.030668,118.000000,0.000000,4147.692383,4126.666504,4136.922852,4126.666504,4117.436035,4133.333496,4136.410156,4142.051270,4153.846191,4153.846191,4154.871582,4168.205078,4154.871582,4201.025879,874.000000,4.000000,,,,0.000000,4.000000,4.000000,4.000000,4.000000,4.000000,4.000000,4.000000,4.000000,4.000000,4.000000,4.000000,4.000000,4.000000,4.000000,100.000000
1602005737.038550,119.000000,0.000000,4143.589844,4122.563965,4133.846191,4124.615234,4134.871582,4142.051270,4140.000000,4152.820313,4153.846191,4161.025879,4148.205078,4158.974121,4152.307617,4205.128418,841.000000,4.000000,,,,0.000000,4.000000,4.000000,4.000000,4.000000,4.000000,4.000000,4.000000,4.000000,4.000000,4.000000,4.000000,4.000000,4.000000,4.000000,100.000000
1602005737.046431,120.000000,0.000000,4141.025879,4122.051270,4136.922852,4127.179688,4129.743652,4140.000000,4139.487305,4151.794922,4155.384766,4168.717773,4137.948730,4153.846191,4141.538574,4190.769043,783.000000,4.000000,,,,0.000000,4.000000,4.000000,4.000000,4.000000,4.000000,4.000000,4.000000,4.000000,4.000000,4.000000,4.000000,4.000000,4.000000,4.000000,100.000000
1602005737.054413,121.000000,0.000000,4135.384766,4122.563965,4141.025879,4128.205078,4125.641113,4136.410156,4139.487305,4142.051270,4150.256348,4160.512695,4137.948730,4153.846191,4137.436035,4178.974121,761.000000,4.000000,,,,0.000000,4.000000,4.000000,4.000000,4.000000,4.000000,4.000000,4.000000,4.000000,4.000000,4.000000,4.000000,4.000000,4.000000,4.000000,100.000000
1602005737.062295,122.000000,0.000000,4125.641113,4120.512695,4139.487305,4124.615234,4140.000000,4137.948730,4138.461426,4135.897461,4140.512695,4145.641113,4142.051270,4144.102539,4137.436035,4184.102539,874.000000,4.000000,,,,0.000000,4.000000,4.000000,4.000000,4.000000,4.000000,4.000000,4.000000,4.000000,4.000000,4.000000,4.000000,4.000000,4.000000,4.000000,100.000000
1602005737.070176,123.000000,0.000000,4126.666504,4120.000000,4126.153809,4123.077148,4140.512695,4142.051270,4139.487305,4134.358887,4137.948730,4140.512695,4136.922852,4130.769043,4133.333496,4182.051270,841.000000,4.000000,,,,0.000000,4.000000,4.000000,4.000000,4.000000,4.000000,4.000000,4.000000,4.000000,4.000000,4.000000,4.000000,4.000000,4.000000,4.000000,100.000000
1602005737.078058,124.000000,0.000000,4136.922852,4123.589844,4117.436035,4123.589844,4134.871582,4144.102539,4142.051270,4135.897461,4137.948730,4129.230957,4125.641113,4125.641113,4127.179688,4169.230957,783.000000,4.000000,,,,0.000000,4.000000,4.000000,4.000000,4.000000,4.000000,4.000000,4.000000,4.000000,4.000000,4.000000,4.000000,4.000000,4.000000,4.000000,100.000000
1602005737.085939,125.000000,0.000000,4136.410156,4125.641113,4118.974121,4125.128418,4137.948730,4146.153809,4141.025879,4138.461426,4134.871582,4114.871582,4120.512695,4123.589844,4122.051270,4166.153809,761.000000,4.000000,,,,0.000000,4.000000,4.000000,4.000000,4.000000,4.000000,4.000000,4.000000,4.000000,4.000000,4.000000,4.000000,4.000000,4.000000,4.000000,100.000000
1602005737.093821,126.000000,0.000000,4137.436035,4124.615234,4119.487305,4132.307617,4135.897461,4141.538574,4137.948730,4139.487305,4134.871582,4125.128418,4124.102539,4124.102539,4123.589844,4172.820313,874.000000,4.000000,,,,0.000000,4.000000,4.000000,4.000000,4.000000,4.000000,4.000000,4.000000,4.000000,4.000000,4.000000,4.000000,4.000000,4.000000,4.000000,100.000000
1602005737.101703,127.000000,0.000000,4151.794922,4132.307617,4128.205078,4140.512695,4135.384766,4134.358887,4141.025879,4143.077148,4138.461426,4143.589844,4136.922852,4134.358887,4135.384766,4185.641113,841.000000,4.000000,,,,0.000000,4.000000,4.000000,4.000000,4.000000,4.000000,4.000000,4.000000,4.000000,4.000000,4.000000,4.000000,4.000000,4.000000,4.000000,100.000000
1602005737.109584,128.000000,0.000000,4162.563965,4140.000000,4144.615234,4140.000000,4142.051270,4141.025879,4140.000000,4145.641113,4141.025879,4148.717773,4146.666504,4146.666504,4147.692383,4196.410156,783.000000,4.000000,,,,0.000000,4.000000,4.000000,4.000000,4.000000,4.000000,4.000000,4.000000,4.000000,4.000000,4.000000,4.000000,4.000000,4.000000,4.000000,100.000000
1602005737.117366,0.000000,0.000000,4158.461426,4129.743652,4145.641113,4135.897461,4135.384766,4142.051270,4127.179688,4137.948730,4140.512695,4142.563965,4145.128418,4147.692383,4145.128418,4190.256348,793.000000,4.000000,,,,0.000000,4.000000,4.000000,4.000000,4.000000,4.000000,4.000000,4.000000,4.000000,4.000000,4.000000,4.000000,4.000000,4.000000,4.000000,100.000000
1602005737.125247,1.000000,0.000000,4151.794922,4120.000000,4140.512695,4137.436035,4120.512695,4125.641113,4123.077148,4133.333496,4134.358887,4132.307617,4138.974121,4144.615234,4137.436035,4183.589844,856.000000,4.000000,,,,0.000000,4.000000,4.000000,4.000000,4.000000,4.000000,4.000000,4.000000,4.000000,4.000000,4.000000,4.000000,4.000000,4.000000,4.000000,100.000000
1602005737.133129,2.000000,0.000000,4145.128418,4118.461426,4141.025879,4133.333496,4113.333496,4124.102539,4132.820313,4132.820313,4124.615234,4127.692383,4133.333496,4138.974121,4133.846191,4184.615234,853.000000,4.000000,,,,0.000000,4.000000,4.000000,4.000000,4.000000,4.000000,4.000000,4.000000,4.000000,4.000000,4.000000,4.000000,4.000000,4.000000,4.000000,100.000000
1602005737.141010,3.000000,0.000000,4132.307617,4110.256348,4125.128418,4121.538574,4106.666504,4136.410156,4135.897461,4124.615234,4120.000000,4128.717773,4126.153809,4128.205078,4124.102539,4170.256348,867.000000,4.000000,,,,0.000000,4.000000,4.000000,4.000000,4.000000,4.000000,4.000000,4.000000,4.000000,4.000000,4.000000,4.000000,4.000000,4.000000,4.000000,100.000000
1602005737.148891,4.000000,0.000000,4119.487305,4102.563965,4105.641113,4118.974121,4107.692383,4138.461426,4135.897461,4120.000000,4117.948730,4124.615234,4120.000000,4121.538574,4113.333496,4150.256348,813.000000,4.000000,,,,0.000000,4.000000,4.000000,4.000000,4.000000,4.000000,4.000000,4.000000,4.000000,4.000000,4.000000,4.000000,4.000000,4.000000,4.000000,100.000000
1602005737.156773,5.000000,0.000000,4118.461426,4110.256348,4112.307617,4125.641113,4121.538574,4136.410156,4140.512695,4125.128418,4117.436035,4119.487305,4120.512695,4124.615234,4109.743652,4151.794922,824.000000,4.000000,,,,0.000000,4.000000,4.000000,4.000000,4.000000,4.000000,4.000000,4.000000,4.000000,4.000000,4.000000,4.000000,4.000000,4.000000,4.000000,100.000000
1602005737.164754,6.000000,0.000000,4118.974121,4118.461426,4122.563965,4124.102539,4124.102539,4140.512695,4134.358887,4123.077148,4118.461426,4115.897461,4123.077148,4123.589844,4106.153809,4155.384766,793.000000,4.000000,,,,0.000000,4.000000,4.000000,4.000000,4.000000,4.000000,4.000000,4.000000,4.000000,4.000000,4.000000,4.000000,4.000000,4.000000,4.000000,100.000000
1602005737.172636,7.000000,0.000000,4116.922852,4121.025879,4118.974121,4122.563965,4118.974121,4138.974121,4126.666504,4122.563965,4123.589844,4115.897461,4120.512695,4121.538574,4103.077148,4150.256348,693.000000,4.000000,,,,0.000000,4.000000,4.000000,4.000000,4.000000,4.000000,4.000000,4.000000,4.000000,4.000000,4.000000,4.000000,4.000000,4.000000,4.000000,100.000000
1602005737.180518,8.000000,0.000000,4127.179688,4127.179688,4120.000000,4134.871582,4128.717773,4135.897461,4134.358887,4136.922852,4136.922852,4131.282227,4120.000000,4128.205078,4114.358887,4160.000000,794.000000,4.000000,,,,0.000000,4.000000,4.000000,4.000000,4.000000,4.000000,4.000000,4.000000,4.000000,4.000000,4.000000,4.000000,4.000000,4.000000,4.000000,100.000000
1602005737.188399,9.000000,0.000000,4139.487305,4132.820313,4127.692383,4139.487305,4137.436035,4146.153809,4141.538574,4145.641113,4144.615234,4145.641113,4126.153809,4129.743652,4123.589844,4170.769043,840.000000,4.000000,,,,0.000000,4.000000,4.000000,4.000000,4.000000,4.000000,4.000000,4.000000,4.000000,4.000000,4.000000,4.000000,4.000000,4.000000,4.000000,100.000000
1602005737.196281,10.000000,0.000000,4130.769043,4126.153809,4125.128418,4126.153809,4128.205078,4152.307617,4132.820313,4134.358887,4136.922852,4133.846191,4121.538574,4123.077148,4115.384766,4165.641113,874.000000,4.000000,,,,0.000000,4.000000,4.000000,4.000000,4.000000,4.000000,4.000000,4.000000,4.000000,4.000000,4.000000,4.000000,4.000000,4.000000,4.000000,100.000000
1602005737.204163,11.000000,0.000000,4120.000000,4116.922852,4120.000000,4118.461426,4112.307617,4138.974121,4121.538574,4122.051270,4134.871582,4114.871582,4114.871582,4126.153809,4112.307617,4164.615234,841.000000,4.000000,,,,0.000000,4.000000,4.000000,4.000000,4.000000,4.000000,4.000000,4.000000,4.000000,4.000000,4.000000,4.000000,4.000000,4.000000,4.000000,100.000000
1602005737.212044,12.000000,0.000000,4123.077148,4117.436035,4123.589844,4125.128418,4110.769043,4128.717773,4120.512695,4122.051270,4136.922852,4124.102539,4129.743652,4138.974121,4124.615234,4173.846191,783.000000,4.000000,,,,0.000000,4.000000,4.000000,4.000000,4.000000,4.000000,4.000000,4.000000,4.000000,4.000000,4.000000,4.000000,4.000000,4.000000,4.000000,100.000000
1602005737.219926,13.000000,0.000000,4124.102539,4114.358887,4123.077148,4120.512695,4123.077148,4134.871582,4121.538574,4122.563965,4125.641113,4146.666504,4140.512695,4138.461426,4130.256348,4173.846191,761.000000,4.000000,,,,0.000000,4.000000,4.000000,4.000000,4.000000,4.000000,4.000000,4.000000,4.000000,4.000000,4.000000,4.000000,4.000000,4.000000,4.000000,100.000000
1602005737.227808,14.000000,0.000000,4119.487305,4103.589844,4115.384766,4110.256348,4128.717773,4136.922852,4121.025879,4118.461426,4118.461426,4154.358887,4131.282227,4125.128418,4124.102539,4167.692383,874.000000,4.000000,,,,0.000000,4.000000,4.000000,4.000000,4.000000,4.000000,4.000000,4.000000,4.000000,4.000000,4.000000,4.000000,4.000000,4.000000,4.000000,100.000000
1602005737.235789,15.000000,0.000000,4122.563965,4104.615234,4114.358887,4114.871582,4120.512695,4134.871582,4126.153809,4123.077148,4123.077148,4153.333496,4131.282227,4128.717773,4126.666504,4173.333496,841.000000,4.000000,,,,0.000000,4.000000,4.000000,4.000000,4.000000,4.000000,4.000000,4.000000,4.000000,4.000000,4.000000,4.000000,4.000000,4.000000,4.000000,100.000000
1602005737.243670,16.000000,0.000000,4132.820313,4116.922852,4122.563965,4121.538574,4117.948730,4142.051270,4135.897461,4135.384766,4122.563965,4142.051270,4138.974121,4143.589844,4138.461426,4177.436035,0.000000,4.000000,,,,0.000000,4.000000,4.000000,4.000000,4.000000,4.000000,4.000000,4.000000,4.000000,4.000000,4.000000,4.000000,4.000000,4.000000,4.000000,100.000000
1602005737.251651,17.000000,0.000000,4137.948730,4122.563965,4124.102539,4121.538574,4125.128418,4148.205078,4140.000000,4139.487305,4128.717773,4124.102539,4134.871582,4143.077148,4138.461426,4173.846191,0.000000,4.000000,,,,0.000000,4.000000,4.000000,4.000000,4.000000,4.000000,4.000000,4.000000,4.000000,4.000000,4.000000,4.000000,4.000000,4.000000,4.000000,100.000000
1602005737.259532,18.000000,0.000000,4135.384766,4119.487305,4117.436035,4120.000000,4122.051270,4143.077148,4138.461426,4134.871582,4135.897461,4120.512695,4132.307617,4137.436035,4125.128418,4172.820313,0.000000,4.000000,,,,0.000000,4.000000,4.000000,4.000000,4.000000,4.000000,4.000000,4.000000,4.000000,4.000000,4.000000,4.000000,4.000000,4.000000,4.000000,100.000000
1602005737.267413,19.000000,0.000000,4140.512695,4128.717773,4118.461426,4126.666504,4122.051270,4138.461426,4138.461426,4140.000000,4134.871582,4133.333496,4139.487305,4148.205078,4129.230957,4183.077148,0.000000,4.000000,,,,0.000000,4.000000,4.000000,4.000000,4.000000,4.000000,4.000000,4.000000,4.000000,4.000000,4.000000,4.000000,4.000000,4.000000,4.000000,100.000000
1602005737.275194,20.000000,0.000000,4155.897461,4145.128418,4132.820313,4138.974121,4136.410156,4150.256348,4141.538574,4155.384766,4145.128418,4150.256348,4143.589844,4168.205078,4149.743652,4197.436035,0.000000,4.000000,,,,0.000000,4.000000,4.000000,4.000000,4.000000,4.000000,4.000000,4.000000,4.000000,4.000000,4.000000,4.000000,4.000000,4.000000,4.000000,100.000000
1602005737.283176,21.000000,0.000000,4160.000000,4144.615234,4144.615234,4142.563965,4137.436035,4152.820313,4142.051270,4153.333496,4149.743652,4160.000000,4142.051270,4173.333496,4148.717773,4196.922852,0.000000,4.000000,,,,0.000000,4.000000,4.000000,4.000000,4.000000,4.000000,4.000000,4.000000,4.000000,4.000000,4.000000,4.000000,4.000000,4.000000,4.000000,100.000000
1602005737.291057,22.000000,0.000000,4155.384766,4135.384766,4143.589844,4136.922852,4115.897461,4134.358887,4138.974121,4138.974121,4133.846191,4147.692383,4139.487305,4168.717773,4135.384766,4191.794922,0.000000,4.000000,,,,0.000000,4.000000,4.000000,4.000000,4.000000,4.000000,4.000000,4.000000,4.000000,4.000000,4.000000,4.000000,4.000000,4.000000,4.000000,100.000000
1602005737.298939,23.000000,0.000000,4156.922852,4136.922852,4139.487305,4137.436035,4109.230957,4128.205078,4136.922852,4136.922852,4130.769043,4131.282227,4140.000000,4170.256348,4136.410156,4198.461426,0.000000,4.000000,,,,0.000000,4.000000,4.000000,4.000000,4.000000,4.000000,4.000000,4.000000,4.000000,4.000000,4.000000,4.000000,4.000000,4.000000,4.000000,100.000000
1602005737.306821,24.000000,0.000000,4156.410156,4134.871582,4142.051270,4138.461426,4123.589844,4144.102539,4136.922852,4136.922852,4134.358887,4132.307617,4138.974121,4169.230957,4140.000000,4198.974121,0.000000,4.000000,,,,0.000000,4.000000,4.000000,4.000000,4.000000,4.000000,4.000000,4.000000,4.000000,4.000000,4.000000,4.000000,4.000000,4.000000,4.000000,100.000000
1602005737.314702,25.000000,0.000000,4153.333496,4123.077148,4143.589844,4130.256348,4126.153809,4145.641113,4129.743652,4120.000000,4113.846191,4138.461426,4138.974121,4154.358887,4136.410156,4187.179688,0.000000,4.000000,,,,0.000000,4.000000,4.000000,4.000000,4.000000,4.000000,4.000000,4.000000,4.000000,4.000000,4.000000,4.000000,4.000000,4.000000,4.000000,100.000000
1602005737.322584,26.000000,0.000000,4153.333496,4117.436035,4141.538574,4123.077148,4123.589844,4136.922852,4122.563965,4104.615234,4106.153809,4140.512695,4141.538574,4141.538574,4136.410156,4185.128418,0.000000,4.000000,,,,0.000000,4.000000,4.000000,4.000000,4.000000,4.000000,4.000000,4.000000,4.000000,4.000000,4.000000,4.000000,4.000000,4.000000,4.000000,100.000000
1602005737.330466,27.000000,0.000000,4148.205078,4113.846191,4138.461426,4120.000000,4124.615234,4144.615234,4121.538574,4108.205078,4117.436035,4140.000000,4139.487305,4142.051270,4131.282227,4186.153809,0.000000,4.000000,,,,0.000000,4.000000,4.000000,4.000000,4.000000,4.000000,4.000000,4.000000,4.000000,4.000000,4.000000,4.000000,4.000000,4.000000,4.000000,100.000000
1602005737.338347,28.000000,0.000000,4140.512695,4107.692383,4133.846191,4118.461426,4118.461426,4155.897461,4120.000000,4118.974121,4110.256348,4136.410156,4135.384766,4142.051270,4122.051270,4174.358887,0.000000,4.000000,,,,0.000000,4.000000,4.000000,4.000000,4.000000,4.000000,4.000000,4.000000,4.000000,4.000000,4.000000,4.000000,4.000000,4.000000,4.000000,100.000000
1602005737.346329,29.000000,0.000000,4137.436035,4105.641113,4125.128418,4118.974121,4118.461426,4157.948730,4123.077148,4127.692383,4107.179688,4136.922852,4137.948730,4136.410156,4126.666504,4169.743652,0.000000,4.000000,,,,0.000000,4.000000,4.000000,4.000000,4.000000,4.000000,4.000000,4.000000,4.000000,4.000000,4.000000,4.000000,4.000000,4.000000,4.000000,100.000000
1602005737.354210,30.000000,0.000000,4136.410156,4111.794922,4120.512695,4118.461426,4124.615234,4146.666504,4131.794922,4140.000000,4131.282227,4131.282227,4140.512695,4135.897461,4136.410156,4178.974121,0.000000,4.000000,,,,0.000000,4.000000,4.000000,4.000000,4.000000,4.000000,4.000000,4.000000,4.000000,4.000000,4.000000,4.000000,4.000000,4.000000,4.000000,100.000000
1602005737.362091,31.000000,0.000000,4144.615234,4124.615234,4130.256348,4125.641113,4123.077148,4125.641113,4137.948730,4154.358887,4153.333496,4124.102539,4140.000000,4147.179688,4140.000000,4188.205078,0.000000,4.000000,,,,0.000000,4.000000,4.000000,4.000000,4.000000,4.000000,4.000000,4.000000,4.000000,4.000000,4.000000,4.000000,4.000000,4.000000,4.000000,100.000000
1602005737.369973,32.000000,0.000000,4154.871582,4137.436035,4140.000000,4137.436035,4124.102539,4108.205078,4136.922852,4155.384766,4152.820313,4145.641113,4135.897461,4152.307617,4134.871582,4186.153809,0.000000,4.000000,,,,0.000000,4.000000,4.000000,4.000000,4.000000,4.000000,4.000000,4.000000,4.000000,4.000000,4.000000,4.000000,4.000000,4.000000,4.000000,100.000000
1602005737.377854,33.000000,0.000000,4152.820313,4138.461426,4135.897461,4137.948730,4126.666504,4104.615234,4129.230957,4138.974121,4139.487305,4158.461426,4129.230957,4142.051270,4123.589844,4174.358887,0.000000,4.000000,,,,0.000000,4.000000,4.000000,4.000000,4.000000,4.000000,4.000000,4.000000,4.000000,4.000000,4.000000,4.000000,4.000000,4.000000,4.000000,100.000000
1602005737.385736,34.000000,0.000000,4147.179688,4135.384766,4133.333496,4134.358887,4120.512695,4117.436035,4123.589844,4123.589844,4122.051270,4134.871582,4121.025879,4134.358887,4117.436035,4174.358887,0.000000,4.000000,,,,0.000000,4.000000,4.000000,4.000000,4.000000,4.000000,4.000000,4.000000,4.000000,4.000000,4.000000,4.000000,4.000000,4.000000,4.000000,100.000000
