Timestamp,EEG.Counter,EEG.Interpolated,EEG.AF3,EEG.F7,EEG.F3,EEG.FC5,EEG.T7,EEG.P7,EEG.O1,EEG.O2,EEG.P8,EEG.T8,EEG.FC6,EEG.F4,EEG.F8,EEG.AF4,EEG.RawCq,EEG.Battery,MarkerIndex,MarkerType,MarkerValueInt,EEG.MarkerHardware,CQ.AF3,CQ.F7,CQ.F3,CQ.FC5,CQ.T7,CQ.P7,CQ.O1,CQ.O2,CQ.P8,CQ.T8,CQ.FC6,CQ.F4,CQ.F8,CQ.AF4,CQ.Overall
1602005776.100752,46.000000,0.000000,4154.358887,4133.846191,4123.077148,4123.589844,4119.487305,4117.436035,4126.666504,4134.871582,4144.615234,4134.358887,4120.512695,4135.897461,4109.743652,4123.077148,0.000000,4.000000,,,,0.000000,4.000000,4.000000,4.000000,4.000000,4.000000,4.000000,4.000000,4.000000,4.000000,4.000000,4.000000,4.000000,4.000000,4.000000,100.000000
1602005776.108576,47.000000,0.000000,4163.589844,4136.410156,4120.512695,4129.743652,4122.563965,4118.461426,4123.589844,4138.461426,4142.051270,4128.717773,4115.897461,4139.487305,4106.153809,4120.000000,0.000000,4.000000,,,,0.000000,4.000000,4.000000,4.000000,4.000000,4.000000,4.000000,4.000000,4.000000,4.000000,4.000000,4.000000,4.000000,4.000000,4.000000,100.000000
1602005776.116500,48.000000,0.000000,4167.692383,4138.461426,4110.256348,4127.179688,4128.717773,4128.717773,4122.051270,4136.922852,4136.922852,4130.256348,4114.358887,4135.384766,4106.666504,4117.948730,0.000000,4.000000,,,,0.000000,4.000000,4.000000,4.000000,4.000000,4.000000,4.000000,4.000000,4.000000,4.000000,4.000000,4.000000,4.000000,4.000000,4.000000,100.000000
1602005776.124425,49.000000,0.000000,4158.461426,4137.436035,4103.077148,4124.615234,4133.846191,4135.897461,4126.153809,4125.128418,4127.179688,4124.615234,4105.128418,4123.077148,4105.128418,4117.436035,0.000000,4.000000,,,,0.000000,4.000000,4.000000,4.000000,4.000000,4.000000,4.000000,4.000000,4.000000,4.000000,4.000000,4.000000,4.000000,4.000000,4.000000,100.000000
1602005776.132349,50.000000,0.000000,4158.974121,4138.461426,4105.641113,4129.230957,4139.487305,4137.436035,4137.436035,4124.102539,4118.974121,4118.461426,4102.563965,4121.538574,4104.102539,4109.743652,0.000000,4.000000,,,,0.000000,4.000000,4.000000,4.000000,4.000000,4.000000,4.000000,4.000000,4.000000,4.000000,4.000000,4.000000,4.000000,4.000000,4.000000,100.000000
1602005776.140273,51.000000,0.000000,4162.563965,4141.025879,4108.205078,4128.717773,4140.000000,4137.948730,4141.538574,4128.205078,4121.538574,4118.461426,4108.205078,4124.102539,4103.589844,4108.717773,0.000000,4.000000,,,,0.000000,4.000000,4.000000,4.000000,4.000000,4.000000,4.000000,4.000000,4.000000,4.000000,4.000000,4.000000,4.000000,4.000000,4.000000,100.000000
1602005776.148197,52.000000,0.000000,4155.384766,4141.538574,4107.692383,4123.077148,4136.922852,4134.358887,4132.307617,4127.179688,4129.230957,4125.641113,4108.717773,4112.820313,4104.102539,4119.487305,0.000000,4.000000,,,,0.000000,4.000000,4.000000,4.000000,4.000000,4.000000,4.000000,4.000000,4.000000,4.000000,4.000000,4.000000,4.000000,4.000000,4.000000,100.000000
1602005776.156121,53.000000,0.000000,4155.384766,4145.641113,4106.153809,4124.615234,4139.487305,4124.615234,4122.051270,4125.128418,4135.897461,4135.384766,4111.282227,4102.563965,4109.743652,4122.563965,0.000000,4.000000,,,,0.000000,4.000000,4.000000,4.000000,4.000000,4.000000,4.000000,4.000000,4.000000,4.000000,4.000000,4.000000,4.000000,4.000000,4.000000,100.000000
1602005776.164045,54.000000,0.000000,4167.692383,4152.307617,4109.743652,4134.871582,4144.615234,4123.589844,4120.512695,4127.692383,4146.666504,4138.974121,4121.538574,4109.743652,4121.025879,4120.512695,0.000000,4.000000,,,,0.000000,4.000000,4.000000,4.000000,4.000000,4.000000,4.000000,4.000000,4.000000,4.000000,4.000000,4.000000,4.000000,4.000000,4.000000,100.000000
1602005776.171871,55.000000,0.000000,4175.384766,4154.358887,4116.922852,4138.974121,4142.051270,4127.692383,4120.000000,4132.820313,4157.948730,4147.179688,4126.666504,4122.051270,4133.846191,4133.846191,0.000000,4.000000,,,,0.000000,4.000000,4.000000,4.000000,4.000000,4.000000,4.000000,4.000000,4.000000,4.000000,4.000000,4.000000,4.000000,4.000000,4.000000,100.000000
1602005776.179798,56.000000,0.000000,4175.897461,4153.333496,4118.461426,4136.922852,4142.563965,4126.153809,4118.461426,4136.922852,4161.025879,4161.025879,4123.077148,4121.538574,4141.538574,4141.538574,0.000000,4.000000,,,,0.000000,4.000000,4.000000,4.000000,4.000000,4.000000,4.000000,4.000000,4.000000,4.000000,4.000000,4.000000,4.000000,4.000000,4.000000,100.000000
1602005776.187724,57.000000,0.000000,4174.358887,4154.871582,4114.358887,4136.410156,4151.794922,4133.333496,4125.641113,4140.000000,4153.333496,4161.538574,4124.102539,4110.256348,4136.922852,4128.717773,0.000000,4.000000,,,,0.000000,4.000000,4.000000,4.000000,4.000000,4.000000,4.000000,4.000000,4.000000,4.000000,4.000000,4.000000,4.000000,4.000000,4.000000,100.000000
1602005776.195651,58.000000,0.000000,4169.230957,4153.333496,4109.230957,4136.922852,4149.230957,4139.487305,4136.922852,4140.000000,4144.102539,4153.333496,4123.077148,4099.487305,4126.153809,4117.436035,0.000000,4.000000,,,,0.000000,4.000000,4.000000,4.000000,4.000000,4.000000,4.000000,4.000000,4.000000,4.000000,4.000000,4.000000,4.000000,4.000000,4.000000,100.000000
1602005776.203577,59.000000,0.000000,4158.461426,4149.743652,4101.538574,4135.384766,4145.128418,4131.794922,4136.410156,4131.282227,4138.974121,4139.487305,4113.846191,4103.589844,4120.000000,4120.512695,0.000000,4.000000,,,,0.000000,4.000000,4.000000,4.000000,4.000000,4.000000,4.000000,4.000000,4.000000,4.000000,4.000000,4.000000,4.000000,4.000000,4.000000,100.000000
1602005776.211504,60.000000,0.000000,4151.282227,4152.307617,4096.922852,4135.384766,4153.846191,4133.333496,4134.358887,4121.538574,4129.743652,4121.538574,4105.641113,4117.948730,4114.871582,4123.077148,0.000000,4.000000,,,,0.000000,4.000000,4.000000,4.000000,4.000000,4.000000,4.000000,4.000000,4.000000,4.000000,4.000000,4.000000,4.000000,4.000000,4.000000,100.000000
1602005776.219430,61.000000,0.000000,4152.820313,4153.846191,4100.000000,4134.358887,4151.794922,4144.102539,4134.871582,4118.974121,4122.051270,4112.820313,4104.102539,4129.230957,4107.692383,4120.000000,0.000000,4.000000,,,,0.000000,4.000000,4.000000,4.000000,4.000000,4.000000,4.000000,4.000000,4.000000,4.000000,4.000000,4.000000,4.000000,4.000000,4.000000,100.000000
1602005776.227357,62.000000,0.000000,4153.846191,4149.743652,4106.666504,4132.307617,4140.000000,4136.922852,4131.794922,4118.461426,4119.487305,4105.641113,4112.820313,4133.846191,4110.256348,4122.563965,0.000000,4.000000,,,,0.000000,4.000000,4.000000,4.000000,4.000000,4.000000,4.000000,4.000000,4.000000,4.000000,4.000000,4.000000,4.000000,4.000000,4.000000,100.000000
1602005776.235283,63.000000,0.000000,4158.461426,4151.282227,4116.922852,4133.846191,4141.025879,4124.615234,4125.641113,4122.563965,4123.589844,4106.153809,4123.589844,4138.974121,4120.000000,4122.563965,0.000000,4.000000,,,,0.000000,4.000000,4.000000,4.000000,4.000000,4.000000,4.000000,4.000000,4.000000,4.000000,4.000000,4.000000,4.000000,4.000000,4.000000,100.000000
1602005776.243075,64.000000,0.000000,4168.717773,4153.846191,4125.641113,4137.948730,4143.077148,4128.717773,4125.128418,4135.384766,4133.846191,4137.948730,4127.179688,4145.128418,4130.769043,4128.205078,805.000000,4.000000,,,,0.000000,4.000000,4.000000,4.000000,4.000000,4.000000,4.000000,4.000000,4.000000,4.000000,4.000000,4.000000,4.000000,4.000000,4.000000,100.000000
1602005776.250968,65.000000,0.000000,4170.769043,4146.153809,4125.128418,4138.974121,4134.871582,4133.846191,4125.128418,4142.563965,4142.563965,4167.179688,4127.179688,4146.153809,4136.922852,4139.487305,800.000000,4.000000,,,,0.000000,4.000000,4.000000,4.000000,4.000000,4.000000,4.000000,4.000000,4.000000,4.000000,4.000000,4.000000,4.000000,4.000000,4.000000,100.000000
1602005776.258787,66.000000,0.000000,4163.077148,4136.922852,4120.000000,4135.384766,4132.307617,4123.077148,4124.102539,4137.436035,4134.358887,4155.384766,4128.717773,4141.538574,4131.282227,4131.282227,854.000000,4.000000,,,,0.000000,4.000000,4.000000,4.000000,4.000000,4.000000,4.000000,4.000000,4.000000,4.000000,4.000000,4.000000,4.000000,4.000000,4.000000,100.000000
1602005776.266706,67.000000,0.000000,4162.563965,4138.461426,4120.000000,4135.384766,4135.384766,4114.871582,4128.205078,4133.846191,4118.461426,4134.358887,4126.153809,4138.461426,4123.589844,4117.948730,866.000000,4.000000,,,,0.000000,4.000000,4.000000,4.000000,4.000000,4.000000,4.000000,4.000000,4.000000,4.000000,4.000000,4.000000,4.000000,4.000000,4.000000,100.000000
1602005776.274625,68.000000,0.000000,4170.256348,4143.077148,4126.666504,4140.000000,4136.922852,4126.666504,4135.384766,4136.410156,4124.615234,4130.256348,4121.025879,4142.563965,4125.641113,4124.615234,809.000000,4.000000,,,,0.000000,4.000000,4.000000,4.000000,4.000000,4.000000,4.000000,4.000000,4.000000,4.000000,4.000000,4.000000,4.000000,4.000000,4.000000,100.000000
1602005776.282544,69.000000,0.000000,4167.179688,4142.051270,4128.717773,4136.922852,4136.410156,4128.205078,4132.307617,4136.410156,4137.948730,4119.487305,4119.487305,4142.563965,4125.128418,4126.666504,827.000000,4.000000,,,,0.000000,4.000000,4.000000,4.000000,4.000000,4.000000,4.000000,4.000000,4.000000,4.000000,4.000000,4.000000,4.000000,4.000000,4.000000,100.000000
1602005776.290463,70.000000,0.000000,4158.461426,4136.922852,4123.077148,4128.205078,4134.871582,4114.871582,4120.512695,4133.846191,4136.410156,4118.974121,4116.922852,4135.384766,4118.974121,4120.512695,768.000000,4.000000,,,,0.000000,4.000000,4.000000,4.000000,4.000000,4.000000,4.000000,4.000000,4.000000,4.000000,4.000000,4.000000,4.000000,4.000000,4.000000,100.000000
1602005776.298382,71.000000,0.000000,4161.538574,4136.922852,4127.179688,4131.794922,4140.512695,4124.102539,4123.077148,4137.948730,4138.974121,4150.256348,4120.512695,4136.410156,4120.512695,4127.692383,691.000000,4.000000,,,,0.000000,4.000000,4.000000,4.000000,4.000000,4.000000,4.000000,4.000000,4.000000,4.000000,4.000000,4.000000,4.000000,4.000000,4.000000,100.000000
1602005776.306301,72.000000,0.000000,4170.769043,4146.153809,4139.487305,4138.461426,4150.769043,4144.615234,4137.436035,4146.153809,4152.820313,4158.461426,4126.666504,4149.743652,4126.666504,4129.743652,787.000000,4.000000,,,,0.000000,4.000000,4.000000,4.000000,4.000000,4.000000,4.000000,4.000000,4.000000,4.000000,4.000000,4.000000,4.000000,4.000000,4.000000,100.000000
1602005776.314129,73.000000,0.000000,4172.820313,4150.256348,4140.512695,4140.000000,4152.307617,4144.615234,4141.025879,4146.666504,4155.897461,4132.307617,4121.538574,4157.436035,4122.051270,4123.077148,840.000000,4.000000,,,,0.000000,4.000000,4.000000,4.000000,4.000000,4.000000,4.000000,4.000000,4.000000,4.000000,4.000000,4.000000,4.000000,4.000000,4.000000,100.000000
1602005776.322056,74.000000,0.000000,4164.615234,4143.589844,4131.282227,4138.974121,4143.589844,4138.461426,4135.897461,4139.487305,4142.051270,4123.589844,4112.820313,4146.153809,4108.717773,4122.051270,873.000000,4.000000,,,,0.000000,4.000000,4.000000,4.000000,4.000000,4.000000,4.000000,4.000000,4.000000,4.000000,4.000000,4.000000,4.000000,4.000000,4.000000,100.000000
1602005776.329984,75.000000,0.000000,4152.820313,4133.846191,4125.128418,4128.205078,4131.282227,4137.948730,4137.436035,4135.897461,4129.743652,4125.128418,4107.692383,4131.282227,4103.589844,4113.333496,844.000000,4.000000,,,,0.000000,4.000000,4.000000,4.000000,4.000000,4.000000,4.000000,4.000000,4.000000,4.000000,4.000000,4.000000,4.000000,4.000000,4.000000,100.000000
1602005776.337911,76.000000,0.000000,4145.128418,4122.563965,4117.948730,4113.846191,4124.102539,4128.205078,4140.512695,4137.436035,4129.230957,4101.538574,4106.666504,4127.692383,4103.589844,4101.538574,776.000000,4.000000,,,,0.000000,4.000000,4.000000,4.000000,4.000000,4.000000,4.000000,4.000000,4.000000,4.000000,4.000000,4.000000,4.000000,4.000000,4.000000,100.000000
1602005776.345838,77.000000,0.000000,4148.205078,4117.436035,4116.410156,4114.871582,4126.666504,4121.025879,4132.820313,4137.948730,4133.846191,4085.641113,4113.333496,4132.307617,4103.077148,4110.769043,754.000000,4.000000,,,,0.000000,4.000000,4.000000,4.000000,4.000000,4.000000,4.000000,4.000000,4.000000,4.000000,4.000000,4.000000,4.000000,4.000000,4.000000,100.000000
1602005776.353766,78.000000,0.000000,4160.512695,4127.692383,4129.230957,4126.666504,4134.358887,4126.153809,4125.128418,4137.948730,4137.948730,4112.307617,4122.051270,4143.589844,4113.333496,4130.256348,873.000000,4.000000,,,,0.000000,4.000000,4.000000,4.000000,4.000000,4.000000,4.000000,4.000000,4.000000,4.000000,4.000000,4.000000,4.000000,4.000000,4.000000,100.000000
1602005776.361693,79.000000,0.000000,4166.153809,4141.538574,4138.461426,4131.282227,4140.000000,4131.282227,4124.102539,4139.487305,4144.102539,4150.256348,4124.102539,4155.384766,4124.102539,4141.538574,844.000000,4.000000,,,,0.000000,4.000000,4.000000,4.000000,4.000000,4.000000,4.000000,4.000000,4.000000,4.000000,4.000000,4.000000,4.000000,4.000000,4.000000,100.000000
1602005776.369621,80.000000,0.000000,4159.487305,4136.922852,4129.230957,4127.179688,4136.922852,4129.743652,4123.077148,4137.436035,4145.128418,4155.897461,4116.922852,4149.230957,4115.384766,4136.922852,776.000000,4.000000,,,,0.000000,4.000000,4.000000,4.000000,4.000000,4.000000,4.000000,4.000000,4.000000,4.000000,4.000000,4.000000,4.000000,4.000000,4.000000,100.000000
1602005776.377548,81.000000,0.000000,4151.794922,4126.153809,4117.436035,4121.538574,4126.666504,4122.051270,4116.922852,4134.358887,4136.410156,4130.256348,4107.692383,4141.025879,4104.102539,4122.051270,754.000000,4.000000,,,,0.000000,4.000000,4.000000,4.000000,4.000000,4.000000,4.000000,4.000000,4.000000,4.000000,4.000000,4.000000,4.000000,4.000000,4.000000,100.000000
1602005776.385372,82.000000,0.000000,4155.897461,4131.794922,4126.153809,4124.102539,4126.666504,4118.974121,4118.974121,4137.436035,4137.948730,4118.461426,4111.282227,4152.307617,4109.743652,4123.589844,873.000000,4.000000,,,,0.000000,4.000000,4.000000,4.000000,4.000000,4.000000,4.000000,4.000000,4.000000,4.000000,4.000000,4.000000,4.000000,4.000000,4.000000,100.000000
1602005776.393296,83.000000,0.000000,4161.538574,4141.025879,4137.436035,4128.205078,4134.358887,4124.102539,4132.820313,4140.512695,4147.692383,4126.153809,4123.077148,4163.077148,4112.307617,4139.487305,844.000000,4.000000,,,,0.000000,4.000000,4.000000,4.000000,4.000000,4.000000,4.000000,4.000000,4.000000,4.000000,4.000000,4.000000,4.000000,4.000000,4.000000,100.000000
1602005776.401220,84.000000,0.000000,4156.410156,4134.358887,4129.230957,4124.102539,4127.179688,4124.615234,4135.384766,4133.333496,4143.077148,4122.051270,4121.538574,4157.948730,4106.153809,4142.051270,776.000000,4.000000,,,,0.000000,4.000000,4.000000,4.000000,4.000000,4.000000,4.000000,4.000000,4.000000,4.000000,4.000000,4.000000,4.000000,4.000000,4.000000,100.000000
1602005776.409144,85.000000,0.000000,4146.153809,4126.666504,4118.974121,4120.000000,4120.512695,4119.487305,4125.641113,4124.102539,4131.282227,4117.436035,4112.307617,4151.794922,4104.615234,4129.230957,754.000000,4.000000,,,,0.000000,4.000000,4.000000,4.000000,4.000000,4.000000,4.000000,4.000000,4.000000,4.000000,4.000000,4.000000,4.000000,4.000000,4.000000,100.000000
1602005776.417069,86.000000,0.000000,4137.948730,4128.205078,4122.051270,4121.538574,4128.717773,4121.538574,4119.487305,4118.461426,4123.077148,4129.743652,4115.897461,4148.717773,4108.717773,4121.025879,873.000000,4.000000,,,,0.000000,4.000000,4.000000,4.000000,4.000000,4.000000,4.000000,4.000000,4.000000,4.000000,4.000000,4.000000,4.000000,4.000000,4.000000,100.000000
1602005776.424993,87.000000,0.000000,4137.436035,4126.666504,4119.487305,4121.025879,4127.692383,4122.051270,4115.897461,4110.256348,4117.948730,4135.384766,4122.563965,4134.871582,4114.358887,4120.512695,844.000000,4.000000,,,,0.000000,4.000000,4.000000,4.000000,4.000000,4.000000,4.000000,4.000000,4.000000,4.000000,4.000000,4.000000,4.000000,4.000000,4.000000,100.000000
1602005776.432917,88.000000,0.000000,4144.615234,4126.666504,4110.256348,4119.487305,4123.077148,4113.333496,4109.230957,4109.743652,4126.153809,4132.307617,4120.512695,4122.051270,4117.436035,4126.153809,776.000000,4.000000,,,,0.000000,4.000000,4.000000,4.000000,4.000000,4.000000,4.000000,4.000000,4.000000,4.000000,4.000000,4.000000,4.000000,4.000000,4.000000,100.000000
1602005776.440841,89.000000,0.000000,4154.358887,4135.384766,4113.333496,4121.025879,4133.333496,4107.179688,4108.717773,4119.487305,4134.358887,4141.025879,4121.025879,4127.179688,4125.641113,4136.410156,754.000000,4.000000,,,,0.000000,4.000000,4.000000,4.000000,4.000000,4.000000,4.000000,4.000000,4.000000,4.000000,4.000000,4.000000,4.000000,4.000000,4.000000,100.000000
1602005776.448765,90.000000,0.000000,4154.871582,4141.025879,4122.051270,4123.589844,4135.897461,4109.743652,4115.897461,4124.102539,4128.205078,4144.615234,4127.179688,4137.436035,4138.461426,4136.410156,873.000000,4.000000,,,,0.000000,4.000000,4.000000,4.000000,4.000000,4.000000,4.000000,4.000000,4.000000,4.000000,4.000000,4.000000,4.000000,4.000000,4.000000,100.000000
1602005776.456582,91.000000,0.000000,4155.897461,4138.461426,4128.205078,4123.589844,4123.077148,4108.717773,4118.461426,4120.000000,4120.512695,4128.717773,4126.153809,4135.384766,4141.025879,4133.333496,844.000000,4.000000,,,,0.000000,4.000000,4.000000,4.000000,4.000000,4.000000,4.000000,4.000000,4.000000,4.000000,4.000000,4.000000,4.000000,4.000000,4.000000,100.000000
1602005776.464498,92.000000,0.000000,4166.666504,4140.000000,4136.410156,4125.128418,4120.000000,4105.128418,4122.051270,4121.538574,4123.077148,4115.384766,4121.538574,4133.333496,4137.948730,4143.589844,776.000000,4.000000,,,,0.000000,4.000000,4.000000,4.000000,4.000000,4.000000,4.000000,4.000000,4.000000,4.000000,4.000000,4.000000,4.000000,4.000000,4.000000,100.000000
1602005776.472415,93.000000,0.000000,4173.333496,4145.641113,4145.128418,4129.743652,4130.769043,4113.846191,4132.307617,4130.256348,4124.615234,4121.538574,4128.717773,4146.666504,4146.666504,4156.922852,754.000000,4.000000,,,,0.000000,4.000000,4.000000,4.000000,4.000000,4.000000,4.000000,4.000000,4.000000,4.000000,4.000000,4.000000,4.000000,4.000000,4.000000,100.000000
1602005776.480332,94.000000,0.000000,4173.846191,4146.153809,4150.256348,4130.769043,4139.487305,4122.051270,4135.897461,4137.948730,4128.205078,4140.512695,4140.512695,4157.436035,4158.461426,4160.000000,873.000000,4.000000,,,,0.000000,4.000000,4.000000,4.000000,4.000000,4.000000,4.000000,4.000000,4.000000,4.000000,4.000000,4.000000,4.000000,4.000000,4.000000,100.000000
1602005776.488248,95.000000,0.000000,4174.871582,4143.589844,4147.692383,4128.717773,4140.512695,4115.384766,4130.769043,4139.487305,4137.436035,4153.333496,4141.025879,4157.948730,4157.436035,4158.974121,844.000000,4.000000,,,,0.000000,4.000000,4.000000,4.000000,4.000000,4.000000,4.000000,4.000000,4.000000,4.000000,4.000000,4.000000,4.000000,4.000000,4.000000,100.000000
1602005776.496165,96.000000,0.000000,4171.282227,4143.077148,4140.512695,4132.307617,4137.436035,4112.820313,4130.769043,4136.410156,4141.025879,4150.769043,4135.897461,4163.077148,4149.743652,4158.461426,776.000000,4.000000,,,,0.000000,4.000000,4.000000,4.000000,4.000000,4.000000,4.000000,4.000000,4.000000,4.000000,4.000000,4.000000,4.000000,4.000000,4.000000,100.000000
1602005776.504082,97.000000,0.000000,4166.153809,4143.077148,4138.974121,4137.948730,4140.512695,4130.256348,4137.436035,4136.922852,4137.436035,4138.461426,4137.948730,4165.128418,4142.563965,4156.922852,754.000000,4.000000,,,,0.000000,4.000000,4.000000,4.000000,4.000000,4.000000,4.000000,4.000000,4.000000,4.000000,4.000000,4.000000,4.000000,4.000000,4.000000,100.000000
1602005776.511889,98.000000,0.000000,4162.051270,4141.025879,4138.461426,4133.333496,4142.563965,4140.000000,4134.358887,4136.922852,4136.922852,4129.743652,4135.897461,4159.487305,4140.000000,4152.820313,873.000000,4.000000,,,,0.000000,4.000000,4.000000,4.000000,4.000000,4.000000,4.000000,4.000000,4.000000,4.000000,4.000000,4.000000,4.000000,4.000000,4.000000,100.000000
1602005776.519795,99.000000,0.000000,4154.871582,4137.948730,4128.717773,4124.102539,4130.769043,4127.692383,4128.205078,4131.282227,4144.102539,4140.000000,4124.102539,4149.743652,4136.410156,4140.000000,844.000000,4.000000,,,,0.000000,4.000000,4.000000,4.000000,4.000000,4.000000,4.000000,4.000000,4.000000,4.000000,4.000000,4.000000,4.000000,4.000000,4.000000,100.000000
1602005776.527702,100.000000,0.000000,4151.282227,4135.384766,4121.538574,4121.538574,4124.615234,4118.461426,4127.179688,4124.102539,4136.922852,4154.358887,4120.000000,4138.974121,4127.179688,4131.794922,776.000000,4.000000,,,,0.000000,4.000000,4.000000,4.000000,4.000000,4.000000,4.000000,4.000000,4.000000,4.000000,4.000000,4.000000,4.000000,4.000000,4.000000,100.000000
1602005776.535609,101.000000,0.000000,4156.410156,4136.922852,4125.641113,4123.589844,4133.846191,4125.641113,4129.743652,4121.538574,4124.102539,4148.717773,4123.589844,4140.512695,4123.589844,4145.128418,754.000000,4.000000,,,,0.000000,4.000000,4.000000,4.000000,4.000000,4.000000,4.000000,4.000000,4.000000,4.000000,4.000000,4.000000,4.000000,4.000000,4.000000,100.000000
1602005776.543515,102.000000,0.000000,4162.051270,4139.487305,4129.230957,4123.589844,4140.000000,4135.384766,4134.871582,4122.563965,4130.256348,4132.307617,4121.025879,4153.333496,4126.153809,4153.333496,873.000000,4.000000,,,,0.000000,4.000000,4.000000,4.000000,4.000000,4.000000,4.000000,4.000000,4.000000,4.000000,4.000000,4.000000,4.000000,4.000000,4.000000,100.000000
1602005776.551326,103.000000,0.000000,4165.641113,4142.051270,4130.256348,4129.743652,4136.410156,4136.410156,4135.897461,4127.692383,4139.487305,4124.102539,4123.589844,4156.410156,4127.179688,4145.128418,844.000000,4.000000,,,,0.000000,4.000000,4.000000,4.000000,4.000000,4.000000,4.000000,4.000000,4.000000,4.000000,4.000000,4.000000,4.000000,4.000000,4.000000,100.000000
1602005776.559236,104.000000,0.000000,4172.820313,4146.153809,4133.846191,4137.436035,4137.948730,4136.410156,4135.897461,4136.410156,4140.512695,4124.615234,4137.948730,4156.410156,4133.846191,4146.153809,776.000000,4.000000,,,,0.000000,4.000000,4.000000,4.000000,4.000000,4.000000,4.000000,4.000000,4.000000,4.000000,4.000000,4.000000,4.000000,4.000000,4.000000,100.000000
1602005776.567146,105.000000,0.000000,4179.487305,4147.179688,4137.948730,4131.794922,4139.487305,4138.974121,4135.897461,4140.512695,4147.179688,4122.051270,4141.025879,4166.666504,4140.512695,4158.974121,754.000000,4.000000,,,,0.000000,4.000000,4.000000,4.000000,4.000000,4.000000,4.000000,4.000000,4.000000,4.000000,4.000000,4.000000,4.000000,4.000000,4.000000,100.000000
1602005776.575056,106.000000,0.000000,4177.436035,4141.025879,4137.948730,4125.641113,4136.410156,4134.358887,4129.743652,4139.487305,4154.358887,4116.410156,4130.256348,4171.794922,4137.436035,4154.358887,873.000000,4.000000,,,,0.000000,4.000000,4.000000,4.000000,4.000000,4.000000,4.000000,4.000000,4.000000,4.000000,4.000000,4.000000,4.000000,4.000000,4.000000,100.000000
1602005776.582967,107.000000,0.000000,4171.794922,4138.974121,4137.436035,4131.794922,4136.922852,4130.769043,4127.692383,4140.000000,4154.358887,4131.282227,4127.179688,4166.666504,4136.410156,4136.922852,844.000000,4.000000,,,,0.000000,4.000000,4.000000,4.000000,4.000000,4.000000,4.000000,4.000000,4.000000,4.000000,4.000000,4.000000,4.000000,4.000000,4.000000,100.000000
1602005776.590877,108.000000,0.000000,4169.743652,4141.538574,4138.461426,4132.820313,4137.436035,4135.384766,4135.897461,4140.512695,4156.410156,4165.641113,4134.871582,4161.025879,4138.974121,4142.051270,776.000000,4.000000,,,,0.000000,4.000000,4.000000,4.000000,4.000000,4.000000,4.000000,4.000000,4.000000,4.000000,4.000000,4.000000,4.000000,4.000000,4.000000,100.000000
1602005776.598702,109.000000,0.000000,4169.743652,4141.025879,4138.974121,4122.563965,4139.487305,4134.871582,4138.461426,4140.512695,4158.461426,4175.384766,4140.512695,4158.974121,4140.000000,4154.871582,754.000000,4.000000,,,,0.000000,4.000000,4.000000,4.000000,4.000000,4.000000,4.000000,4.000000,4.000000,4.000000,4.000000,4.000000,4.000000,4.000000,4.000000,100.000000
1602005776.606626,110.000000,0.000000,4168.717773,4142.051270,4135.897461,4121.025879,4143.589844,4137.948730,4136.922852,4144.102539,4157.948730,4161.538574,4141.025879,4163.077148,4148.205078,4150.769043,873.000000,4.000000,,,,0.000000,4.000000,4.000000,4.000000,4.000000,4.000000,4.000000,4.000000,4.000000,4.000000,4.000000,4.000000,4.000000,4.000000,4.000000,100.000000
1602005776.614551,111.000000,0.000000,4161.538574,4141.025879,4125.128418,4124.615234,4143.077148,4140.512695,4139.487305,4135.897461,4154.358887,4149.230957,4136.410156,4155.384766,4146.153809,4135.384766,844.000000,4.000000,,,,0.000000,4.000000,4.000000,4.000000,4.000000,4.000000,4.000000,4.000000,4.000000,4.000000,4.000000,4.000000,4.000000,4.000000,4.000000,100.000000
1602005776.622475,112.000000,0.000000,4151.794922,4135.897461,4117.436035,4122.563965,4137.948730,4126.666504,4133.846191,4123.077148,4140.000000,4129.743652,4125.641113,4136.922852,4127.179688,4126.153809,776.000000,4.000000,,,,0.000000,4.000000,4.000000,4.000000,4.000000,4.000000,4.000000,4.000000,4.000000,4.000000,4.000000,4.000000,4.000000,4.000000,4.000000,100.000000
1602005776.630400,113.000000,0.000000,4151.282227,4135.897461,4121.025879,4121.538574,4138.974121,4123.077148,4124.615234,4123.077148,4126.153809,4115.897461,4120.000000,4131.794922,4122.051270,4129.230957,754.000000,4.000000,,,,0.000000,4.000000,4.000000,4.000000,4.000000,4.000000,4.000000,4.000000,4.000000,4.000000,4.000000,4.000000,4.000000,4.000000,4.000000,100.000000
1602005776.638324,114.000000,0.000000,4154.358887,4136.922852,4122.051270,4122.563965,4140.512695,4134.358887,4124.102539,4130.256348,4128.205078,4126.666504,4129.230957,4141.025879,4135.897461,4137.436035,873.000000,4.000000,,,,0.000000,4.000000,4.000000,4.000000,4.000000,4.000000,4.000000,4.000000,4.000000,4.000000,4.000000,4.000000,4.000000,4.000000,4.000000,100.000000
1602005776.646249,115.000000,0.000000,4153.846191,4136.410156,4121.025879,4123.077148,4137.948730,4136.410156,4126.153809,4132.307617,4137.436035,4141.538574,4138.974121,4149.230957,4141.025879,4143.077148,844.000000,4.000000,,,,0.000000,4.000000,4.000000,4.000000,4.000000,4.000000,4.000000,4.000000,4.000000,4.000000,4.000000,4.000000,4.000000,4.000000,4.000000,100.000000
1602005776.654173,116.000000,0.000000,4158.461426,4136.922852,4130.769043,4125.128418,4137.436035,4134.358887,4128.205078,4132.820313,4142.051270,4150.769043,4138.461426,4154.871582,4138.974121,4143.589844,776.000000,4.000000,,,,0.000000,4.000000,4.000000,4.000000,4.000000,4.000000,4.000000,4.000000,4.000000,4.000000,4.000000,4.000000,4.000000,4.000000,4.000000,100.000000
1602005776.662098,117.000000,0.000000,4161.538574,4131.794922,4140.512695,4123.077148,4133.846191,4133.333496,4128.717773,4129.743652,4136.410156,4156.922852,4134.871582,4155.897461,4141.538574,4142.563965,754.000000,4.000000,,,,0.000000,4.000000,4.000000,4.000000,4.000000,4.000000,4.000000,4.000000,4.000000,4.000000,4.000000,4.000000,4.000000,4.000000,4.000000,100.000000
1602005776.669922,118.000000,0.000000,4161.025879,4123.589844,4138.974121,4120.512695,4128.717773,4123.589844,4125.641113,4121.538574,4125.128418,4129.230957,4135.384766,4149.743652,4142.051270,4142.563965,873.000000,4.000000,,,,0.000000,4.000000,4.000000,4.000000,4.000000,4.000000,4.000000,4.000000,4.000000,4.000000,4.000000,4.000000,4.000000,4.000000,4.000000,100.000000
1602005776.677846,119.000000,0.000000,4166.666504,4130.769043,4140.000000,4123.589844,4131.794922,4121.025879,4123.589844,4118.461426,4120.000000,4088.718018,4138.461426,4149.230957,4141.538574,4145.128418,844.000000,4.000000,,,,0.000000,4.000000,4.000000,4.000000,4.000000,4.000000,4.000000,4.000000,4.000000,4.000000,4.000000,4.000000,4.000000,4.000000,4.000000,100.000000
1602005776.685770,120.000000,0.000000,4167.692383,4139.487305,4139.487305,4124.615234,4136.922852,4128.717773,4124.615234,4121.025879,4123.077148,4112.820313,4139.487305,4150.256348,4143.589844,4146.153809,776.000000,4.000000,,,,0.000000,4.000000,4.000000,4.000000,4.000000,4.000000,4.000000,4.000000,4.000000,4.000000,4.000000,4.000000,4.000000,4.000000,4.000000,100.000000
1602005776.693693,121.000000,0.000000,4157.948730,4131.282227,4128.205078,4122.563965,4136.410156,4125.128418,4122.051270,4122.051270,4125.128418,4165.641113,4136.922852,4142.051270,4143.077148,4141.025879,754.000000,4.000000,,,,0.000000,4.000000,4.000000,4.000000,4.000000,4.000000,4.000000,4.000000,4.000000,4.000000,4.000000,4.000000,4.000000,4.000000,4.000000,100.000000
1602005776.701617,122.000000,0.000000,4152.820313,4127.179688,4119.487305,4121.538574,4134.358887,4118.974121,4121.025879,4120.000000,4126.153809,4160.000000,4135.384766,4134.358887,4138.974121,4136.410156,873.000000,4.000000,,,,0.000000,4.000000,4.000000,4.000000,4.000000,4.000000,4.000000,4.000000,4.000000,4.000000,4.000000,4.000000,4.000000,4.000000,4.000000,100.000000
1602005776.709541,123.000000,0.000000,4155.384766,4134.871582,4120.512695,4120.512695,4136.922852,4123.589844,4128.717773,4123.589844,4132.820313,4140.000000,4139.487305,4136.410156,4140.000000,4138.461426,844.000000,4.000000,,,,0.000000,4.000000,4.000000,4.000000,4.000000,4.000000,4.000000,4.000000,4.000000,4.000000,4.000000,4.000000,4.000000,4.000000,4.000000,100.000000
1602005776.717465,124.000000,0.000000,4155.384766,4136.922852,4123.077148,4120.000000,4140.000000,4127.692383,4136.922852,4134.871582,4139.487305,4147.179688,4140.000000,4145.641113,4142.563965,4146.153809,776.000000,4.000000,,,,0.000000,4.000000,4.000000,4.000000,4.000000,4.000000,4.000000,4.000000,4.000000,4.000000,4.000000,4.000000,4.000000,4.000000,4.000000,100.000000
1602005776.725389,125.000000,0.000000,4157.436035,4135.897461,4129.230957,4120.000000,4139.487305,4125.641113,4136.922852,4140.000000,4139.487305,4139.487305,4135.897461,4151.794922,4143.077148,4151.282227,754.000000,4.000000,,,,0.000000,4.000000,4.000000,4.000000,4.000000,4.000000,4.000000,4.000000,4.000000,4.000000,4.000000,4.000000,4.000000,4.000000,4.000000,100.000000
1602005776.733313,126.000000,0.000000,4167.692383,4141.538574,4137.436035,4122.051270,4135.897461,4128.205078,4135.897461,4137.948730,4138.461426,4133.846191,4138.974121,4154.358887,4150.769043,4152.820313,873.000000,4.000000,,,,0.000000,4.000000,4.000000,4.000000,4.000000,4.000000,4.000000,4.000000,4.000000,4.000000,4.000000,4.000000,4.000000,4.000000,4.000000,100.000000
1602005776.741119,127.000000,0.000000,4172.820313,4143.589844,4140.512695,4124.102539,4134.871582,4139.487305,4140.000000,4140.000000,4138.974121,4153.333496,4144.615234,4155.384766,4153.333496,4151.794922,844.000000,4.000000,,,,0.000000,4.000000,4.000000,4.000000,4.000000,4.000000,4.000000,4.000000,4.000000,4.000000,4.000000,4.000000,4.000000,4.000000,4.000000,100.000000
1602005776.749026,128.000000,0.000000,4161.538574,4140.000000,4140.000000,4125.641113,4136.410156,4137.948730,4136.922852,4138.461426,4140.512695,4156.410156,4137.436035,4150.769043,4140.000000,4142.051270,776.000000,4.000000,,,,0.000000,4.000000,4.000000,4.000000,4.000000,4.000000,4.000000,4.000000,4.000000,4.000000,4.000000,4.000000,4.000000,4.000000,4.000000,100.000000
1602005776.756932,0.000000,0.000000,4147.692383,4137.948730,4135.897461,4123.077148,4136.410156,4124.615234,4124.102539,4127.692383,4138.461426,4147.179688,4131.282227,4143.077148,4132.307617,4132.307617,805.000000,4.000000,,,,0.000000,4.000000,4.000000,4.000000,4.000000,4.000000,4.000000,4.000000,4.000000,4.000000,4.000000,4.000000,4.000000,4.000000,4.000000,100.000000
1602005776.764839,1.000000,0.000000,4149.743652,4137.436035,4129.230957,4120.512695,4136.410156,4127.179688,4121.538574,4124.615234,4132.820313,4145.128418,4136.410156,4141.025879,4138.461426,4134.871582,800.000000,4.000000,,,,0.000000,4.000000,4.000000,4.000000,4.000000,4.000000,4.000000,4.000000,4.000000,4.000000,4.000000,4.000000,4.000000,4.000000,4.000000,100.000000
1602005776.772745,2.000000,0.000000,4151.282227,4136.922852,4123.589844,4118.974121,4137.436035,4137.948730,4125.641113,4121.025879,4124.615234,4121.538574,4128.717773,4137.436035,4135.897461,4133.846191,854.000000,4.000000,,,,0.000000,4.000000,4.000000,4.000000,4.000000,4.000000,4.000000,4.000000,4.000000,4.000000,4.000000,4.000000,4.000000,4.000000,4.000000,100.000000
1602005776.780562,3.000000,0.000000,4138.461426,4135.384766,4115.384766,4113.846191,4136.922852,4128.717773,4125.128418,4109.230957,4110.769043,4093.333252,4113.333496,4122.051270,4122.051270,4120.512695,866.000000,4.000000,,,,0.000000,4.000000,4.000000,4.000000,4.000000,4.000000,4.000000,4.000000,4.000000,4.000000,4.000000,4.000000,4.000000,4.000000,4.000000,100.000000
1602005776.788479,4.000000,0.000000,4139.487305,4134.358887,4112.307617,4114.358887,4136.922852,4114.358887,4124.102539,4104.615234,4102.051270,4107.179688,4116.922852,4116.410156,4118.461426,4115.384766,809.000000,4.000000,,,,0.000000,4.000000,4.000000,4.000000,4.000000,4.000000,4.000000,4.000000,4.000000,4.000000,4.000000,4.000000,4.000000,4.000000,4.000000,100.000000
1602005776.796397,5.000000,0.000000,4155.384766,4137.436035,4118.974121,4120.512695,4138.461426,4126.666504,4127.179688,4108.717773,4110.256348,4140.512695,4129.743652,4128.717773,4129.230957,4130.769043,827.000000,4.000000,,,,0.000000,4.000000,4.000000,4.000000,4.000000,4.000000,4.000000,4.000000,4.000000,4.000000,4.000000,4.000000,4.000000,4.000000,4.000000,100.000000
1602005776.804314,6.000000,0.000000,4161.025879,4141.025879,4127.692383,4123.589844,4138.974121,4146.666504,4127.179688,4113.333496,4123.589844,4148.717773,4135.384766,4139.487305,4142.051270,4150.256348,770.000000,4.000000,,,,0.000000,4.000000,4.000000,4.000000,4.000000,4.000000,4.000000,4.000000,4.000000,4.000000,4.000000,4.000000,4.000000,4.000000,4.000000,100.000000
1602005776.812231,7.000000,0.000000,4160.000000,4141.538574,4133.333496,4122.051270,4136.922852,4143.589844,4124.102539,4119.487305,4127.692383,4151.282227,4139.487305,4143.077148,4144.615234,4154.358887,691.000000,4.000000,,,,0.000000,4.000000,4.000000,4.000000,4.000000,4.000000,4.000000,4.000000,4.000000,4.000000,4.000000,4.000000,4.000000,4.000000,4.000000,100.000000
1602005776.820148,8.000000,0.000000,4165.128418,4140.000000,4135.897461,4122.563965,4136.410156,4134.871582,4124.102539,4123.077148,4124.615234,4155.384766,4143.077148,4146.666504,4143.077148,4150.256348,787.000000,4.000000,,,,0.000000,4.000000,4.000000,4.000000,4.000000,4.000000,4.000000,4.000000,4.000000,4.000000,4.000000,4.000000,4.000000,4.000000,4.000000,100.000000
1602005776.828065,9.000000,0.000000,4171.282227,4141.538574,4137.948730,4123.589844,4136.410156,4136.410156,4130.256348,4126.153809,4126.666504,4132.307617,4141.025879,4157.436035,4150.769043,4151.794922,840.000000,4.000000,,,,0.000000,4.000000,4.000000,4.000000,4.000000,4.000000,4.000000,4.000000,4.000000,4.000000,4.000000,4.000000,4.000000,4.000000,4.000000,100.000000
1602005776.835892,10.000000,0.000000,4171.282227,4143.589844,4141.025879,4122.563965,4135.897461,4138.974121,4136.922852,4132.307617,4137.948730,4122.563965,4142.051270,4164.102539,4160.512695,4152.307617,873.000000,4.000000,,,,0.000000,4.000000,4.000000,4.000000,4.000000,4.000000,4.000000,4.000000,4.000000,4.000000,4.000000,4.000000,4.000000,4.000000,4.000000,100.000000
1602005776.843818,11.000000,0.000000,4165.128418,4141.025879,4135.897461,4122.563965,4137.948730,4132.307617,4133.846191,4129.743652,4140.512695,4151.794922,4144.102539,4160.512695,4153.846191,4145.641113,844.000000,4.000000,,,,0.000000,4.000000,4.000000,4.000000,4.000000,4.000000,4.000000,4.000000,4.000000,4.000000,4.000000,4.000000,4.000000,4.000000,4.000000,100.000000
1602005776.851745,12.000000,0.000000,4161.025879,4138.461426,4124.615234,4122.051270,4136.922852,4123.077148,4123.589844,4122.051270,4126.153809,4163.589844,4138.461426,4152.307617,4138.974121,4138.974121,776.000000,4.000000,,,,0.000000,4.000000,4.000000,4.000000,4.000000,4.000000,4.000000,4.000000,4.000000,4.000000,4.000000,4.000000,4.000000,4.000000,4.000000,100.000000
1602005776.859671,13.000000,0.000000,4167.179688,4140.000000,4126.666504,4122.051270,4136.922852,4118.974121,4124.102539,4122.051270,4112.307617,4133.333496,4135.384766,4145.641113,4135.897461,4135.384766,754.000000,4.000000,,,,0.000000,4.000000,4.000000,4.000000,4.000000,4.000000,4.000000,4.000000,4.000000,4.000000,4.000000,4.000000,4.000000,4.000000,4.000000,100.000000
1602005776.867598,14.000000,0.000000,4167.179688,4141.538574,4134.871582,4123.589844,4141.538574,4122.563965,4135.384766,4116.410156,4104.102539,4107.179688,4134.871582,4143.077148,4140.000000,4134.358887,873.000000,4.000000,,,,0.000000,4.000000,4.000000,4.000000,4.000000,4.000000,4.000000,4.000000,4.000000,4.000000,4.000000,4.000000,4.000000,4.000000,4.000000,100.000000
1602005776.875524,15.000000,0.000000,4157.948730,4139.487305,4131.794922,4124.102539,4134.871582,4128.717773,4136.922852,4103.077148,4093.846191,4115.897461,4126.666504,4140.512695,4135.897461,4138.461426,844.000000,4.000000,,,,0.000000,4.000000,4.000000,4.000000,4.000000,4.000000,4.000000,4.000000,4.000000,4.000000,4.000000,4.000000,4.000000,4.000000,4.000000,100.000000
1602005776.883451,16.000000,0.000000,4154.358887,4135.897461,4123.077148,4117.948730,4119.487305,4125.641113,4126.666504,4098.974121,4088.205078,4118.461426,4118.461426,4136.410156,4128.717773,4136.922852,0.000000,4.000000,,,,0.000000,4.000000,4.000000,4.000000,4.000000,4.000000,4.000000,4.000000,4.000000,4.000000,4.000000,4.000000,4.000000,4.000000,4.000000,100.000000
1602005776.891377,17.000000,0.000000,4153.333496,4133.846191,4120.512695,4113.333496,4123.077148,4118.461426,4122.563965,4101.025879,4092.820557,4093.333252,4121.025879,4134.358887,4131.282227,4136.410156,0.000000,4.000000,,,,0.000000,4.000000,4.000000,4.000000,4.000000,4.000000,4.000000,4.000000,4.000000,4.000000,4.000000,4.000000,4.000000,4.000000,4.000000,100.000000
1602005776.899303,18.000000,0.000000,4152.820313,4137.948730,4129.230957,4118.974121,4137.436035,4117.436035,4125.641113,4104.615234,4108.717773,4102.563965,4130.256348,4142.051270,4143.589844,4147.692383,0.000000,4.000000,,,,0.000000,4.000000,4.000000,4.000000,4.000000,4.000000,4.000000,4.000000,4.000000,4.000000,4.000000,4.000000,4.000000,4.000000,4.000000,100.000000
1602005776.907132,19.000000,0.000000,4154.871582,4141.025879,4133.846191,4123.589844,4137.436035,4118.974121,4123.077148,4112.307617,4127.179688,4152.307617,4138.461426,4150.256348,4153.333496,4154.358887,0.000000,4.000000,,,,0.000000,4.000000,4.000000,4.000000,4.000000,4.000000,4.000000,4.000000,4.000000,4.000000,4.000000,4.000000,4.000000,4.000000,4.000000,100.000000
1602005776.915060,20.000000,0.000000,4154.871582,4137.436035,4125.641113,4120.000000,4134.358887,4125.128418,4123.077148,4121.025879,4138.974121,4166.153809,4141.025879,4153.333496,4153.846191,4152.820313,0.000000,4.000000,,,,0.000000,4.000000,4.000000,4.000000,4.000000,4.000000,4.000000,4.000000,4.000000,4.000000,4.000000,4.000000,4.000000,4.000000,4.000000,100.000000
1602005776.922988,21.000000,0.000000,4155.897461,4134.871582,4123.077148,4117.948730,4139.487305,4130.256348,4131.282227,4130.256348,4151.794922,4154.358887,4139.487305,4151.794922,4153.846191,4155.384766,0.000000,4.000000,,,,0.000000,4.000000,4.000000,4.000000,4.000000,4.000000,4.000000,4.000000,4.000000,4.000000,4.000000,4.000000,4.000000,4.000000,4.000000,100.000000
1602005776.930916,22.000000,0.000000,4156.922852,4131.794922,4125.641113,4120.512695,4137.948730,4124.615234,4136.410156,4137.948730,4155.384766,4162.563965,4137.436035,4144.615234,4154.358887,4149.743652,0.000000,4.000000,,,,0.000000,4.000000,4.000000,4.000000,4.000000,4.000000,4.000000,4.000000,4.000000,4.000000,4.000000,4.000000,4.000000,4.000000,4.000000,100.000000
1602005776.938844,23.000000,0.000000,4152.820313,4129.230957,4121.538574,4120.000000,4129.230957,4125.128418,4137.948730,4140.000000,4144.615234,4159.487305,4136.410156,4141.538574,4152.307617,4138.461426,0.000000,4.000000,,,,0.000000,4.000000,4.000000,4.000000,4.000000,4.000000,4.000000,4.000000,4.000000,4.000000,4.000000,4.000000,4.000000,4.000000,4.000000,100.000000
1602005776.946772,24.000000,0.000000,4150.256348,4133.846191,4124.615234,4120.000000,4130.769043,4136.410156,4138.974121,4138.974121,4141.025879,4144.615234,4136.410156,4149.743652,4153.846191,4140.000000,0.000000,4.000000,,,,0.000000,4.000000,4.000000,4.000000,4.000000,4.000000,4.000000,4.000000,4.000000,4.000000,4.000000,4.000000,4.000000,4.000000,4.000000,100.000000
1602005776.954701,25.000000,0.000000,4157.948730,4141.025879,4138.461426,4125.641113,4137.948730,4134.358887,4138.974121,4140.512695,4139.487305,4139.487305,4138.974121,4162.563965,4156.922852,4144.615234,0.000000,4.000000,,,,0.000000,4.000000,4.000000,4.000000,4.000000,4.000000,4.000000,4.000000,4.000000,4.000000,4.000000,4.000000,4.000000,4.000000,4.000000,100.000000
1602005776.962629,26.000000,0.000000,4166.153809,4141.538574,4142.563965,4132.307617,4135.897461,4121.538574,4137.436035,4136.922852,4123.077148,4132.820313,4137.948730,4166.153809,4154.358887,4144.102539,0.000000,4.000000,,,,0.000000,4.000000,4.000000,4.000000,4.000000,4.000000,4.000000,4.000000,4.000000,4.000000,4.000000,4.000000,4.000000,4.000000,4.000000,100.000000
1602005776.970557,27.000000,0.000000,4169.230957,4146.153809,4141.538574,4137.436035,4137.436035,4118.461426,4132.820313,4134.358887,4120.512695,4139.487305,4140.000000,4169.230957,4155.897461,4151.282227,0.000000,4.000000,,,,0.000000,4.000000,4.000000,4.000000,4.000000,4.000000,4.000000,4.000000,4.000000,4.000000,4.000000,4.000000,4.000000,4.000000,4.000000,100.000000
1602005776.978485,28.000000,0.000000,4172.307617,4155.897461,4142.051270,4137.948730,4148.717773,4120.000000,4125.128418,4138.461426,4137.436035,4160.000000,4146.153809,4180.512695,4160.512695,4162.051270,0.000000,4.000000,,,,0.000000,4.000000,4.000000,4.000000,4.000000,4.000000,4.000000,4.000000,4.000000,4.000000,4.000000,4.000000,4.000000,4.000000,4.000000,100.000000
1602005776.986283,29.000000,0.000000,4171.282227,4151.794922,4141.025879,4131.794922,4151.282227,4118.461426,4118.974121,4133.846191,4134.358887,4151.282227,4144.102539,4178.461426,4157.948730,4158.461426,0.000000,4.000000,,,,0.000000,4.000000,4.000000,4.000000,4.000000,4.000000,4.000000,4.000000,4.000000,4.000000,4.000000,4.000000,4.000000,4.000000,4.000000,100.000000
1602005776.994180,30.000000,0.000000,4163.077148,4141.538574,4137.948730,4126.153809,4143.589844,4120.000000,4119.487305,4127.179688,4121.025879,4122.563965,4136.410156,4160.000000,4149.743652,4144.615234,0.000000,4.000000,,,,0.000000,4.000000,4.000000,4.000000,4.000000,4.000000,4.000000,4.000000,4.000000,4.000000,4.000000,4.000000,4.000000,4.000000,4.000000,100.000000
1602005777.002078,31.000000,0.000000,4156.410156,4139.487305,4128.717773,4126.666504,4141.025879,4120.512695,4120.512695,4128.717773,4121.538574,4110.769043,4128.205078,4148.717773,4142.563965,4136.410156,0.000000,4.000000,,,,0.000000,4.000000,4.000000,4.000000,4.000000,4.000000,4.000000,4.000000,4.000000,4.000000,4.000000,4.000000,4.000000,4.000000,4.000000,100.000000
1602005777.009862,32.000000,0.000000,4156.922852,4138.461426,4119.487305,4124.615234,4140.512695,4121.538574,4122.563965,4126.153809,4124.615234,4125.641113,4123.589844,4153.846191,4141.025879,4138.974121,0.000000,4.000000,,,,0.000000,4.000000,4.000000,4.000000,4.000000,4.000000,4.000000,4.000000,4.000000,4.000000,4.000000,4.000000,4.000000,4.000000,4.000000,100.000000
1602005777.017687,33.000000,0.000000,4147.179688,4127.179688,4118.974121,4115.384766,4135.897461,4133.333496,4131.282227,4121.025879,4120.512695,4145.641113,4120.512695,4150.256348,4133.333496,4127.179688,0.000000,4.000000,,,,0.000000,4.000000,4.000000,4.000000,4.000000,4.000000,4.000000,4.000000,4.000000,4.000000,4.000000,4.000000,4.000000,4.000000,4.000000,100.000000
1602005777.025611,34.000000,0.000000,4131.282227,4118.461426,4119.487305,4109.230957,4134.871582,4145.128418,4138.461426,4127.692383,4120.000000,4147.179688,4116.410156,4137.948730,4117.948730,4105.641113,0.000000,4.000000,,,,0.000000,4.000000,4.000000,4.000000,4.000000,4.000000,4.000000,4.000000,4.000000,4.000000,4.000000,4.000000,4.000000,4.000000,4.000000,100.000000
1602005777.033535,35.000000,0.000000,4138.974121,4123.077148,4120.512695,4112.820313,4136.410156,4137.436035,4134.358887,4137.436035,4131.794922,4141.025879,4120.512695,4139.487305,4126.666504,4115.897461,0.000000,4.000000,,,,0.000000,4.000000,4.000000,4.000000,4.000000,4.000000,4.000000,4.000000,4.000000,4.000000,4.000000,4.000000,4.000000,4.000000,4.000000,100.000000
1602005777.041460,36.000000,0.000000,4152.307617,4125.128418,4129.743652,4115.897461,4133.846191,4121.538574,4124.102539,4138.974121,4136.410156,4136.410156,4138.974121,4151.794922,4160.512695,4149.743652,0.000000,4.000000,,,,0.000000,4.000000,4.000000,4.000000,4.000000,4.000000,4.000000,4.000000,4.000000,4.000000,4.000000,4.000000,4.000000,4.000000,4.000000,100.000000
1602005777.049384,37.000000,0.000000,4146.153809,4116.410156,4137.948730,4112.307617,4124.102539,4120.000000,4120.512695,4138.461426,4130.256348,4132.307617,4155.384766,4161.538574,4183.077148,4170.256348,0.000000,4.000000,,,,0.000000,4.000000,4.000000,4.000000,4.000000,4.000000,4.000000,4.000000,4.000000,4.000000,4.000000,4.000000,4.000000,4.000000,4.000000,100.000000
1602005777.057308,38.000000,0.000000,4137.948730,4104.615234,4136.922852,4106.666504,4117.436035,4119.487305,4124.102539,4135.384766,4124.615234,4131.794922,4154.871582,4165.641113,4191.794922,4177.436035,0.000000,4.000000,,,,0.000000,4.000000,4.000000,4.000000,4.000000,4.000000,4.000000,4.000000,4.000000,4.000000,4.000000,4.000000,4.000000,4.000000,4.000000,100.000000
1602005777.065233,39.000000,0.000000,4137.948730,4100.000000,4138.974121,4107.179688,4128.717773,4121.538574,4132.307617,4132.307617,4123.589844,4145.128418,4155.384766,4173.846191,4203.589844,4189.743652,0.000000,4.000000,,,,0.000000,4.000000,4.000000,4.000000,4.000000,4.000000,4.000000,4.000000,4.000000,4.000000,4.000000,4.000000,4.000000,4.000000,4.000000,100.000000
1602005777.073157,40.000000,0.000000,4128.717773,4095.384521,4138.974121,4108.205078,4137.436035,4124.615234,4139.487305,4130.769043,4120.512695,4155.897461,4160.512695,4173.846191,4202.051270,4188.205078,0.000000,4.000000,,,,0.000000,4.000000,4.000000,4.000000,4.000000,4.000000,4.000000,4.000000,4.000000,4.000000,4.000000,4.000000,4.000000,4.000000,4.000000,100.000000
1602005777.081081,41.000000,0.000000,4115.897461,4087.179443,4126.153809,4104.102539,4129.743652,4111.282227,4136.410156,4124.102539,4116.410156,4145.128418,4155.897461,4158.461426,4188.205078,4167.179688,0.000000,4.000000,,,,0.000000,4.000000,4.000000,4.000000,4.000000,4.000000,4.000000,4.000000,4.000000,4.000000,4.000000,4.000000,4.000000,4.000000,4.000000,100.000000
1602005777.088896,42.000000,0.000000,4121.025879,4092.820557,4120.000000,4103.077148,4130.769043,4113.333496,4135.897461,4122.563965,4121.538574,4132.307617,4149.230957,4152.307617,4186.153809,4160.000000,0.000000,4.000000,,,,0.000000,4.000000,4.000000,4.000000,4.000000,4.000000,4.000000,4.000000,4.000000,4.000000,4.000000,4.000000,4.000000,4.000000,4.000000,100.000000
1602005777.096810,43.000000,0.000000,4122.051270,4105.641113,4124.615234,4106.666504,4142.563965,4142.563965,4140.000000,4133.846191,4137.436035,4138.461426,4154.358887,4157.948730,4188.205078,4171.282227,0.000000,4.000000,,,,0.000000,4.000000,4.000000,4.000000,4.000000,4.000000,4.000000,4.000000,4.000000,4.000000,4.000000,4.000000,4.000000,4.000000,4.000000,100.000000
1602005777.104724,44.000000,0.000000,4109.743652,4105.641113,4122.051270,4106.666504,4142.051270,4149.743652,4130.256348,4138.974121,4149.230957,4157.948730,4153.846191,4151.282227,4183.589844,4174.871582,0.000000,4.000000,,,,0.000000,4.000000,4.000000,4.000000,4.000000,4.000000,4.000000,4.000000,4.000000,4.000000,4.000000,4.000000,4.000000,4.000000,4.000000,100.000000
1602005777.112639,45.000000,0.000000,4111.282227,4101.025879,4117.436035,4107.179688,4134.358887,4134.871582,4122.051270,4133.333496,4147.692383,4154.871582,4140.000000,4140.512695,4179.487305,4167.179688,0.000000,4.000000,,,,0.000000,4.000000,4.000000,4.000000,4.000000,4.000000,4.000000,4.000000,4.000000,4.000000,4.000000,4.000000,4.000000,4.000000,4.000000,100.000000
1602005777.120553,46.000000,0.000000,4125.641113,4106.153809,4123.077148,4107.692383,4137.436035,4135.897461,4133.846191,4139.487305,4149.743652,4141.025879,4138.461426,4146.153809,4181.538574,4165.641113,0.000000,4.000000,,,,0.000000,4.000000,4.000000,4.000000,4.000000,4.000000,4.000000,4.000000,4.000000,4.000000,4.000000,4.000000,4.000000,4.000000,4.000000,100.000000
1602005777.128467,47.000000,0.000000,4131.794922,4110.769043,4132.820313,4109.230957,4143.077148,4142.051270,4143.077148,4153.333496,4156.922852,4158.974121,4150.256348,4160.512695,4186.666504,4168.717773,0.000000,4.000000,,,,0.000000,4.000000,4.000000,4.000000,4.000000,4.000000,4.000000,4.000000,4.000000,4.000000,4.000000,4.000000,4.000000,4.000000,4.000000,100.000000
1602005777.136381,48.000000,0.000000,4133.333496,4113.333496,4137.948730,4117.436035,4137.436035,4136.410156,4143.077148,4157.436035,4158.461426,4184.102539,4160.512695,4167.179688,4194.871582,4170.769043,0.000000,4.000000,,,,0.000000,4.000000,4.000000,4.000000,4.000000,4.000000,4.000000,4.000000,4.000000,4.000000,4.000000,4.000000,4.000000,4.000000,4.000000,100.000000
1602005777.144198,49.000000,0.000000,4137.436035,4115.897461,4137.948730,4119.487305,4125.641113,4131.794922,4146.153809,4154.871582,4153.846191,4166.153809,4166.153809,4169.743652,4201.538574,4174.358887,0.000000,4.000000,,,,0.000000,4.000000,4.000000,4.000000,4.000000,4.000000,4.000000,4.000000,4.000000,4.000000,4.000000,4.000000,4.000000,4.000000,4.000000,100.000000
1602005777.152114,50.000000,0.000000,4139.487305,4110.769043,4137.436035,4113.333496,4126.666504,4128.717773,4145.641113,4151.282227,4144.102539,4132.820313,4167.179688,4170.769043,4202.051270,4175.384766,0.000000,4.000000,,,,0.000000,4.000000,4.000000,4.000000,4.000000,4.000000,4.000000,4.000000,4.000000,4.000000,4.000000,4.000000,4.000000,4.000000,4.000000,100.000000
1602005777.160031,51.000000,0.000000,4140.512695,4110.256348,4141.025879,4115.897461,4138.974121,4124.615234,4140.512695,4142.563965,4138.974121,4137.948730,4163.589844,4173.333496,4201.538574,4176.410156,0.000000,4.000000,,,,0.000000,4.000000,4.000000,4.000000,4.000000,4.000000,4.000000,4.000000,4.000000,4.000000,4.000000,4.000000,4.000000,4.000000,4.000000,100.000000
1602005777.167947,52.000000,0.000000,4138.974121,4115.384766,4136.922852,4116.922852,4140.000000,4124.102539,4132.307617,4133.846191,4137.948730,4157.948730,4162.051270,4172.820313,4197.436035,4172.820313,0.000000,4.000000,,,,0.000000,4.000000,4.000000,4.000000,4.000000,4.000000,4.000000,4.000000,4.000000,4.000000,4.000000,4.000000,4.000000,4.000000,4.000000,100.000000
1602005777.175864,53.000000,0.000000,4134.358887,4115.897461,4127.179688,4110.256348,4139.487305,4127.692383,4125.128418,4133.333496,4140.512695,4158.974121,4167.179688,4170.769043,4194.871582,4169.230957,0.000000,4.000000,,,,0.000000,4.000000,4.000000,4.000000,4.000000,4.000000,4.000000,4.000000,4.000000,4.000000,4.000000,4.000000,4.000000,4.000000,4.000000,100.000000
1602005777.183780,54.000000,0.000000,4138.974121,4121.538574,4133.846191,4117.436035,4152.820313,4134.871582,4129.230957,4137.948730,4152.307617,4156.410156,4170.769043,4172.820313,4201.538574,4174.358887,0.000000,4.000000,,,,0.000000,4.000000,4.000000,4.000000,4.000000,4.000000,4.000000,4.000000,4.000000,4.000000,4.000000,4.000000,4.000000,4.000000,4.000000,100.000000
1602005777.191697,55.000000,0.000000,4143.077148,4124.102539,4140.000000,4125.128418,4155.897461,4137.948730,4136.410156,4139.487305,4151.794922,4154.358887,4158.461426,4168.717773,4196.410156,4171.282227,0.000000,4.000000,,,,0.000000,4.000000,4.000000,4.000000,4.000000,4.000000,4.000000,4.000000,4.000000,4.000000,4.000000,4.000000,4.000000,4.000000,4.000000,100.000000
1602005777.199507,56.000000,0.000000,4132.820313,4110.256348,4124.102539,4111.794922,4141.538574,4134.871582,4135.384766,4138.461426,4131.794922,4130.769043,4137.948730,4153.846191,4172.820313,4154.871582,0.000000,4.000000,,,,0.000000,4.000000,4.000000,4.000000,4.000000,4.000000,4.000000,4.000000,4.000000,4.000000,4.000000,4.000000,4.000000,4.000000,4.000000,100.000000
1602005777.207417,57.000000,0.000000,4121.025879,4101.538574,4114.871582,4104.615234,4135.897461,4129.743652,4134.871582,4138.461426,4128.717773,4107.179688,4137.948730,4149.230957,4163.077148,4153.333496,0.000000,4.000000,,,,0.000000,4.000000,4.000000,4.000000,4.000000,4.000000,4.000000,4.000000,4.000000,4.000000,4.000000,4.000000,4.000000,4.000000,4.000000,100.000000
1602005777.215327,58.000000,0.000000,4122.051270,4106.666504,4130.769043,4112.307617,4140.000000,4125.641113,4137.948730,4139.487305,4143.589844,4124.102539,4147.179688,4158.974121,4170.256348,4168.205078,0.000000,4.000000,,,,0.000000,4.000000,4.000000,4.000000,4.000000,4.000000,4.000000,4.000000,4.000000,4.000000,4.000000,4.000000,4.000000,4.000000,4.000000,100.000000
1602005777.223237,59.000000,0.000000,4132.307617,4108.205078,4142.563965,4111.794922,4138.461426,4125.641113,4137.436035,4141.025879,4144.615234,4156.922852,4145.128418,4169.743652,4172.820313,4171.282227,0.000000,4.000000,,,,0.000000,4.000000,4.000000,4.000000,4.000000,4.000000,4.000000,4.000000,4.000000,4.000000,4.000000,4.000000,4.000000,4.000000,4.000000,100.000000
1602005777.231147,60.000000,0.000000,4132.820313,4100.512695,4137.436035,4105.128418,4128.717773,4126.153809,4137.948730,4141.538574,4131.282227,4156.922852,4141.538574,4172.307617,4168.717773,4163.077148,0.000000,4.000000,,,,0.000000,4.000000,4.000000,4.000000,4.000000,4.000000,4.000000,4.000000,4.000000,4.000000,4.000000,4.000000,4.000000,4.000000,4.000000,100.000000
1602005777.239057,61.000000,0.000000,4129.743652,4092.307617,4133.333496,4105.128418,4122.563965,4124.102539,4140.000000,4138.974121,4120.512695,4136.922852,4139.487305,4171.794922,4168.205078,4164.615234,0.000000,4.000000,,,,0.000000,4.000000,4.000000,4.000000,4.000000,4.000000,4.000000,4.000000,4.000000,4.000000,4.000000,4.000000,4.000000,4.000000,4.000000,100.000000
1602005777.246852,62.000000,0.000000,4136.410156,4094.358887,4135.897461,4107.692383,4126.153809,4123.077148,4141.538574,4137.948730,4118.974121,4130.256348,4142.563965,4176.922852,4175.384766,4176.410156,0.000000,4.000000,,,,0.000000,4.000000,4.000000,4.000000,4.000000,4.000000,4.000000,4.000000,4.000000,4.000000,4.000000,4.000000,4.000000,4.000000,4.000000,100.000000
1602005777.254747,63.000000,0.000000,4140.512695,4105.128418,4141.025879,4108.205078,4134.358887,4127.179688,4144.102539,4139.487305,4123.077148,4126.153809,4153.846191,4185.128418,4184.615234,4181.538574,0.000000,4.000000,,,,0.000000,4.000000,4.000000,4.000000,4.000000,4.000000,4.000000,4.000000,4.000000,4.000000,4.000000,4.000000,4.000000,4.000000,4.000000,100.000000
1602005777.262643,64.000000,0.000000,4138.974121,4109.230957,4143.077148,4108.717773,4141.025879,4134.871582,4145.128418,4137.948730,4126.666504,4114.871582,4155.897461,4188.205078,4185.641113,4175.384766,805.000000,4.000000,,,,0.000000,4.000000,4.000000,4.000000,4.000000,4.000000,4.000000,4.000000,4.000000,4.000000,4.000000,4.000000,4.000000,4.000000,4.000000,100.000000
1602005777.270429,65.000000,0.000000,4141.025879,4105.128418,4135.384766,4107.692383,4147.179688,4141.538574,4145.641113,4138.461426,4133.333496,4124.615234,4149.743652,4183.589844,4185.128418,4170.769043,800.000000,4.000000,,,,0.000000,4.000000,4.000000,4.000000,4.000000,4.000000,4.000000,4.000000,4.000000,4.000000,4.000000,4.000000,4.000000,4.000000,4.000000,100.000000
1602005777.278227,66.000000,0.000000,4136.922852,4103.077148,4122.563965,4105.641113,4146.666504,4143.589844,4144.615234,4140.000000,4146.666504,4148.205078,4153.333496,4175.384766,4186.666504,4172.307617,854.000000,4.000000,,,,0.000000,4.000000,4.000000,4.000000,4.000000,4.000000,4.000000,4.000000,4.000000,4.000000,4.000000,4.000000,4.000000,4.000000,4.000000,100.000000
1602005777.286125,67.000000,0.000000,4122.563965,4103.589844,4117.948730,4105.128418,4138.461426,4139.487305,4145.641113,4141.025879,4152.820313,4153.846191,4151.794922,4166.666504,4180.512695,4168.205078,866.000000,4.000000,,,,0.000000,4.000000,4.000000,4.000000,4.000000,4.000000,4.000000,4.000000,4.000000,4.000000,4.000000,4.000000,4.000000,4.000000,4.000000,100.000000
1602005777.294023,68.000000,0.000000,4125.641113,4106.153809,4120.000000,4106.153809,4138.974121,4137.948730,4152.820313,4147.179688,4151.794922,4146.666504,4140.000000,4164.102539,4178.461426,4168.717773,809.000000,4.000000,,,,0.000000,4.000000,4.000000,4.000000,4.000000,4.000000,4.000000,4.000000,4.000000,4.000000,4.000000,4.000000,4.000000,4.000000,4.000000,100.000000
1602005777.301921,69.000000,0.000000,4138.974121,4113.333496,4122.051270,4113.333496,4142.563965,4140.000000,4156.922852,4153.333496,4152.307617,4137.948730,4138.974121,4165.641113,4180.512695,4172.820313,827.000000,4.000000,,,,0.000000,4.000000,4.000000,4.000000,4.000000,4.000000,4.000000,4.000000,4.000000,4.000000,4.000000,4.000000,4.000000,4.000000,4.000000,100.000000
1602005777.309712,70.000000,0.000000,4138.974121,4118.974121,4127.692383,4122.563965,4145.641113,4141.538574,4152.307617,4153.333496,4153.333496,4132.307617,4148.205078,4163.077148,4176.922852,4168.205078,770.000000,4.000000,,,,0.000000,4.000000,4.000000,4.000000,4.000000,4.000000,4.000000,4.000000,4.000000,4.000000,4.000000,4.000000,4.000000,4.000000,4.000000,100.000000
1602005777.317604,71.000000,0.000000,4136.410156,4122.563965,4136.922852,4124.615234,4150.769043,4139.487305,4152.820313,4155.897461,4152.307617,4135.384766,4154.871582,4163.589844,4181.025879,4172.820313,691.000000,4.000000,,,,0.000000,4.000000,4.000000,4.000000,4.000000,4.000000,4.000000,4.000000,4.000000,4.000000,4.000000,4.000000,4.000000,4.000000,4.000000,100.000000
1602005777.325397,72.000000,0.000000,4141.538574,4124.102539,4138.974121,4123.077148,4146.153809,4137.948730,4153.333496,4156.410156,4151.282227,4146.153809,4156.922852,4163.589844,4190.769043,4183.077148,787.000000,4.000000,,,,0.000000,4.000000,4.000000,4.000000,4.000000,4.000000,4.000000,4.000000,4.000000,4.000000,4.000000,4.000000,4.000000,4.000000,4.000000,100.000000
1602005777.333290,73.000000,0.000000,4144.615234,4123.589844,4137.948730,4125.641113,4134.358887,4138.461426,4142.051270,4146.153809,4151.282227,4154.871582,4157.436035,4162.051270,4189.743652,4175.897461,840.000000,4.000000,,,,0.000000,4.000000,4.000000,4.000000,4.000000,4.000000,4.000000,4.000000,4.000000,4.000000,4.000000,4.000000,4.000000,4.000000,4.000000,100.000000
1602005777.341183,74.000000,0.000000,4142.563965,4124.102539,4138.974121,4127.179688,4134.871582,4135.897461,4133.333496,4138.461426,4152.820313,4155.897461,4154.358887,4164.102539,4185.641113,4164.615234,873.000000,4.000000,,,,0.000000,4.000000,4.000000,4.000000,4.000000,4.000000,4.000000,4.000000,4.000000,4.000000,4.000000,4.000000,4.000000,4.000000,4.000000,100.000000
1602005777.348984,75.000000,0.000000,4140.512695,4128.205078,4140.512695,4126.153809,4149.230957,4135.897461,4136.922852,4141.025879,4154.871582,4149.743652,4153.333496,4169.743652,4190.256348,4168.717773,843.000000,4.000000,,,,0.000000,4.000000,4.000000,4.000000,4.000000,4.000000,4.000000,4.000000,4.000000,4.000000,4.000000,4.000000,4.000000,4.000000,4.000000,100.000000
1602005777.356885,76.000000,0.000000,4141.025879,4131.794922,4139.487305,4128.717773,4153.846191,4138.974121,4136.410156,4143.589844,4154.358887,4136.410156,4157.436035,4171.282227,4190.256348,4170.769043,776.000000,4.000000,,,,0.000000,4.000000,4.000000,4.000000,4.000000,4.000000,4.000000,4.000000,4.000000,4.000000,4.000000,4.000000,4.000000,4.000000,4.000000,100.000000
1602005777.364786,77.000000,0.000000,4137.436035,4121.025879,4130.769043,4123.589844,4143.077148,4136.922852,4130.769043,4139.487305,4150.769043,4127.179688,4148.205078,4160.512695,4177.436035,4159.487305,754.000000,4.000000,,,,0.000000,4.000000,4.000000,4.000000,4.000000,4.000000,4.000000,4.000000,4.000000,4.000000,4.000000,4.000000,4.000000,4.000000,4.000000,100.000000
1602005777.372687,78.000000,0.000000,4128.205078,4109.230957,4122.563965,4113.333496,4138.974121,4132.820313,4133.333496,4139.487305,4151.794922,4121.538574,4134.871582,4153.333496,4166.666504,4153.846191,873.000000,4.000000,,,,0.000000,4.000000,4.000000,4.000000,4.000000,4.000000,4.000000,4.000000,4.000000,4.000000,4.000000,4.000000,4.000000,4.000000,4.000000,100.000000
1602005777.380505,79.000000,0.000000,4124.615234,4113.846191,4121.538574,4114.871582,4150.769043,4136.410156,4140.512695,4143.589844,4151.794922,4118.974121,4143.077148,4156.922852,4169.230957,4156.410156,843.000000,4.000000,,,,0.000000,4.000000,4.000000,4.000000,4.000000,4.000000,4.000000,4.000000,4.000000,4.000000,4.000000,4.000000,4.000000,4.000000,4.000000,100.000000
1602005777.388422,80.000000,0.000000,4127.179688,4120.512695,4124.615234,4120.512695,4155.384766,4140.000000,4141.538574,4142.051270,4144.102539,4128.205078,4149.743652,4158.974121,4173.846191,4156.410156,776.000000,4.000000,,,,0.000000,4.000000,4.000000,4.000000,4.000000,4.000000,4.000000,4.000000,4.000000,4.000000,4.000000,4.000000,4.000000,4.000000,4.000000,100.000000
1602005777.396340,81.000000,0.000000,4130.256348,4120.512695,4131.282227,4123.077148,4151.282227,4139.487305,4139.487305,4140.000000,4138.974121,4141.025879,4139.487305,4154.358887,4170.256348,4152.820313,754.000000,4.000000,,,,0.000000,4.000000,4.000000,4.000000,4.000000,4.000000,4.000000,4.000000,4.000000,4.000000,4.000000,4.000000,4.000000,4.000000,4.000000,100.000000
1602005777.404258,82.000000,0.000000,4132.307617,4118.461426,4137.948730,4125.128418,4146.153809,4140.000000,4140.000000,4142.563965,4141.538574,4142.563965,4137.948730,4154.358887,4166.153809,4154.358887,873.000000,4.000000,,,,0.000000,4.000000,4.000000,4.000000,4.000000,4.000000,4.000000,4.000000,4.000000,4.000000,4.000000,4.000000,4.000000,4.000000,4.000000,100.000000
1602005777.412175,83.000000,0.000000,4128.205078,4112.307617,4130.256348,4115.897461,4126.153809,4130.769043,4137.436035,4140.512695,4139.487305,4135.384766,4142.563965,4156.922852,4160.512695,4154.358887,843.000000,4.000000,,,,0.000000,4.000000,4.000000,4.000000,4.000000,4.000000,4.000000,4.000000,4.000000,4.000000,4.000000,4.000000,4.000000,4.000000,4.000000,100.000000
1602005777.420093,84.000000,0.000000,4117.948730,4102.563965,4120.000000,4107.179688,4121.025879,4123.589844,4135.897461,4135.384766,4136.922852,4130.256348,4136.410156,4153.846191,4151.794922,4150.769043,776.000000,4.000000,,,,0.000000,4.000000,4.000000,4.000000,4.000000,4.000000,4.000000,4.000000,4.000000,4.000000,4.000000,4.000000,4.000000,4.000000,4.000000,100.000000
1602005777.428011,85.000000,0.000000,4123.589844,4109.230957,4130.256348,4119.487305,4145.641113,4136.410156,4136.922852,4140.000000,4144.102539,4130.769043,4138.461426,4152.820313,4154.871582,4155.897461,754.000000,4.000000,,,,0.000000,4.000000,4.000000,4.000000,4.000000,4.000000,4.000000,4.000000,4.000000,4.000000,4.000000,4.000000,4.000000,4.000000,4.000000,100.000000
1602005777.435928,86.000000,0.000000,4134.358887,4122.563965,4144.102539,4128.205078,4151.794922,4137.948730,4128.717773,4143.589844,4145.641113,4128.717773,4145.641113,4152.820313,4164.615234,4158.974121,873.000000,4.000000,,,,0.000000,4.000000,4.000000,4.000000,4.000000,4.000000,4.000000,4.000000,4.000000,4.000000,4.000000,4.000000,4.000000,4.000000,4.000000,100.000000
1602005777.443737,87.000000,0.000000,4128.717773,4122.051270,4141.538574,4116.410156,4135.897461,4119.487305,4116.410156,4136.922852,4136.922852,4121.025879,4140.000000,4151.282227,4168.205078,4153.333496,843.000000,4.000000,,,,0.000000,4.000000,4.000000,4.000000,4.000000,4.000000,4.000000,4.000000,4.000000,4.000000,4.000000,4.000000,4.000000,4.000000,4.000000,100.000000
1602005777.451646,88.000000,0.000000,4123.077148,4114.871582,4131.282227,4108.717773,4136.410156,4123.077148,4124.102539,4135.384766,4135.897461,4122.051270,4138.461426,4149.743652,4167.179688,4154.358887,776.000000,4.000000,,,,0.000000,4.000000,4.000000,4.000000,4.000000,4.000000,4.000000,4.000000,4.000000,4.000000,4.000000,4.000000,4.000000,4.000000,4.000000,100.000000
1602005777.459555,89.000000,0.000000,4115.897461,4110.769043,4121.025879,4109.743652,4143.589844,4142.051270,4140.000000,4140.512695,4138.461426,4128.205078,4137.948730,4141.025879,4161.538574,4151.794922,754.000000,4.000000,,,,0.000000,4.000000,4.000000,4.000000,4.000000,4.000000,4.000000,4.000000,4.000000,4.000000,4.000000,4.000000,4.000000,4.000000,4.000000,100.000000
1602005777.467464,90.000000,0.000000,4103.077148,4107.692383,4108.717773,4106.666504,4138.461426,4142.051270,4140.512695,4141.025879,4133.846191,4114.358887,4126.666504,4130.256348,4154.358887,4136.922852,873.000000,4.000000,,,,0.000000,4.000000,4.000000,4.000000,4.000000,4.000000,4.000000,4.000000,4.000000,4.000000,4.000000,4.000000,4.000000,4.000000,4.000000,100.000000
1602005777.475374,91.000000,0.000000,4108.205078,4107.179688,4104.102539,4107.179688,4137.948730,4141.025879,4139.487305,4138.974121,4133.846191,4108.205078,4125.641113,4132.307617,4149.743652,4133.846191,843.000000,4.000000,,,,0.000000,4.000000,4.000000,4.000000,4.000000,4.000000,4.000000,4.000000,4.000000,4.000000,4.000000,4.000000,4.000000,4.000000,4.000000,100.000000
1602005777.483283,92.000000,0.000000,4122.051270,4110.769043,4113.333496,4109.743652,4140.512695,4147.692383,4144.615234,4139.487305,4136.410156,4122.051270,4138.974121,4140.512695,4150.769043,4145.641113,776.000000,4.000000,,,,0.000000,4.000000,4.000000,4.000000,4.000000,4.000000,4.000000,4.000000,4.000000,4.000000,4.000000,4.000000,4.000000,4.000000,4.000000,100.000000
1602005777.491104,93.000000,0.000000,4118.461426,4110.769043,4124.102539,4108.205078,4137.948730,4144.102539,4139.487305,4138.461426,4135.897461,4122.051270,4140.512695,4145.128418,4157.436035,4151.282227,754.000000,4.000000,,,,0.000000,4.000000,4.000000,4.000000,4.000000,4.000000,4.000000,4.000000,4.000000,4.000000,4.000000,4.000000,4.000000,4.000000,4.000000,100.000000
1602005777.499025,94.000000,0.000000,4123.077148,4116.410156,4131.794922,4114.871582,4138.974121,4139.487305,4136.410156,4141.025879,4143.589844,4127.692383,4142.563965,4152.820313,4166.666504,4153.333496,873.000000,4.000000,,,,0.000000,4.000000,4.000000,4.000000,4.000000,4.000000,4.000000,4.000000,4.000000,4.000000,4.000000,4.000000,4.000000,4.000000,4.000000,100.000000
1602005777.506946,95.000000,0.000000,4139.487305,4124.102539,4136.922852,4122.051270,4134.871582,4136.410156,4138.974121,4140.000000,4147.692383,4148.205078,4152.307617,4153.333496,4173.846191,4157.948730,843.000000,4.000000,,,,0.000000,4.000000,4.000000,4.000000,4.000000,4.000000,4.000000,4.000000,4.000000,4.000000,4.000000,4.000000,4.000000,4.000000,4.000000,100.000000
1602005777.514868,96.000000,0.000000,4137.436035,4111.282227,4129.230957,4111.794922,4122.051270,4123.077148,4129.743652,4125.128418,4130.256348,4133.846191,4144.615234,4140.000000,4166.666504,4158.974121,776.000000,4.000000,,,,0.000000,4.000000,4.000000,4.000000,4.000000,4.000000,4.000000,4.000000,4.000000,4.000000,4.000000,4.000000,4.000000,4.000000,4.000000,100.000000
1602005777.522789,97.000000,0.000000,4143.589844,4100.512695,4117.948730,4102.563965,4117.948730,4117.948730,4125.641113,4120.000000,4120.000000,4113.846191,4134.358887,4135.897461,4164.615234,4171.282227,754.000000,4.000000,,,,0.000000,4.000000,4.000000,4.000000,4.000000,4.000000,4.000000,4.000000,4.000000,4.000000,4.000000,4.000000,4.000000,4.000000,4.000000,100.000000
1602005777.530710,98.000000,0.000000,4176.922852,4113.333496,4124.615234,4110.769043,4124.615234,4124.615234,4134.871582,4128.205078,4130.769043,4140.512695,4139.487305,4141.538574,4177.436035,4206.666504,873.000000,4.000000,,,,0.000000,4.000000,4.000000,4.000000,4.000000,4.000000,4.000000,4.000000,4.000000,4.000000,4.000000,4.000000,4.000000,4.000000,4.000000,100.000000
1602005777.538631,99.000000,0.000000,4201.538574,4120.000000,4132.307617,4114.358887,4125.128418,4115.384766,4129.743652,4127.692383,4128.205078,4150.256348,4141.538574,4142.051270,4177.436035,4233.333496,843.000000,4.000000,,,,0.000000,4.000000,4.000000,4.000000,4.000000,4.000000,4.000000,4.000000,4.000000,4.000000,4.000000,4.000000,4.000000,4.000000,4.000000,100.000000
1602005777.546552,100.000000,0.000000,4213.846191,4120.512695,4137.436035,4114.871582,4127.179688,4106.153809,4116.410156,4125.128418,4121.025879,4128.205078,4142.563965,4153.333496,4175.897461,4235.384766,776.000000,4.000000,,,,0.000000,4.000000,4.000000,4.000000,4.000000,4.000000,4.000000,4.000000,4.000000,4.000000,4.000000,4.000000,4.000000,4.000000,4.000000,100.000000
1602005777.554474,101.000000,0.000000,4229.230957,4138.461426,4155.897461,4132.820313,4143.589844,4125.641113,4125.641113,4140.000000,4135.384766,4132.307617,4156.922852,4170.769043,4200.512695,4240.512695,754.000000,4.000000,,,,0.000000,4.000000,4.000000,4.000000,4.000000,4.000000,4.000000,4.000000,4.000000,4.000000,4.000000,4.000000,4.000000,4.000000,4.000000,100.000000
1602005777.562280,102.000000,0.000000,4226.153809,4147.692383,4161.538574,4138.974121,4154.358887,4136.922852,4134.358887,4146.153809,4141.025879,4135.384766,4162.051270,4163.077148,4209.743652,4248.205078,873.000000,4.000000,,,,0.000000,4.000000,4.000000,4.000000,4.000000,4.000000,4.000000,4.000000,4.000000,4.000000,4.000000,4.000000,4.000000,4.000000,4.000000,100.000000
1602005777.570186,103.000000,0.000000,4196.410156,4132.307617,4143.077148,4125.128418,4147.692383,4126.666504,4125.128418,4132.307617,4124.615234,4122.563965,4148.205078,4140.512695,4180.512695,4234.358887,843.000000,4.000000,,,,0.000000,4.000000,4.000000,4.000000,4.000000,4.000000,4.000000,4.000000,4.000000,4.000000,4.000000,4.000000,4.000000,4.000000,4.000000,100.000000
1602005777.578092,104.000000,0.000000,4169.230957,4121.025879,4130.256348,4120.512695,4136.410156,4124.102539,4123.077148,4124.102539,4118.461426,4133.846191,4138.974121,4134.871582,4166.666504,4209.230957,776.000000,4.000000,,,,0.000000,4.000000,4.000000,4.000000,4.000000,4.000000,4.000000,4.000000,4.000000,4.000000,4.000000,4.000000,4.000000,4.000000,4.000000,100.000000
1602005777.585999,105.000000,0.000000,4164.615234,4123.589844,4128.205078,4124.102539,4135.384766,4127.692383,4128.205078,4125.641113,4125.128418,4146.153809,4140.000000,4140.512695,4172.820313,4192.307617,754.000000,4.000000,,,,0.000000,4.000000,4.000000,4.000000,4.000000,4.000000,4.000000,4.000000,4.000000,4.000000,4.000000,4.000000,4.000000,4.000000,4.000000,100.000000
1602005777.593905,106.000000,0.000000,4165.128418,4122.563965,4124.615234,4114.871582,4138.974121,4126.153809,4127.179688,4124.102539,4124.615234,4123.589844,4140.512695,4137.948730,4162.051270,4184.102539,873.000000,4.000000,,,,0.000000,4.000000,4.000000,4.000000,4.000000,4.000000,4.000000,4.000000,4.000000,4.000000,4.000000,4.000000,4.000000,4.000000,4.000000,100.000000
1602005777.601714,107.000000,0.000000,4157.948730,4118.974121,4127.179688,4110.256348,4132.307617,4132.307617,4129.230957,4124.615234,4128.717773,4111.794922,4139.487305,4134.358887,4156.922852,4181.025879,843.000000,4.000000,,,,0.000000,4.000000,4.000000,4.000000,4.000000,4.000000,4.000000,4.000000,4.000000,4.000000,4.000000,4.000000,4.000000,4.000000,4.000000,100.000000
1602005777.609623,108.000000,0.000000,4158.461426,4121.025879,4136.410156,4118.974121,4128.717773,4140.000000,4140.000000,4134.358887,4137.948730,4129.230957,4136.922852,4144.102539,4170.256348,4177.948730,776.000000,4.000000,,,,0.000000,4.000000,4.000000,4.000000,4.000000,4.000000,4.000000,4.000000,4.000000,4.000000,4.000000,4.000000,4.000000,4.000000,4.000000,100.000000
1602005777.617533,109.000000,0.000000,4168.205078,4127.692383,4140.000000,4123.589844,4136.410156,4133.846191,4141.025879,4145.641113,4141.025879,4144.615234,4135.384766,4157.436035,4176.922852,4174.871582,754.000000,4.000000,,,,0.000000,4.000000,4.000000,4.000000,4.000000,4.000000,4.000000,4.000000,4.000000,4.000000,4.000000,4.000000,4.000000,4.000000,4.000000,100.000000
1602005777.625442,110.000000,0.000000,4163.077148,4129.230957,4135.897461,4124.615234,4144.102539,4127.179688,4130.769043,4142.563965,4141.025879,4145.128418,4134.871582,4155.384766,4166.666504,4166.153809,873.000000,4.000000,,,,0.000000,4.000000,4.000000,4.000000,4.000000,4.000000,4.000000,4.000000,4.000000,4.000000,4.000000,4.000000,4.000000,4.000000,4.000000,100.000000
1602005777.633351,111.000000,0.000000,4141.025879,4123.077148,4124.615234,4118.974121,4138.974121,4126.153809,4120.000000,4125.128418,4135.897461,4137.948730,4127.692383,4137.436035,4154.358887,4145.641113,843.000000,4.000000,,,,0.000000,4.000000,4.000000,4.000000,4.000000,4.000000,4.000000,4.000000,4.000000,4.000000,4.000000,4.000000,4.000000,4.000000,4.000000,100.000000
1602005777.641261,112.000000,0.000000,4129.743652,4118.461426,4118.974121,4108.717773,4134.871582,4131.794922,4118.974121,4120.512695,4128.205078,4138.974121,4116.922852,4126.666504,4147.179688,4136.410156,776.000000,4.000000,,,,0.000000,4.000000,4.000000,4.000000,4.000000,4.000000,4.000000,4.000000,4.000000,4.000000,4.000000,4.000000,4.000000,4.000000,4.000000,100.000000
1602005777.649058,113.000000,0.000000,4136.922852,4120.512695,4124.615234,4113.333496,4138.974121,4141.025879,4132.820313,4134.358887,4137.948730,4139.487305,4127.692383,4133.333496,4150.769043,4141.538574,754.000000,4.000000,,,,0.000000,4.000000,4.000000,4.000000,4.000000,4.000000,4.000000,4.000000,4.000000,4.000000,4.000000,4.000000,4.000000,4.000000,4.000000,100.000000
1602005777.656955,114.000000,0.000000,4142.563965,4123.077148,4127.692383,4122.563965,4135.384766,4142.051270,4141.025879,4141.025879,4153.333496,4125.641113,4142.051270,4139.487305,4155.384766,4140.000000,873.000000,4.000000,,,,0.000000,4.000000,4.000000,4.000000,4.000000,4.000000,4.000000,4.000000,4.000000,4.000000,4.000000,4.000000,4.000000,4.000000,4.000000,100.000000
1602005777.664851,115.000000,0.000000,4134.871582,4119.487305,4123.589844,4116.410156,4127.179688,4137.948730,4139.487305,4136.410156,4148.205078,4118.974121,4137.948730,4130.769043,4146.666504,4138.461426,843.000000,4.000000,,,,0.000000,4.000000,4.000000,4.000000,4.000000,4.000000,4.000000,4.000000,4.000000,4.000000,4.000000,4.000000,4.000000,4.000000,4.000000,100.000000
1602005777.672639,116.000000,0.000000,4124.615234,4112.820313,4118.974121,4108.205078,4125.641113,4136.922852,4138.974121,4133.846191,4136.410156,4127.179688,4135.384766,4121.538574,4137.948730,4140.000000,776.000000,4.000000,,,,0.000000,4.000000,4.000000,4.000000,4.000000,4.000000,4.000000,4.000000,4.000000,4.000000,4.000000,4.000000,4.000000,4.000000,4.000000,100.000000
1602005777.680527,117.000000,0.000000,4114.358887,4104.615234,4109.230957,4107.179688,4126.666504,4132.307617,4138.461426,4128.717773,4133.846191,4115.897461,4131.282227,4122.563965,4138.461426,4123.589844,754.000000,4.000000,,,,0.000000,4.000000,4.000000,4.000000,4.000000,4.000000,4.000000,4.000000,4.000000,4.000000,4.000000,4.000000,4.000000,4.000000,4.000000,100.000000
1602005777.688324,118.000000,0.000000,4106.153809,4100.000000,4102.563965,4104.102539,4121.538574,4123.077148,4129.743652,4124.615234,4135.897461,4106.153809,4120.512695,4126.153809,4138.461426,4114.871582,873.000000,4.000000,,,,0.000000,4.000000,4.000000,4.000000,4.000000,4.000000,4.000000,4.000000,4.000000,4.000000,4.000000,4.000000,4.000000,4.000000,4.000000,100.000000
1602005777.696221,119.000000,0.000000,4112.820313,4103.589844,4112.820313,4105.128418,4121.025879,4118.461426,4122.563965,4131.282227,4136.922852,4126.153809,4127.179688,4129.743652,4142.563965,4134.871582,843.000000,4.000000,,,,0.000000,4.000000,4.000000,4.000000,4.000000,4.000000,4.000000,4.000000,4.000000,4.000000,4.000000,4.000000,4.000000,4.000000,4.000000,100.000000
1602005777.704118,120.000000,0.000000,4123.589844,4111.794922,4126.153809,4109.743652,4127.179688,4121.025879,4128.717773,4140.000000,4136.922852,4141.025879,4146.153809,4137.948730,4155.384766,4142.563965,776.000000,4.000000,,,,0.000000,4.000000,4.000000,4.000000,4.000000,4.000000,4.000000,4.000000,4.000000,4.000000,4.000000,4.000000,4.000000,4.000000,4.000000,100.000000
1602005777.712015,121.000000,0.000000,4123.077148,4110.256348,4125.641113,4109.743652,4125.641113,4122.563965,4135.897461,4140.512695,4144.615234,4147.692383,4149.230957,4142.563965,4156.922852,4129.230957,754.000000,4.000000,,,,0.000000,4.000000,4.000000,4.000000,4.000000,4.000000,4.000000,4.000000,4.000000,4.000000,4.000000,4.000000,4.000000,4.000000,4.000000,100.000000
1602005777.719826,122.000000,0.000000,4116.410156,4096.410156,4118.974121,4104.102539,4118.461426,4120.512695,4136.922852,4137.948730,4150.769043,4156.922852,4135.384766,4131.794922,4140.512695,4120.000000,873.000000,4.000000,,,,0.000000,4.000000,4.000000,4.000000,4.000000,4.000000,4.000000,4.000000,4.000000,4.000000,4.000000,4.000000,4.000000,4.000000,4.000000,100.000000
1602005777.727737,123.000000,0.000000,4114.358887,4092.820557,4120.512695,4100.512695,4119.487305,4128.717773,4141.538574,4137.948730,4144.102539,4136.410156,4123.077148,4124.102539,4133.333496,4113.333496,843.000000,4.000000,,,,0.000000,4.000000,4.000000,4.000000,4.000000,4.000000,4.000000,4.000000,4.000000,4.000000,4.000000,4.000000,4.000000,4.000000,4.000000,100.000000
1602005777.735647,124.000000,0.000000,4111.282227,4105.128418,4121.025879,4103.589844,4125.641113,4140.512695,4147.692383,4139.487305,4138.974121,4112.820313,4116.922852,4134.871582,4138.461426,4105.128418,776.000000,4.000000,,,,0.000000,4.000000,4.000000,4.000000,4.000000,4.000000,4.000000,4.000000,4.000000,4.000000,4.000000,4.000000,4.000000,4.000000,4.000000,100.000000
1602005777.743558,125.000000,0.000000,4107.692383,4110.256348,4113.846191,4107.179688,4124.615234,4139.487305,4143.077148,4137.948730,4144.102539,4127.692383,4125.641113,4136.922852,4138.461426,4102.563965,754.000000,4.000000,,,,0.000000,4.000000,4.000000,4.000000,4.000000,4.000000,4.000000,4.000000,4.000000,4.000000,4.000000,4.000000,4.000000,4.000000,4.000000,100.000000
1602005777.751469,126.000000,0.000000,4107.179688,4103.589844,4113.333496,4106.153809,4124.615234,4135.897461,4135.897461,4136.410156,4142.563965,4134.358887,4136.922852,4126.666504,4134.871582,4110.769043,873.000000,4.000000,,,,0.000000,4.000000,4.000000,4.000000,4.000000,4.000000,4.000000,4.000000,4.000000,4.000000,4.000000,4.000000,4.000000,4.000000,4.000000,100.000000
1602005777.759379,127.000000,0.000000,4107.692383,4105.128418,4122.563965,4107.179688,4132.820313,4134.871582,4136.922852,4137.436035,4131.282227,4119.487305,4139.487305,4132.820313,4137.948730,4123.589844,843.000000,4.000000,,,,0.000000,4.000000,4.000000,4.000000,4.000000,4.000000,4.000000,4.000000,4.000000,4.000000,4.000000,4.000000,4.000000,4.000000,4.000000,100.000000
1602005777.767183,128.000000,0.000000,4111.282227,4111.282227,4126.666504,4110.256348,4137.436035,4129.230957,4136.410156,4137.948730,4124.102539,4122.563965,4134.871582,4141.538574,4141.025879,4123.589844,776.000000,4.000000,,,,0.000000,4.000000,4.000000,4.000000,4.000000,4.000000,4.000000,4.000000,4.000000,4.000000,4.000000,4.000000,4.000000,4.000000,4.000000,100.000000
1602005777.775087,0.000000,0.000000,4112.307617,4112.820313,4124.615234,4108.717773,4136.922852,4126.153809,4135.384766,4131.794922,4114.358887,4121.025879,4126.153809,4135.897461,4136.922852,4107.179688,805.000000,4.000000,,,,0.000000,4.000000,4.000000,4.000000,4.000000,4.000000,4.000000,4.000000,4.000000,4.000000,4.000000,4.000000,4.000000,4.000000,4.000000,100.000000
1602005777.782990,1.000000,0.000000,4109.230957,4112.307617,4122.051270,4108.205078,4133.846191,4128.205078,4139.487305,4123.077148,4106.153809,4113.333496,4121.538574,4135.897461,4133.846191,4101.025879,800.000000,4.000000,,,,0.000000,4.000000,4.000000,4.000000,4.000000,4.000000,4.000000,4.000000,4.000000,4.000000,4.000000,4.000000,4.000000,4.000000,4.000000,100.000000
1602005777.790894,2.000000,0.000000,4105.641113,4109.743652,4116.410156,4108.717773,4126.666504,4128.205078,4135.384766,4120.000000,4110.769043,4126.153809,4122.051270,4135.897461,4135.384766,4111.282227,854.000000,4.000000,,,,0.000000,4.000000,4.000000,4.000000,4.000000,4.000000,4.000000,4.000000,4.000000,4.000000,4.000000,4.000000,4.000000,4.000000,4.000000,100.000000
1602005777.798797,3.000000,0.000000,4104.102539,4108.205078,4114.358887,4109.743652,4119.487305,4127.692383,4127.179688,4124.102539,4124.615234,4141.025879,4125.641113,4129.230957,4136.922852,4109.743652,866.000000,4.000000,,,,0.000000,4.000000,4.000000,4.000000,4.000000,4.000000,4.000000,4.000000,4.000000,4.000000,4.000000,4.000000,4.000000,4.000000,4.000000,100.000000
1602005777.806614,4.000000,0.000000,4106.153809,4111.282227,4122.563965,4110.769043,4120.000000,4127.179688,4130.256348,4133.846191,4140.000000,4136.922852,4127.179688,4131.794922,4142.563965,4102.051270,809.000000,4.000000,,,,0.000000,4.000000,4.000000,4.000000,4.000000,4.000000,4.000000,4.000000,4.000000,4.000000,4.000000,4.000000,4.000000,4.000000,4.000000,100.000000
1602005777.814531,5.000000,0.000000,4115.897461,4113.333496,4133.333496,4113.846191,4122.051270,4121.025879,4136.410156,4146.666504,4154.358887,4136.410156,4131.794922,4143.589844,4150.769043,4114.358887,826.000000,4.000000,,,,0.000000,4.000000,4.000000,4.000000,4.000000,4.000000,4.000000,4.000000,4.000000,4.000000,4.000000,4.000000,4.000000,4.000000,4.000000,100.000000
1602005777.822448,6.000000,0.000000,4127.179688,4116.410156,4136.410156,4117.948730,4121.025879,4116.922852,4134.871582,4153.333496,4159.487305,4141.025879,4135.897461,4152.307617,4154.871582,4132.307617,770.000000,4.000000,,,,0.000000,4.000000,4.000000,4.000000,4.000000,4.000000,4.000000,4.000000,4.000000,4.000000,4.000000,4.000000,4.000000,4.000000,4.000000,100.000000
1602005777.830365,7.000000,0.000000,4122.563965,4116.922852,4130.256348,4118.461426,4121.025879,4123.077148,4135.897461,4147.179688,4146.153809,4131.282227,4134.358887,4150.256348,4151.282227,4125.641113,723.000000,4.000000,,,,0.000000,4.000000,4.000000,4.000000,4.000000,4.000000,4.000000,4.000000,4.000000,4.000000,4.000000,4.000000,4.000000,4.000000,4.000000,100.000000
1602005777.838282,8.000000,0.000000,4108.717773,4109.743652,4120.512695,4112.820313,4122.563965,4125.641113,4138.974121,4134.871582,4126.153809,4123.589844,4124.615234,4140.512695,4138.461426,4106.666504,807.000000,4.000000,,,,0.000000,4.000000,4.000000,4.000000,4.000000,4.000000,4.000000,4.000000,4.000000,4.000000,4.000000,4.000000,4.000000,4.000000,4.000000,100.000000
1602005777.846199,9.000000,0.000000,4104.102539,4104.615234,4118.461426,4108.717773,4124.102539,4120.000000,4137.436035,4126.666504,4112.820313,4130.256348,4113.846191,4129.230957,4125.128418,4101.538574,840.000000,4.000000,,,,0.000000,4.000000,4.000000,4.000000,4.000000,4.000000,4.000000,4.000000,4.000000,4.000000,4.000000,4.000000,4.000000,4.000000,4.000000,100.000000
1602005777.854116,10.000000,0.000000,4107.692383,4108.205078,4121.025879,4108.205078,4123.589844,4125.641113,4136.410156,4122.563965,4108.205078,4121.025879,4114.871582,4126.153809,4125.641113,4104.102539,873.000000,4.000000,,,,0.000000,4.000000,4.000000,4.000000,4.000000,4.000000,4.000000,4.000000,4.000000,4.000000,4.000000,4.000000,4.000000,4.000000,4.000000,100.000000
1602005777.862033,11.000000,0.000000,4113.333496,4109.743652,4123.077148,4112.307617,4126.153809,4135.897461,4137.436035,4123.077148,4112.307617,4106.153809,4125.128418,4129.743652,4137.948730,4104.615234,843.000000,4.000000,,,,0.000000,4.000000,4.000000,4.000000,4.000000,4.000000,4.000000,4.000000,4.000000,4.000000,4.000000,4.000000,4.000000,4.000000,4.000000,100.000000
1602005777.869851,12.000000,0.000000,4113.333496,4107.692383,4123.589844,4118.461426,4131.282227,4129.743652,4135.897461,4130.256348,4118.974121,4124.102539,4126.666504,4129.743652,4141.025879,4108.717773,776.000000,4.000000,,,,0.000000,4.000000,4.000000,4.000000,4.000000,4.000000,4.000000,4.000000,4.000000,4.000000,4.000000,4.000000,4.000000,4.000000,4.000000,100.000000
1602005777.877770,13.000000,0.000000,4106.666504,4108.717773,4123.589844,4116.922852,4130.769043,4123.589844,4137.948730,4138.461426,4128.717773,4146.153809,4113.846191,4126.153809,4133.333496,4103.589844,792.000000,4.000000,,,,0.000000,4.000000,4.000000,4.000000,4.000000,4.000000,4.000000,4.000000,4.000000,4.000000,4.000000,4.000000,4.000000,4.000000,4.000000,100.000000
1602005777.885688,14.000000,0.000000,4105.641113,4108.205078,4123.589844,4108.205078,4119.487305,4127.692383,4140.512695,4141.538574,4138.461426,4135.384766,4108.717773,4125.641113,4131.282227,4086.666748,873.000000,4.000000,,,,0.000000,4.000000,4.000000,4.000000,4.000000,4.000000,4.000000,4.000000,4.000000,4.000000,4.000000,4.000000,4.000000,4.000000,4.000000,100.000000
1602005777.893606,15.000000,0.000000,4115.897461,4104.615234,4122.051270,4105.641113,4107.692383,4124.102539,4135.897461,4138.974121,4141.538574,4135.897461,4116.410156,4126.153809,4135.897461,4087.179443,843.000000,4.000000,,,,0.000000,4.000000,4.000000,4.000000,4.000000,4.000000,4.000000,4.000000,4.000000,4.000000,4.000000,4.000000,4.000000,4.000000,4.000000,100.000000
1602005777.901525,16.000000,0.000000,4123.077148,4108.717773,4129.230957,4113.333496,4111.794922,4116.410156,4130.256348,4135.897461,4143.077148,4157.436035,4124.102539,4130.256348,4137.436035,4106.153809,0.000000,4.000000,,,,0.000000,4.000000,4.000000,4.000000,4.000000,4.000000,4.000000,4.000000,4.000000,4.000000,4.000000,4.000000,4.000000,4.000000,4.000000,100.000000
1602005777.909443,17.000000,0.000000,4124.615234,4118.461426,4143.077148,4121.025879,4120.000000,4117.436035,4124.615234,4136.410156,4143.077148,4147.179688,4128.717773,4147.179688,4143.077148,4117.436035,0.000000,4.000000,,,,0.000000,4.000000,4.000000,4.000000,4.000000,4.000000,4.000000,4.000000,4.000000,4.000000,4.000000,4.000000,4.000000,4.000000,4.000000,100.000000
1602005777.917362,18.000000,0.000000,4128.205078,4122.051270,4146.153809,4122.051270,4121.025879,4121.025879,4123.589844,4139.487305,4135.897461,4126.666504,4130.769043,4158.461426,4148.717773,4112.820313,0.000000,4.000000,,,,0.000000,4.000000,4.000000,4.000000,4.000000,4.000000,4.000000,4.000000,4.000000,4.000000,4.000000,4.000000,4.000000,4.000000,4.000000,100.000000
1602005777.925280,19.000000,0.000000,4126.153809,4119.487305,4139.487305,4120.000000,4125.641113,4123.077148,4131.282227,4140.000000,4133.846191,4131.794922,4127.692383,4152.820313,4143.077148,4109.743652,0.000000,4.000000,,,,0.000000,4.000000,4.000000,4.000000,4.000000,4.000000,4.000000,4.000000,4.000000,4.000000,4.000000,4.000000,4.000000,4.000000,4.000000,100.000000
1602005777.933099,20.000000,0.000000,4124.615234,4121.538574,4140.512695,4122.563965,4131.282227,4123.077148,4138.974121,4138.974121,4142.563965,4140.512695,4121.538574,4150.256348,4138.461426,4114.871582,0.000000,4.000000,,,,0.000000,4.000000,4.000000,4.000000,4.000000,4.000000,4.000000,4.000000,4.000000,4.000000,4.000000,4.000000,4.000000,4.000000,4.000000,100.000000
1602005777.941017,21.000000,0.000000,4126.666504,4126.153809,4140.000000,4125.641113,4126.153809,4123.077148,4137.948730,4141.025879,4143.589844,4140.000000,4120.512695,4151.282227,4138.974121,4110.256348,0.000000,4.000000,,,,0.000000,4.000000,4.000000,4.000000,4.000000,4.000000,4.000000,4.000000,4.000000,4.000000,4.000000,4.000000,4.000000,4.000000,4.000000,100.000000
1602005777.948936,22.000000,0.000000,4114.871582,4119.487305,4127.179688,4116.922852,4121.538574,4126.666504,4134.871582,4141.025879,4133.846191,4127.692383,4120.512695,4142.563965,4128.717773,4095.384521,0.000000,4.000000,,,,0.000000,4.000000,4.000000,4.000000,4.000000,4.000000,4.000000,4.000000,4.000000,4.000000,4.000000,4.000000,4.000000,4.000000,4.000000,100.000000
1602005777.956854,23.000000,0.000000,4100.000000,4109.743652,4117.948730,4110.769043,4128.205078,4132.820313,4137.436035,4138.974121,4132.307617,4106.666504,4115.384766,4135.384766,4119.487305,4091.281982,0.000000,4.000000,,,,0.000000,4.000000,4.000000,4.000000,4.000000,4.000000,4.000000,4.000000,4.000000,4.000000,4.000000,4.000000,4.000000,4.000000,4.000000,100.000000
1602005777.964773,24.000000,0.000000,4104.615234,4113.846191,4119.487305,4117.436035,4130.769043,4139.487305,4136.410156,4140.512695,4135.384766,4107.179688,4105.641113,4138.974121,4126.153809,4094.871826,0.000000,4.000000,,,,0.000000,4.000000,4.000000,4.000000,4.000000,4.000000,4.000000,4.000000,4.000000,4.000000,4.000000,4.000000,4.000000,4.000000,4.000000,100.000000
1602005777.972692,25.000000,0.000000,4111.794922,4121.538574,4123.077148,4123.589844,4124.102539,4138.461426,4126.666504,4135.384766,4128.205078,4128.205078,4106.666504,4135.384766,4130.256348,4087.179443,0.000000,4.000000,,,,0.000000,4.000000,4.000000,4.000000,4.000000,4.000000,4.000000,4.000000,4.000000,4.000000,4.000000,4.000000,4.000000,4.000000,4.000000,100.000000
1602005777.980610,26.000000,0.000000,4104.615234,4120.000000,4121.538574,4121.538574,4122.051270,4127.692383,4120.000000,4125.641113,4121.025879,4128.205078,4117.948730,4123.077148,4124.615234,4087.692383,0.000000,4.000000,,,,0.000000,4.000000,4.000000,4.000000,4.000000,4.000000,4.000000,4.000000,4.000000,4.000000,4.000000,4.000000,4.000000,4.000000,4.000000,100.000000
1602005777.988529,27.000000,0.000000,4105.641113,4118.974121,4120.512695,4120.000000,4123.589844,4117.948730,4120.000000,4123.077148,4123.077148,4124.102539,4124.102539,4124.615234,4127.179688,4105.641113,0.000000,4.000000,,,,0.000000,4.000000,4.000000,4.000000,4.000000,4.000000,4.000000,4.000000,4.000000,4.000000,4.000000,4.000000,4.000000,4.000000,4.000000,100.000000
1602005777.996347,28.000000,0.000000,4120.000000,4123.077148,4129.230957,4124.615234,4123.589844,4120.512695,4119.487305,4123.589844,4123.589844,4139.487305,4130.769043,4145.128418,4138.974121,4110.769043,0.000000,4.000000,,,,0.000000,4.000000,4.000000,4.000000,4.000000,4.000000,4.000000,4.000000,4.000000,4.000000,4.000000,4.000000,4.000000,4.000000,4.000000,100.000000
1602005778.004265,29.000000,0.000000,4132.820313,4125.128418,4139.487305,4126.153809,4125.641113,4124.615234,4118.461426,4123.589844,4125.641113,4139.487305,4135.384766,4160.512695,4145.128418,4104.615234,0.000000,4.000000,,,,0.000000,4.000000,4.000000,4.000000,4.000000,4.000000,4.000000,4.000000,4.000000,4.000000,4.000000,4.000000,4.000000,4.000000,4.000000,100.000000
1602005778.012183,30.000000,0.000000,4136.922852,4120.512695,4138.461426,4122.051270,4127.692383,4115.897461,4122.563965,4129.230957,4131.794922,4122.563965,4127.179688,4158.461426,4139.487305,4113.333496,0.000000,4.000000,,,,0.000000,4.000000,4.000000,4.000000,4.000000,4.000000,4.000000,4.000000,4.000000,4.000000,4.000000,4.000000,4.000000,4.000000,4.000000,100.000000
1602005778.020101,31.000000,0.000000,4137.948730,4118.974121,4136.922852,4118.974121,4128.717773,4112.307617,4123.077148,4134.358887,4128.717773,4123.589844,4119.487305,4154.871582,4140.512695,4127.692383,0.000000,4.000000,,,,0.000000,4.000000,4.000000,4.000000,4.000000,4.000000,4.000000,4.000000,4.000000,4.000000,4.000000,4.000000,4.000000,4.000000,4.000000,100.000000
1602005778.028019,32.000000,0.000000,4137.436035,4123.589844,4136.922852,4121.025879,4135.384766,4131.282227,4126.153809,4135.897461,4129.743652,4137.436035,4124.615234,4156.922852,4149.743652,4119.487305,0.000000,4.000000,,,,0.000000,4.000000,4.000000,4.000000,4.000000,4.000000,4.000000,4.000000,4.000000,4.000000,4.000000,4.000000,4.000000,4.000000,4.000000,100.000000
1602005778.035938,33.000000,0.000000,4128.717773,4118.461426,4126.666504,4116.410156,4141.538574,4148.205078,4134.358887,4138.461426,4138.461426,4139.487305,4125.128418,4158.461426,4145.641113,4104.615234,0.000000,4.000000,,,,0.000000,4.000000,4.000000,4.000000,4.000000,4.000000,4.000000,4.000000,4.000000,4.000000,4.000000,4.000000,4.000000,4.000000,4.000000,100.000000
1602005778.043856,34.000000,0.000000,4117.948730,4106.153809,4114.871582,4107.692383,4135.897461,4144.615234,4130.256348,4133.333496,4137.436035,4133.846191,4117.948730,4152.820313,4125.641113,4105.128418,0.000000,4.000000,,,,0.000000,4.000000,4.000000,4.000000,4.000000,4.000000,4.000000,4.000000,4.000000,4.000000,4.000000,4.000000,4.000000,4.000000,4.000000,100.000000
1602005778.051774,35.000000,0.000000,4118.461426,4107.692383,4117.436035,4110.769043,4133.846191,4134.871582,4119.487305,4125.128418,4131.794922,4122.051270,4115.384766,4150.769043,4115.897461,4106.153809,0.000000,4.000000,,,,0.000000,4.000000,4.000000,4.000000,4.000000,4.000000,4.000000,4.000000,4.000000,4.000000,4.000000,4.000000,4.000000,4.000000,4.000000,100.000000
1602005778.059570,36.000000,0.000000,4130.256348,4122.051270,4128.717773,4120.000000,4139.487305,4131.282227,4121.538574,4128.717773,4137.436035,4105.128418,4122.051270,4163.077148,4128.717773,4102.563965,0.000000,4.000000,,,,0.000000,4.000000,4.000000,4.000000,4.000000,4.000000,4.000000,4.000000,4.000000,4.000000,4.000000,4.000000,4.000000,4.000000,4.000000,100.000000
1602005778.067466,37.000000,0.000000,4136.922852,4132.820313,4135.897461,4130.256348,4139.487305,4121.025879,4123.077148,4135.384766,4145.641113,4119.487305,4128.717773,4177.436035,4141.025879,4112.307617,0.000000,4.000000,,,,0.000000,4.000000,4.000000,4.000000,4.000000,4.000000,4.000000,4.000000,4.000000,4.000000,4.000000,4.000000,4.000000,4.000000,4.000000,100.000000
1602005778.075362,38.000000,0.000000,4143.589844,4138.461426,4143.077148,4138.974121,4138.461426,4109.230957,4114.358887,4135.384766,4141.538574,4153.846191,4121.538574,4183.077148,4142.563965,4124.102539,0.000000,4.000000,,,,0.000000,4.000000,4.000000,4.000000,4.000000,4.000000,4.000000,4.000000,4.000000,4.000000,4.000000,4.000000,4.000000,4.000000,4.000000,100.000000
1602005778.083159,39.000000,0.000000,4154.871582,4140.512695,4152.820313,4141.025879,4135.897461,4103.077148,4112.307617,4136.410156,4138.461426,4154.358887,4121.025879,4185.641113,4146.153809,4121.025879,0.000000,4.000000,,,,0.000000,4.000000,4.000000,4.000000,4.000000,4.000000,4.000000,4.000000,4.000000,4.000000,4.000000,4.000000,4.000000,4.000000,4.000000,100.000000
1602005778.091055,40.000000,0.000000,4155.897461,4139.487305,4153.333496,4140.000000,4131.794922,4103.589844,4118.974121,4143.589844,4150.769043,4146.153809,4142.563965,4189.743652,4154.871582,4126.153809,0.000000,4.000000,,,,0.000000,4.000000,4.000000,4.000000,4.000000,4.000000,4.000000,4.000000,4.000000,4.000000,4.000000,4.000000,4.000000,4.000000,4.000000,100.000000
1602005778.098952,41.000000,0.000000,4143.589844,4135.897461,4145.128418,4137.948730,4132.820313,4113.333496,4127.692383,4146.153809,4155.897461,4154.358887,4151.794922,4189.230957,4157.436035,4142.051270,0.000000,4.000000,,,,0.000000,4.000000,4.000000,4.000000,4.000000,4.000000,4.000000,4.000000,4.000000,4.000000,4.000000,4.000000,4.000000,4.000000,4.000000,100.000000
1602005778.106848,42.000000,0.000000,4138.974121,4128.717773,4143.077148,4134.871582,4137.436035,4121.538574,4135.384766,4138.461426,4142.563965,4145.641113,4139.487305,4186.666504,4150.769043,4138.461426,0.000000,4.000000,,,,0.000000,4.000000,4.000000,4.000000,4.000000,4.000000,4.000000,4.000000,4.000000,4.000000,4.000000,4.000000,4.000000,4.000000,4.000000,100.000000
1602005778.114655,43.000000,0.000000,4146.153809,4130.769043,4146.153809,4136.410156,4138.974121,4126.153809,4140.000000,4136.410156,4133.846191,4134.358887,4138.974121,4186.666504,4145.641113,4124.615234,0.000000,4.000000,,,,0.000000,4.000000,4.000000,4.000000,4.000000,4.000000,4.000000,4.000000,4.000000,4.000000,4.000000,4.000000,4.000000,4.000000,4.000000,100.000000
1602005778.122562,44.000000,0.000000,4144.102539,4137.436035,4139.487305,4135.384766,4135.384766,4134.871582,4139.487305,4140.512695,4135.384766,4138.461426,4136.410156,4181.538574,4143.077148,4122.563965,0.000000,4.000000,,,,0.000000,4.000000,4.000000,4.000000,4.000000,4.000000,4.000000,4.000000,4.000000,4.000000,4.000000,4.000000,4.000000,4.000000,4.000000,100.000000
1602005778.130469,45.000000,0.000000,4129.230957,4128.717773,4125.641113,4122.563965,4130.769043,4139.487305,4135.384766,4131.282227,4129.743652,4125.128418,4115.384766,4171.794922,4137.948730,4115.897461,0.000000,4.000000,,,,0.000000,4.000000,4.000000,4.000000,4.000000,4.000000,4.000000,4.000000,4.000000,4.000000,4.000000,4.000000,4.000000,4.000000,4.000000,100.000000
1602005778.138376,46.000000,0.000000,4120.000000,4120.512695,4116.410156,4121.025879,4134.358887,4131.794922,4136.410156,4119.487305,4123.589844,4112.307617,4109.743652,4163.077148,4131.282227,4107.692383,0.000000,4.000000,,,,0.000000,4.000000,4.000000,4.000000,4.000000,4.000000,4.000000,4.000000,4.000000,4.000000,4.000000,4.000000,4.000000,4.000000,4.000000,100.000000
1602005778.146283,47.000000,0.000000,4126.666504,4130.256348,4118.461426,4134.871582,4145.641113,4127.692383,4136.922852,4127.179688,4126.666504,4130.256348,4128.717773,4165.128418,4138.974121,4112.820313,0.000000,4.000000,,,,0.000000,4.000000,4.000000,4.000000,4.000000,4.000000,4.000000,4.000000,4.000000,4.000000,4.000000,4.000000,4.000000,4.000000,4.000000,100.000000
1602005778.154190,48.000000,0.000000,4138.461426,4144.102539,4130.769043,4141.538574,4152.307617,4128.205078,4126.666504,4138.974121,4139.487305,4136.410156,4146.666504,4176.410156,4158.974121,4121.538574,0.000000,4.000000,,,,0.000000,4.000000,4.000000,4.000000,4.000000,4.000000,4.000000,4.000000,4.000000,4.000000,4.000000,4.000000,4.000000,4.000000,4.000000,100.000000
1602005778.161995,49.000000,0.000000,4148.717773,4151.282227,4146.153809,4145.128418,4155.384766,4118.461426,4115.384766,4138.974121,4153.846191,4130.769043,4158.461426,4188.717773,4172.820313,4137.436035,0.000000,4.000000,,,,0.000000,4.000000,4.000000,4.000000,4.000000,4.000000,4.000000,4.000000,4.000000,4.000000,4.000000,4.000000,4.000000,4.000000,4.000000,100.000000
1602005778.169899,50.000000,0.000000,4160.512695,4158.974121,4160.512695,4157.436035,4152.307617,4110.256348,4116.410156,4141.025879,4157.436035,4158.461426,4165.128418,4191.282227,4178.974121,4158.461426,0.000000,4.000000,,,,0.000000,4.000000,4.000000,4.000000,4.000000,4.000000,4.000000,4.000000,4.000000,4.000000,4.000000,4.000000,4.000000,4.000000,4.000000,100.000000
1602005778.177804,51.000000,0.000000,4161.538574,4157.948730,4158.461426,4156.410156,4133.846191,4110.256348,4120.000000,4143.589844,4153.333496,4173.333496,4154.358887,4180.512695,4174.871582,4148.717773,0.000000,4.000000,,,,0.000000,4.000000,4.000000,4.000000,4.000000,4.000000,4.000000,4.000000,4.000000,4.000000,4.000000,4.000000,4.000000,4.000000,4.000000,100.000000
1602005778.185708,52.000000,0.000000,4146.666504,4144.102539,4143.077148,4141.538574,4125.641113,4112.820313,4125.128418,4133.846191,4153.333496,4154.871582,4138.461426,4170.769043,4162.051270,4122.563965,0.000000,4.000000,,,,0.000000,4.000000,4.000000,4.000000,4.000000,4.000000,4.000000,4.000000,4.000000,4.000000,4.000000,4.000000,4.000000,4.000000,4.000000,100.000000
1602005778.193613,53.000000,0.000000,4135.897461,4133.333496,4134.358887,4133.846191,4135.897461,4121.538574,4137.948730,4125.641113,4146.666504,4146.153809,4134.871582,4163.589844,4149.743652,4126.666504,0.000000,4.000000,,,,0.000000,4.000000,4.000000,4.000000,4.000000,4.000000,4.000000,4.000000,4.000000,4.000000,4.000000,4.000000,4.000000,4.000000,4.000000,100.000000
1602005778.201428,54.000000,0.000000,4136.410156,4128.717773,4135.384766,4130.256348,4141.025879,4136.922852,4149.743652,4131.282227,4136.922852,4143.589844,4138.461426,4155.897461,4143.077148,4137.948730,0.000000,4.000000,,,,0.000000,4.000000,4.000000,4.000000,4.000000,4.000000,4.000000,4.000000,4.000000,4.000000,4.000000,4.000000,4.000000,4.000000,4.000000,100.000000
1602005778.209343,55.000000,0.000000,4138.461426,4123.589844,4137.436035,4123.077148,4138.461426,4148.205078,4152.307617,4140.000000,4141.025879,4138.461426,4138.974121,4152.820313,4139.487305,4125.641113,0.000000,4.000000,,,,0.000000,4.000000,4.000000,4.000000,4.000000,4.000000,4.000000,4.000000,4.000000,4.000000,4.000000,4.000000,4.000000,4.000000,4.000000,100.000000
1602005778.217259,56.000000,0.000000,4131.794922,4119.487305,4131.794922,4118.461426,4140.000000,4143.077148,4140.000000,4134.871582,4143.589844,4138.974121,4136.922852,4153.333496,4136.410156,4110.769043,0.000000,4.000000,,,,0.000000,4.000000,4.000000,4.000000,4.000000,4.000000,4.000000,4.000000,4.000000,4.000000,4.000000,4.000000,4.000000,4.000000,4.000000,100.000000
1602005778.225174,57.000000,0.000000,4121.025879,4121.025879,4123.077148,4118.974121,4138.461426,4129.230957,4123.077148,4123.077148,4128.717773,4121.538574,4132.820313,4153.846191,4135.384766,4108.717773,0.000000,4.000000,,,,0.000000,4.000000,4.000000,4.000000,4.000000,4.000000,4.000000,4.000000,4.000000,4.000000,4.000000,4.000000,4.000000,4.000000,4.000000,100.000000
1602005778.233089,58.000000,0.000000,4119.487305,4126.666504,4124.615234,4122.563965,4134.871582,4123.589844,4120.512695,4122.563965,4119.487305,4100.512695,4126.666504,4152.307617,4137.948730,4110.256348,0.000000,4.000000,,,,0.000000,4.000000,4.000000,4.000000,4.000000,4.000000,4.000000,4.000000,4.000000,4.000000,4.000000,4.000000,4.000000,4.000000,4.000000,100.000000
1602005778.241004,59.000000,0.000000,4127.179688,4134.871582,4132.820313,4126.153809,4137.436035,4126.666504,4123.589844,4128.717773,4131.282227,4117.436035,4121.538574,4152.307617,4140.512695,4111.794922,0.000000,4.000000,,,,0.000000,4.000000,4.000000,4.000000,4.000000,4.000000,4.000000,4.000000,4.000000,4.000000,4.000000,4.000000,4.000000,4.000000,4.000000,100.000000
1602005778.248920,60.000000,0.000000,4131.794922,4140.000000,4136.410156,4126.666504,4140.512695,4131.282227,4121.025879,4128.717773,4136.922852,4129.743652,4125.128418,4157.436035,4138.461426,4119.487305,0.000000,4.000000,,,,0.000000,4.000000,4.000000,4.000000,4.000000,4.000000,4.000000,4.000000,4.000000,4.000000,4.000000,4.000000,4.000000,4.000000,4.000000,100.000000
1602005778.256835,61.000000,0.000000,4127.692383,4133.333496,4134.358887,4126.153809,4138.461426,4135.897461,4118.974121,4123.589844,4127.179688,4121.025879,4136.922852,4167.692383,4137.436035,4126.153809,0.000000,4.000000,,,,0.000000,4.000000,4.000000,4.000000,4.000000,4.000000,4.000000,4.000000,4.000000,4.000000,4.000000,4.000000,4.000000,4.000000,4.000000,100.000000
1602005778.264626,62.000000,0.000000,4122.051270,4124.615234,4136.922852,4126.153809,4135.897461,4137.436035,4121.025879,4124.102539,4124.615234,4127.179688,4143.077148,4170.769043,4138.974121,4125.641113,0.000000,4.000000,,,,0.000000,4.000000,4.000000,4.000000,4.000000,4.000000,4.000000,4.000000,4.000000,4.000000,4.000000,4.000000,4.000000,4.000000,4.000000,100.000000
1602005778.272517,63.000000,0.000000,4126.153809,4125.641113,4143.077148,4127.179688,4140.512695,4138.461426,4129.230957,4128.205078,4132.820313,4134.358887,4135.897461,4164.615234,4137.948730,4123.589844,0.000000,4.000000,,,,0.000000,4.000000,4.000000,4.000000,4.000000,4.000000,4.000000,4.000000,4.000000,4.000000,4.000000,4.000000,4.000000,4.000000,4.000000,100.000000
1602005778.280325,64.000000,0.000000,4133.846191,4129.230957,4145.128418,4126.153809,4141.025879,4144.102539,4137.436035,4127.692383,4135.897461,4126.666504,4127.692383,4159.487305,4138.974121,4126.666504,805.000000,4.000000,,,,0.000000,4.000000,4.000000,4.000000,4.000000,4.000000,4.000000,4.000000,4.000000,4.000000,4.000000,4.000000,4.000000,4.000000,4.000000,100.000000
1602005778.288233,65.000000,0.000000,4127.692383,4122.563965,4141.538574,4121.538574,4127.692383,4135.897461,4136.410156,4126.153809,4129.743652,4113.333496,4124.615234,4158.461426,4137.948730,4122.563965,800.000000,4.000000,,,,0.000000,4.000000,4.000000,4.000000,4.000000,4.000000,4.000000,4.000000,4.000000,4.000000,4.000000,4.000000,4.000000,4.000000,4.000000,100.000000
1602005778.296140,66.000000,0.000000,4121.025879,4116.922852,4137.436035,4118.461426,4118.974121,4120.512695,4135.897461,4130.769043,4125.641113,4109.230957,4121.025879,4163.077148,4130.256348,4109.743652,854.000000,4.000000,,,,0.000000,4.000000,4.000000,4.000000,4.000000,4.000000,4.000000,4.000000,4.000000,4.000000,4.000000,4.000000,4.000000,4.000000,4.000000,100.000000
1602005778.304048,67.000000,0.000000,4123.077148,4120.000000,4132.820313,4120.000000,4126.153809,4128.717773,4142.563965,4140.512695,4129.230957,4125.641113,4120.000000,4165.128418,4123.589844,4107.692383,866.000000,4.000000,,,,0.000000,4.000000,4.000000,4.000000,4.000000,4.000000,4.000000,4.000000,4.000000,4.000000,4.000000,4.000000,4.000000,4.000000,4.000000,100.000000
1602005778.311956,68.000000,0.000000,4117.948730,4118.974121,4124.615234,4120.512695,4128.205078,4142.051270,4144.102539,4143.589844,4137.948730,4138.974121,4124.102539,4159.487305,4123.589844,4107.692383,809.000000,4.000000,,,,0.000000,4.000000,4.000000,4.000000,4.000000,4.000000,4.000000,4.000000,4.000000,4.000000,4.000000,4.000000,4.000000,4.000000,4.000000,100.000000
1602005778.319864,69.000000,0.000000,4108.717773,4116.410156,4120.000000,4118.974121,4118.974121,4139.487305,4139.487305,4141.538574,4141.025879,4135.384766,4125.128418,4152.820313,4123.589844,4097.948730,826.000000,4.000000,,,,0.000000,4.000000,4.000000,4.000000,4.000000,4.000000,4.000000,4.000000,4.000000,4.000000,4.000000,4.000000,4.000000,4.000000,4.000000,100.000000
1602005778.327685,70.000000,0.000000,4108.205078,4118.461426,4123.077148,4118.974121,4118.974121,4132.307617,4139.487305,4141.538574,4138.461426,4133.846191,4122.563965,4146.666504,4121.025879,4096.922852,770.000000,4.000000,,,,0.000000,4.000000,4.000000,4.000000,4.000000,4.000000,4.000000,4.000000,4.000000,4.000000,4.000000,4.000000,4.000000,4.000000,4.000000,100.000000
1602005778.335606,71.000000,0.000000,4113.846191,4123.077148,4123.589844,4120.512695,4133.333496,4129.230957,4139.487305,4143.589844,4139.487305,4122.563965,4122.051270,4141.025879,4124.102539,4101.025879,709.000000,4.000000,,,,0.000000,4.000000,4.000000,4.000000,4.000000,4.000000,4.000000,4.000000,4.000000,4.000000,4.000000,4.000000,4.000000,4.000000,4.000000,100.000000
1602005778.343526,72.000000,0.000000,4113.333496,4124.102539,4115.897461,4121.538574,4138.974121,4132.307617,4136.922852,4140.512695,4135.897461,4096.922852,4117.436035,4138.461426,4122.051270,4094.358887,808.000000,4.000000,,,,0.000000,4.000000,4.000000,4.000000,4.000000,4.000000,4.000000,4.000000,4.000000,4.000000,4.000000,4.000000,4.000000,4.000000,4.000000,100.000000
1602005778.351447,73.000000,0.000000,4109.230957,4121.538574,4106.153809,4120.000000,4127.179688,4137.436035,4134.871582,4129.230957,4123.589844,4101.025879,4105.641113,4137.948730,4113.333496,4088.205078,840.000000,4.000000,,,,0.000000,4.000000,4.000000,4.000000,4.000000,4.000000,4.000000,4.000000,4.000000,4.000000,4.000000,4.000000,4.000000,4.000000,4.000000,100.000000
1602005778.359368,74.000000,0.000000,4114.358887,4118.974121,4109.230957,4118.461426,4120.512695,4137.436035,4133.846191,4126.666504,4121.025879,4130.769043,4109.230957,4136.410156,4114.871582,4090.256348,873.000000,4.000000,,,,0.000000,4.000000,4.000000,4.000000,4.000000,4.000000,4.000000,4.000000,4.000000,4.000000,4.000000,4.000000,4.000000,4.000000,4.000000,100.000000
1602005778.367289,75.000000,0.000000,4122.051270,4120.000000,4120.000000,4122.051270,4128.205078,4138.974121,4135.384766,4137.948730,4134.871582,4139.487305,4125.641113,4136.922852,4124.615234,4093.333252,843.000000,4.000000,,,,0.000000,4.000000,4.000000,4.000000,4.000000,4.000000,4.000000,4.000000,4.000000,4.000000,4.000000,4.000000,4.000000,4.000000,4.000000,100.000000
1602005778.375209,76.000000,0.000000,4123.589844,4122.051270,4125.128418,4124.615234,4126.666504,4142.051270,4137.948730,4143.589844,4142.051270,4138.461426,4125.641113,4141.025879,4128.717773,4095.384521,776.000000,4.000000,,,,0.000000,4.000000,4.000000,4.000000,4.000000,4.000000,4.000000,4.000000,4.000000,4.000000,4.000000,4.000000,4.000000,4.000000,4.000000,100.000000
1602005778.383130,77.000000,0.000000,4128.717773,4122.563965,4129.230957,4122.563965,4117.948730,4134.358887,4136.922852,4136.410156,4137.948730,4136.922852,4122.563965,4146.666504,4132.820313,4101.025879,769.000000,4.000000,,,,0.000000,4.000000,4.000000,4.000000,4.000000,4.000000,4.000000,4.000000,4.000000,4.000000,4.000000,4.000000,4.000000,4.000000,4.000000,100.000000
1602005778.391051,78.000000,0.000000,4141.025879,4131.282227,4139.487305,4125.641113,4128.205078,4134.358887,4136.922852,4133.846191,4145.641113,4125.641113,4136.410156,4152.820313,4141.538574,4115.897461,873.000000,4.000000,,,,0.000000,4.000000,4.000000,4.000000,4.000000,4.000000,4.000000,4.000000,4.000000,4.000000,4.000000,4.000000,4.000000,4.000000,4.000000,100.000000
1602005778.398857,79.000000,0.000000,4142.051270,4137.436035,4143.589844,4131.794922,4140.000000,4143.077148,4141.538574,4138.974121,4158.461426,4133.333496,4140.000000,4157.948730,4145.128418,4125.128418,843.000000,4.000000,,,,0.000000,4.000000,4.000000,4.000000,4.000000,4.000000,4.000000,4.000000,4.000000,4.000000,4.000000,4.000000,4.000000,4.000000,4.000000,100.000000
1602005778.406763,80.000000,0.000000,4135.384766,4129.230957,4135.897461,4128.205078,4134.871582,4133.846191,4141.025879,4133.333496,4144.102539,4150.256348,4126.666504,4153.333496,4136.922852,4111.282227,776.000000,4.000000,,,,0.000000,4.000000,4.000000,4.000000,4.000000,4.000000,4.000000,4.000000,4.000000,4.000000,4.000000,4.000000,4.000000,4.000000,4.000000,100.000000
1602005778.414670,81.000000,0.000000,4135.897461,4127.692383,4130.769043,4124.102539,4131.282227,4127.692383,4135.384766,4119.487305,4115.897461,4139.487305,4122.051270,4141.538574,4127.692383,4101.025879,769.000000,4.000000,,,,0.000000,4.000000,4.000000,4.000000,4.000000,4.000000,4.000000,4.000000,4.000000,4.000000,4.000000,4.000000,4.000000,4.000000,4.000000,100.000000
1602005778.422576,82.000000,0.000000,4138.974121,4136.922852,4135.384766,4131.794922,4137.948730,4138.974121,4137.948730,4116.922852,4106.153809,4123.589844,4125.128418,4141.538574,4126.153809,4109.230957,873.000000,4.000000,,,,0.000000,4.000000,4.000000,4.000000,4.000000,4.000000,4.000000,4.000000,4.000000,4.000000,4.000000,4.000000,4.000000,4.000000,4.000000,100.000000
1602005778.430482,83.000000,0.000000,4135.384766,4138.461426,4137.948730,4137.948730,4139.487305,4141.025879,4138.461426,4128.205078,4111.794922,4116.410156,4121.025879,4150.769043,4126.153809,4110.769043,843.000000,4.000000,,,,0.000000,4.000000,4.000000,4.000000,4.000000,4.000000,4.000000,4.000000,4.000000,4.000000,4.000000,4.000000,4.000000,4.000000,4.000000,100.000000
1602005778.438388,84.000000,0.000000,4134.871582,4134.871582,4134.871582,4134.871582,4132.307617,4136.410156,4127.692383,4135.897461,4123.589844,4095.897461,4121.025879,4154.871582,4122.563965,4104.102539,776.000000,4.000000,,,,0.000000,4.000000,4.000000,4.000000,4.000000,4.000000,4.000000,4.000000,4.000000,4.000000,4.000000,4.000000,4.000000,4.000000,4.000000,100.000000
1602005778.446196,85.000000,0.000000,4140.000000,4136.410156,4135.897461,4130.256348,4128.717773,4137.948730,4122.051270,4137.948730,4135.384766,4087.179443,4125.641113,4150.769043,4122.563965,4105.641113,769.000000,4.000000,,,,0.000000,4.000000,4.000000,4.000000,4.000000,4.000000,4.000000,4.000000,4.000000,4.000000,4.000000,4.000000,4.000000,4.000000,4.000000,100.000000
1602005778.454104,86.000000,0.000000,4133.846191,4130.256348,4136.410156,4125.641113,4125.128418,4131.282227,4126.153809,4135.897461,4138.461426,4113.333496,4120.512695,4143.077148,4123.077148,4109.743652,873.000000,4.000000,,,,0.000000,4.000000,4.000000,4.000000,4.000000,4.000000,4.000000,4.000000,4.000000,4.000000,4.000000,4.000000,4.000000,4.000000,4.000000,100.000000
1602005778.462012,87.000000,0.000000,4121.025879,4121.025879,4127.179688,4122.051270,4120.000000,4118.461426,4123.589844,4131.282227,4138.461426,4130.256348,4113.333496,4134.358887,4120.512695,4109.230957,843.000000,4.000000,,,,0.000000,4.000000,4.000000,4.000000,4.000000,4.000000,4.000000,4.000000,4.000000,4.000000,4.000000,4.000000,4.000000,4.000000,4.000000,100.000000
1602005778.469920,88.000000,0.000000,4125.641113,4128.205078,4123.077148,4125.641113,4126.153809,4124.102539,4127.692383,4128.717773,4141.025879,4122.051270,4116.410156,4133.333496,4121.025879,4106.666504,776.000000,4.000000,,,,0.000000,4.000000,4.000000,4.000000,4.000000,4.000000,4.000000,4.000000,4.000000,4.000000,4.000000,4.000000,4.000000,4.000000,4.000000,100.000000
1602005778.477828,89.000000,0.000000,4138.461426,4135.384766,4124.102539,4129.230957,4135.897461,4130.256348,4137.436035,4125.641113,4138.974121,4123.589844,4124.102539,4136.410156,4122.051270,4104.615234,769.000000,4.000000,,,,0.000000,4.000000,4.000000,4.000000,4.000000,4.000000,4.000000,4.000000,4.000000,4.000000,4.000000,4.000000,4.000000,4.000000,4.000000,100.000000
1602005778.485735,90.000000,0.000000,4136.410156,4129.230957,4121.538574,4127.179688,4133.333496,4127.692383,4133.846191,4123.077148,4135.897461,4141.025879,4125.641113,4135.897461,4127.692383,4111.794922,873.000000,4.000000,,,,0.000000,4.000000,4.000000,4.000000,4.000000,4.000000,4.000000,4.000000,4.000000,4.000000,4.000000,4.000000,4.000000,4.000000,4.000000,100.000000
1602005778.493542,91.000000,0.000000,4127.179688,4124.615234,4123.077148,4127.179688,4131.282227,4133.333496,4128.205078,4124.615234,4132.307617,4132.820313,4127.692383,4140.000000,4133.846191,4117.948730,843.000000,4.000000,,,,0.000000,4.000000,4.000000,4.000000,4.000000,4.000000,4.000000,4.000000,4.000000,4.000000,4.000000,4.000000,4.000000,4.000000,4.000000,100.000000
1602005778.501448,92.000000,0.000000,4126.666504,4126.666504,4127.179688,4127.179688,4133.846191,4140.512695,4135.384766,4126.153809,4123.589844,4104.102539,4128.205078,4137.948730,4128.205078,4109.743652,776.000000,4.000000,,,,0.000000,4.000000,4.000000,4.000000,4.000000,4.000000,4.000000,4.000000,4.000000,4.000000,4.000000,4.000000,4.000000,4.000000,4.000000,100.000000
1602005778.509354,93.000000,0.000000,4126.666504,4125.128418,4124.615234,4124.102539,4131.282227,4140.000000,4138.974121,4125.641113,4120.000000,4107.179688,4118.461426,4125.641113,4120.000000,4097.948730,769.000000,4.000000,,,,0.000000,4.000000,4.000000,4.000000,4.000000,4.000000,4.000000,4.000000,4.000000,4.000000,4.000000,4.000000,4.000000,4.000000,4.000000,100.000000
1602005778.517260,94.000000,0.000000,4119.487305,4120.512695,4120.512695,4123.077148,4126.666504,4137.948730,4134.871582,4128.717773,4117.436035,4124.102539,4106.153809,4119.487305,4113.333496,4093.333252,873.000000,4.000000,,,,0.000000,4.000000,4.000000,4.000000,4.000000,4.000000,4.000000,4.000000,4.000000,4.000000,4.000000,4.000000,4.000000,4.000000,4.000000,100.000000
1602005778.525167,95.000000,0.000000,4114.358887,4119.487305,4118.461426,4121.538574,4121.025879,4131.794922,4134.871582,4126.666504,4107.179688,4110.256348,4103.077148,4118.974121,4106.153809,4092.820557,843.000000,4.000000,,,,0.000000,4.000000,4.000000,4.000000,4.000000,4.000000,4.000000,4.000000,4.000000,4.000000,4.000000,4.000000,4.000000,4.000000,4.000000,100.000000
1602005778.533073,96.000000,0.000000,4119.487305,4125.128418,4119.487305,4123.077148,4126.153809,4127.692383,4135.384766,4121.538574,4111.282227,4096.410156,4113.333496,4121.538574,4109.743652,4100.512695,776.000000,4.000000,,,,0.000000,4.000000,4.000000,4.000000,4.000000,4.000000,4.000000,4.000000,4.000000,4.000000,4.000000,4.000000,4.000000,4.000000,4.000000,100.000000
1602005778.540867,97.000000,0.000000,4123.077148,4135.897461,4126.153809,4130.256348,4137.436035,4130.256348,4130.256348,4129.743652,4125.641113,4111.794922,4130.769043,4132.820313,4123.077148,4117.436035,769.000000,4.000000,,,,0.000000,4.000000,4.000000,4.000000,4.000000,4.000000,4.000000,4.000000,4.000000,4.000000,4.000000,4.000000,4.000000,4.000000,4.000000,100.000000
1602005778.548760,98.000000,0.000000,4126.666504,4138.461426,4134.358887,4135.897461,4130.769043,4127.692383,4126.153809,4135.384766,4125.128418,4129.230957,4138.461426,4143.077148,4131.794922,4125.128418,873.000000,4.000000,,,,0.000000,4.000000,4.000000,4.000000,4.000000,4.000000,4.000000,4.000000,4.000000,4.000000,4.000000,4.000000,4.000000,4.000000,4.000000,100.000000
1602005778.556654,99.000000,0.000000,4136.922852,4138.461426,4139.487305,4137.948730,4125.641113,4127.179688,4122.563965,4127.692383,4122.563965,4127.692383,4136.410156,4138.974121,4135.897461,4121.538574,843.000000,4.000000,,,,0.000000,4.000000,4.000000,4.000000,4.000000,4.000000,4.000000,4.000000,4.000000,4.000000,4.000000,4.000000,4.000000,4.000000,4.000000,100.000000
1602005778.564438,100.000000,0.000000,4141.025879,4141.538574,4141.025879,4136.922852,4136.922852,4133.846191,4121.538574,4121.538574,4125.641113,4126.666504,4138.974121,4136.922852,4140.000000,4123.589844,776.000000,4.000000,,,,0.000000,4.000000,4.000000,4.000000,4.000000,4.000000,4.000000,4.000000,4.000000,4.000000,4.000000,4.000000,4.000000,4.000000,4.000000,100.000000
1602005778.572257,101.000000,0.000000,4137.948730,4141.538574,4140.000000,4133.846191,4135.384766,4132.307617,4121.025879,4121.538574,4120.000000,4137.436035,4139.487305,4142.563965,4140.000000,4126.666504,769.000000,4.000000,,,,0.000000,4.000000,4.000000,4.000000,4.000000,4.000000,4.000000,4.000000,4.000000,4.000000,4.000000,4.000000,4.000000,4.000000,4.000000,100.000000
1602005778.580175,102.000000,0.000000,4138.461426,4139.487305,4134.358887,4129.230957,4125.641113,4124.102539,4120.512695,4120.512695,4111.794922,4141.538574,4125.128418,4136.922852,4135.384766,4120.512695,873.000000,4.000000,,,,0.000000,4.000000,4.000000,4.000000,4.000000,4.000000,4.000000,4.000000,4.000000,4.000000,4.000000,4.000000,4.000000,4.000000,4.000000,100.000000
1602005778.588094,103.000000,0.000000,4134.358887,4133.333496,4125.641113,4125.641113,4126.666504,4125.641113,4123.589844,4121.538574,4112.820313,4113.846191,4117.948730,4121.538574,4126.153809,4109.743652,843.000000,4.000000,,,,0.000000,4.000000,4.000000,4.000000,4.000000,4.000000,4.000000,4.000000,4.000000,4.000000,4.000000,4.000000,4.000000,4.000000,4.000000,100.000000
1602005778.596013,104.000000,0.000000,4123.077148,4123.077148,4121.025879,4122.563965,4125.641113,4127.692383,4132.307617,4123.589844,4109.743652,4082.051270,4123.077148,4117.436035,4119.487305,4100.000000,776.000000,4.000000,,,,0.000000,4.000000,4.000000,4.000000,4.000000,4.000000,4.000000,4.000000,4.000000,4.000000,4.000000,4.000000,4.000000,4.000000,4.000000,100.000000
1602005778.603931,105.000000,0.000000,4121.025879,4120.512695,4126.666504,4122.051270,4123.589844,4126.666504,4138.461426,4122.563965,4106.153809,4090.256348,4123.077148,4124.102539,4121.025879,4107.692383,769.000000,4.000000,,,,0.000000,4.000000,4.000000,4.000000,4.000000,4.000000,4.000000,4.000000,4.000000,4.000000,4.000000,4.000000,4.000000,4.000000,4.000000,100.000000
1602005778.611850,106.000000,0.000000,4123.077148,4123.589844,4128.205078,4121.538574,4123.077148,4128.205078,4137.948730,4128.717773,4112.307617,4114.358887,4119.487305,4118.461426,4120.512695,4121.538574,873.000000,4.000000,,,,0.000000,4.000000,4.000000,4.000000,4.000000,4.000000,4.000000,4.000000,4.000000,4.000000,4.000000,4.000000,4.000000,4.000000,4.000000,100.000000
1602005778.619768,107.000000,0.000000,4122.051270,4122.051270,4120.512695,4117.948730,4116.410156,4131.282227,4136.410156,4135.897461,4117.436035,4108.205078,4121.025879,4109.743652,4118.461426,4114.358887,843.000000,4.000000,,,,0.000000,4.000000,4.000000,4.000000,4.000000,4.000000,4.000000,4.000000,4.000000,4.000000,4.000000,4.000000,4.000000,4.000000,4.000000,100.000000
