Timestamp,EEG.Counter,EEG.Interpolated,EEG.AF3,EEG.F7,EEG.F3,EEG.FC5,EEG.T7,EEG.P7,EEG.O1,EEG.O2,EEG.P8,EEG.T8,EEG.FC6,EEG.F4,EEG.F8,EEG.AF4,EEG.RawCq,EEG.Battery,MarkerIndex,MarkerType,MarkerValueInt,EEG.MarkerHardware,CQ.AF3,CQ.F7,CQ.F3,CQ.FC5,CQ.T7,CQ.P7,CQ.O1,CQ.O2,CQ.P8,CQ.T8,CQ.FC6,CQ.F4,CQ.F8,CQ.AF4,CQ.Overall
1602005795.166312,12.000000,0.000000,4138.461426,4140.000000,4139.487305,4141.025879,4137.948730,4110.769043,4122.563965,4135.384766,4130.769043,4163.077148,4150.256348,4152.820313,4161.538574,4155.897461,776.000000,4.000000,,,,0.000000,4.000000,4.000000,4.000000,4.000000,4.000000,4.000000,4.000000,4.000000,4.000000,4.000000,4.000000,4.000000,4.000000,4.000000,100.000000
1602005795.174108,13.000000,0.000000,4135.384766,4136.922852,4142.051270,4137.948730,4134.871582,4110.769043,4118.461426,4137.436035,4138.461426,4169.743652,4141.025879,4155.384766,4158.461426,4150.769043,752.000000,4.000000,,,,0.000000,4.000000,4.000000,4.000000,4.000000,4.000000,4.000000,4.000000,4.000000,4.000000,4.000000,4.000000,4.000000,4.000000,4.000000,100.000000
1602005795.182005,14.000000,0.000000,4141.538574,4136.410156,4145.128418,4138.974121,4136.410156,4110.256348,4114.358887,4135.897461,4133.846191,4168.717773,4142.563965,4154.358887,4151.794922,4137.948730,879.000000,4.000000,,,,0.000000,4.000000,4.000000,4.000000,4.000000,4.000000,4.000000,4.000000,4.000000,4.000000,4.000000,4.000000,4.000000,4.000000,4.000000,100.000000
1602005795.189901,15.000000,0.000000,4134.871582,4129.743652,4137.436035,4135.897461,4136.922852,4110.256348,4110.256348,4131.282227,4113.846191,4146.666504,4141.538574,4140.512695,4142.051270,4133.846191,842.000000,4.000000,,,,0.000000,4.000000,4.000000,4.000000,4.000000,4.000000,4.000000,4.000000,4.000000,4.000000,4.000000,4.000000,4.000000,4.000000,4.000000,100.000000
1602005795.197797,16.000000,0.000000,4120.512695,4120.000000,4130.256348,4132.307617,4135.384766,4113.846191,4109.230957,4126.153809,4107.179688,4125.128418,4136.922852,4132.307617,4136.922852,4136.410156,0.000000,4.000000,,,,0.000000,4.000000,4.000000,4.000000,4.000000,4.000000,4.000000,4.000000,4.000000,4.000000,4.000000,4.000000,4.000000,4.000000,4.000000,100.000000
1602005795.205693,17.000000,0.000000,4116.922852,4122.563965,4134.358887,4135.897461,4137.948730,4112.820313,4107.179688,4122.563965,4118.974121,4131.794922,4136.410156,4136.922852,4137.436035,4137.436035,0.000000,4.000000,,,,0.000000,4.000000,4.000000,4.000000,4.000000,4.000000,4.000000,4.000000,4.000000,4.000000,4.000000,4.000000,4.000000,4.000000,4.000000,100.000000
1602005795.213589,18.000000,0.000000,4123.077148,4134.358887,4140.512695,4141.025879,4139.487305,4106.666504,4107.692383,4122.563965,4127.179688,4142.051270,4140.000000,4141.538574,4139.487305,4138.974121,0.000000,4.000000,,,,0.000000,4.000000,4.000000,4.000000,4.000000,4.000000,4.000000,4.000000,4.000000,4.000000,4.000000,4.000000,4.000000,4.000000,4.000000,100.000000
1602005795.221485,19.000000,0.000000,4128.205078,4136.922852,4137.948730,4138.974121,4136.410156,4102.051270,4109.230957,4122.051270,4122.563965,4137.436035,4138.461426,4143.589844,4140.512695,4142.563965,0.000000,4.000000,,,,0.000000,4.000000,4.000000,4.000000,4.000000,4.000000,4.000000,4.000000,4.000000,4.000000,4.000000,4.000000,4.000000,4.000000,4.000000,100.000000
1602005795.229382,20.000000,0.000000,4133.333496,4134.871582,4141.025879,4136.410156,4134.871582,4105.128418,4109.230957,4120.000000,4116.922852,4142.051270,4140.000000,4150.769043,4143.077148,4147.692383,0.000000,4.000000,,,,0.000000,4.000000,4.000000,4.000000,4.000000,4.000000,4.000000,4.000000,4.000000,4.000000,4.000000,4.000000,4.000000,4.000000,4.000000,100.000000
1602005795.237174,21.000000,0.000000,4135.897461,4135.384766,4148.717773,4137.436035,4136.410156,4112.307617,4115.897461,4120.000000,4122.051270,4154.871582,4142.051270,4156.922852,4148.717773,4154.358887,0.000000,4.000000,,,,0.000000,4.000000,4.000000,4.000000,4.000000,4.000000,4.000000,4.000000,4.000000,4.000000,4.000000,4.000000,4.000000,4.000000,4.000000,100.000000
1602005795.245067,22.000000,0.000000,4136.922852,4133.846191,4145.641113,4141.025879,4138.974121,4113.333496,4125.128418,4121.025879,4123.077148,4155.897461,4135.897461,4152.307617,4146.666504,4155.897461,0.000000,4.000000,,,,0.000000,4.000000,4.000000,4.000000,4.000000,4.000000,4.000000,4.000000,4.000000,4.000000,4.000000,4.000000,4.000000,4.000000,4.000000,100.000000
1602005795.252960,23.000000,0.000000,4142.563965,4127.179688,4137.948730,4136.922852,4132.307617,4110.769043,4126.153809,4122.051270,4112.307617,4140.512695,4134.358887,4144.102539,4138.461426,4155.384766,0.000000,4.000000,,,,0.000000,4.000000,4.000000,4.000000,4.000000,4.000000,4.000000,4.000000,4.000000,4.000000,4.000000,4.000000,4.000000,4.000000,4.000000,100.000000
1602005795.260852,24.000000,0.000000,4132.307617,4111.794922,4138.974121,4124.615234,4125.128418,4118.461426,4125.641113,4125.641113,4106.153809,4125.641113,4138.974121,4142.563965,4138.974121,4152.307617,0.000000,4.000000,,,,0.000000,4.000000,4.000000,4.000000,4.000000,4.000000,4.000000,4.000000,4.000000,4.000000,4.000000,4.000000,4.000000,4.000000,4.000000,100.000000
1602005795.268745,25.000000,0.000000,4120.000000,4110.769043,4142.051270,4125.641113,4130.769043,4129.230957,4129.230957,4128.717773,4115.384766,4136.410156,4143.589844,4142.563965,4144.102539,4144.102539,0.000000,4.000000,,,,0.000000,4.000000,4.000000,4.000000,4.000000,4.000000,4.000000,4.000000,4.000000,4.000000,4.000000,4.000000,4.000000,4.000000,4.000000,100.000000
1602005795.276637,26.000000,0.000000,4133.333496,4133.846191,4137.436035,4137.948730,4136.922852,4125.641113,4128.205078,4125.641113,4125.128418,4144.615234,4137.948730,4137.948730,4137.436035,4136.410156,0.000000,4.000000,,,,0.000000,4.000000,4.000000,4.000000,4.000000,4.000000,4.000000,4.000000,4.000000,4.000000,4.000000,4.000000,4.000000,4.000000,4.000000,100.000000
1602005795.284428,27.000000,0.000000,4158.461426,4154.358887,4136.410156,4145.128418,4136.410156,4124.102539,4125.128418,4122.051270,4123.589844,4123.077148,4126.153809,4134.871582,4127.179688,4130.256348,0.000000,4.000000,,,,0.000000,4.000000,4.000000,4.000000,4.000000,4.000000,4.000000,4.000000,4.000000,4.000000,4.000000,4.000000,4.000000,4.000000,4.000000,100.000000
1602005795.292318,28.000000,0.000000,4171.282227,4162.051270,4141.025879,4150.256348,4138.974121,4129.743652,4127.692383,4124.102539,4123.589844,4119.487305,4121.538574,4130.769043,4117.948730,4119.487305,0.000000,4.000000,,,,0.000000,4.000000,4.000000,4.000000,4.000000,4.000000,4.000000,4.000000,4.000000,4.000000,4.000000,4.000000,4.000000,4.000000,4.000000,100.000000
1602005795.300208,29.000000,0.000000,4167.692383,4168.205078,4135.897461,4154.358887,4139.487305,4125.128418,4129.230957,4123.589844,4126.666504,4150.256348,4120.512695,4116.922852,4103.077148,4108.205078,0.000000,4.000000,,,,0.000000,4.000000,4.000000,4.000000,4.000000,4.000000,4.000000,4.000000,4.000000,4.000000,4.000000,4.000000,4.000000,4.000000,4.000000,100.000000
1602005795.308098,30.000000,0.000000,4162.051270,4172.307617,4125.128418,4152.820313,4135.384766,4119.487305,4125.128418,4122.051270,4117.948730,4151.282227,4110.256348,4106.666504,4089.230713,4104.102539,0.000000,4.000000,,,,0.000000,4.000000,4.000000,4.000000,4.000000,4.000000,4.000000,4.000000,4.000000,4.000000,4.000000,4.000000,4.000000,4.000000,4.000000,100.000000
1602005795.315989,31.000000,0.000000,4166.666504,4169.743652,4123.077148,4152.307617,4140.512695,4123.589844,4121.538574,4121.538574,4105.641113,4117.436035,4092.307617,4108.717773,4084.615479,4104.615234,0.000000,4.000000,,,,0.000000,4.000000,4.000000,4.000000,4.000000,4.000000,4.000000,4.000000,4.000000,4.000000,4.000000,4.000000,4.000000,4.000000,4.000000,100.000000
1602005795.323787,32.000000,0.000000,4168.205078,4169.230957,4125.641113,4154.358887,4146.666504,4125.128418,4122.051270,4114.871582,4103.589844,4108.205078,4093.333252,4107.692383,4086.153809,4101.538574,0.000000,4.000000,,,,0.000000,4.000000,4.000000,4.000000,4.000000,4.000000,4.000000,4.000000,4.000000,4.000000,4.000000,4.000000,4.000000,4.000000,4.000000,100.000000
1602005795.331685,33.000000,0.000000,4158.461426,4169.230957,4125.128418,4152.820313,4141.025879,4122.051270,4121.538574,4106.666504,4108.717773,4108.205078,4106.666504,4103.077148,4086.666748,4100.000000,0.000000,4.000000,,,,0.000000,4.000000,4.000000,4.000000,4.000000,4.000000,4.000000,4.000000,4.000000,4.000000,4.000000,4.000000,4.000000,4.000000,4.000000,100.000000
1602005795.339584,34.000000,0.000000,4157.948730,4168.717773,4129.230957,4154.358887,4138.974121,4120.000000,4120.000000,4110.256348,4111.282227,4092.820557,4110.769043,4107.692383,4089.743652,4100.000000,0.000000,4.000000,,,,0.000000,4.000000,4.000000,4.000000,4.000000,4.000000,4.000000,4.000000,4.000000,4.000000,4.000000,4.000000,4.000000,4.000000,4.000000,100.000000
1602005795.347482,35.000000,0.000000,4164.102539,4166.666504,4138.461426,4154.871582,4142.563965,4116.922852,4118.974121,4113.333496,4107.692383,4103.077148,4107.692383,4116.410156,4092.820557,4098.974121,0.000000,4.000000,,,,0.000000,4.000000,4.000000,4.000000,4.000000,4.000000,4.000000,4.000000,4.000000,4.000000,4.000000,4.000000,4.000000,4.000000,4.000000,100.000000
1602005795.355380,36.000000,0.000000,4156.922852,4158.974121,4142.051270,4151.282227,4140.512695,4117.948730,4118.974121,4111.794922,4106.666504,4135.384766,4108.205078,4114.871582,4090.769287,4098.461426,0.000000,4.000000,,,,0.000000,4.000000,4.000000,4.000000,4.000000,4.000000,4.000000,4.000000,4.000000,4.000000,4.000000,4.000000,4.000000,4.000000,4.000000,100.000000
1602005795.363279,37.000000,0.000000,4153.846191,4155.897461,4140.512695,4152.307617,4140.000000,4124.102539,4122.563965,4112.307617,4109.743652,4138.461426,4113.846191,4116.410156,4090.256348,4106.153809,0.000000,4.000000,,,,0.000000,4.000000,4.000000,4.000000,4.000000,4.000000,4.000000,4.000000,4.000000,4.000000,4.000000,4.000000,4.000000,4.000000,4.000000,100.000000
1602005795.371177,38.000000,0.000000,4156.410156,4159.487305,4140.512695,4154.871582,4146.153809,4125.128418,4125.128418,4113.846191,4110.769043,4121.025879,4114.871582,4125.128418,4094.358887,4112.820313,0.000000,4.000000,,,,0.000000,4.000000,4.000000,4.000000,4.000000,4.000000,4.000000,4.000000,4.000000,4.000000,4.000000,4.000000,4.000000,4.000000,4.000000,100.000000
1602005795.379075,39.000000,0.000000,4156.410156,4164.615234,4138.974121,4152.307617,4147.692383,4121.025879,4122.563965,4110.769043,4105.641113,4124.102539,4107.179688,4125.641113,4093.333252,4110.256348,0.000000,4.000000,,,,0.000000,4.000000,4.000000,4.000000,4.000000,4.000000,4.000000,4.000000,4.000000,4.000000,4.000000,4.000000,4.000000,4.000000,4.000000,100.000000
1602005795.386974,40.000000,0.000000,4154.358887,4168.205078,4131.794922,4151.794922,4142.563965,4123.077148,4124.615234,4110.769043,4100.512695,4121.538574,4102.051270,4121.025879,4089.743652,4105.641113,0.000000,4.000000,,,,0.000000,4.000000,4.000000,4.000000,4.000000,4.000000,4.000000,4.000000,4.000000,4.000000,4.000000,4.000000,4.000000,4.000000,4.000000,100.000000
1602005795.394771,41.000000,0.000000,4145.641113,4165.641113,4126.153809,4149.743652,4140.000000,4126.153809,4130.256348,4117.948730,4101.025879,4103.077148,4105.128418,4121.025879,4094.358887,4105.641113,0.000000,4.000000,,,,0.000000,4.000000,4.000000,4.000000,4.000000,4.000000,4.000000,4.000000,4.000000,4.000000,4.000000,4.000000,4.000000,4.000000,4.000000,100.000000
1602005795.402669,42.000000,0.000000,4135.384766,4156.922852,4124.102539,4143.077148,4136.922852,4123.077148,4126.153809,4121.538574,4108.717773,4108.205078,4108.717773,4121.538574,4095.897461,4105.641113,0.000000,4.000000,,,,0.000000,4.000000,4.000000,4.000000,4.000000,4.000000,4.000000,4.000000,4.000000,4.000000,4.000000,4.000000,4.000000,4.000000,4.000000,100.000000
1602005795.410567,43.000000,0.000000,4141.538574,4151.794922,4121.025879,4141.025879,4133.333496,4122.051270,4117.948730,4121.025879,4120.000000,4122.563965,4113.846191,4123.589844,4094.358887,4103.589844,0.000000,4.000000,,,,0.000000,4.000000,4.000000,4.000000,4.000000,4.000000,4.000000,4.000000,4.000000,4.000000,4.000000,4.000000,4.000000,4.000000,4.000000,100.000000
1602005795.418464,44.000000,0.000000,4153.846191,4154.358887,4127.179688,4144.102539,4132.307617,4122.563965,4120.512695,4129.743652,4128.717773,4125.641113,4117.948730,4127.692383,4100.512695,4107.692383,0.000000,4.000000,,,,0.000000,4.000000,4.000000,4.000000,4.000000,4.000000,4.000000,4.000000,4.000000,4.000000,4.000000,4.000000,4.000000,4.000000,4.000000,100.000000
1602005795.426362,45.000000,0.000000,4152.820313,4156.922852,4139.487305,4146.153809,4129.743652,4120.512695,4127.692383,4138.461426,4136.922852,4125.128418,4117.948730,4132.307617,4109.230957,4118.974121,0.000000,4.000000,,,,0.000000,4.000000,4.000000,4.000000,4.000000,4.000000,4.000000,4.000000,4.000000,4.000000,4.000000,4.000000,4.000000,4.000000,4.000000,100.000000
1602005795.434259,46.000000,0.000000,4151.282227,4153.846191,4135.384766,4148.717773,4132.820313,4126.153809,4128.205078,4132.307617,4139.487305,4120.512695,4121.538574,4132.307617,4111.794922,4124.102539,0.000000,4.000000,,,,0.000000,4.000000,4.000000,4.000000,4.000000,4.000000,4.000000,4.000000,4.000000,4.000000,4.000000,4.000000,4.000000,4.000000,4.000000,100.000000
1602005795.442157,47.000000,0.000000,4157.436035,4155.897461,4126.153809,4153.333496,4142.563965,4136.922852,4125.128418,4123.589844,4132.307617,4117.948730,4127.179688,4125.641113,4111.794922,4120.512695,0.000000,4.000000,,,,0.000000,4.000000,4.000000,4.000000,4.000000,4.000000,4.000000,4.000000,4.000000,4.000000,4.000000,4.000000,4.000000,4.000000,4.000000,100.000000
1602005795.450055,48.000000,0.000000,4155.897461,4154.358887,4132.307617,4146.666504,4144.615234,4134.358887,4128.717773,4125.641113,4129.743652,4131.794922,4127.179688,4120.512695,4111.794922,4108.717773,0.000000,4.000000,,,,0.000000,4.000000,4.000000,4.000000,4.000000,4.000000,4.000000,4.000000,4.000000,4.000000,4.000000,4.000000,4.000000,4.000000,4.000000,100.000000
1602005795.457849,49.000000,0.000000,4149.230957,4149.743652,4139.487305,4140.000000,4143.077148,4121.538574,4136.410156,4127.179688,4126.153809,4146.666504,4123.589844,4121.538574,4110.769043,4104.102539,0.000000,4.000000,,,,0.000000,4.000000,4.000000,4.000000,4.000000,4.000000,4.000000,4.000000,4.000000,4.000000,4.000000,4.000000,4.000000,4.000000,4.000000,100.000000
1602005795.465744,50.000000,0.000000,4154.871582,4161.538574,4140.000000,4149.743652,4151.282227,4120.512695,4133.333496,4121.538574,4111.794922,4143.077148,4116.410156,4122.563965,4106.153809,4111.794922,0.000000,4.000000,,,,0.000000,4.000000,4.000000,4.000000,4.000000,4.000000,4.000000,4.000000,4.000000,4.000000,4.000000,4.000000,4.000000,4.000000,4.000000,100.000000
1602005795.473638,51.000000,0.000000,4158.974121,4175.384766,4138.461426,4157.436035,4156.922852,4132.307617,4126.666504,4113.846191,4102.051270,4129.743652,4107.692383,4115.897461,4093.846191,4105.641113,0.000000,4.000000,,,,0.000000,4.000000,4.000000,4.000000,4.000000,4.000000,4.000000,4.000000,4.000000,4.000000,4.000000,4.000000,4.000000,4.000000,4.000000,100.000000
1602005795.481533,52.000000,0.000000,4152.307617,4166.153809,4134.358887,4152.820313,4150.769043,4138.974121,4130.769043,4114.358887,4111.794922,4119.487305,4105.128418,4109.230957,4084.102539,4088.205078,0.000000,4.000000,,,,0.000000,4.000000,4.000000,4.000000,4.000000,4.000000,4.000000,4.000000,4.000000,4.000000,4.000000,4.000000,4.000000,4.000000,4.000000,100.000000
1602005795.489427,53.000000,0.000000,4150.769043,4153.333496,4131.282227,4148.717773,4149.230957,4135.897461,4132.820313,4122.563965,4124.615234,4115.897461,4104.615234,4104.102539,4082.564209,4083.589844,0.000000,4.000000,,,,0.000000,4.000000,4.000000,4.000000,4.000000,4.000000,4.000000,4.000000,4.000000,4.000000,4.000000,4.000000,4.000000,4.000000,4.000000,100.000000
1602005795.497322,54.000000,0.000000,4156.410156,4163.077148,4134.358887,4152.820313,4153.846191,4134.358887,4127.179688,4125.641113,4121.025879,4104.615234,4103.077148,4103.077148,4080.512939,4089.743652,0.000000,4.000000,,,,0.000000,4.000000,4.000000,4.000000,4.000000,4.000000,4.000000,4.000000,4.000000,4.000000,4.000000,4.000000,4.000000,4.000000,4.000000,100.000000
1602005795.505216,55.000000,0.000000,4158.974121,4171.282227,4137.436035,4155.897461,4155.384766,4139.487305,4125.641113,4122.051270,4116.410156,4092.307617,4107.179688,4111.282227,4082.564209,4097.948730,0.000000,4.000000,,,,0.000000,4.000000,4.000000,4.000000,4.000000,4.000000,4.000000,4.000000,4.000000,4.000000,4.000000,4.000000,4.000000,4.000000,4.000000,100.000000
1602005795.513015,56.000000,0.000000,4163.077148,4172.307617,4144.102539,4157.436035,4159.487305,4137.436035,4126.153809,4123.077148,4130.769043,4113.333496,4118.461426,4121.538574,4096.410156,4104.615234,0.000000,4.000000,,,,0.000000,4.000000,4.000000,4.000000,4.000000,4.000000,4.000000,4.000000,4.000000,4.000000,4.000000,4.000000,4.000000,4.000000,4.000000,100.000000
1602005795.520913,57.000000,0.000000,4172.307617,4178.974121,4153.333496,4159.487305,4160.000000,4127.179688,4123.589844,4130.769043,4145.128418,4149.230957,4125.128418,4125.128418,4110.256348,4110.769043,0.000000,4.000000,,,,0.000000,4.000000,4.000000,4.000000,4.000000,4.000000,4.000000,4.000000,4.000000,4.000000,4.000000,4.000000,4.000000,4.000000,4.000000,100.000000
1602005795.528812,58.000000,0.000000,4178.974121,4181.025879,4154.358887,4166.666504,4145.641113,4119.487305,4124.102539,4135.897461,4141.538574,4154.871582,4122.051270,4127.179688,4110.769043,4119.487305,0.000000,4.000000,,,,0.000000,4.000000,4.000000,4.000000,4.000000,4.000000,4.000000,4.000000,4.000000,4.000000,4.000000,4.000000,4.000000,4.000000,4.000000,100.000000
1602005795.536710,59.000000,0.000000,4176.922852,4174.358887,4153.333496,4168.205078,4134.871582,4113.846191,4124.102539,4136.410156,4141.538574,4136.410156,4120.512695,4130.769043,4107.692383,4126.666504,0.000000,4.000000,,,,0.000000,4.000000,4.000000,4.000000,4.000000,4.000000,4.000000,4.000000,4.000000,4.000000,4.000000,4.000000,4.000000,4.000000,4.000000,100.000000
1602005795.544608,60.000000,0.000000,4166.153809,4170.256348,4152.307617,4156.922852,4138.974121,4107.692383,4124.102539,4138.461426,4154.358887,4124.102539,4124.102539,4125.128418,4105.641113,4125.641113,0.000000,4.000000,,,,0.000000,4.000000,4.000000,4.000000,4.000000,4.000000,4.000000,4.000000,4.000000,4.000000,4.000000,4.000000,4.000000,4.000000,4.000000,100.000000
1602005795.552506,61.000000,0.000000,4156.410156,4169.230957,4145.641113,4152.820313,4142.051270,4106.153809,4127.179688,4143.589844,4155.384766,4123.589844,4117.436035,4117.948730,4101.025879,4121.538574,0.000000,4.000000,,,,0.000000,4.000000,4.000000,4.000000,4.000000,4.000000,4.000000,4.000000,4.000000,4.000000,4.000000,4.000000,4.000000,4.000000,4.000000,100.000000
1602005795.560405,62.000000,0.000000,4154.358887,4158.974121,4140.512695,4152.820313,4137.948730,4112.820313,4129.230957,4136.922852,4138.461426,4118.461426,4107.179688,4113.333496,4092.307617,4113.846191,0.000000,4.000000,,,,0.000000,4.000000,4.000000,4.000000,4.000000,4.000000,4.000000,4.000000,4.000000,4.000000,4.000000,4.000000,4.000000,4.000000,4.000000,100.000000
1602005795.568303,63.000000,0.000000,4148.205078,4143.589844,4136.410156,4140.000000,4135.384766,4112.307617,4123.589844,4122.563965,4123.589844,4104.102539,4104.615234,4100.000000,4082.051270,4103.589844,0.000000,4.000000,,,,0.000000,4.000000,4.000000,4.000000,4.000000,4.000000,4.000000,4.000000,4.000000,4.000000,4.000000,4.000000,4.000000,4.000000,4.000000,100.000000
1602005795.576201,64.000000,0.000000,4137.436035,4141.538574,4123.589844,4131.282227,4136.410156,4103.589844,4118.974121,4116.410156,4120.512695,4107.179688,4106.153809,4093.846191,4081.538574,4102.563965,954.000000,4.000000,,,,0.000000,4.000000,4.000000,4.000000,4.000000,4.000000,4.000000,4.000000,4.000000,4.000000,4.000000,4.000000,4.000000,4.000000,4.000000,100.000000
1602005795.583999,65.000000,0.000000,4138.974121,4151.282227,4116.922852,4136.922852,4139.487305,4110.769043,4121.025879,4121.025879,4130.769043,4136.922852,4111.282227,4103.589844,4097.948730,4110.769043,798.000000,4.000000,,,,0.000000,4.000000,4.000000,4.000000,4.000000,4.000000,4.000000,4.000000,4.000000,4.000000,4.000000,4.000000,4.000000,4.000000,4.000000,100.000000
1602005795.591896,66.000000,0.000000,4149.743652,4155.897461,4127.692383,4139.487305,4143.077148,4127.179688,4123.589844,4131.282227,4143.077148,4148.717773,4123.589844,4112.307617,4111.794922,4119.487305,854.000000,4.000000,,,,0.000000,4.000000,4.000000,4.000000,4.000000,4.000000,4.000000,4.000000,4.000000,4.000000,4.000000,4.000000,4.000000,4.000000,4.000000,100.000000
1602005795.599794,67.000000,0.000000,4155.897461,4152.820313,4139.487305,4142.051270,4142.563965,4128.717773,4124.102539,4137.436035,4142.563965,4131.282227,4127.179688,4111.794922,4108.717773,4124.615234,864.000000,4.000000,,,,0.000000,4.000000,4.000000,4.000000,4.000000,4.000000,4.000000,4.000000,4.000000,4.000000,4.000000,4.000000,4.000000,4.000000,4.000000,100.000000
1602005795.607691,68.000000,0.000000,4156.922852,4156.410156,4140.512695,4149.743652,4140.512695,4121.025879,4126.666504,4137.436035,4137.948730,4121.025879,4119.487305,4109.230957,4105.641113,4121.538574,818.000000,4.000000,,,,0.000000,4.000000,4.000000,4.000000,4.000000,4.000000,4.000000,4.000000,4.000000,4.000000,4.000000,4.000000,4.000000,4.000000,4.000000,100.000000
1602005795.615588,69.000000,0.000000,4155.897461,4154.358887,4138.974121,4147.179688,4137.948730,4120.512695,4132.820313,4137.436035,4142.563965,4118.974121,4120.000000,4107.692383,4109.230957,4115.897461,826.000000,4.000000,,,,0.000000,4.000000,4.000000,4.000000,4.000000,4.000000,4.000000,4.000000,4.000000,4.000000,4.000000,4.000000,4.000000,4.000000,4.000000,100.000000
1602005795.623486,70.000000,0.000000,4149.230957,4141.538574,4140.000000,4137.948730,4134.871582,4122.563965,4137.948730,4135.384766,4146.666504,4121.025879,4123.589844,4109.230957,4104.615234,4108.717773,780.000000,4.000000,,,,0.000000,4.000000,4.000000,4.000000,4.000000,4.000000,4.000000,4.000000,4.000000,4.000000,4.000000,4.000000,4.000000,4.000000,4.000000,100.000000
1602005795.631383,71.000000,0.000000,4138.461426,4133.846191,4140.000000,4135.384766,4133.846191,4121.025879,4137.436035,4126.666504,4139.487305,4127.692383,4115.384766,4110.256348,4089.230713,4099.487305,693.000000,4.000000,,,,0.000000,4.000000,4.000000,4.000000,4.000000,4.000000,4.000000,4.000000,4.000000,4.000000,4.000000,4.000000,4.000000,4.000000,4.000000,100.000000
1602005795.639281,72.000000,0.000000,4133.846191,4135.897461,4135.897461,4138.461426,4134.871582,4120.000000,4132.820313,4121.538574,4134.358887,4123.589844,4104.615234,4107.179688,4080.512939,4093.846191,793.000000,4.000000,,,,0.000000,4.000000,4.000000,4.000000,4.000000,4.000000,4.000000,4.000000,4.000000,4.000000,4.000000,4.000000,4.000000,4.000000,4.000000,100.000000
1602005795.647081,73.000000,0.000000,4135.384766,4136.922852,4133.846191,4136.922852,4137.948730,4121.025879,4122.563965,4121.538574,4137.436035,4109.230957,4101.538574,4104.615234,4084.102539,4091.281982,840.000000,4.000000,,,,0.000000,4.000000,4.000000,4.000000,4.000000,4.000000,4.000000,4.000000,4.000000,4.000000,4.000000,4.000000,4.000000,4.000000,4.000000,100.000000
1602005795.654981,74.000000,0.000000,4136.410156,4136.922852,4135.384766,4134.871582,4143.589844,4120.512695,4113.333496,4118.461426,4136.410156,4107.692383,4109.230957,4103.077148,4088.718018,4096.922852,815.000000,4.000000,,,,0.000000,4.000000,4.000000,4.000000,4.000000,4.000000,4.000000,4.000000,4.000000,4.000000,4.000000,4.000000,4.000000,4.000000,4.000000,100.000000
1602005795.662881,75.000000,0.000000,4137.436035,4145.128418,4137.436035,4142.563965,4150.769043,4117.436035,4116.922852,4118.974121,4136.410156,4124.615234,4116.922852,4108.717773,4094.358887,4107.179688,842.000000,4.000000,,,,0.000000,4.000000,4.000000,4.000000,4.000000,4.000000,4.000000,4.000000,4.000000,4.000000,4.000000,4.000000,4.000000,4.000000,4.000000,100.000000
1602005795.670781,76.000000,0.000000,4140.512695,4153.846191,4136.922852,4152.820313,4154.358887,4118.974121,4122.563965,4128.205078,4145.641113,4139.487305,4125.641113,4122.051270,4102.563965,4108.717773,776.000000,4.000000,,,,0.000000,4.000000,4.000000,4.000000,4.000000,4.000000,4.000000,4.000000,4.000000,4.000000,4.000000,4.000000,4.000000,4.000000,4.000000,100.000000
1602005795.678681,77.000000,0.000000,4146.666504,4156.410156,4136.922852,4153.846191,4154.358887,4128.205078,4121.025879,4136.922852,4152.820313,4136.410156,4137.948730,4128.717773,4112.307617,4109.230957,752.000000,4.000000,,,,0.000000,4.000000,4.000000,4.000000,4.000000,4.000000,4.000000,4.000000,4.000000,4.000000,4.000000,4.000000,4.000000,4.000000,4.000000,100.000000
1602005795.686581,78.000000,0.000000,4151.794922,4156.410156,4138.974121,4150.769043,4154.358887,4136.410156,4125.641113,4140.000000,4155.384766,4134.871582,4137.436035,4126.666504,4120.000000,4118.974121,815.000000,4.000000,,,,0.000000,4.000000,4.000000,4.000000,4.000000,4.000000,4.000000,4.000000,4.000000,4.000000,4.000000,4.000000,4.000000,4.000000,4.000000,100.000000
1602005795.694481,79.000000,0.000000,4157.436035,4156.410156,4139.487305,4152.307617,4152.307617,4136.410156,4137.948730,4141.538574,4159.487305,4152.307617,4126.666504,4126.666504,4118.461426,4125.128418,842.000000,4.000000,,,,0.000000,4.000000,4.000000,4.000000,4.000000,4.000000,4.000000,4.000000,4.000000,4.000000,4.000000,4.000000,4.000000,4.000000,4.000000,100.000000
1602005795.702381,80.000000,0.000000,4163.589844,4163.077148,4140.000000,4154.358887,4151.794922,4135.384766,4147.692383,4145.128418,4158.974121,4154.871582,4127.179688,4131.794922,4112.307617,4121.538574,776.000000,4.000000,,,,0.000000,4.000000,4.000000,4.000000,4.000000,4.000000,4.000000,4.000000,4.000000,4.000000,4.000000,4.000000,4.000000,4.000000,4.000000,100.000000
1602005795.710281,81.000000,0.000000,4161.025879,4168.717773,4141.538574,4156.410156,4153.846191,4141.538574,4153.846191,4145.641113,4153.333496,4137.436035,4129.230957,4134.871582,4109.230957,4121.538574,752.000000,4.000000,,,,0.000000,4.000000,4.000000,4.000000,4.000000,4.000000,4.000000,4.000000,4.000000,4.000000,4.000000,4.000000,4.000000,4.000000,4.000000,100.000000
1602005795.718181,82.000000,0.000000,4154.871582,4161.538574,4142.563965,4154.358887,4148.717773,4147.179688,4152.307617,4141.538574,4150.769043,4131.282227,4120.000000,4138.461426,4109.230957,4124.615234,815.000000,4.000000,,,,0.000000,4.000000,4.000000,4.000000,4.000000,4.000000,4.000000,4.000000,4.000000,4.000000,4.000000,4.000000,4.000000,4.000000,4.000000,100.000000
1602005795.725978,83.000000,0.000000,4151.282227,4150.769043,4137.436035,4146.153809,4140.000000,4137.948730,4141.538574,4139.487305,4141.025879,4126.666504,4118.461426,4137.436035,4103.589844,4123.077148,842.000000,4.000000,,,,0.000000,4.000000,4.000000,4.000000,4.000000,4.000000,4.000000,4.000000,4.000000,4.000000,4.000000,4.000000,4.000000,4.000000,4.000000,100.000000
1602005795.733876,84.000000,0.000000,4149.743652,4153.333496,4129.743652,4144.615234,4139.487305,4122.563965,4135.897461,4135.897461,4125.641113,4115.384766,4123.589844,4128.205078,4104.615234,4121.025879,776.000000,4.000000,,,,0.000000,4.000000,4.000000,4.000000,4.000000,4.000000,4.000000,4.000000,4.000000,4.000000,4.000000,4.000000,4.000000,4.000000,4.000000,100.000000
1602005795.741774,85.000000,0.000000,4153.333496,4157.948730,4128.717773,4153.333496,4142.051270,4120.000000,4136.410156,4127.179688,4126.153809,4103.589844,4121.025879,4123.589844,4112.307617,4122.563965,752.000000,4.000000,,,,0.000000,4.000000,4.000000,4.000000,4.000000,4.000000,4.000000,4.000000,4.000000,4.000000,4.000000,4.000000,4.000000,4.000000,4.000000,100.000000
1602005795.749671,86.000000,0.000000,4153.846191,4154.871582,4128.717773,4151.794922,4137.948730,4124.615234,4127.692383,4121.538574,4134.871582,4096.410156,4122.051270,4125.641113,4110.769043,4120.512695,815.000000,4.000000,,,,0.000000,4.000000,4.000000,4.000000,4.000000,4.000000,4.000000,4.000000,4.000000,4.000000,4.000000,4.000000,4.000000,4.000000,4.000000,100.000000
1602005795.757569,87.000000,0.000000,4143.589844,4150.769043,4122.563965,4138.974121,4135.897461,4120.512695,4119.487305,4126.666504,4135.897461,4117.436035,4124.615234,4121.538574,4105.128418,4118.461426,842.000000,4.000000,,,,0.000000,4.000000,4.000000,4.000000,4.000000,4.000000,4.000000,4.000000,4.000000,4.000000,4.000000,4.000000,4.000000,4.000000,4.000000,100.000000
1602005795.765467,88.000000,0.000000,4144.102539,4151.282227,4125.641113,4141.538574,4141.025879,4121.025879,4126.666504,4134.871582,4139.487305,4153.846191,4126.153809,4120.000000,4112.820313,4123.077148,776.000000,4.000000,,,,0.000000,4.000000,4.000000,4.000000,4.000000,4.000000,4.000000,4.000000,4.000000,4.000000,4.000000,4.000000,4.000000,4.000000,4.000000,100.000000
1602005795.773364,89.000000,0.000000,4157.948730,4152.820313,4138.974121,4149.230957,4145.128418,4130.256348,4136.410156,4136.410156,4147.692383,4157.948730,4133.846191,4134.871582,4127.179688,4127.179688,752.000000,4.000000,,,,0.000000,4.000000,4.000000,4.000000,4.000000,4.000000,4.000000,4.000000,4.000000,4.000000,4.000000,4.000000,4.000000,4.000000,4.000000,100.000000
1602005795.781262,90.000000,0.000000,4160.512695,4153.333496,4141.538574,4149.230957,4142.051270,4131.282227,4138.461426,4143.589844,4155.384766,4150.769043,4143.077148,4145.128418,4128.717773,4129.743652,815.000000,4.000000,,,,0.000000,4.000000,4.000000,4.000000,4.000000,4.000000,4.000000,4.000000,4.000000,4.000000,4.000000,4.000000,4.000000,4.000000,4.000000,100.000000
1602005795.789159,91.000000,0.000000,4155.384766,4151.794922,4137.436035,4151.282227,4137.436035,4130.256348,4137.948730,4153.333496,4156.410156,4156.410156,4137.436035,4136.922852,4122.051270,4136.922852,842.000000,4.000000,,,,0.000000,4.000000,4.000000,4.000000,4.000000,4.000000,4.000000,4.000000,4.000000,4.000000,4.000000,4.000000,4.000000,4.000000,4.000000,100.000000
1602005795.796948,92.000000,0.000000,4155.384766,4148.717773,4139.487305,4150.769043,4143.589844,4131.794922,4138.974121,4146.153809,4154.871582,4145.641113,4125.641113,4129.230957,4120.512695,4138.461426,776.000000,4.000000,,,,0.000000,4.000000,4.000000,4.000000,4.000000,4.000000,4.000000,4.000000,4.000000,4.000000,4.000000,4.000000,4.000000,4.000000,4.000000,100.000000
1602005795.804837,93.000000,0.000000,4156.410156,4144.102539,4140.512695,4140.512695,4152.820313,4128.717773,4140.512695,4136.410156,4154.358887,4133.846191,4128.205078,4135.384766,4124.102539,4128.717773,752.000000,4.000000,,,,0.000000,4.000000,4.000000,4.000000,4.000000,4.000000,4.000000,4.000000,4.000000,4.000000,4.000000,4.000000,4.000000,4.000000,4.000000,100.000000
1602005795.812726,94.000000,0.000000,4155.897461,4138.974121,4138.461426,4135.384766,4148.205078,4120.512695,4140.000000,4138.974121,4145.641113,4136.410156,4132.307617,4137.436035,4124.102539,4124.102539,815.000000,4.000000,,,,0.000000,4.000000,4.000000,4.000000,4.000000,4.000000,4.000000,4.000000,4.000000,4.000000,4.000000,4.000000,4.000000,4.000000,4.000000,100.000000
1602005795.820615,95.000000,0.000000,4152.820313,4138.974121,4138.974121,4138.461426,4143.077148,4123.589844,4133.846191,4134.871582,4129.743652,4134.871582,4123.589844,4126.153809,4115.897461,4122.563965,842.000000,4.000000,,,,0.000000,4.000000,4.000000,4.000000,4.000000,4.000000,4.000000,4.000000,4.000000,4.000000,4.000000,4.000000,4.000000,4.000000,4.000000,100.000000
1602005795.828412,96.000000,0.000000,4153.846191,4148.205078,4137.948730,4141.538574,4150.769043,4137.436035,4125.128418,4125.128418,4128.717773,4127.179688,4118.461426,4119.487305,4111.794922,4121.025879,776.000000,4.000000,,,,0.000000,4.000000,4.000000,4.000000,4.000000,4.000000,4.000000,4.000000,4.000000,4.000000,4.000000,4.000000,4.000000,4.000000,4.000000,100.000000
1602005795.836309,97.000000,0.000000,4157.948730,4152.820313,4138.974121,4144.615234,4158.461426,4138.461426,4124.615234,4124.615234,4134.358887,4113.846191,4123.077148,4122.563965,4112.307617,4125.128418,752.000000,4.000000,,,,0.000000,4.000000,4.000000,4.000000,4.000000,4.000000,4.000000,4.000000,4.000000,4.000000,4.000000,4.000000,4.000000,4.000000,4.000000,100.000000
1602005795.844205,98.000000,0.000000,4148.717773,4143.077148,4140.000000,4142.051270,4150.769043,4124.615234,4123.077148,4121.538574,4125.641113,4100.512695,4117.436035,4122.051270,4108.717773,4126.153809,815.000000,4.000000,,,,0.000000,4.000000,4.000000,4.000000,4.000000,4.000000,4.000000,4.000000,4.000000,4.000000,4.000000,4.000000,4.000000,4.000000,4.000000,100.000000
1602005795.852102,99.000000,0.000000,4135.897461,4133.846191,4131.282227,4135.897461,4137.948730,4111.794922,4113.846191,4114.358887,4117.948730,4105.128418,4105.128418,4118.974121,4102.563965,4120.000000,842.000000,4.000000,,,,0.000000,4.000000,4.000000,4.000000,4.000000,4.000000,4.000000,4.000000,4.000000,4.000000,4.000000,4.000000,4.000000,4.000000,4.000000,100.000000
1602005795.859999,100.000000,0.000000,4139.487305,4135.897461,4123.589844,4136.410156,4133.846191,4108.205078,4109.743652,4114.871582,4117.948730,4115.897461,4104.615234,4118.974121,4102.051270,4120.000000,776.000000,4.000000,,,,0.000000,4.000000,4.000000,4.000000,4.000000,4.000000,4.000000,4.000000,4.000000,4.000000,4.000000,4.000000,4.000000,4.000000,4.000000,100.000000
1602005795.867896,101.000000,0.000000,4146.666504,4137.948730,4128.717773,4136.410156,4135.384766,4103.589844,4115.384766,4124.102539,4119.487305,4114.871582,4112.307617,4116.410156,4108.717773,4126.666504,752.000000,4.000000,,,,0.000000,4.000000,4.000000,4.000000,4.000000,4.000000,4.000000,4.000000,4.000000,4.000000,4.000000,4.000000,4.000000,4.000000,4.000000,100.000000
1602005795.875793,102.000000,0.000000,4149.230957,4142.563965,4138.974121,4135.897461,4136.410156,4109.230957,4127.179688,4135.897461,4131.794922,4129.743652,4124.615234,4125.128418,4120.000000,4138.461426,815.000000,4.000000,,,,0.000000,4.000000,4.000000,4.000000,4.000000,4.000000,4.000000,4.000000,4.000000,4.000000,4.000000,4.000000,4.000000,4.000000,4.000000,100.000000
1602005795.883690,103.000000,0.000000,4160.000000,4151.794922,4145.641113,4144.102539,4141.025879,4129.230957,4136.922852,4142.051270,4142.563965,4150.256348,4137.436035,4140.000000,4132.820313,4149.230957,842.000000,4.000000,,,,0.000000,4.000000,4.000000,4.000000,4.000000,4.000000,4.000000,4.000000,4.000000,4.000000,4.000000,4.000000,4.000000,4.000000,4.000000,100.000000
1602005795.891489,104.000000,0.000000,4174.358887,4154.871582,4149.743652,4154.871582,4150.256348,4135.897461,4138.461426,4136.410156,4131.794922,4134.871582,4145.641113,4136.410156,4136.410156,4147.179688,776.000000,4.000000,,,,0.000000,4.000000,4.000000,4.000000,4.000000,4.000000,4.000000,4.000000,4.000000,4.000000,4.000000,4.000000,4.000000,4.000000,4.000000,100.000000
1602005795.899387,105.000000,0.000000,4172.307617,4153.333496,4150.256348,4152.820313,4153.333496,4127.692383,4137.948730,4130.256348,4124.102539,4124.102539,4142.563965,4123.077148,4129.230957,4141.025879,752.000000,4.000000,,,,0.000000,4.000000,4.000000,4.000000,4.000000,4.000000,4.000000,4.000000,4.000000,4.000000,4.000000,4.000000,4.000000,4.000000,4.000000,100.000000
1602005795.907286,106.000000,0.000000,4157.436035,4147.692383,4150.256348,4142.051270,4145.641113,4125.128418,4137.436035,4127.179688,4129.230957,4149.230957,4131.282227,4123.589844,4122.563965,4140.512695,815.000000,4.000000,,,,0.000000,4.000000,4.000000,4.000000,4.000000,4.000000,4.000000,4.000000,4.000000,4.000000,4.000000,4.000000,4.000000,4.000000,4.000000,100.000000
1602005795.915184,107.000000,0.000000,4154.358887,4141.538574,4152.820313,4141.025879,4140.000000,4128.717773,4131.794922,4123.589844,4127.179688,4155.897461,4127.692383,4133.333496,4123.077148,4140.512695,842.000000,4.000000,,,,0.000000,4.000000,4.000000,4.000000,4.000000,4.000000,4.000000,4.000000,4.000000,4.000000,4.000000,4.000000,4.000000,4.000000,4.000000,100.000000
1602005795.923083,108.000000,0.000000,4164.615234,4143.589844,4153.846191,4144.615234,4141.538574,4123.077148,4124.102539,4119.487305,4121.025879,4127.179688,4136.922852,4136.410156,4125.128418,4140.512695,776.000000,4.000000,,,,0.000000,4.000000,4.000000,4.000000,4.000000,4.000000,4.000000,4.000000,4.000000,4.000000,4.000000,4.000000,4.000000,4.000000,4.000000,100.000000
1602005795.930981,109.000000,0.000000,4169.230957,4151.282227,4153.333496,4142.563965,4140.000000,4112.307617,4120.512695,4121.538574,4122.051270,4120.512695,4140.512695,4136.410156,4129.743652,4142.051270,752.000000,4.000000,,,,0.000000,4.000000,4.000000,4.000000,4.000000,4.000000,4.000000,4.000000,4.000000,4.000000,4.000000,4.000000,4.000000,4.000000,4.000000,100.000000
1602005795.938880,110.000000,0.000000,4164.615234,4155.384766,4156.922852,4147.179688,4136.410156,4116.410156,4118.974121,4126.153809,4124.102539,4127.179688,4137.436035,4139.487305,4140.000000,4143.589844,815.000000,4.000000,,,,0.000000,4.000000,4.000000,4.000000,4.000000,4.000000,4.000000,4.000000,4.000000,4.000000,4.000000,4.000000,4.000000,4.000000,4.000000,100.000000
1602005795.946779,111.000000,0.000000,4161.025879,4152.307617,4156.410156,4152.820313,4138.974121,4120.512695,4119.487305,4127.692383,4122.051270,4110.769043,4140.512695,4137.436035,4138.461426,4143.589844,842.000000,4.000000,,,,0.000000,4.000000,4.000000,4.000000,4.000000,4.000000,4.000000,4.000000,4.000000,4.000000,4.000000,4.000000,4.000000,4.000000,4.000000,100.000000
1602005795.954677,112.000000,0.000000,4156.922852,4142.051270,4143.589844,4143.589844,4142.051270,4110.256348,4120.000000,4123.589844,4120.512695,4106.666504,4135.384766,4124.615234,4124.615234,4136.410156,776.000000,4.000000,,,,0.000000,4.000000,4.000000,4.000000,4.000000,4.000000,4.000000,4.000000,4.000000,4.000000,4.000000,4.000000,4.000000,4.000000,4.000000,100.000000
1602005795.962472,113.000000,0.000000,4150.769043,4134.871582,4137.948730,4135.384766,4144.615234,4110.256348,4121.025879,4121.025879,4117.948730,4133.846191,4123.077148,4116.922852,4118.461426,4125.641113,752.000000,4.000000,,,,0.000000,4.000000,4.000000,4.000000,4.000000,4.000000,4.000000,4.000000,4.000000,4.000000,4.000000,4.000000,4.000000,4.000000,4.000000,100.000000
1602005795.970366,114.000000,0.000000,4150.769043,4140.512695,4150.256348,4142.051270,4154.358887,4133.846191,4131.794922,4130.256348,4119.487305,4152.820313,4123.077148,4124.102539,4123.077148,4133.846191,815.000000,4.000000,,,,0.000000,4.000000,4.000000,4.000000,4.000000,4.000000,4.000000,4.000000,4.000000,4.000000,4.000000,4.000000,4.000000,4.000000,4.000000,100.000000
1602005795.978261,115.000000,0.000000,4154.871582,4142.051270,4153.846191,4143.077148,4158.461426,4145.641113,4143.077148,4135.384766,4129.743652,4142.563965,4125.641113,4128.205078,4124.615234,4135.384766,842.000000,4.000000,,,,0.000000,4.000000,4.000000,4.000000,4.000000,4.000000,4.000000,4.000000,4.000000,4.000000,4.000000,4.000000,4.000000,4.000000,4.000000,100.000000
1602005795.986155,116.000000,0.000000,4149.743652,4135.384766,4141.025879,4134.358887,4151.282227,4130.256348,4136.410156,4125.641113,4137.436035,4133.333496,4119.487305,4121.025879,4118.461426,4119.487305,776.000000,4.000000,,,,0.000000,4.000000,4.000000,4.000000,4.000000,4.000000,4.000000,4.000000,4.000000,4.000000,4.000000,4.000000,4.000000,4.000000,4.000000,100.000000
1602005795.994050,117.000000,0.000000,4144.102539,4140.000000,4136.922852,4135.384766,4151.794922,4122.563965,4125.641113,4116.410156,4136.410156,4135.384766,4118.974121,4123.589844,4119.487305,4125.128418,752.000000,4.000000,,,,0.000000,4.000000,4.000000,4.000000,4.000000,4.000000,4.000000,4.000000,4.000000,4.000000,4.000000,4.000000,4.000000,4.000000,4.000000,100.000000
1602005796.001944,118.000000,0.000000,4148.717773,4151.282227,4141.025879,4141.538574,4157.948730,4129.230957,4125.641113,4121.025879,4137.436035,4134.871582,4130.769043,4133.846191,4131.282227,4144.615234,815.000000,4.000000,,,,0.000000,4.000000,4.000000,4.000000,4.000000,4.000000,4.000000,4.000000,4.000000,4.000000,4.000000,4.000000,4.000000,4.000000,4.000000,100.000000
1602005796.009839,119.000000,0.000000,4155.897461,4152.307617,4142.051270,4143.077148,4155.897461,4124.615234,4127.179688,4130.256348,4142.563965,4142.563965,4142.563965,4137.948730,4138.461426,4140.000000,842.000000,4.000000,,,,0.000000,4.000000,4.000000,4.000000,4.000000,4.000000,4.000000,4.000000,4.000000,4.000000,4.000000,4.000000,4.000000,4.000000,4.000000,100.000000
1602005796.017638,120.000000,0.000000,4156.922852,4149.743652,4145.641113,4146.666504,4150.256348,4112.307617,4128.205078,4141.025879,4142.051270,4159.487305,4149.230957,4140.000000,4142.051270,4132.307617,776.000000,4.000000,,,,0.000000,4.000000,4.000000,4.000000,4.000000,4.000000,4.000000,4.000000,4.000000,4.000000,4.000000,4.000000,4.000000,4.000000,4.000000,100.000000
1602005796.025537,121.000000,0.000000,4155.384766,4152.820313,4153.846191,4153.333496,4151.794922,4113.846191,4134.871582,4149.230957,4140.512695,4168.205078,4154.871582,4150.256348,4152.307617,4149.743652,752.000000,4.000000,,,,0.000000,4.000000,4.000000,4.000000,4.000000,4.000000,4.000000,4.000000,4.000000,4.000000,4.000000,4.000000,4.000000,4.000000,4.000000,100.000000
1602005796.033436,122.000000,0.000000,4155.384766,4156.410156,4158.461426,4155.384766,4149.230957,4123.589844,4140.000000,4145.641113,4140.512695,4171.794922,4156.922852,4158.974121,4156.410156,4160.000000,815.000000,4.000000,,,,0.000000,4.000000,4.000000,4.000000,4.000000,4.000000,4.000000,4.000000,4.000000,4.000000,4.000000,4.000000,4.000000,4.000000,4.000000,100.000000
1602005796.041335,123.000000,0.000000,4156.410156,4154.871582,4153.846191,4154.871582,4140.512695,4126.153809,4136.922852,4135.897461,4124.102539,4149.743652,4147.692383,4156.922852,4144.615234,4149.230957,842.000000,4.000000,,,,0.000000,4.000000,4.000000,4.000000,4.000000,4.000000,4.000000,4.000000,4.000000,4.000000,4.000000,4.000000,4.000000,4.000000,4.000000,100.000000
1602005796.049234,124.000000,0.000000,4152.820313,4150.256348,4143.077148,4150.256348,4143.077148,4121.538574,4134.871582,4124.615234,4101.025879,4100.000000,4128.717773,4149.743652,4127.692383,4143.589844,776.000000,4.000000,,,,0.000000,4.000000,4.000000,4.000000,4.000000,4.000000,4.000000,4.000000,4.000000,4.000000,4.000000,4.000000,4.000000,4.000000,4.000000,100.000000
1602005796.057133,125.000000,0.000000,4150.769043,4150.256348,4136.922852,4147.179688,4152.820313,4120.000000,4137.436035,4120.000000,4107.692383,4094.871826,4122.051270,4149.743652,4124.615234,4150.769043,752.000000,4.000000,,,,0.000000,4.000000,4.000000,4.000000,4.000000,4.000000,4.000000,4.000000,4.000000,4.000000,4.000000,4.000000,4.000000,4.000000,4.000000,100.000000
1602005796.065032,126.000000,0.000000,4159.487305,4154.871582,4142.051270,4150.256348,4153.333496,4125.128418,4137.436035,4129.230957,4130.769043,4136.410156,4131.794922,4159.487305,4133.333496,4154.358887,815.000000,4.000000,,,,0.000000,4.000000,4.000000,4.000000,4.000000,4.000000,4.000000,4.000000,4.000000,4.000000,4.000000,4.000000,4.000000,4.000000,4.000000,100.000000
1602005796.072931,127.000000,0.000000,4168.205078,4154.871582,4149.230957,4155.384766,4149.743652,4127.179688,4135.384766,4136.410156,4136.922852,4156.410156,4144.102539,4167.692383,4140.512695,4152.307617,842.000000,4.000000,,,,0.000000,4.000000,4.000000,4.000000,4.000000,4.000000,4.000000,4.000000,4.000000,4.000000,4.000000,4.000000,4.000000,4.000000,4.000000,100.000000
1602005796.080830,128.000000,0.000000,4169.743652,4160.000000,4154.871582,4164.102539,4154.871582,4122.563965,4134.871582,4136.410156,4144.615234,4154.871582,4152.307617,4170.769043,4147.179688,4154.871582,776.000000,4.000000,,,,0.000000,4.000000,4.000000,4.000000,4.000000,4.000000,4.000000,4.000000,4.000000,4.000000,4.000000,4.000000,4.000000,4.000000,4.000000,100.000000
1602005796.088620,0.000000,0.000000,4170.769043,4169.743652,4155.897461,4166.153809,4155.897461,4120.000000,4135.897461,4138.974121,4154.871582,4150.256348,4154.871582,4163.589844,4152.307617,4153.846191,984.000000,4.000000,,,,0.000000,4.000000,4.000000,4.000000,4.000000,4.000000,4.000000,4.000000,4.000000,4.000000,4.000000,4.000000,4.000000,4.000000,4.000000,100.000000
1602005796.096509,1.000000,0.000000,4171.282227,4166.153809,4153.846191,4156.922852,4153.333496,4120.000000,4136.922852,4141.538574,4145.128418,4139.487305,4146.153809,4155.897461,4145.128418,4154.871582,798.000000,4.000000,,,,0.000000,4.000000,4.000000,4.000000,4.000000,4.000000,4.000000,4.000000,4.000000,4.000000,4.000000,4.000000,4.000000,4.000000,4.000000,100.000000
1602005796.104398,2.000000,0.000000,4172.307617,4157.436035,4157.436035,4152.820313,4151.282227,4120.000000,4140.000000,4140.512695,4139.487305,4149.230957,4136.410156,4160.000000,4136.922852,4162.051270,854.000000,4.000000,,,,0.000000,4.000000,4.000000,4.000000,4.000000,4.000000,4.000000,4.000000,4.000000,4.000000,4.000000,4.000000,4.000000,4.000000,4.000000,100.000000
1602005796.112288,3.000000,0.000000,4174.871582,4152.307617,4161.538574,4153.333496,4143.589844,4122.563965,4140.000000,4137.436035,4144.615234,4163.077148,4140.000000,4163.077148,4142.051270,4154.871582,864.000000,4.000000,,,,0.000000,4.000000,4.000000,4.000000,4.000000,4.000000,4.000000,4.000000,4.000000,4.000000,4.000000,4.000000,4.000000,4.000000,4.000000,100.000000
1602005796.120082,4.000000,0.000000,4168.205078,4141.538574,4152.820313,4142.051270,4134.871582,4123.589844,4135.897461,4129.743652,4124.615234,4138.461426,4139.487305,4155.384766,4136.922852,4136.922852,816.000000,4.000000,,,,0.000000,4.000000,4.000000,4.000000,4.000000,4.000000,4.000000,4.000000,4.000000,4.000000,4.000000,4.000000,4.000000,4.000000,4.000000,100.000000
1602005796.127976,5.000000,0.000000,4154.358887,4131.794922,4140.512695,4133.846191,4133.846191,4122.563965,4136.922852,4120.000000,4103.077148,4117.436035,4123.589844,4145.641113,4120.512695,4135.384766,826.000000,4.000000,,,,0.000000,4.000000,4.000000,4.000000,4.000000,4.000000,4.000000,4.000000,4.000000,4.000000,4.000000,4.000000,4.000000,4.000000,4.000000,100.000000
1602005796.135871,6.000000,0.000000,4150.256348,4136.922852,4138.974121,4140.512695,4143.589844,4123.589844,4137.436035,4122.051270,4113.333496,4125.128418,4123.589844,4141.538574,4119.487305,4145.641113,780.000000,4.000000,,,,0.000000,4.000000,4.000000,4.000000,4.000000,4.000000,4.000000,4.000000,4.000000,4.000000,4.000000,4.000000,4.000000,4.000000,4.000000,100.000000
1602005796.143765,7.000000,0.000000,4154.358887,4142.051270,4141.538574,4144.102539,4146.666504,4122.051270,4126.666504,4127.179688,4124.615234,4118.974121,4138.461426,4138.974121,4125.641113,4140.512695,693.000000,4.000000,,,,0.000000,4.000000,4.000000,4.000000,4.000000,4.000000,4.000000,4.000000,4.000000,4.000000,4.000000,4.000000,4.000000,4.000000,4.000000,100.000000
1602005796.151659,8.000000,0.000000,4152.307617,4140.000000,4141.025879,4141.538574,4139.487305,4118.974121,4120.000000,4127.692383,4123.077148,4106.153809,4134.871582,4131.794922,4123.589844,4122.051270,793.000000,4.000000,,,,0.000000,4.000000,4.000000,4.000000,4.000000,4.000000,4.000000,4.000000,4.000000,4.000000,4.000000,4.000000,4.000000,4.000000,4.000000,100.000000
1602005796.159553,9.000000,0.000000,4140.512695,4137.948730,4140.000000,4140.000000,4140.000000,4119.487305,4128.717773,4130.256348,4123.077148,4120.000000,4121.025879,4126.666504,4121.025879,4118.461426,840.000000,4.000000,,,,0.000000,4.000000,4.000000,4.000000,4.000000,4.000000,4.000000,4.000000,4.000000,4.000000,4.000000,4.000000,4.000000,4.000000,4.000000,100.000000
1602005796.167448,10.000000,0.000000,4135.897461,4139.487305,4137.436035,4138.974121,4152.307617,4123.077148,4138.461426,4136.410156,4121.025879,4132.820313,4120.512695,4133.333496,4123.077148,4130.256348,854.000000,4.000000,,,,0.000000,4.000000,4.000000,4.000000,4.000000,4.000000,4.000000,4.000000,4.000000,4.000000,4.000000,4.000000,4.000000,4.000000,4.000000,100.000000
1602005796.175241,11.000000,0.000000,4139.487305,4141.025879,4131.794922,4138.461426,4153.846191,4126.153809,4140.000000,4138.461426,4118.974121,4122.563965,4122.563965,4142.051270,4121.025879,4132.307617,842.000000,4.000000,,,,0.000000,4.000000,4.000000,4.000000,4.000000,4.000000,4.000000,4.000000,4.000000,4.000000,4.000000,4.000000,4.000000,4.000000,4.000000,100.000000
1602005796.183134,12.000000,0.000000,4139.487305,4136.922852,4130.256348,4136.922852,4141.538574,4125.641113,4140.512695,4138.461426,4123.077148,4122.051270,4123.589844,4137.436035,4116.410156,4121.025879,776.000000,4.000000,,,,0.000000,4.000000,4.000000,4.000000,4.000000,4.000000,4.000000,4.000000,4.000000,4.000000,4.000000,4.000000,4.000000,4.000000,4.000000,100.000000
1602005796.191028,13.000000,0.000000,4136.410156,4134.358887,4135.384766,4135.384766,4137.948730,4123.589844,4142.051270,4137.948730,4126.153809,4127.179688,4128.717773,4134.358887,4120.000000,4118.461426,752.000000,4.000000,,,,0.000000,4.000000,4.000000,4.000000,4.000000,4.000000,4.000000,4.000000,4.000000,4.000000,4.000000,4.000000,4.000000,4.000000,4.000000,100.000000
1602005796.198921,14.000000,0.000000,4139.487305,4137.436035,4138.974121,4135.384766,4140.512695,4118.974121,4140.000000,4131.282227,4121.538574,4121.538574,4125.128418,4144.102539,4123.077148,4130.256348,854.000000,4.000000,,,,0.000000,4.000000,4.000000,4.000000,4.000000,4.000000,4.000000,4.000000,4.000000,4.000000,4.000000,4.000000,4.000000,4.000000,4.000000,100.000000
1602005796.206814,15.000000,0.000000,4149.743652,4138.461426,4140.512695,4137.948730,4136.922852,4113.333496,4136.410156,4126.153809,4123.077148,4129.743652,4127.692383,4154.358887,4122.563965,4144.615234,842.000000,4.000000,,,,0.000000,4.000000,4.000000,4.000000,4.000000,4.000000,4.000000,4.000000,4.000000,4.000000,4.000000,4.000000,4.000000,4.000000,4.000000,100.000000
1602005796.214708,16.000000,0.000000,4151.282227,4137.436035,4142.051270,4140.000000,4133.846191,4105.128418,4129.230957,4125.641113,4125.641113,4141.538574,4140.000000,4155.384766,4124.615234,4143.077148,0.000000,4.000000,,,,0.000000,4.000000,4.000000,4.000000,4.000000,4.000000,4.000000,4.000000,4.000000,4.000000,4.000000,4.000000,4.000000,4.000000,4.000000,100.000000
1602005796.222504,17.000000,0.000000,4143.589844,4137.948730,4141.538574,4137.948730,4134.871582,4098.974121,4121.538574,4115.897461,4114.871582,4132.820313,4135.897461,4148.205078,4125.128418,4126.153809,0.000000,4.000000,,,,0.000000,4.000000,4.000000,4.000000,4.000000,4.000000,4.000000,4.000000,4.000000,4.000000,4.000000,4.000000,4.000000,4.000000,4.000000,100.000000
1602005796.230401,18.000000,0.000000,4140.000000,4137.948730,4138.974121,4137.436035,4135.384766,4102.051270,4118.974121,4109.230957,4103.077148,4116.922852,4120.512695,4137.948730,4120.512695,4123.589844,0.000000,4.000000,,,,0.000000,4.000000,4.000000,4.000000,4.000000,4.000000,4.000000,4.000000,4.000000,4.000000,4.000000,4.000000,4.000000,4.000000,4.000000,100.000000
1602005796.238298,19.000000,0.000000,4140.512695,4136.922852,4138.974121,4138.461426,4132.820313,4109.743652,4120.512695,4116.410156,4103.589844,4106.153809,4121.025879,4133.333496,4118.974121,4137.948730,0.000000,4.000000,,,,0.000000,4.000000,4.000000,4.000000,4.000000,4.000000,4.000000,4.000000,4.000000,4.000000,4.000000,4.000000,4.000000,4.000000,4.000000,100.000000
1602005796.246194,20.000000,0.000000,4138.974121,4137.436035,4138.974121,4142.051270,4135.384766,4116.922852,4123.589844,4125.128418,4114.358887,4106.666504,4126.153809,4135.897461,4123.589844,4135.897461,0.000000,4.000000,,,,0.000000,4.000000,4.000000,4.000000,4.000000,4.000000,4.000000,4.000000,4.000000,4.000000,4.000000,4.000000,4.000000,4.000000,4.000000,100.000000
1602005796.254091,21.000000,0.000000,4138.461426,4135.384766,4136.922852,4141.025879,4138.461426,4123.589844,4123.589844,4124.615234,4120.512695,4120.512695,4117.436035,4138.461426,4123.589844,4120.512695,0.000000,4.000000,,,,0.000000,4.000000,4.000000,4.000000,4.000000,4.000000,4.000000,4.000000,4.000000,4.000000,4.000000,4.000000,4.000000,4.000000,4.000000,100.000000
1602005796.261988,22.000000,0.000000,4140.000000,4131.794922,4134.871582,4136.410156,4134.871582,4124.102539,4121.025879,4121.538574,4119.487305,4128.205078,4113.333496,4134.358887,4117.948730,4125.128418,0.000000,4.000000,,,,0.000000,4.000000,4.000000,4.000000,4.000000,4.000000,4.000000,4.000000,4.000000,4.000000,4.000000,4.000000,4.000000,4.000000,4.000000,100.000000
1602005796.269884,23.000000,0.000000,4145.128418,4134.871582,4139.487305,4143.589844,4135.384766,4122.563965,4127.692383,4126.666504,4123.077148,4120.512695,4127.692383,4138.461426,4126.666504,4146.666504,0.000000,4.000000,,,,0.000000,4.000000,4.000000,4.000000,4.000000,4.000000,4.000000,4.000000,4.000000,4.000000,4.000000,4.000000,4.000000,4.000000,4.000000,100.000000
1602005796.277781,24.000000,0.000000,4154.871582,4144.102539,4147.179688,4152.307617,4144.615234,4127.179688,4142.051270,4138.461426,4136.410156,4128.205078,4141.025879,4151.282227,4142.563965,4156.922852,0.000000,4.000000,,,,0.000000,4.000000,4.000000,4.000000,4.000000,4.000000,4.000000,4.000000,4.000000,4.000000,4.000000,4.000000,4.000000,4.000000,4.000000,100.000000
1602005796.285568,25.000000,0.000000,4154.871582,4143.077148,4143.077148,4144.615234,4145.641113,4127.179688,4144.102539,4139.487305,4144.102539,4144.615234,4141.025879,4158.974121,4144.615234,4153.846191,0.000000,4.000000,,,,0.000000,4.000000,4.000000,4.000000,4.000000,4.000000,4.000000,4.000000,4.000000,4.000000,4.000000,4.000000,4.000000,4.000000,4.000000,100.000000
1602005796.293454,26.000000,0.000000,4142.563965,4129.743652,4134.871582,4132.307617,4139.487305,4124.615234,4136.922852,4128.205078,4134.871582,4137.948730,4138.974121,4159.487305,4137.436035,4145.641113,0.000000,4.000000,,,,0.000000,4.000000,4.000000,4.000000,4.000000,4.000000,4.000000,4.000000,4.000000,4.000000,4.000000,4.000000,4.000000,4.000000,4.000000,100.000000
1602005796.301341,27.000000,0.000000,4135.897461,4122.051270,4135.897461,4128.205078,4140.512695,4134.358887,4138.974121,4124.102539,4124.102539,4121.538574,4138.461426,4155.384766,4132.820313,4141.538574,0.000000,4.000000,,,,0.000000,4.000000,4.000000,4.000000,4.000000,4.000000,4.000000,4.000000,4.000000,4.000000,4.000000,4.000000,4.000000,4.000000,4.000000,100.000000
1602005796.309128,28.000000,0.000000,4136.410156,4123.077148,4134.871582,4127.179688,4142.563965,4142.051270,4139.487305,4125.128418,4128.717773,4130.256348,4136.922852,4152.820313,4128.205078,4141.025879,0.000000,4.000000,,,,0.000000,4.000000,4.000000,4.000000,4.000000,4.000000,4.000000,4.000000,4.000000,4.000000,4.000000,4.000000,4.000000,4.000000,4.000000,100.000000
1602005796.317015,29.000000,0.000000,4136.922852,4122.563965,4126.666504,4128.205078,4139.487305,4133.333496,4128.717773,4122.051270,4138.461426,4150.256348,4134.358887,4153.846191,4125.641113,4132.307617,0.000000,4.000000,,,,0.000000,4.000000,4.000000,4.000000,4.000000,4.000000,4.000000,4.000000,4.000000,4.000000,4.000000,4.000000,4.000000,4.000000,4.000000,100.000000
1602005796.324902,30.000000,0.000000,4129.743652,4120.512695,4122.051270,4128.717773,4135.897461,4125.128418,4120.000000,4119.487305,4137.948730,4130.256348,4128.205078,4148.717773,4124.615234,4122.563965,0.000000,4.000000,,,,0.000000,4.000000,4.000000,4.000000,4.000000,4.000000,4.000000,4.000000,4.000000,4.000000,4.000000,4.000000,4.000000,4.000000,4.000000,100.000000
1602005796.332699,31.000000,0.000000,4121.538574,4122.051270,4122.563965,4123.077148,4135.897461,4129.230957,4118.461426,4121.025879,4134.871582,4094.358887,4121.538574,4141.538574,4121.025879,4124.615234,0.000000,4.000000,,,,0.000000,4.000000,4.000000,4.000000,4.000000,4.000000,4.000000,4.000000,4.000000,4.000000,4.000000,4.000000,4.000000,4.000000,4.000000,100.000000
1602005796.340597,32.000000,0.000000,4129.230957,4124.102539,4124.615234,4126.666504,4138.974121,4135.897461,4122.051270,4123.589844,4138.974121,4107.179688,4123.077148,4141.538574,4123.077148,4129.743652,0.000000,4.000000,,,,0.000000,4.000000,4.000000,4.000000,4.000000,4.000000,4.000000,4.000000,4.000000,4.000000,4.000000,4.000000,4.000000,4.000000,4.000000,100.000000
1602005796.348494,33.000000,0.000000,4140.512695,4126.153809,4123.077148,4133.333496,4133.333496,4138.974121,4125.128418,4125.641113,4138.974121,4138.974121,4123.077148,4141.538574,4123.077148,4125.641113,0.000000,4.000000,,,,0.000000,4.000000,4.000000,4.000000,4.000000,4.000000,4.000000,4.000000,4.000000,4.000000,4.000000,4.000000,4.000000,4.000000,4.000000,100.000000
1602005796.356391,34.000000,0.000000,4136.922852,4125.641113,4115.897461,4127.692383,4123.077148,4130.769043,4122.051270,4126.153809,4135.897461,4131.282227,4117.436035,4135.384766,4113.333496,4119.487305,0.000000,4.000000,,,,0.000000,4.000000,4.000000,4.000000,4.000000,4.000000,4.000000,4.000000,4.000000,4.000000,4.000000,4.000000,4.000000,4.000000,4.000000,100.000000
1602005796.364289,35.000000,0.000000,4132.307617,4123.077148,4113.846191,4124.615234,4127.179688,4119.487305,4124.615234,4124.615234,4135.897461,4114.871582,4118.974121,4131.794922,4111.794922,4120.512695,0.000000,4.000000,,,,0.000000,4.000000,4.000000,4.000000,4.000000,4.000000,4.000000,4.000000,4.000000,4.000000,4.000000,4.000000,4.000000,4.000000,4.000000,100.000000
1602005796.372186,36.000000,0.000000,4141.538574,4131.282227,4126.153809,4134.871582,4137.948730,4130.769043,4136.410156,4129.743652,4135.897461,4130.769043,4123.589844,4136.922852,4125.128418,4129.230957,0.000000,4.000000,,,,0.000000,4.000000,4.000000,4.000000,4.000000,4.000000,4.000000,4.000000,4.000000,4.000000,4.000000,4.000000,4.000000,4.000000,4.000000,100.000000
1602005796.380084,37.000000,0.000000,4143.077148,4137.436035,4135.897461,4140.000000,4138.461426,4143.077148,4140.000000,4134.871582,4137.436035,4138.974121,4122.051270,4140.512695,4132.307617,4134.358887,0.000000,4.000000,,,,0.000000,4.000000,4.000000,4.000000,4.000000,4.000000,4.000000,4.000000,4.000000,4.000000,4.000000,4.000000,4.000000,4.000000,4.000000,100.000000
1602005796.387981,38.000000,0.000000,4137.948730,4132.820313,4135.384766,4134.358887,4135.384766,4128.717773,4135.897461,4128.717773,4137.948730,4120.512695,4127.179688,4142.563965,4127.692383,4131.794922,0.000000,4.000000,,,,0.000000,4.000000,4.000000,4.000000,4.000000,4.000000,4.000000,4.000000,4.000000,4.000000,4.000000,4.000000,4.000000,4.000000,4.000000,100.000000
1602005796.395773,39.000000,0.000000,4148.205078,4136.922852,4135.897461,4135.897461,4132.307617,4118.974121,4133.846191,4122.563965,4137.948730,4118.974121,4135.897461,4151.282227,4136.410156,4136.922852,0.000000,4.000000,,,,0.000000,4.000000,4.000000,4.000000,4.000000,4.000000,4.000000,4.000000,4.000000,4.000000,4.000000,4.000000,4.000000,4.000000,4.000000,100.000000
1602005796.403666,40.000000,0.000000,4155.384766,4137.948730,4139.487305,4137.436035,4123.589844,4125.128418,4125.128418,4122.563965,4138.974121,4136.922852,4129.743652,4153.846191,4143.077148,4143.077148,0.000000,4.000000,,,,0.000000,4.000000,4.000000,4.000000,4.000000,4.000000,4.000000,4.000000,4.000000,4.000000,4.000000,4.000000,4.000000,4.000000,4.000000,100.000000
1602005796.411558,41.000000,0.000000,4142.051270,4125.641113,4138.461426,4132.307617,4122.051270,4123.077148,4113.846191,4114.871582,4138.461426,4142.563965,4117.436035,4144.102539,4125.128418,4134.358887,0.000000,4.000000,,,,0.000000,4.000000,4.000000,4.000000,4.000000,4.000000,4.000000,4.000000,4.000000,4.000000,4.000000,4.000000,4.000000,4.000000,4.000000,100.000000
1602005796.419451,42.000000,0.000000,4137.948730,4128.205078,4137.948730,4134.358887,4135.897461,4128.205078,4116.410156,4106.666504,4131.282227,4135.897461,4118.974121,4143.077148,4119.487305,4135.897461,0.000000,4.000000,,,,0.000000,4.000000,4.000000,4.000000,4.000000,4.000000,4.000000,4.000000,4.000000,4.000000,4.000000,4.000000,4.000000,4.000000,4.000000,100.000000
1602005796.427343,43.000000,0.000000,4150.256348,4144.102539,4141.538574,4144.102539,4147.179688,4145.641113,4125.641113,4112.307617,4126.153809,4127.692383,4131.794922,4153.333496,4142.051270,4155.384766,0.000000,4.000000,,,,0.000000,4.000000,4.000000,4.000000,4.000000,4.000000,4.000000,4.000000,4.000000,4.000000,4.000000,4.000000,4.000000,4.000000,4.000000,100.000000
1602005796.435235,44.000000,0.000000,4149.230957,4137.948730,4137.948730,4142.051270,4142.051270,4144.102539,4126.666504,4118.974121,4124.615234,4111.282227,4137.948730,4147.179688,4156.410156,4163.589844,0.000000,4.000000,,,,0.000000,4.000000,4.000000,4.000000,4.000000,4.000000,4.000000,4.000000,4.000000,4.000000,4.000000,4.000000,4.000000,4.000000,4.000000,100.000000
1602005796.443032,45.000000,0.000000,4132.820313,4118.461426,4128.205078,4126.153809,4133.846191,4133.846191,4129.743652,4122.563965,4126.666504,4106.153809,4136.922852,4135.897461,4161.025879,4163.589844,0.000000,4.000000,,,,0.000000,4.000000,4.000000,4.000000,4.000000,4.000000,4.000000,4.000000,4.000000,4.000000,4.000000,4.000000,4.000000,4.000000,4.000000,100.000000
1602005796.450928,46.000000,0.000000,4115.897461,4105.641113,4122.563965,4117.436035,4136.922852,4136.922852,4137.436035,4133.846191,4135.384766,4133.333496,4145.641113,4146.666504,4178.974121,4173.846191,0.000000,4.000000,,,,0.000000,4.000000,4.000000,4.000000,4.000000,4.000000,4.000000,4.000000,4.000000,4.000000,4.000000,4.000000,4.000000,4.000000,4.000000,100.000000
1602005796.458825,47.000000,0.000000,4102.563965,4096.410156,4120.512695,4118.974121,4141.025879,4138.974121,4140.512695,4147.692383,4147.179688,4162.051270,4155.897461,4154.358887,4188.717773,4177.948730,0.000000,4.000000,,,,0.000000,4.000000,4.000000,4.000000,4.000000,4.000000,4.000000,4.000000,4.000000,4.000000,4.000000,4.000000,4.000000,4.000000,4.000000,100.000000
1602005796.466721,48.000000,0.000000,4107.179688,4098.461426,4124.615234,4119.487305,4142.563965,4134.871582,4138.974121,4151.794922,4160.512695,4169.743652,4153.846191,4144.615234,4184.615234,4168.205078,0.000000,4.000000,,,,0.000000,4.000000,4.000000,4.000000,4.000000,4.000000,4.000000,4.000000,4.000000,4.000000,4.000000,4.000000,4.000000,4.000000,4.000000,100.000000
1602005796.474618,49.000000,0.000000,4123.077148,4109.743652,4135.897461,4122.051270,4145.641113,4143.589844,4143.077148,4153.333496,4179.487305,4177.948730,4163.589844,4145.128418,4197.436035,4171.794922,0.000000,4.000000,,,,0.000000,4.000000,4.000000,4.000000,4.000000,4.000000,4.000000,4.000000,4.000000,4.000000,4.000000,4.000000,4.000000,4.000000,4.000000,100.000000
1602005796.482514,50.000000,0.000000,4125.128418,4112.307617,4143.589844,4127.692383,4149.230957,4161.538574,4149.230957,4160.000000,4193.846191,4186.666504,4183.589844,4161.025879,4216.410156,4188.205078,0.000000,4.000000,,,,0.000000,4.000000,4.000000,4.000000,4.000000,4.000000,4.000000,4.000000,4.000000,4.000000,4.000000,4.000000,4.000000,4.000000,4.000000,100.000000
1602005796.490410,51.000000,0.000000,4116.922852,4105.128418,4140.512695,4125.128418,4142.563965,4157.948730,4143.589844,4155.897461,4188.717773,4173.846191,4177.948730,4164.102539,4212.307617,4189.230957,0.000000,4.000000,,,,0.000000,4.000000,4.000000,4.000000,4.000000,4.000000,4.000000,4.000000,4.000000,4.000000,4.000000,4.000000,4.000000,4.000000,4.000000,100.000000
1602005796.498307,52.000000,0.000000,4120.000000,4103.077148,4135.897461,4118.461426,4127.692383,4144.102539,4135.384766,4141.025879,4173.333496,4166.153809,4163.589844,4154.358887,4195.897461,4174.871582,0.000000,4.000000,,,,0.000000,4.000000,4.000000,4.000000,4.000000,4.000000,4.000000,4.000000,4.000000,4.000000,4.000000,4.000000,4.000000,4.000000,4.000000,100.000000
1602005796.506105,53.000000,0.000000,4122.563965,4107.179688,4137.436035,4121.025879,4127.692383,4151.282227,4140.512695,4133.333496,4161.538574,4181.538574,4168.205078,4154.358887,4191.794922,4171.282227,0.000000,4.000000,,,,0.000000,4.000000,4.000000,4.000000,4.000000,4.000000,4.000000,4.000000,4.000000,4.000000,4.000000,4.000000,4.000000,4.000000,4.000000,100.000000
1602005796.514003,54.000000,0.000000,4109.743652,4102.051270,4133.333496,4119.487305,4134.358887,4156.410156,4147.692383,4128.717773,4144.615234,4177.436035,4163.589844,4152.307617,4185.641113,4175.384766,0.000000,4.000000,,,,0.000000,4.000000,4.000000,4.000000,4.000000,4.000000,4.000000,4.000000,4.000000,4.000000,4.000000,4.000000,4.000000,4.000000,4.000000,100.000000
1602005796.521901,55.000000,0.000000,4100.512695,4089.743652,4121.538574,4111.282227,4126.153809,4138.974121,4143.077148,4118.974121,4124.102539,4145.128418,4143.589844,4134.358887,4168.717773,4165.641113,0.000000,4.000000,,,,0.000000,4.000000,4.000000,4.000000,4.000000,4.000000,4.000000,4.000000,4.000000,4.000000,4.000000,4.000000,4.000000,4.000000,4.000000,100.000000
1602005796.529799,56.000000,0.000000,4104.102539,4087.179443,4116.922852,4113.846191,4119.487305,4129.743652,4138.461426,4118.974121,4111.282227,4118.974121,4136.922852,4116.922852,4161.538574,4154.358887,0.000000,4.000000,,,,0.000000,4.000000,4.000000,4.000000,4.000000,4.000000,4.000000,4.000000,4.000000,4.000000,4.000000,4.000000,4.000000,4.000000,4.000000,100.000000
1602005796.537697,57.000000,0.000000,4102.563965,4098.461426,4122.563965,4123.077148,4133.333496,4136.922852,4140.000000,4131.794922,4108.717773,4112.307617,4145.128418,4118.461426,4166.153809,4154.871582,0.000000,4.000000,,,,0.000000,4.000000,4.000000,4.000000,4.000000,4.000000,4.000000,4.000000,4.000000,4.000000,4.000000,4.000000,4.000000,4.000000,4.000000,100.000000
1602005796.545595,58.000000,0.000000,4091.794922,4107.179688,4124.102539,4124.102539,4142.051270,4137.436035,4137.436035,4140.000000,4120.000000,4118.974121,4143.589844,4124.615234,4167.692383,4151.794922,0.000000,4.000000,,,,0.000000,4.000000,4.000000,4.000000,4.000000,4.000000,4.000000,4.000000,4.000000,4.000000,4.000000,4.000000,4.000000,4.000000,4.000000,100.000000
1602005796.553494,59.000000,0.000000,4092.820557,4105.641113,4123.077148,4121.025879,4134.358887,4132.820313,4134.871582,4145.641113,4144.102539,4132.307617,4135.897461,4120.512695,4163.589844,4142.051270,0.000000,4.000000,,,,0.000000,4.000000,4.000000,4.000000,4.000000,4.000000,4.000000,4.000000,4.000000,4.000000,4.000000,4.000000,4.000000,4.000000,4.000000,100.000000
1602005796.561392,60.000000,0.000000,4105.641113,4104.102539,4124.102539,4123.589844,4135.384766,4137.948730,4135.384766,4155.384766,4166.153809,4156.410156,4143.077148,4117.948730,4168.205078,4146.666504,0.000000,4.000000,,,,0.000000,4.000000,4.000000,4.000000,4.000000,4.000000,4.000000,4.000000,4.000000,4.000000,4.000000,4.000000,4.000000,4.000000,4.000000,100.000000
1602005796.569290,61.000000,0.000000,4110.769043,4107.692383,4123.589844,4125.641113,4141.025879,4145.128418,4136.922852,4156.410156,4173.333496,4174.358887,4154.358887,4127.179688,4178.461426,4162.051270,0.000000,4.000000,,,,0.000000,4.000000,4.000000,4.000000,4.000000,4.000000,4.000000,4.000000,4.000000,4.000000,4.000000,4.000000,4.000000,4.000000,4.000000,100.000000
1602005796.577079,62.000000,0.000000,4106.153809,4107.179688,4128.205078,4123.589844,4136.922852,4146.153809,4139.487305,4146.666504,4169.230957,4166.153809,4154.358887,4137.948730,4176.922852,4169.743652,0.000000,4.000000,,,,0.000000,4.000000,4.000000,4.000000,4.000000,4.000000,4.000000,4.000000,4.000000,4.000000,4.000000,4.000000,4.000000,4.000000,4.000000,100.000000
1602005796.584967,63.000000,0.000000,4108.205078,4098.974121,4136.922852,4121.538574,4132.820313,4143.077148,4142.563965,4138.461426,4160.000000,4148.717773,4151.794922,4140.512695,4171.282227,4170.769043,0.000000,4.000000,,,,0.000000,4.000000,4.000000,4.000000,4.000000,4.000000,4.000000,4.000000,4.000000,4.000000,4.000000,4.000000,4.000000,4.000000,4.000000,100.000000
1602005796.592856,64.000000,0.000000,4110.256348,4091.281982,4136.410156,4117.948730,4136.410156,4140.000000,4142.051270,4137.948730,4154.358887,4152.307617,4154.358887,4135.897461,4175.897461,4166.666504,837.000000,4.000000,,,,0.000000,4.000000,4.000000,4.000000,4.000000,4.000000,4.000000,4.000000,4.000000,4.000000,4.000000,4.000000,4.000000,4.000000,4.000000,100.000000
1602005796.600745,65.000000,0.000000,4097.436035,4089.743652,4122.563965,4113.333496,4135.897461,4138.974121,4142.051270,4140.000000,4156.922852,4165.128418,4156.922852,4128.205078,4176.922852,4161.025879,798.000000,4.000000,,,,0.000000,4.000000,4.000000,4.000000,4.000000,4.000000,4.000000,4.000000,4.000000,4.000000,4.000000,4.000000,4.000000,4.000000,4.000000,100.000000
1602005796.608543,66.000000,0.000000,4087.692383,4088.718018,4107.692383,4107.692383,4123.589844,4128.205078,4136.410156,4133.333496,4150.256348,4157.436035,4151.282227,4116.410156,4162.563965,4155.897461,854.000000,4.000000,,,,0.000000,4.000000,4.000000,4.000000,4.000000,4.000000,4.000000,4.000000,4.000000,4.000000,4.000000,4.000000,4.000000,4.000000,4.000000,100.000000
1602005796.616440,67.000000,0.000000,4087.179443,4085.128174,4103.077148,4103.589844,4118.974121,4115.384766,4127.179688,4120.000000,4128.717773,4134.358887,4137.436035,4105.641113,4150.769043,4148.205078,864.000000,4.000000,,,,0.000000,4.000000,4.000000,4.000000,4.000000,4.000000,4.000000,4.000000,4.000000,4.000000,4.000000,4.000000,4.000000,4.000000,4.000000,100.000000
1602005796.624338,68.000000,0.000000,4089.230713,4091.794922,4108.717773,4110.769043,4129.230957,4125.128418,4130.256348,4122.563965,4122.051270,4123.077148,4136.922852,4110.769043,4154.358887,4145.641113,816.000000,4.000000,,,,0.000000,4.000000,4.000000,4.000000,4.000000,4.000000,4.000000,4.000000,4.000000,4.000000,4.000000,4.000000,4.000000,4.000000,4.000000,100.000000
1602005796.632236,69.000000,0.000000,4096.410156,4107.179688,4114.871582,4123.077148,4136.410156,4144.615234,4140.000000,4137.436035,4136.410156,4132.820313,4153.333496,4124.102539,4169.230957,4153.846191,826.000000,4.000000,,,,0.000000,4.000000,4.000000,4.000000,4.000000,4.000000,4.000000,4.000000,4.000000,4.000000,4.000000,4.000000,4.000000,4.000000,4.000000,100.000000
1602005796.640133,70.000000,0.000000,4103.077148,4111.794922,4109.230957,4123.589844,4135.897461,4138.974121,4140.000000,4141.025879,4140.000000,4140.512695,4154.358887,4126.153809,4178.461426,4160.512695,778.000000,4.000000,,,,0.000000,4.000000,4.000000,4.000000,4.000000,4.000000,4.000000,4.000000,4.000000,4.000000,4.000000,4.000000,4.000000,4.000000,4.000000,100.000000
1602005796.648031,71.000000,0.000000,4101.538574,4107.692383,4105.641113,4119.487305,4135.897461,4124.615234,4130.769043,4135.897461,4132.820313,4134.358887,4137.948730,4118.461426,4164.615234,4149.230957,693.000000,4.000000,,,,0.000000,4.000000,4.000000,4.000000,4.000000,4.000000,4.000000,4.000000,4.000000,4.000000,4.000000,4.000000,4.000000,4.000000,4.000000,100.000000
1602005796.655928,72.000000,0.000000,4104.102539,4115.384766,4117.948730,4125.128418,4136.922852,4130.769043,4128.717773,4138.461426,4141.025879,4141.025879,4137.948730,4121.538574,4157.948730,4145.641113,793.000000,4.000000,,,,0.000000,4.000000,4.000000,4.000000,4.000000,4.000000,4.000000,4.000000,4.000000,4.000000,4.000000,4.000000,4.000000,4.000000,4.000000,100.000000
1602005796.663826,73.000000,0.000000,4111.794922,4124.102539,4131.794922,4130.769043,4137.948730,4139.487305,4135.384766,4144.102539,4160.512695,4160.000000,4156.922852,4134.358887,4181.025879,4164.102539,840.000000,4.000000,,,,0.000000,4.000000,4.000000,4.000000,4.000000,4.000000,4.000000,4.000000,4.000000,4.000000,4.000000,4.000000,4.000000,4.000000,4.000000,100.000000
1602005796.671724,74.000000,0.000000,4107.179688,4116.922852,4127.179688,4125.128418,4138.974121,4137.436035,4142.051270,4147.179688,4166.666504,4154.871582,4170.256348,4137.436035,4194.871582,4173.846191,862.000000,4.000000,,,,0.000000,4.000000,4.000000,4.000000,4.000000,4.000000,4.000000,4.000000,4.000000,4.000000,4.000000,4.000000,4.000000,4.000000,4.000000,100.000000
1602005796.679522,75.000000,0.000000,4104.102539,4105.641113,4117.948730,4117.948730,4136.922852,4135.384766,4143.077148,4147.179688,4158.974121,4131.282227,4165.641113,4134.358887,4184.615234,4166.666504,841.000000,4.000000,,,,0.000000,4.000000,4.000000,4.000000,4.000000,4.000000,4.000000,4.000000,4.000000,4.000000,4.000000,4.000000,4.000000,4.000000,4.000000,100.000000
1602005796.687420,76.000000,0.000000,4108.717773,4108.205078,4122.051270,4122.051270,4135.897461,4136.410156,4141.538574,4145.128418,4153.846191,4137.948730,4160.000000,4137.436035,4184.102539,4163.077148,776.000000,4.000000,,,,0.000000,4.000000,4.000000,4.000000,4.000000,4.000000,4.000000,4.000000,4.000000,4.000000,4.000000,4.000000,4.000000,4.000000,4.000000,100.000000
1602005796.695319,77.000000,0.000000,4105.128418,4111.282227,4128.205078,4123.077148,4137.436035,4136.410156,4142.051270,4142.563965,4150.256348,4168.205078,4160.000000,4134.358887,4187.692383,4158.974121,752.000000,4.000000,,,,0.000000,4.000000,4.000000,4.000000,4.000000,4.000000,4.000000,4.000000,4.000000,4.000000,4.000000,4.000000,4.000000,4.000000,4.000000,100.000000
1602005796.703217,78.000000,0.000000,4092.820557,4102.563965,4118.461426,4112.307617,4129.743652,4130.769043,4134.358887,4135.897461,4144.102539,4165.641113,4150.256348,4121.538574,4174.358887,4144.102539,862.000000,4.000000,,,,0.000000,4.000000,4.000000,4.000000,4.000000,4.000000,4.000000,4.000000,4.000000,4.000000,4.000000,4.000000,4.000000,4.000000,4.000000,100.000000
1602005796.711115,79.000000,0.000000,4089.743652,4098.461426,4104.615234,4108.717773,4119.487305,4123.077148,4124.102539,4127.179688,4139.487305,4146.153809,4140.000000,4123.077148,4167.179688,4144.615234,841.000000,4.000000,,,,0.000000,4.000000,4.000000,4.000000,4.000000,4.000000,4.000000,4.000000,4.000000,4.000000,4.000000,4.000000,4.000000,4.000000,4.000000,100.000000
1602005796.719014,80.000000,0.000000,4101.538574,4106.666504,4106.666504,4118.461426,4123.589844,4120.512695,4120.000000,4120.000000,4134.871582,4141.025879,4140.000000,4136.922852,4169.230957,4151.282227,776.000000,4.000000,,,,0.000000,4.000000,4.000000,4.000000,4.000000,4.000000,4.000000,4.000000,4.000000,4.000000,4.000000,4.000000,4.000000,4.000000,4.000000,100.000000
1602005796.726912,81.000000,0.000000,4108.205078,4112.307617,4118.461426,4123.077148,4130.769043,4118.461426,4115.384766,4123.077148,4130.769043,4123.589844,4137.948730,4142.563965,4161.025879,4143.589844,752.000000,4.000000,,,,0.000000,4.000000,4.000000,4.000000,4.000000,4.000000,4.000000,4.000000,4.000000,4.000000,4.000000,4.000000,4.000000,4.000000,4.000000,100.000000
1602005796.734810,82.000000,0.000000,4105.641113,4109.743652,4121.538574,4122.051270,4126.153809,4119.487305,4115.384766,4133.846191,4135.384766,4106.666504,4144.102539,4141.025879,4153.846191,4137.948730,862.000000,4.000000,,,,0.000000,4.000000,4.000000,4.000000,4.000000,4.000000,4.000000,4.000000,4.000000,4.000000,4.000000,4.000000,4.000000,4.000000,4.000000,100.000000
1602005796.742709,83.000000,0.000000,4104.102539,4107.692383,4113.333496,4118.974121,4120.512695,4130.769043,4120.512695,4138.461426,4138.974121,4118.461426,4151.794922,4136.922852,4155.897461,4142.563965,841.000000,4.000000,,,,0.000000,4.000000,4.000000,4.000000,4.000000,4.000000,4.000000,4.000000,4.000000,4.000000,4.000000,4.000000,4.000000,4.000000,4.000000,100.000000
1602005796.750508,84.000000,0.000000,4104.102539,4106.153809,4106.153809,4112.307617,4122.563965,4137.436035,4125.128418,4136.410156,4136.922852,4130.256348,4143.077148,4134.358887,4154.358887,4138.974121,776.000000,4.000000,,,,0.000000,4.000000,4.000000,4.000000,4.000000,4.000000,4.000000,4.000000,4.000000,4.000000,4.000000,4.000000,4.000000,4.000000,4.000000,100.000000
1602005796.758406,85.000000,0.000000,4098.974121,4106.153809,4108.205078,4113.846191,4127.179688,4135.897461,4132.307617,4141.538574,4148.205078,4131.794922,4140.512695,4136.922852,4152.307617,4130.769043,752.000000,4.000000,,,,0.000000,4.000000,4.000000,4.000000,4.000000,4.000000,4.000000,4.000000,4.000000,4.000000,4.000000,4.000000,4.000000,4.000000,4.000000,100.000000
1602005796.766305,86.000000,0.000000,4097.436035,4109.230957,4113.333496,4120.000000,4127.179688,4133.333496,4137.948730,4146.666504,4153.333496,4139.487305,4152.820313,4138.974121,4158.974121,4142.563965,862.000000,4.000000,,,,0.000000,4.000000,4.000000,4.000000,4.000000,4.000000,4.000000,4.000000,4.000000,4.000000,4.000000,4.000000,4.000000,4.000000,4.000000,100.000000
1602005796.774204,87.000000,0.000000,4106.153809,4108.205078,4114.871582,4115.384766,4123.077148,4128.717773,4129.230957,4142.051270,4142.051270,4138.461426,4154.871582,4140.512695,4167.179688,4156.922852,841.000000,4.000000,,,,0.000000,4.000000,4.000000,4.000000,4.000000,4.000000,4.000000,4.000000,4.000000,4.000000,4.000000,4.000000,4.000000,4.000000,4.000000,100.000000
1602005796.782103,88.000000,0.000000,4108.717773,4110.256348,4118.461426,4114.871582,4125.128418,4123.077148,4122.051270,4138.974121,4143.589844,4135.384766,4154.358887,4150.256348,4175.897461,4158.461426,776.000000,4.000000,,,,0.000000,4.000000,4.000000,4.000000,4.000000,4.000000,4.000000,4.000000,4.000000,4.000000,4.000000,4.000000,4.000000,4.000000,4.000000,100.000000
1602005796.790002,89.000000,0.000000,4106.666504,4118.461426,4125.641113,4123.589844,4136.410156,4123.589844,4127.692383,4140.000000,4154.358887,4151.282227,4157.948730,4163.077148,4184.615234,4164.102539,752.000000,4.000000,,,,0.000000,4.000000,4.000000,4.000000,4.000000,4.000000,4.000000,4.000000,4.000000,4.000000,4.000000,4.000000,4.000000,4.000000,4.000000,100.000000
1602005796.797900,90.000000,0.000000,4110.769043,4124.615234,4129.743652,4126.153809,4140.000000,4133.846191,4129.230957,4141.538574,4148.205078,4165.641113,4157.436035,4170.769043,4191.282227,4176.922852,862.000000,4.000000,,,,0.000000,4.000000,4.000000,4.000000,4.000000,4.000000,4.000000,4.000000,4.000000,4.000000,4.000000,4.000000,4.000000,4.000000,4.000000,100.000000
1602005796.805799,91.000000,0.000000,4114.871582,4120.512695,4125.641113,4121.538574,4130.769043,4135.897461,4124.102539,4140.000000,4135.897461,4154.871582,4160.000000,4167.692383,4187.692383,4171.282227,841.000000,4.000000,,,,0.000000,4.000000,4.000000,4.000000,4.000000,4.000000,4.000000,4.000000,4.000000,4.000000,4.000000,4.000000,4.000000,4.000000,4.000000,100.000000
1602005796.813698,92.000000,0.000000,4113.333496,4116.410156,4121.025879,4120.512695,4128.717773,4125.128418,4125.641113,4136.922852,4141.025879,4143.077148,4160.000000,4155.384766,4174.871582,4155.897461,776.000000,4.000000,,,,0.000000,4.000000,4.000000,4.000000,4.000000,4.000000,4.000000,4.000000,4.000000,4.000000,4.000000,4.000000,4.000000,4.000000,4.000000,100.000000
1602005796.821495,93.000000,0.000000,4111.794922,4120.512695,4125.641113,4122.563965,4137.436035,4126.666504,4133.846191,4145.128418,4154.871582,4146.666504,4156.922852,4153.846191,4173.333496,4160.000000,752.000000,4.000000,,,,0.000000,4.000000,4.000000,4.000000,4.000000,4.000000,4.000000,4.000000,4.000000,4.000000,4.000000,4.000000,4.000000,4.000000,4.000000,100.000000
1602005796.829392,94.000000,0.000000,4108.717773,4121.538574,4126.666504,4123.589844,4140.512695,4138.461426,4138.974121,4151.794922,4160.000000,4146.153809,4156.922852,4156.922852,4171.282227,4160.512695,862.000000,4.000000,,,,0.000000,4.000000,4.000000,4.000000,4.000000,4.000000,4.000000,4.000000,4.000000,4.000000,4.000000,4.000000,4.000000,4.000000,4.000000,100.000000
1602005796.837288,95.000000,0.000000,4106.153809,4120.000000,4121.538574,4123.589844,4135.897461,4133.333496,4137.948730,4142.051270,4151.282227,4135.897461,4148.205078,4145.128418,4158.974121,4146.153809,841.000000,4.000000,,,,0.000000,4.000000,4.000000,4.000000,4.000000,4.000000,4.000000,4.000000,4.000000,4.000000,4.000000,4.000000,4.000000,4.000000,4.000000,100.000000
1602005796.845185,96.000000,0.000000,4112.307617,4122.051270,4129.230957,4123.077148,4134.358887,4126.666504,4137.436035,4135.384766,4142.563965,4135.384766,4134.871582,4135.897461,4152.307617,4143.589844,776.000000,4.000000,,,,0.000000,4.000000,4.000000,4.000000,4.000000,4.000000,4.000000,4.000000,4.000000,4.000000,4.000000,4.000000,4.000000,4.000000,4.000000,100.000000
1602005796.853082,97.000000,0.000000,4113.333496,4123.077148,4135.897461,4124.615234,4136.922852,4138.461426,4140.000000,4141.025879,4142.563965,4140.000000,4136.922852,4138.974121,4155.384766,4146.153809,752.000000,4.000000,,,,0.000000,4.000000,4.000000,4.000000,4.000000,4.000000,4.000000,4.000000,4.000000,4.000000,4.000000,4.000000,4.000000,4.000000,4.000000,100.000000
1602005796.860978,98.000000,0.000000,4105.128418,4122.051270,4128.205078,4125.128418,4138.974121,4146.666504,4143.077148,4140.000000,4142.051270,4127.692383,4144.615234,4138.461426,4155.384766,4138.974121,862.000000,4.000000,,,,0.000000,4.000000,4.000000,4.000000,4.000000,4.000000,4.000000,4.000000,4.000000,4.000000,4.000000,4.000000,4.000000,4.000000,4.000000,100.000000
1602005796.868875,99.000000,0.000000,4105.128418,4123.077148,4124.102539,4125.641113,4137.436035,4143.589844,4141.538574,4137.436035,4141.025879,4112.820313,4143.077148,4136.410156,4154.871582,4138.974121,841.000000,4.000000,,,,0.000000,4.000000,4.000000,4.000000,4.000000,4.000000,4.000000,4.000000,4.000000,4.000000,4.000000,4.000000,4.000000,4.000000,4.000000,100.000000
1602005796.876771,100.000000,0.000000,4105.641113,4116.922852,4124.102539,4123.077148,4126.666504,4139.487305,4136.410156,4140.000000,4141.025879,4123.589844,4138.974121,4138.461426,4152.820313,4140.512695,776.000000,4.000000,,,,0.000000,4.000000,4.000000,4.000000,4.000000,4.000000,4.000000,4.000000,4.000000,4.000000,4.000000,4.000000,4.000000,4.000000,4.000000,100.000000
1602005796.884563,101.000000,0.000000,4097.948730,4106.153809,4118.461426,4119.487305,4123.589844,4134.871582,4134.358887,4137.948730,4139.487305,4145.641113,4144.102539,4135.384766,4150.256348,4138.974121,752.000000,4.000000,,,,0.000000,4.000000,4.000000,4.000000,4.000000,4.000000,4.000000,4.000000,4.000000,4.000000,4.000000,4.000000,4.000000,4.000000,4.000000,100.000000
1602005796.892454,102.000000,0.000000,4101.025879,4109.743652,4118.974121,4122.051270,4131.794922,4135.897461,4136.410156,4135.384766,4144.102539,4154.871582,4153.846191,4140.512695,4160.512695,4149.230957,862.000000,4.000000,,,,0.000000,4.000000,4.000000,4.000000,4.000000,4.000000,4.000000,4.000000,4.000000,4.000000,4.000000,4.000000,4.000000,4.000000,4.000000,100.000000
1602005796.900345,103.000000,0.000000,4110.769043,4119.487305,4125.641113,4125.128418,4131.794922,4139.487305,4137.948730,4138.461426,4154.358887,4156.410156,4155.897461,4152.820313,4171.794922,4159.487305,841.000000,4.000000,,,,0.000000,4.000000,4.000000,4.000000,4.000000,4.000000,4.000000,4.000000,4.000000,4.000000,4.000000,4.000000,4.000000,4.000000,4.000000,100.000000
1602005796.908236,104.000000,0.000000,4109.230957,4118.461426,4126.153809,4123.077148,4123.077148,4134.871582,4136.410156,4140.512695,4156.410156,4167.179688,4154.871582,4154.871582,4170.256348,4157.436035,776.000000,4.000000,,,,0.000000,4.000000,4.000000,4.000000,4.000000,4.000000,4.000000,4.000000,4.000000,4.000000,4.000000,4.000000,4.000000,4.000000,4.000000,100.000000
1602005796.916127,105.000000,0.000000,4106.153809,4113.333496,4125.128418,4121.538574,4122.051270,4126.666504,4130.256348,4139.487305,4151.794922,4166.666504,4149.743652,4151.794922,4162.051270,4151.794922,752.000000,4.000000,,,,0.000000,4.000000,4.000000,4.000000,4.000000,4.000000,4.000000,4.000000,4.000000,4.000000,4.000000,4.000000,4.000000,4.000000,4.000000,100.000000
1602005796.923926,106.000000,0.000000,4108.717773,4112.307617,4125.641113,4122.051270,4125.128418,4123.589844,4125.641113,4137.948730,4148.717773,4142.563965,4143.589844,4149.230957,4154.358887,4148.205078,862.000000,4.000000,,,,0.000000,4.000000,4.000000,4.000000,4.000000,4.000000,4.000000,4.000000,4.000000,4.000000,4.000000,4.000000,4.000000,4.000000,4.000000,100.000000
1602005796.931825,107.000000,0.000000,4109.743652,4110.256348,4125.641113,4121.025879,4127.692383,4125.641113,4128.717773,4135.384766,4146.153809,4130.769043,4142.563965,4143.589844,4154.358887,4151.282227,841.000000,4.000000,,,,0.000000,4.000000,4.000000,4.000000,4.000000,4.000000,4.000000,4.000000,4.000000,4.000000,4.000000,4.000000,4.000000,4.000000,4.000000,100.000000
1602005796.939723,108.000000,0.000000,4110.769043,4106.666504,4125.641113,4120.000000,4126.153809,4122.563965,4127.179688,4128.205078,4138.461426,4140.000000,4140.512695,4136.922852,4148.717773,4155.897461,776.000000,4.000000,,,,0.000000,4.000000,4.000000,4.000000,4.000000,4.000000,4.000000,4.000000,4.000000,4.000000,4.000000,4.000000,4.000000,4.000000,4.000000,100.000000
1602005796.947622,109.000000,0.000000,4114.358887,4110.769043,4123.589844,4118.974121,4120.000000,4116.410156,4119.487305,4126.666504,4133.846191,4143.589844,4138.974121,4135.897461,4142.051270,4151.282227,752.000000,4.000000,,,,0.000000,4.000000,4.000000,4.000000,4.000000,4.000000,4.000000,4.000000,4.000000,4.000000,4.000000,4.000000,4.000000,4.000000,4.000000,100.000000
1602005796.955520,110.000000,0.000000,4115.897461,4121.025879,4125.128418,4120.000000,4126.666504,4116.410156,4120.512695,4136.410156,4145.641113,4149.230957,4153.333496,4144.615234,4154.358887,4154.358887,862.000000,4.000000,,,,0.000000,4.000000,4.000000,4.000000,4.000000,4.000000,4.000000,4.000000,4.000000,4.000000,4.000000,4.000000,4.000000,4.000000,4.000000,100.000000
1602005796.963419,111.000000,0.000000,4112.307617,4123.589844,4130.769043,4124.615234,4138.974121,4125.641113,4127.179688,4145.641113,4158.974121,4166.666504,4172.307617,4155.384766,4171.794922,4163.077148,841.000000,4.000000,,,,0.000000,4.000000,4.000000,4.000000,4.000000,4.000000,4.000000,4.000000,4.000000,4.000000,4.000000,4.000000,4.000000,4.000000,4.000000,100.000000
1602005796.971318,112.000000,0.000000,4116.410156,4123.077148,4137.436035,4127.692383,4145.128418,4141.538574,4129.230957,4146.153809,4157.948730,4165.128418,4173.333496,4156.410156,4175.384766,4160.000000,776.000000,4.000000,,,,0.000000,4.000000,4.000000,4.000000,4.000000,4.000000,4.000000,4.000000,4.000000,4.000000,4.000000,4.000000,4.000000,4.000000,4.000000,100.000000
1602005796.979216,113.000000,0.000000,4121.025879,4126.153809,4135.897461,4124.615234,4142.563965,4140.000000,4125.128418,4142.051270,4151.794922,4145.128418,4161.538574,4147.692383,4170.769043,4153.846191,752.000000,4.000000,,,,0.000000,4.000000,4.000000,4.000000,4.000000,4.000000,4.000000,4.000000,4.000000,4.000000,4.000000,4.000000,4.000000,4.000000,4.000000,100.000000
1602005796.987115,114.000000,0.000000,4112.820313,4117.948730,4124.102539,4121.538574,4131.794922,4118.461426,4118.461426,4137.436035,4153.846191,4150.769043,4147.179688,4140.000000,4160.512695,4146.666504,862.000000,4.000000,,,,0.000000,4.000000,4.000000,4.000000,4.000000,4.000000,4.000000,4.000000,4.000000,4.000000,4.000000,4.000000,4.000000,4.000000,4.000000,100.000000
1602005796.994908,115.000000,0.000000,4106.153809,4111.282227,4120.000000,4124.102539,4129.230957,4114.358887,4118.461426,4138.974121,4157.436035,4173.333496,4147.692383,4138.461426,4153.846191,4140.000000,841.000000,4.000000,,,,0.000000,4.000000,4.000000,4.000000,4.000000,4.000000,4.000000,4.000000,4.000000,4.000000,4.000000,4.000000,4.000000,4.000000,4.000000,100.000000
1602005797.002801,116.000000,0.000000,4106.666504,4116.922852,4122.563965,4125.128418,4138.461426,4126.666504,4118.974121,4140.512695,4147.692383,4168.205078,4151.794922,4139.487305,4157.436035,4137.948730,776.000000,4.000000,,,,0.000000,4.000000,4.000000,4.000000,4.000000,4.000000,4.000000,4.000000,4.000000,4.000000,4.000000,4.000000,4.000000,4.000000,4.000000,100.000000
1602005797.010693,117.000000,0.000000,4106.666504,4118.461426,4122.051270,4123.077148,4141.538574,4126.666504,4115.384766,4135.384766,4139.487305,4156.922852,4142.563965,4140.512695,4155.897461,4143.077148,752.000000,4.000000,,,,0.000000,4.000000,4.000000,4.000000,4.000000,4.000000,4.000000,4.000000,4.000000,4.000000,4.000000,4.000000,4.000000,4.000000,4.000000,100.000000
1602005797.018586,118.000000,0.000000,4102.563965,4113.333496,4120.000000,4124.615234,4137.436035,4122.563965,4118.461426,4134.358887,4149.230957,4158.974121,4135.897461,4142.051270,4147.179688,4143.589844,862.000000,4.000000,,,,0.000000,4.000000,4.000000,4.000000,4.000000,4.000000,4.000000,4.000000,4.000000,4.000000,4.000000,4.000000,4.000000,4.000000,4.000000,100.000000
1602005797.026479,119.000000,0.000000,4094.871826,4105.641113,4114.358887,4119.487305,4134.358887,4125.128418,4124.615234,4134.871582,4147.692383,4142.051270,4139.487305,4143.589844,4142.563965,4135.384766,841.000000,4.000000,,,,0.000000,4.000000,4.000000,4.000000,4.000000,4.000000,4.000000,4.000000,4.000000,4.000000,4.000000,4.000000,4.000000,4.000000,4.000000,100.000000
1602005797.034372,120.000000,0.000000,4087.692383,4098.974121,4107.179688,4107.692383,4128.205078,4121.538574,4122.051270,4125.641113,4125.641113,4116.922852,4137.948730,4143.077148,4137.948730,4126.153809,776.000000,4.000000,,,,0.000000,4.000000,4.000000,4.000000,4.000000,4.000000,4.000000,4.000000,4.000000,4.000000,4.000000,4.000000,4.000000,4.000000,4.000000,100.000000
1602005797.042161,121.000000,0.000000,4088.718018,4101.538574,4105.128418,4110.256348,4123.077148,4116.922852,4119.487305,4123.077148,4122.563965,4118.974121,4135.384766,4147.179688,4138.461426,4124.102539,752.000000,4.000000,,,,0.000000,4.000000,4.000000,4.000000,4.000000,4.000000,4.000000,4.000000,4.000000,4.000000,4.000000,4.000000,4.000000,4.000000,4.000000,100.000000
1602005797.050050,122.000000,0.000000,4094.871826,4106.666504,4106.153809,4120.512695,4128.717773,4122.051270,4124.102539,4133.333496,4143.589844,4139.487305,4136.922852,4152.820313,4148.205078,4129.230957,862.000000,4.000000,,,,0.000000,4.000000,4.000000,4.000000,4.000000,4.000000,4.000000,4.000000,4.000000,4.000000,4.000000,4.000000,4.000000,4.000000,4.000000,100.000000
1602005797.057938,123.000000,0.000000,4101.538574,4108.205078,4110.769043,4123.589844,4135.897461,4131.794922,4125.128418,4140.512695,4152.820313,4157.948730,4142.051270,4153.333496,4160.512695,4140.000000,841.000000,4.000000,,,,0.000000,4.000000,4.000000,4.000000,4.000000,4.000000,4.000000,4.000000,4.000000,4.000000,4.000000,4.000000,4.000000,4.000000,4.000000,100.000000
1602005797.065827,124.000000,0.000000,4107.179688,4115.897461,4120.000000,4124.615234,4139.487305,4135.897461,4123.589844,4141.025879,4152.820313,4170.256348,4154.871582,4161.025879,4169.230957,4148.717773,776.000000,4.000000,,,,0.000000,4.000000,4.000000,4.000000,4.000000,4.000000,4.000000,4.000000,4.000000,4.000000,4.000000,4.000000,4.000000,4.000000,4.000000,100.000000
1602005797.073613,125.000000,0.000000,4106.666504,4118.974121,4123.077148,4126.153809,4137.948730,4125.128418,4124.102539,4140.512695,4153.333496,4162.563965,4160.512695,4170.769043,4169.743652,4145.128418,752.000000,4.000000,,,,0.000000,4.000000,4.000000,4.000000,4.000000,4.000000,4.000000,4.000000,4.000000,4.000000,4.000000,4.000000,4.000000,4.000000,4.000000,100.000000
1602005797.081498,126.000000,0.000000,4106.666504,4115.897461,4123.077148,4128.205078,4133.333496,4115.897461,4124.615234,4136.922852,4149.230957,4143.589844,4153.846191,4166.666504,4168.205078,4140.512695,862.000000,4.000000,,,,0.000000,4.000000,4.000000,4.000000,4.000000,4.000000,4.000000,4.000000,4.000000,4.000000,4.000000,4.000000,4.000000,4.000000,4.000000,100.000000
1602005797.089289,127.000000,0.000000,4109.230957,4120.512695,4128.717773,4134.871582,4131.282227,4122.051270,4123.589844,4135.384766,4143.589844,4145.641113,4154.358887,4154.871582,4167.179688,4145.128418,841.000000,4.000000,,,,0.000000,4.000000,4.000000,4.000000,4.000000,4.000000,4.000000,4.000000,4.000000,4.000000,4.000000,4.000000,4.000000,4.000000,4.000000,100.000000
1602005797.097181,128.000000,0.000000,4108.205078,4119.487305,4128.205078,4136.410156,4133.333496,4130.256348,4124.102539,4137.948730,4141.538574,4154.871582,4150.769043,4151.794922,4161.025879,4145.128418,776.000000,4.000000,,,,0.000000,4.000000,4.000000,4.000000,4.000000,4.000000,4.000000,4.000000,4.000000,4.000000,4.000000,4.000000,4.000000,4.000000,4.000000,100.000000
1602005797.105072,0.000000,0.000000,4106.153809,4113.333496,4124.102539,4129.230957,4138.461426,4126.666504,4124.615234,4136.922852,4148.205078,4153.846191,4140.512695,4154.358887,4153.333496,4132.820313,812.000000,4.000000,,,,0.000000,4.000000,4.000000,4.000000,4.000000,4.000000,4.000000,4.000000,4.000000,4.000000,4.000000,4.000000,4.000000,4.000000,4.000000,100.000000
1602005797.112963,1.000000,0.000000,4107.179688,4115.384766,4122.051270,4127.179688,4136.410156,4111.794922,4121.025879,4138.461426,4155.897461,4156.410156,4136.410156,4154.358887,4151.794922,4125.128418,798.000000,4.000000,,,,0.000000,4.000000,4.000000,4.000000,4.000000,4.000000,4.000000,4.000000,4.000000,4.000000,4.000000,4.000000,4.000000,4.000000,4.000000,100.000000
1602005797.120854,2.000000,0.000000,4114.358887,4122.051270,4120.512695,4132.820313,4132.307617,4109.230957,4118.461426,4143.077148,4151.282227,4156.922852,4137.948730,4154.358887,4153.846191,4140.000000,854.000000,4.000000,,,,0.000000,4.000000,4.000000,4.000000,4.000000,4.000000,4.000000,4.000000,4.000000,4.000000,4.000000,4.000000,4.000000,4.000000,4.000000,100.000000
1602005797.128640,3.000000,0.000000,4123.077148,4125.128418,4129.743652,4138.974121,4135.897461,4123.077148,4122.563965,4143.589844,4141.025879,4144.615234,4139.487305,4156.410156,4154.358887,4155.897461,864.000000,4.000000,,,,0.000000,4.000000,4.000000,4.000000,4.000000,4.000000,4.000000,4.000000,4.000000,4.000000,4.000000,4.000000,4.000000,4.000000,4.000000,100.000000
1602005797.136525,4.000000,0.000000,4124.102539,4126.666504,4140.000000,4138.974121,4138.461426,4121.025879,4125.641113,4139.487305,4137.436035,4131.794922,4144.102539,4157.436035,4155.384766,4148.205078,816.000000,4.000000,,,,0.000000,4.000000,4.000000,4.000000,4.000000,4.000000,4.000000,4.000000,4.000000,4.000000,4.000000,4.000000,4.000000,4.000000,4.000000,100.000000
1602005797.144313,5.000000,0.000000,4118.974121,4124.102539,4132.307617,4136.410156,4138.974121,4110.256348,4122.051270,4132.820313,4128.205078,4129.743652,4145.641113,4154.358887,4154.871582,4135.897461,826.000000,4.000000,,,,0.000000,4.000000,4.000000,4.000000,4.000000,4.000000,4.000000,4.000000,4.000000,4.000000,4.000000,4.000000,4.000000,4.000000,4.000000,100.000000
1602005797.152200,6.000000,0.000000,4121.025879,4121.538574,4122.051270,4135.384766,4133.846191,4117.436035,4122.563965,4123.589844,4112.820313,4122.563965,4142.051270,4148.205078,4153.846191,4139.487305,778.000000,4.000000,,,,0.000000,4.000000,4.000000,4.000000,4.000000,4.000000,4.000000,4.000000,4.000000,4.000000,4.000000,4.000000,4.000000,4.000000,4.000000,100.000000
1602005797.160087,7.000000,0.000000,4126.153809,4123.077148,4130.769043,4135.384766,4125.641113,4123.589844,4128.717773,4119.487305,4112.820313,4117.948730,4144.615234,4148.717773,4159.487305,4144.102539,691.000000,4.000000,,,,0.000000,4.000000,4.000000,4.000000,4.000000,4.000000,4.000000,4.000000,4.000000,4.000000,4.000000,4.000000,4.000000,4.000000,4.000000,100.000000
1602005797.167871,8.000000,0.000000,4124.102539,4123.589844,4135.897461,4136.410156,4128.205078,4119.487305,4127.179688,4127.179688,4127.179688,4142.051270,4155.897461,4155.897461,4169.743652,4140.512695,793.000000,4.000000,,,,0.000000,4.000000,4.000000,4.000000,4.000000,4.000000,4.000000,4.000000,4.000000,4.000000,4.000000,4.000000,4.000000,4.000000,4.000000,100.000000
1602005797.175669,9.000000,0.000000,4121.025879,4123.589844,4127.179688,4134.871582,4138.974121,4120.512695,4119.487305,4136.410156,4134.871582,4169.743652,4154.358887,4161.025879,4171.282227,4140.000000,840.000000,4.000000,,,,0.000000,4.000000,4.000000,4.000000,4.000000,4.000000,4.000000,4.000000,4.000000,4.000000,4.000000,4.000000,4.000000,4.000000,4.000000,100.000000
1602005797.183566,10.000000,0.000000,4120.512695,4121.025879,4123.077148,4128.717773,4136.410156,4127.179688,4124.615234,4136.410156,4140.512695,4154.358887,4141.538574,4158.461426,4161.538574,4146.153809,864.000000,4.000000,,,,0.000000,4.000000,4.000000,4.000000,4.000000,4.000000,4.000000,4.000000,4.000000,4.000000,4.000000,4.000000,4.000000,4.000000,4.000000,100.000000
1602005797.191464,11.000000,0.000000,4105.128418,4108.717773,4117.948730,4122.051270,4123.589844,4131.282227,4135.897461,4133.333496,4138.974121,4126.153809,4140.000000,4147.179688,4149.230957,4134.871582,841.000000,4.000000,,,,0.000000,4.000000,4.000000,4.000000,4.000000,4.000000,4.000000,4.000000,4.000000,4.000000,4.000000,4.000000,4.000000,4.000000,4.000000,100.000000
1602005797.199361,12.000000,0.000000,4085.128174,4101.025879,4110.256348,4120.000000,4125.641113,4137.948730,4137.436035,4132.307617,4126.153809,4130.256348,4140.512695,4135.384766,4137.948730,4106.666504,776.000000,4.000000,,,,0.000000,4.000000,4.000000,4.000000,4.000000,4.000000,4.000000,4.000000,4.000000,4.000000,4.000000,4.000000,4.000000,4.000000,4.000000,100.000000
1602005797.207259,13.000000,0.000000,4094.358887,4111.282227,4109.743652,4128.205078,4139.487305,4144.102539,4142.563965,4133.333496,4126.153809,4137.436035,4131.282227,4133.846191,4134.871582,4107.692383,752.000000,4.000000,,,,0.000000,4.000000,4.000000,4.000000,4.000000,4.000000,4.000000,4.000000,4.000000,4.000000,4.000000,4.000000,4.000000,4.000000,4.000000,100.000000
1602005797.215157,14.000000,0.000000,4111.282227,4122.563965,4113.333496,4133.846191,4142.563965,4143.077148,4150.769043,4134.871582,4134.358887,4121.538574,4130.256348,4136.922852,4138.974121,4129.230957,864.000000,4.000000,,,,0.000000,4.000000,4.000000,4.000000,4.000000,4.000000,4.000000,4.000000,4.000000,4.000000,4.000000,4.000000,4.000000,4.000000,4.000000,100.000000
1602005797.223054,15.000000,0.000000,4106.666504,4118.461426,4114.871582,4130.769043,4136.922852,4140.000000,4145.641113,4135.897461,4129.230957,4114.358887,4136.922852,4132.820313,4136.410156,4126.153809,841.000000,4.000000,,,,0.000000,4.000000,4.000000,4.000000,4.000000,4.000000,4.000000,4.000000,4.000000,4.000000,4.000000,4.000000,4.000000,4.000000,4.000000,100.000000
1602005797.230952,16.000000,0.000000,4106.153809,4118.974121,4121.538574,4133.333496,4144.615234,4145.641113,4138.974121,4135.384766,4129.230957,4128.205078,4139.487305,4132.820313,4137.948730,4120.512695,0.000000,4.000000,,,,0.000000,4.000000,4.000000,4.000000,4.000000,4.000000,4.000000,4.000000,4.000000,4.000000,4.000000,4.000000,4.000000,4.000000,4.000000,100.000000
1602005797.238849,17.000000,0.000000,4120.000000,4130.769043,4128.205078,4143.077148,4152.820313,4156.922852,4137.948730,4133.333496,4145.128418,4140.000000,4143.077148,4140.512695,4153.333496,4134.871582,0.000000,4.000000,,,,0.000000,4.000000,4.000000,4.000000,4.000000,4.000000,4.000000,4.000000,4.000000,4.000000,4.000000,4.000000,4.000000,4.000000,4.000000,100.000000
1602005797.246634,18.000000,0.000000,4124.615234,4131.282227,4126.153809,4143.077148,4144.615234,4156.922852,4130.769043,4128.205078,4148.205078,4144.615234,4143.077148,4135.897461,4157.948730,4137.948730,0.000000,4.000000,,,,0.000000,4.000000,4.000000,4.000000,4.000000,4.000000,4.000000,4.000000,4.000000,4.000000,4.000000,4.000000,4.000000,4.000000,4.000000,100.000000
1602005797.254518,19.000000,0.000000,4118.461426,4122.051270,4122.563965,4136.922852,4136.922852,4144.615234,4129.230957,4123.077148,4141.025879,4152.820313,4138.461426,4126.666504,4143.077148,4125.641113,0.000000,4.000000,,,,0.000000,4.000000,4.000000,4.000000,4.000000,4.000000,4.000000,4.000000,4.000000,4.000000,4.000000,4.000000,4.000000,4.000000,4.000000,100.000000
1602005797.262314,20.000000,0.000000,4113.846191,4120.512695,4120.512695,4134.358887,4136.922852,4135.897461,4134.358887,4122.563965,4138.461426,4159.487305,4142.051270,4131.794922,4138.974121,4117.948730,0.000000,4.000000,,,,0.000000,4.000000,4.000000,4.000000,4.000000,4.000000,4.000000,4.000000,4.000000,4.000000,4.000000,4.000000,4.000000,4.000000,4.000000,100.000000
1602005797.270210,21.000000,0.000000,4115.897461,4123.589844,4127.179688,4134.871582,4135.384766,4135.384766,4140.000000,4133.846191,4143.589844,4148.205078,4153.846191,4148.205078,4155.897461,4127.179688,0.000000,4.000000,,,,0.000000,4.000000,4.000000,4.000000,4.000000,4.000000,4.000000,4.000000,4.000000,4.000000,4.000000,4.000000,4.000000,4.000000,4.000000,100.000000
1602005797.278106,22.000000,0.000000,4128.205078,4126.153809,4138.461426,4139.487305,4133.333496,4141.025879,4149.230957,4148.717773,4155.897461,4133.846191,4161.025879,4163.589844,4168.205078,4151.282227,0.000000,4.000000,,,,0.000000,4.000000,4.000000,4.000000,4.000000,4.000000,4.000000,4.000000,4.000000,4.000000,4.000000,4.000000,4.000000,4.000000,4.000000,100.000000
1602005797.286002,23.000000,0.000000,4141.538574,4128.205078,4145.128418,4140.000000,4137.948730,4144.615234,4151.282227,4149.743652,4153.846191,4134.871582,4158.461426,4169.743652,4161.025879,4160.000000,0.000000,4.000000,,,,0.000000,4.000000,4.000000,4.000000,4.000000,4.000000,4.000000,4.000000,4.000000,4.000000,4.000000,4.000000,4.000000,4.000000,4.000000,100.000000
1602005797.293898,24.000000,0.000000,4134.871582,4123.589844,4142.563965,4137.948730,4136.922852,4139.487305,4140.000000,4135.897461,4132.820313,4137.948730,4144.615234,4161.538574,4146.666504,4142.563965,0.000000,4.000000,,,,0.000000,4.000000,4.000000,4.000000,4.000000,4.000000,4.000000,4.000000,4.000000,4.000000,4.000000,4.000000,4.000000,4.000000,4.000000,100.000000
1602005797.301794,25.000000,0.000000,4109.230957,4112.820313,4128.205078,4134.871582,4124.615234,4128.205078,4128.205078,4124.102539,4118.974121,4131.794922,4127.692383,4145.128418,4136.922852,4122.051270,0.000000,4.000000,,,,0.000000,4.000000,4.000000,4.000000,4.000000,4.000000,4.000000,4.000000,4.000000,4.000000,4.000000,4.000000,4.000000,4.000000,4.000000,100.000000
1602005797.309690,26.000000,0.000000,4103.077148,4114.871582,4121.538574,4134.871582,4125.641113,4123.077148,4127.179688,4121.538574,4123.589844,4130.256348,4126.666504,4142.051270,4133.846191,4118.974121,0.000000,4.000000,,,,0.000000,4.000000,4.000000,4.000000,4.000000,4.000000,4.000000,4.000000,4.000000,4.000000,4.000000,4.000000,4.000000,4.000000,4.000000,100.000000
1602005797.317586,27.000000,0.000000,4126.666504,4131.282227,4132.820313,4143.589844,4143.077148,4133.333496,4133.333496,4124.615234,4133.333496,4140.512695,4142.563965,4154.871582,4140.512695,4131.282227,0.000000,4.000000,,,,0.000000,4.000000,4.000000,4.000000,4.000000,4.000000,4.000000,4.000000,4.000000,4.000000,4.000000,4.000000,4.000000,4.000000,4.000000,100.000000
1602005797.325377,28.000000,0.000000,4140.000000,4140.000000,4141.538574,4151.794922,4148.717773,4149.743652,4140.000000,4129.230957,4137.436035,4133.333496,4152.820313,4164.102539,4150.769043,4141.538574,0.000000,4.000000,,,,0.000000,4.000000,4.000000,4.000000,4.000000,4.000000,4.000000,4.000000,4.000000,4.000000,4.000000,4.000000,4.000000,4.000000,4.000000,100.000000
1602005797.333269,29.000000,0.000000,4135.384766,4136.922852,4137.948730,4152.307617,4139.487305,4152.820313,4135.897461,4129.230957,4137.436035,4121.025879,4154.358887,4162.051270,4155.897461,4138.461426,0.000000,4.000000,,,,0.000000,4.000000,4.000000,4.000000,4.000000,4.000000,4.000000,4.000000,4.000000,4.000000,4.000000,4.000000,4.000000,4.000000,4.000000,100.000000
1602005797.341160,30.000000,0.000000,4137.436035,4139.487305,4136.410156,4150.769043,4137.948730,4140.000000,4127.692383,4127.179688,4142.563965,4133.333496,4153.333496,4154.871582,4155.384766,4136.410156,0.000000,4.000000,,,,0.000000,4.000000,4.000000,4.000000,4.000000,4.000000,4.000000,4.000000,4.000000,4.000000,4.000000,4.000000,4.000000,4.000000,4.000000,100.000000
1602005797.349052,31.000000,0.000000,4144.615234,4144.615234,4141.538574,4155.384766,4142.563965,4132.820313,4128.205078,4130.256348,4153.333496,4157.948730,4152.307617,4153.846191,4155.384766,4141.025879,0.000000,4.000000,,,,0.000000,4.000000,4.000000,4.000000,4.000000,4.000000,4.000000,4.000000,4.000000,4.000000,4.000000,4.000000,4.000000,4.000000,4.000000,100.000000
1602005797.356943,32.000000,0.000000,4143.077148,4144.615234,4144.615234,4157.436035,4145.128418,4140.000000,4134.871582,4136.922852,4157.948730,4166.153809,4155.897461,4159.487305,4158.461426,4140.512695,0.000000,4.000000,,,,0.000000,4.000000,4.000000,4.000000,4.000000,4.000000,4.000000,4.000000,4.000000,4.000000,4.000000,4.000000,4.000000,4.000000,4.000000,100.000000
1602005797.364834,33.000000,0.000000,4132.820313,4138.461426,4135.897461,4148.717773,4143.589844,4140.512695,4140.512695,4138.974121,4155.384766,4161.025879,4153.846191,4159.487305,4154.358887,4138.461426,0.000000,4.000000,,,,0.000000,4.000000,4.000000,4.000000,4.000000,4.000000,4.000000,4.000000,4.000000,4.000000,4.000000,4.000000,4.000000,4.000000,4.000000,100.000000
1602005797.372632,34.000000,0.000000,4121.538574,4131.282227,4119.487305,4138.974121,4138.974121,4133.333496,4139.487305,4136.922852,4151.282227,4156.922852,4138.974121,4151.794922,4145.641113,4135.897461,0.000000,4.000000,,,,0.000000,4.000000,4.000000,4.000000,4.000000,4.000000,4.000000,4.000000,4.000000,4.000000,4.000000,4.000000,4.000000,4.000000,4.000000,100.000000
1602005797.380529,35.000000,0.000000,4122.563965,4130.256348,4123.589844,4137.436035,4138.974121,4134.871582,4137.948730,4138.461426,4145.128418,4148.717773,4139.487305,4155.897461,4147.692383,4134.871582,0.000000,4.000000,,,,0.000000,4.000000,4.000000,4.000000,4.000000,4.000000,4.000000,4.000000,4.000000,4.000000,4.000000,4.000000,4.000000,4.000000,4.000000,100.000000
1602005797.388426,36.000000,0.000000,4130.256348,4137.948730,4142.051270,4141.538574,4142.051270,4142.563965,4140.000000,4138.974121,4134.871582,4142.051270,4152.820313,4171.282227,4157.436035,4142.563965,0.000000,4.000000,,,,0.000000,4.000000,4.000000,4.000000,4.000000,4.000000,4.000000,4.000000,4.000000,4.000000,4.000000,4.000000,4.000000,4.000000,4.000000,100.000000
1602005797.396323,37.000000,0.000000,4127.692383,4139.487305,4142.051270,4141.538574,4137.948730,4141.538574,4135.384766,4130.256348,4124.615234,4131.282227,4145.641113,4169.743652,4152.820313,4142.563965,0.000000,4.000000,,,,0.000000,4.000000,4.000000,4.000000,4.000000,4.000000,4.000000,4.000000,4.000000,4.000000,4.000000,4.000000,4.000000,4.000000,4.000000,100.000000
1602005797.404220,38.000000,0.000000,4121.025879,4129.743652,4126.666504,4139.487305,4129.743652,4129.743652,4123.077148,4121.025879,4117.436035,4108.717773,4127.692383,4150.256348,4135.384766,4127.179688,0.000000,4.000000,,,,0.000000,4.000000,4.000000,4.000000,4.000000,4.000000,4.000000,4.000000,4.000000,4.000000,4.000000,4.000000,4.000000,4.000000,4.000000,100.000000
1602005797.412117,39.000000,0.000000,4118.974121,4123.077148,4119.487305,4137.948730,4124.615234,4122.563965,4117.948730,4117.948730,4112.307617,4100.512695,4122.051270,4137.948730,4124.102539,4116.922852,0.000000,4.000000,,,,0.000000,4.000000,4.000000,4.000000,4.000000,4.000000,4.000000,4.000000,4.000000,4.000000,4.000000,4.000000,4.000000,4.000000,4.000000,100.000000
1602005797.420014,40.000000,0.000000,4117.948730,4122.563965,4125.128418,4137.436035,4122.051270,4121.538574,4121.025879,4118.974121,4115.897461,4118.974121,4120.512695,4135.384766,4122.563965,4127.179688,0.000000,4.000000,,,,0.000000,4.000000,4.000000,4.000000,4.000000,4.000000,4.000000,4.000000,4.000000,4.000000,4.000000,4.000000,4.000000,4.000000,4.000000,100.000000
1602005797.427912,41.000000,0.000000,4120.512695,4127.179688,4133.846191,4137.948730,4123.589844,4110.256348,4122.563965,4121.538574,4126.153809,4128.205078,4126.666504,4142.051270,4130.769043,4136.922852,0.000000,4.000000,,,,0.000000,4.000000,4.000000,4.000000,4.000000,4.000000,4.000000,4.000000,4.000000,4.000000,4.000000,4.000000,4.000000,4.000000,4.000000,100.000000
1602005797.435809,42.000000,0.000000,4129.230957,4133.846191,4143.589844,4142.563965,4129.743652,4107.179688,4127.692383,4126.666504,4133.333496,4118.461426,4142.563965,4160.512695,4146.666504,4141.025879,0.000000,4.000000,,,,0.000000,4.000000,4.000000,4.000000,4.000000,4.000000,4.000000,4.000000,4.000000,4.000000,4.000000,4.000000,4.000000,4.000000,4.000000,100.000000
1602005797.443606,43.000000,0.000000,4147.692383,4140.000000,4153.333496,4152.820313,4136.922852,4127.692383,4137.436035,4134.358887,4145.128418,4138.974121,4160.000000,4172.820313,4165.128418,4158.461426,0.000000,4.000000,,,,0.000000,4.000000,4.000000,4.000000,4.000000,4.000000,4.000000,4.000000,4.000000,4.000000,4.000000,4.000000,4.000000,4.000000,4.000000,100.000000
1602005797.451504,44.000000,0.000000,4157.436035,4143.589844,4158.974121,4151.794922,4136.410156,4145.641113,4141.025879,4138.461426,4160.512695,4175.897461,4169.230957,4172.307617,4174.358887,4170.256348,0.000000,4.000000,,,,0.000000,4.000000,4.000000,4.000000,4.000000,4.000000,4.000000,4.000000,4.000000,4.000000,4.000000,4.000000,4.000000,4.000000,4.000000,100.000000
1602005797.459401,45.000000,0.000000,4145.128418,4134.358887,4150.256348,4138.461426,4126.666504,4141.538574,4132.820313,4135.384766,4156.410156,4165.641113,4161.538574,4171.282227,4168.205078,4160.512695,0.000000,4.000000,,,,0.000000,4.000000,4.000000,4.000000,4.000000,4.000000,4.000000,4.000000,4.000000,4.000000,4.000000,4.000000,4.000000,4.000000,4.000000,100.000000
1602005797.467298,46.000000,0.000000,4134.871582,4124.615234,4140.000000,4134.871582,4119.487305,4130.769043,4123.077148,4128.205078,4139.487305,4136.922852,4152.307617,4166.666504,4157.436035,4151.282227,0.000000,4.000000,,,,0.000000,4.000000,4.000000,4.000000,4.000000,4.000000,4.000000,4.000000,4.000000,4.000000,4.000000,4.000000,4.000000,4.000000,4.000000,100.000000
1602005797.475196,47.000000,0.000000,4140.000000,4132.307617,4140.512695,4143.077148,4127.692383,4129.743652,4121.025879,4126.153809,4135.384766,4140.512695,4148.205078,4161.025879,4150.256348,4149.743652,0.000000,4.000000,,,,0.000000,4.000000,4.000000,4.000000,4.000000,4.000000,4.000000,4.000000,4.000000,4.000000,4.000000,4.000000,4.000000,4.000000,4.000000,100.000000
1602005797.483093,48.000000,0.000000,4137.948730,4138.461426,4140.512695,4143.077148,4138.461426,4135.897461,4123.077148,4127.179688,4134.871582,4132.307617,4141.538574,4162.051270,4143.077148,4142.051270,0.000000,4.000000,,,,0.000000,4.000000,4.000000,4.000000,4.000000,4.000000,4.000000,4.000000,4.000000,4.000000,4.000000,4.000000,4.000000,4.000000,4.000000,100.000000
1602005797.490990,49.000000,0.000000,4125.641113,4129.743652,4133.846191,4138.461426,4133.846191,4134.871582,4127.179688,4125.128418,4126.666504,4105.128418,4132.820313,4158.461426,4136.410156,4134.871582,0.000000,4.000000,,,,0.000000,4.000000,4.000000,4.000000,4.000000,4.000000,4.000000,4.000000,4.000000,4.000000,4.000000,4.000000,4.000000,4.000000,4.000000,100.000000
1602005797.498888,50.000000,0.000000,4129.230957,4130.769043,4133.846191,4140.512695,4126.666504,4123.077148,4134.871582,4122.563965,4124.615234,4117.436035,4132.820313,4154.871582,4136.922852,4139.487305,0.000000,4.000000,,,,0.000000,4.000000,4.000000,4.000000,4.000000,4.000000,4.000000,4.000000,4.000000,4.000000,4.000000,4.000000,4.000000,4.000000,4.000000,100.000000
1602005797.506785,51.000000,0.000000,4142.563965,4140.512695,4141.025879,4145.128418,4126.666504,4119.487305,4140.512695,4123.589844,4134.358887,4145.641113,4141.025879,4162.563965,4145.128418,4143.589844,0.000000,4.000000,,,,0.000000,4.000000,4.000000,4.000000,4.000000,4.000000,4.000000,4.000000,4.000000,4.000000,4.000000,4.000000,4.000000,4.000000,4.000000,100.000000
1602005797.514582,52.000000,0.000000,4142.051270,4138.974121,4141.538574,4142.051270,4124.615234,4129.743652,4138.974121,4124.615234,4137.948730,4137.436035,4143.077148,4165.128418,4150.769043,4144.102539,0.000000,4.000000,,,,0.000000,4.000000,4.000000,4.000000,4.000000,4.000000,4.000000,4.000000,4.000000,4.000000,4.000000,4.000000,4.000000,4.000000,4.000000,100.000000
1602005797.522478,53.000000,0.000000,4137.436035,4135.897461,4140.512695,4142.051270,4121.538574,4137.436035,4135.897461,4130.256348,4133.333496,4127.692383,4137.948730,4158.461426,4151.794922,4138.461426,0.000000,4.000000,,,,0.000000,4.000000,4.000000,4.000000,4.000000,4.000000,4.000000,4.000000,4.000000,4.000000,4.000000,4.000000,4.000000,4.000000,4.000000,100.000000
1602005797.530375,54.000000,0.000000,4140.000000,4139.487305,4144.615234,4148.717773,4123.589844,4131.794922,4127.692383,4137.948730,4142.563965,4147.179688,4144.102539,4156.922852,4153.846191,4135.384766,0.000000,4.000000,,,,0.000000,4.000000,4.000000,4.000000,4.000000,4.000000,4.000000,4.000000,4.000000,4.000000,4.000000,4.000000,4.000000,4.000000,4.000000,100.000000
1602005797.538271,55.000000,0.000000,4141.025879,4140.512695,4142.563965,4147.179688,4121.538574,4118.974121,4109.743652,4135.897461,4155.897461,4160.512695,4153.846191,4154.358887,4156.922852,4141.025879,0.000000,4.000000,,,,0.000000,4.000000,4.000000,4.000000,4.000000,4.000000,4.000000,4.000000,4.000000,4.000000,4.000000,4.000000,4.000000,4.000000,4.000000,100.000000
1602005797.546167,56.000000,0.000000,4137.436035,4138.461426,4134.871582,4141.025879,4124.102539,4115.897461,4098.974121,4131.282227,4160.000000,4153.333496,4145.128418,4148.205078,4154.358887,4139.487305,0.000000,4.000000,,,,0.000000,4.000000,4.000000,4.000000,4.000000,4.000000,4.000000,4.000000,4.000000,4.000000,4.000000,4.000000,4.000000,4.000000,4.000000,100.000000
1602005797.554064,57.000000,0.000000,4137.436035,4138.974121,4134.358887,4142.051270,4137.436035,4123.077148,4107.692383,4136.410156,4165.128418,4153.846191,4139.487305,4153.846191,4153.846191,4134.871582,0.000000,4.000000,,,,0.000000,4.000000,4.000000,4.000000,4.000000,4.000000,4.000000,4.000000,4.000000,4.000000,4.000000,4.000000,4.000000,4.000000,4.000000,100.000000
1602005797.561960,58.000000,0.000000,4138.461426,4140.000000,4139.487305,4142.563965,4142.051270,4130.769043,4124.615234,4138.461426,4164.102539,4157.436035,4142.563965,4164.615234,4154.358887,4143.077148,0.000000,4.000000,,,,0.000000,4.000000,4.000000,4.000000,4.000000,4.000000,4.000000,4.000000,4.000000,4.000000,4.000000,4.000000,4.000000,4.000000,4.000000,100.000000
1602005797.569857,59.000000,0.000000,4128.205078,4133.333496,4134.358887,4139.487305,4137.948730,4138.461426,4137.436035,4128.205078,4138.461426,4144.102539,4129.230957,4161.538574,4136.922852,4144.102539,0.000000,4.000000,,,,0.000000,4.000000,4.000000,4.000000,4.000000,4.000000,4.000000,4.000000,4.000000,4.000000,4.000000,4.000000,4.000000,4.000000,4.000000,100.000000
1602005797.577652,60.000000,0.000000,4114.358887,4123.077148,4122.563965,4136.410156,4134.871582,4141.025879,4141.538574,4114.871582,4104.102539,4114.871582,4114.871582,4144.102539,4114.871582,4123.589844,0.000000,4.000000,,,,0.000000,4.000000,4.000000,4.000000,4.000000,4.000000,4.000000,4.000000,4.000000,4.000000,4.000000,4.000000,4.000000,4.000000,4.000000,100.000000
1602005797.585547,61.000000,0.000000,4111.794922,4119.487305,4118.974121,4134.871582,4128.717773,4137.948730,4136.922852,4109.230957,4088.718018,4080.000000,4117.436035,4135.384766,4112.307617,4118.461426,0.000000,4.000000,,,,0.000000,4.000000,4.000000,4.000000,4.000000,4.000000,4.000000,4.000000,4.000000,4.000000,4.000000,4.000000,4.000000,4.000000,4.000000,100.000000
1602005797.593442,62.000000,0.000000,4117.436035,4122.563965,4125.641113,4134.871582,4124.615234,4138.974121,4129.743652,4107.692383,4086.153809,4071.281982,4120.512695,4144.102539,4121.538574,4136.410156,0.000000,4.000000,,,,0.000000,4.000000,4.000000,4.000000,4.000000,4.000000,4.000000,4.000000,4.000000,4.000000,4.000000,4.000000,4.000000,4.000000,4.000000,100.000000
1602005797.601338,63.000000,0.000000,4120.512695,4122.563965,4128.717773,4135.897461,4128.205078,4142.563965,4122.563965,4101.025879,4086.153809,4097.948730,4121.538574,4146.153809,4123.077148,4139.487305,0.000000,4.000000,,,,0.000000,4.000000,4.000000,4.000000,4.000000,4.000000,4.000000,4.000000,4.000000,4.000000,4.000000,4.000000,4.000000,4.000000,4.000000,100.000000
1602005797.609233,64.000000,0.000000,4117.948730,4119.487305,4126.153809,4134.358887,4125.641113,4138.974121,4113.333496,4092.307617,4089.230713,4111.794922,4125.128418,4138.461426,4120.512695,4123.589844,810.000000,4.000000,,,,0.000000,4.000000,4.000000,4.000000,4.000000,4.000000,4.000000,4.000000,4.000000,4.000000,4.000000,4.000000,4.000000,4.000000,4.000000,100.000000
1602005797.617128,65.000000,0.000000,4123.589844,4127.179688,4129.230957,4138.974121,4120.000000,4126.666504,4102.563965,4096.922852,4103.589844,4111.282227,4128.717773,4138.461426,4128.205078,4121.025879,798.000000,4.000000,,,,0.000000,4.000000,4.000000,4.000000,4.000000,4.000000,4.000000,4.000000,4.000000,4.000000,4.000000,4.000000,4.000000,4.000000,4.000000,100.000000
1602005797.625023,66.000000,0.000000,4141.538574,4145.128418,4140.512695,4152.820313,4131.794922,4121.538574,4102.563965,4114.358887,4133.846191,4139.487305,4143.589844,4151.794922,4145.641113,4142.563965,854.000000,4.000000,,,,0.000000,4.000000,4.000000,4.000000,4.000000,4.000000,4.000000,4.000000,4.000000,4.000000,4.000000,4.000000,4.000000,4.000000,4.000000,100.000000
1602005797.632919,67.000000,0.000000,4156.922852,4157.948730,4153.333496,4161.538574,4146.666504,4131.794922,4114.871582,4132.820313,4166.666504,4173.333496,4165.641113,4164.615234,4167.179688,4164.615234,864.000000,4.000000,,,,0.000000,4.000000,4.000000,4.000000,4.000000,4.000000,4.000000,4.000000,4.000000,4.000000,4.000000,4.000000,4.000000,4.000000,4.000000,100.000000
1602005797.640711,68.000000,0.000000,4162.051270,4162.051270,4154.358887,4158.974121,4143.077148,4138.461426,4128.205078,4144.615234,4181.538574,4182.563965,4174.871582,4166.153809,4178.461426,4169.230957,816.000000,4.000000,,,,0.000000,4.000000,4.000000,4.000000,4.000000,4.000000,4.000000,4.000000,4.000000,4.000000,4.000000,4.000000,4.000000,4.000000,4.000000,100.000000
1602005797.648603,69.000000,0.000000,4160.512695,4165.128418,4147.692383,4156.922852,4139.487305,4137.436035,4134.358887,4147.692383,4176.922852,4189.743652,4171.794922,4162.051270,4178.974121,4171.282227,826.000000,4.000000,,,,0.000000,4.000000,4.000000,4.000000,4.000000,4.000000,4.000000,4.000000,4.000000,4.000000,4.000000,4.000000,4.000000,4.000000,4.000000,100.000000
1602005797.656494,70.000000,0.000000,4158.974121,4162.563965,4151.282227,4156.410156,4144.615234,4135.384766,4138.461426,4145.128418,4163.077148,4178.974121,4161.025879,4162.563965,4175.384766,4174.358887,778.000000,4.000000,,,,0.000000,4.000000,4.000000,4.000000,4.000000,4.000000,4.000000,4.000000,4.000000,4.000000,4.000000,4.000000,4.000000,4.000000,4.000000,100.000000
1602005797.664386,71.000000,0.000000,4152.307617,4146.666504,4156.922852,4147.179688,4134.358887,4126.153809,4139.487305,4137.436035,4133.333496,4135.897461,4142.051270,4154.871582,4156.410156,4154.358887,691.000000,4.000000,,,,0.000000,4.000000,4.000000,4.000000,4.000000,4.000000,4.000000,4.000000,4.000000,4.000000,4.000000,4.000000,4.000000,4.000000,4.000000,100.000000
1602005797.672278,72.000000,0.000000,4135.384766,4129.743652,4144.615234,4135.384766,4113.846191,4112.307617,4137.948730,4125.641113,4103.077148,4109.743652,4120.000000,4132.307617,4128.205078,4126.153809,793.000000,4.000000,,,,0.000000,4.000000,4.000000,4.000000,4.000000,4.000000,4.000000,4.000000,4.000000,4.000000,4.000000,4.000000,4.000000,4.000000,4.000000,100.000000
1602005797.680170,73.000000,0.000000,4121.025879,4122.563965,4128.205078,4128.717773,4108.205078,4113.333496,4137.436035,4121.538574,4100.000000,4115.384766,4112.307617,4120.512695,4115.384766,4117.436035,840.000000,4.000000,,,,0.000000,4.000000,4.000000,4.000000,4.000000,4.000000,4.000000,4.000000,4.000000,4.000000,4.000000,4.000000,4.000000,4.000000,4.000000,100.000000
