Timestamp,EEG.Counter,EEG.Interpolated,EEG.AF3,EEG.F7,EEG.F3,EEG.FC5,EEG.T7,EEG.P7,EEG.O1,EEG.O2,EEG.P8,EEG.T8,EEG.FC6,EEG.F4,EEG.F8,EEG.AF4,EEG.RawCq,EEG.Battery,MarkerIndex,MarkerType,MarkerValueInt,EEG.MarkerHardware,CQ.AF3,CQ.F7,CQ.F3,CQ.FC5,CQ.T7,CQ.P7,CQ.O1,CQ.O2,CQ.P8,CQ.T8,CQ.FC6,CQ.F4,CQ.F8,CQ.AF4,CQ.Overall
1602005821.299815,105.000000,0.000000,4152.307617,4129.743652,4127.179688,4123.589844,4126.153809,4129.230957,4138.461426,4153.333496,4141.538574,4134.358887,4132.307617,4141.538574,4122.563965,4136.410156,752.000000,4.000000,,,,0.000000,4.000000,4.000000,4.000000,4.000000,4.000000,4.000000,4.000000,4.000000,4.000000,4.000000,4.000000,4.000000,4.000000,4.000000,100.000000
1602005821.307598,106.000000,0.000000,4152.820313,4135.384766,4128.205078,4123.077148,4126.153809,4126.666504,4139.487305,4154.871582,4138.974121,4135.897461,4144.615234,4141.025879,4126.153809,4137.948730,877.000000,4.000000,,,,0.000000,4.000000,4.000000,4.000000,4.000000,4.000000,4.000000,4.000000,4.000000,4.000000,4.000000,4.000000,4.000000,4.000000,4.000000,100.000000
1602005821.315481,107.000000,0.000000,4151.282227,4137.436035,4131.794922,4121.538574,4133.333496,4127.179688,4141.025879,4153.846191,4145.641113,4142.051270,4140.000000,4144.615234,4133.846191,4137.436035,841.000000,4.000000,,,,0.000000,4.000000,4.000000,4.000000,4.000000,4.000000,4.000000,4.000000,4.000000,4.000000,4.000000,4.000000,4.000000,4.000000,4.000000,100.000000
1602005821.323265,108.000000,0.000000,4152.307617,4136.410156,4136.410156,4126.666504,4138.461426,4136.410156,4145.128418,4155.384766,4155.384766,4143.589844,4137.436035,4151.794922,4138.974121,4149.743652,773.000000,4.000000,,,,0.000000,4.000000,4.000000,4.000000,4.000000,4.000000,4.000000,4.000000,4.000000,4.000000,4.000000,4.000000,4.000000,4.000000,4.000000,100.000000
1602005821.331148,109.000000,0.000000,4156.922852,4140.000000,4137.948730,4135.384766,4137.436035,4139.487305,4143.077148,4153.846191,4155.384766,4138.974121,4147.179688,4153.846191,4144.615234,4155.897461,752.000000,4.000000,,,,0.000000,4.000000,4.000000,4.000000,4.000000,4.000000,4.000000,4.000000,4.000000,4.000000,4.000000,4.000000,4.000000,4.000000,4.000000,100.000000
1602005821.338934,110.000000,0.000000,4157.436035,4142.563965,4138.974121,4136.922852,4134.871582,4126.666504,4133.846191,4150.769043,4149.743652,4136.410156,4156.922852,4159.487305,4147.692383,4143.077148,877.000000,4.000000,,,,0.000000,4.000000,4.000000,4.000000,4.000000,4.000000,4.000000,4.000000,4.000000,4.000000,4.000000,4.000000,4.000000,4.000000,4.000000,100.000000
1602005821.346820,111.000000,0.000000,4153.846191,4142.051270,4140.512695,4135.384766,4132.307617,4119.487305,4126.153809,4151.282227,4152.820313,4146.666504,4150.256348,4167.179688,4141.538574,4133.333496,841.000000,4.000000,,,,0.000000,4.000000,4.000000,4.000000,4.000000,4.000000,4.000000,4.000000,4.000000,4.000000,4.000000,4.000000,4.000000,4.000000,4.000000,100.000000
1602005821.354706,112.000000,0.000000,4154.871582,4142.563965,4141.025879,4137.436035,4135.384766,4127.179688,4130.256348,4149.743652,4155.897461,4154.871582,4134.871582,4161.538574,4136.922852,4139.487305,773.000000,4.000000,,,,0.000000,4.000000,4.000000,4.000000,4.000000,4.000000,4.000000,4.000000,4.000000,4.000000,4.000000,4.000000,4.000000,4.000000,4.000000,100.000000
1602005821.362592,113.000000,0.000000,4154.871582,4139.487305,4139.487305,4136.410156,4138.974121,4130.769043,4134.871582,4143.077148,4143.589844,4140.000000,4135.384766,4151.794922,4132.820313,4138.974121,752.000000,4.000000,,,,0.000000,4.000000,4.000000,4.000000,4.000000,4.000000,4.000000,4.000000,4.000000,4.000000,4.000000,4.000000,4.000000,4.000000,4.000000,100.000000
1602005821.370478,114.000000,0.000000,4146.666504,4137.436035,4134.358887,4135.897461,4130.769043,4126.153809,4130.256348,4138.461426,4131.282227,4119.487305,4135.897461,4154.871582,4124.102539,4126.666504,877.000000,4.000000,,,,0.000000,4.000000,4.000000,4.000000,4.000000,4.000000,4.000000,4.000000,4.000000,4.000000,4.000000,4.000000,4.000000,4.000000,4.000000,100.000000
1602005821.378266,115.000000,0.000000,4137.436035,4140.000000,4126.666504,4137.436035,4127.179688,4125.128418,4126.153809,4142.051270,4133.846191,4112.307617,4127.692383,4153.846191,4122.051270,4124.102539,841.000000,4.000000,,,,0.000000,4.000000,4.000000,4.000000,4.000000,4.000000,4.000000,4.000000,4.000000,4.000000,4.000000,4.000000,4.000000,4.000000,4.000000,100.000000
1602005821.386155,116.000000,0.000000,4138.974121,4140.512695,4122.051270,4131.794922,4136.922852,4125.641113,4128.205078,4144.102539,4140.512695,4119.487305,4129.230957,4142.051270,4122.051270,4128.717773,773.000000,4.000000,,,,0.000000,4.000000,4.000000,4.000000,4.000000,4.000000,4.000000,4.000000,4.000000,4.000000,4.000000,4.000000,4.000000,4.000000,4.000000,100.000000
1602005821.394043,117.000000,0.000000,4141.538574,4133.846191,4122.563965,4128.717773,4135.384766,4121.538574,4127.179688,4141.025879,4137.436035,4132.307617,4130.256348,4134.871582,4114.871582,4124.102539,752.000000,4.000000,,,,0.000000,4.000000,4.000000,4.000000,4.000000,4.000000,4.000000,4.000000,4.000000,4.000000,4.000000,4.000000,4.000000,4.000000,4.000000,100.000000
1602005821.401932,118.000000,0.000000,4136.922852,4130.769043,4123.077148,4135.384766,4129.230957,4118.974121,4127.179688,4138.974121,4135.384766,4130.256348,4120.000000,4135.384766,4115.384766,4111.794922,877.000000,4.000000,,,,0.000000,4.000000,4.000000,4.000000,4.000000,4.000000,4.000000,4.000000,4.000000,4.000000,4.000000,4.000000,4.000000,4.000000,4.000000,100.000000
1602005821.409821,119.000000,0.000000,4135.384766,4132.307617,4124.615234,4136.410156,4133.846191,4124.102539,4129.230957,4141.538574,4146.153809,4123.589844,4122.051270,4137.436035,4122.051270,4104.102539,841.000000,4.000000,,,,0.000000,4.000000,4.000000,4.000000,4.000000,4.000000,4.000000,4.000000,4.000000,4.000000,4.000000,4.000000,4.000000,4.000000,4.000000,100.000000
1602005821.417709,120.000000,0.000000,4134.358887,4125.128418,4118.974121,4126.153809,4135.384766,4132.820313,4125.128418,4141.025879,4154.871582,4136.922852,4131.282227,4137.948730,4122.563965,4109.743652,773.000000,4.000000,,,,0.000000,4.000000,4.000000,4.000000,4.000000,4.000000,4.000000,4.000000,4.000000,4.000000,4.000000,4.000000,4.000000,4.000000,4.000000,100.000000
1602005821.425598,121.000000,0.000000,4131.794922,4117.948730,4110.769043,4121.025879,4128.205078,4136.410156,4121.538574,4137.948730,4148.205078,4133.846191,4130.769043,4136.922852,4122.051270,4121.538574,752.000000,4.000000,,,,0.000000,4.000000,4.000000,4.000000,4.000000,4.000000,4.000000,4.000000,4.000000,4.000000,4.000000,4.000000,4.000000,4.000000,4.000000,100.000000
1602005821.433388,122.000000,0.000000,4133.846191,4127.692383,4114.871582,4127.179688,4127.179688,4139.487305,4123.077148,4141.025879,4136.922852,4111.794922,4131.794922,4138.461426,4124.615234,4125.128418,877.000000,4.000000,,,,0.000000,4.000000,4.000000,4.000000,4.000000,4.000000,4.000000,4.000000,4.000000,4.000000,4.000000,4.000000,4.000000,4.000000,4.000000,100.000000
1602005821.441278,123.000000,0.000000,4136.410156,4136.410156,4124.102539,4128.717773,4128.205078,4138.974121,4122.051270,4143.589844,4138.461426,4119.487305,4138.974121,4138.461426,4124.102539,4123.077148,841.000000,4.000000,,,,0.000000,4.000000,4.000000,4.000000,4.000000,4.000000,4.000000,4.000000,4.000000,4.000000,4.000000,4.000000,4.000000,4.000000,4.000000,100.000000
1602005821.449168,124.000000,0.000000,4136.410156,4128.205078,4123.589844,4126.153809,4127.179688,4131.794922,4117.948730,4140.512695,4138.461426,4143.589844,4140.512695,4135.897461,4124.102539,4125.641113,773.000000,4.000000,,,,0.000000,4.000000,4.000000,4.000000,4.000000,4.000000,4.000000,4.000000,4.000000,4.000000,4.000000,4.000000,4.000000,4.000000,4.000000,100.000000
1602005821.457058,125.000000,0.000000,4137.948730,4127.179688,4123.077148,4131.794922,4128.205078,4131.794922,4120.000000,4140.512695,4127.692383,4140.512695,4133.333496,4135.384766,4127.179688,4128.717773,752.000000,4.000000,,,,0.000000,4.000000,4.000000,4.000000,4.000000,4.000000,4.000000,4.000000,4.000000,4.000000,4.000000,4.000000,4.000000,4.000000,4.000000,100.000000
1602005821.464948,126.000000,0.000000,4144.102539,4140.000000,4132.820313,4140.512695,4127.692383,4137.436035,4131.794922,4145.128418,4118.974121,4124.102539,4131.282227,4141.025879,4127.179688,4129.743652,877.000000,4.000000,,,,0.000000,4.000000,4.000000,4.000000,4.000000,4.000000,4.000000,4.000000,4.000000,4.000000,4.000000,4.000000,4.000000,4.000000,4.000000,100.000000
1602005821.472838,127.000000,0.000000,4144.102539,4141.538574,4138.461426,4140.512695,4124.102539,4131.794922,4138.974121,4141.025879,4109.743652,4108.717773,4133.333496,4143.077148,4123.589844,4128.205078,841.000000,4.000000,,,,0.000000,4.000000,4.000000,4.000000,4.000000,4.000000,4.000000,4.000000,4.000000,4.000000,4.000000,4.000000,4.000000,4.000000,4.000000,100.000000
1602005821.480728,128.000000,0.000000,4139.487305,4136.410156,4133.333496,4137.436035,4121.538574,4121.538574,4140.000000,4133.846191,4103.077148,4101.025879,4129.230957,4135.384766,4121.538574,4124.102539,773.000000,4.000000,,,,0.000000,4.000000,4.000000,4.000000,4.000000,4.000000,4.000000,4.000000,4.000000,4.000000,4.000000,4.000000,4.000000,4.000000,4.000000,100.000000
1602005821.488618,0.000000,0.000000,4140.000000,4135.897461,4126.153809,4138.461426,4123.077148,4123.589844,4137.436035,4136.410156,4113.333496,4107.179688,4123.589844,4127.692383,4120.512695,4122.051270,806.000000,4.000000,,,,0.000000,4.000000,4.000000,4.000000,4.000000,4.000000,4.000000,4.000000,4.000000,4.000000,4.000000,4.000000,4.000000,4.000000,4.000000,100.000000
1602005821.496508,1.000000,0.000000,4135.384766,4129.743652,4123.589844,4133.333496,4124.102539,4125.128418,4128.205078,4139.487305,4125.128418,4116.922852,4125.641113,4126.153809,4120.000000,4122.051270,795.000000,4.000000,,,,0.000000,4.000000,4.000000,4.000000,4.000000,4.000000,4.000000,4.000000,4.000000,4.000000,4.000000,4.000000,4.000000,4.000000,4.000000,100.000000
1602005821.504297,2.000000,0.000000,4124.102539,4121.025879,4122.563965,4124.615234,4123.077148,4116.922852,4114.871582,4135.897461,4122.563965,4127.692383,4123.589844,4122.051270,4120.000000,4119.487305,851.000000,4.000000,,,,0.000000,4.000000,4.000000,4.000000,4.000000,4.000000,4.000000,4.000000,4.000000,4.000000,4.000000,4.000000,4.000000,4.000000,4.000000,100.000000
1602005821.512185,3.000000,0.000000,4126.666504,4122.051270,4120.512695,4122.563965,4123.077148,4113.846191,4109.743652,4132.820313,4126.666504,4133.333496,4116.410156,4117.436035,4120.000000,4117.436035,865.000000,4.000000,,,,0.000000,4.000000,4.000000,4.000000,4.000000,4.000000,4.000000,4.000000,4.000000,4.000000,4.000000,4.000000,4.000000,4.000000,4.000000,100.000000
1602005821.520074,4.000000,0.000000,4138.974121,4127.179688,4126.153809,4127.692383,4123.077148,4120.512695,4109.743652,4136.410156,4140.512695,4142.051270,4126.666504,4125.128418,4118.974121,4124.102539,813.000000,4.000000,,,,0.000000,4.000000,4.000000,4.000000,4.000000,4.000000,4.000000,4.000000,4.000000,4.000000,4.000000,4.000000,4.000000,4.000000,4.000000,100.000000
1602005821.527963,5.000000,0.000000,4138.974121,4129.743652,4135.384766,4133.333496,4121.538574,4124.102539,4109.230957,4138.974121,4143.589844,4145.128418,4140.512695,4136.410156,4124.102539,4128.205078,827.000000,4.000000,,,,0.000000,4.000000,4.000000,4.000000,4.000000,4.000000,4.000000,4.000000,4.000000,4.000000,4.000000,4.000000,4.000000,4.000000,4.000000,100.000000
1602005821.535852,6.000000,0.000000,4134.358887,4132.307617,4137.948730,4135.384766,4122.563965,4120.000000,4113.333496,4136.410156,4137.948730,4118.974121,4141.025879,4143.077148,4133.333496,4124.102539,769.000000,4.000000,,,,0.000000,4.000000,4.000000,4.000000,4.000000,4.000000,4.000000,4.000000,4.000000,4.000000,4.000000,4.000000,4.000000,4.000000,4.000000,100.000000
1602005821.543741,7.000000,0.000000,4138.974121,4136.410156,4136.922852,4135.384766,4120.512695,4123.077148,4121.025879,4135.897461,4135.384766,4104.102539,4136.922852,4147.692383,4136.410156,4132.820313,697.000000,4.000000,,,,0.000000,4.000000,4.000000,4.000000,4.000000,4.000000,4.000000,4.000000,4.000000,4.000000,4.000000,4.000000,4.000000,4.000000,4.000000,100.000000
1602005821.551629,8.000000,0.000000,4150.256348,4138.974121,4141.538574,4136.922852,4120.512695,4133.846191,4123.589844,4142.051270,4143.589844,4136.410156,4144.615234,4155.384766,4141.538574,4152.820313,786.000000,4.000000,,,,0.000000,4.000000,4.000000,4.000000,4.000000,4.000000,4.000000,4.000000,4.000000,4.000000,4.000000,4.000000,4.000000,4.000000,4.000000,100.000000
1602005821.559416,9.000000,0.000000,4157.436035,4141.025879,4147.179688,4141.025879,4127.692383,4137.948730,4126.153809,4147.692383,4154.358887,4166.666504,4154.871582,4162.563965,4154.358887,4159.487305,850.000000,4.000000,,,,0.000000,4.000000,4.000000,4.000000,4.000000,4.000000,4.000000,4.000000,4.000000,4.000000,4.000000,4.000000,4.000000,4.000000,4.000000,100.000000
1602005821.567303,10.000000,0.000000,4152.820313,4141.538574,4144.615234,4138.974121,4130.769043,4135.897461,4133.333496,4143.077148,4150.256348,4160.512695,4150.769043,4160.512695,4156.922852,4151.282227,877.000000,4.000000,,,,0.000000,4.000000,4.000000,4.000000,4.000000,4.000000,4.000000,4.000000,4.000000,4.000000,4.000000,4.000000,4.000000,4.000000,4.000000,100.000000
1602005821.575190,11.000000,0.000000,4152.820313,4141.025879,4139.487305,4135.897461,4127.179688,4135.384766,4136.410156,4142.051270,4145.128418,4154.358887,4143.077148,4155.384766,4144.102539,4143.077148,841.000000,4.000000,,,,0.000000,4.000000,4.000000,4.000000,4.000000,4.000000,4.000000,4.000000,4.000000,4.000000,4.000000,4.000000,4.000000,4.000000,4.000000,100.000000
1602005821.583077,12.000000,0.000000,4157.436035,4142.563965,4140.000000,4138.461426,4125.641113,4134.871582,4134.871582,4149.743652,4148.205078,4156.410156,4142.563965,4157.436035,4139.487305,4139.487305,773.000000,4.000000,,,,0.000000,4.000000,4.000000,4.000000,4.000000,4.000000,4.000000,4.000000,4.000000,4.000000,4.000000,4.000000,4.000000,4.000000,4.000000,100.000000
1602005821.590964,13.000000,0.000000,4146.153809,4139.487305,4142.051270,4133.846191,4124.102539,4136.410156,4135.897461,4147.692383,4142.563965,4139.487305,4144.615234,4156.410156,4142.563965,4141.538574,780.000000,4.000000,,,,0.000000,4.000000,4.000000,4.000000,4.000000,4.000000,4.000000,4.000000,4.000000,4.000000,4.000000,4.000000,4.000000,4.000000,4.000000,100.000000
1602005821.598851,14.000000,0.000000,4132.820313,4130.769043,4133.333496,4123.589844,4121.538574,4140.512695,4136.922852,4137.436035,4133.333496,4115.897461,4137.948730,4141.538574,4131.794922,4135.384766,877.000000,4.000000,,,,0.000000,4.000000,4.000000,4.000000,4.000000,4.000000,4.000000,4.000000,4.000000,4.000000,4.000000,4.000000,4.000000,4.000000,4.000000,100.000000
1602005821.606639,15.000000,0.000000,4133.846191,4125.641113,4123.077148,4120.000000,4123.077148,4136.922852,4132.307617,4136.922852,4135.384766,4110.769043,4126.666504,4132.820313,4117.948730,4120.000000,841.000000,4.000000,,,,0.000000,4.000000,4.000000,4.000000,4.000000,4.000000,4.000000,4.000000,4.000000,4.000000,4.000000,4.000000,4.000000,4.000000,4.000000,100.000000
1602005821.614527,16.000000,0.000000,4136.410156,4124.102539,4127.692383,4124.615234,4119.487305,4133.333496,4125.641113,4137.948730,4136.922852,4122.563965,4121.538574,4136.922852,4112.307617,4116.922852,0.000000,4.000000,,,,0.000000,4.000000,4.000000,4.000000,4.000000,4.000000,4.000000,4.000000,4.000000,4.000000,4.000000,4.000000,4.000000,4.000000,4.000000,100.000000
1602005821.622414,17.000000,0.000000,4135.384766,4129.230957,4136.410156,4131.794922,4112.820313,4135.384766,4124.615234,4133.333496,4134.358887,4124.102539,4123.077148,4136.922852,4113.846191,4125.641113,0.000000,4.000000,,,,0.000000,4.000000,4.000000,4.000000,4.000000,4.000000,4.000000,4.000000,4.000000,4.000000,4.000000,4.000000,4.000000,4.000000,4.000000,100.000000
1602005821.630302,18.000000,0.000000,4135.384766,4133.333496,4136.410156,4136.922852,4117.948730,4130.769043,4124.615234,4133.333496,4135.384766,4119.487305,4125.641113,4134.871582,4117.436035,4124.102539,0.000000,4.000000,,,,0.000000,4.000000,4.000000,4.000000,4.000000,4.000000,4.000000,4.000000,4.000000,4.000000,4.000000,4.000000,4.000000,4.000000,4.000000,100.000000
1602005821.638190,19.000000,0.000000,4134.871582,4128.205078,4134.358887,4134.358887,4122.563965,4127.692383,4120.000000,4136.922852,4136.410156,4123.589844,4128.205078,4140.000000,4120.512695,4120.000000,0.000000,4.000000,,,,0.000000,4.000000,4.000000,4.000000,4.000000,4.000000,4.000000,4.000000,4.000000,4.000000,4.000000,4.000000,4.000000,4.000000,4.000000,100.000000
1602005821.646078,20.000000,0.000000,4133.333496,4122.563965,4135.384766,4126.666504,4122.051270,4135.384766,4119.487305,4138.974121,4134.871582,4127.179688,4136.922852,4151.794922,4122.051270,4129.743652,0.000000,4.000000,,,,0.000000,4.000000,4.000000,4.000000,4.000000,4.000000,4.000000,4.000000,4.000000,4.000000,4.000000,4.000000,4.000000,4.000000,4.000000,100.000000
1602005821.653864,21.000000,0.000000,4133.333496,4122.051270,4137.436035,4125.641113,4120.000000,4139.487305,4131.794922,4138.461426,4135.897461,4125.641113,4139.487305,4156.922852,4122.051270,4132.820313,0.000000,4.000000,,,,0.000000,4.000000,4.000000,4.000000,4.000000,4.000000,4.000000,4.000000,4.000000,4.000000,4.000000,4.000000,4.000000,4.000000,4.000000,100.000000
1602005821.661750,22.000000,0.000000,4134.871582,4122.051270,4139.487305,4126.666504,4113.846191,4134.358887,4135.897461,4135.384766,4136.922852,4116.410156,4131.282227,4154.358887,4123.589844,4120.512695,0.000000,4.000000,,,,0.000000,4.000000,4.000000,4.000000,4.000000,4.000000,4.000000,4.000000,4.000000,4.000000,4.000000,4.000000,4.000000,4.000000,4.000000,100.000000
1602005821.669637,23.000000,0.000000,4139.487305,4128.717773,4139.487305,4127.692383,4112.820313,4131.794922,4129.230957,4135.384766,4137.948730,4123.077148,4132.307617,4151.794922,4123.077148,4123.077148,0.000000,4.000000,,,,0.000000,4.000000,4.000000,4.000000,4.000000,4.000000,4.000000,4.000000,4.000000,4.000000,4.000000,4.000000,4.000000,4.000000,4.000000,100.000000
1602005821.677523,24.000000,0.000000,4143.077148,4137.436035,4138.974121,4133.333496,4121.538574,4131.282227,4132.307617,4136.922852,4136.922852,4146.666504,4140.512695,4154.358887,4125.641113,4138.461426,0.000000,4.000000,,,,0.000000,4.000000,4.000000,4.000000,4.000000,4.000000,4.000000,4.000000,4.000000,4.000000,4.000000,4.000000,4.000000,4.000000,4.000000,100.000000
1602005821.685409,25.000000,0.000000,4140.000000,4135.897461,4141.538574,4137.436035,4126.666504,4128.205078,4136.922852,4137.436035,4136.410156,4149.743652,4135.897461,4155.897461,4128.205078,4134.358887,0.000000,4.000000,,,,0.000000,4.000000,4.000000,4.000000,4.000000,4.000000,4.000000,4.000000,4.000000,4.000000,4.000000,4.000000,4.000000,4.000000,4.000000,100.000000
1602005821.693198,26.000000,0.000000,4137.436035,4133.333496,4142.051270,4136.410156,4124.102539,4126.666504,4129.743652,4136.922852,4137.948730,4138.461426,4130.256348,4149.743652,4127.179688,4121.025879,0.000000,4.000000,,,,0.000000,4.000000,4.000000,4.000000,4.000000,4.000000,4.000000,4.000000,4.000000,4.000000,4.000000,4.000000,4.000000,4.000000,4.000000,100.000000
1602005821.701087,27.000000,0.000000,4136.922852,4136.922852,4140.000000,4134.358887,4124.615234,4121.538574,4122.563965,4131.282227,4132.307617,4134.358887,4133.333496,4140.000000,4124.102539,4120.512695,0.000000,4.000000,,,,0.000000,4.000000,4.000000,4.000000,4.000000,4.000000,4.000000,4.000000,4.000000,4.000000,4.000000,4.000000,4.000000,4.000000,4.000000,100.000000
1602005821.708976,28.000000,0.000000,4134.871582,4139.487305,4146.153809,4137.948730,4129.743652,4120.512695,4123.077148,4123.589844,4120.512695,4128.717773,4128.205078,4137.948730,4123.077148,4123.589844,0.000000,4.000000,,,,0.000000,4.000000,4.000000,4.000000,4.000000,4.000000,4.000000,4.000000,4.000000,4.000000,4.000000,4.000000,4.000000,4.000000,4.000000,100.000000
1602005821.716865,29.000000,0.000000,4133.846191,4139.487305,4151.794922,4141.538574,4134.358887,4129.230957,4123.589844,4124.102539,4123.077148,4114.358887,4122.051270,4140.000000,4121.025879,4121.538574,0.000000,4.000000,,,,0.000000,4.000000,4.000000,4.000000,4.000000,4.000000,4.000000,4.000000,4.000000,4.000000,4.000000,4.000000,4.000000,4.000000,4.000000,100.000000
1602005821.724754,30.000000,0.000000,4137.436035,4140.000000,4145.128418,4140.512695,4137.436035,4135.897461,4123.077148,4125.128418,4134.871582,4116.922852,4129.743652,4136.410156,4117.948730,4119.487305,0.000000,4.000000,,,,0.000000,4.000000,4.000000,4.000000,4.000000,4.000000,4.000000,4.000000,4.000000,4.000000,4.000000,4.000000,4.000000,4.000000,4.000000,100.000000
1602005821.732643,31.000000,0.000000,4137.948730,4135.897461,4137.948730,4136.410156,4136.922852,4137.436035,4124.102539,4125.641113,4138.461426,4136.922852,4137.948730,4134.871582,4124.615234,4127.179688,0.000000,4.000000,,,,0.000000,4.000000,4.000000,4.000000,4.000000,4.000000,4.000000,4.000000,4.000000,4.000000,4.000000,4.000000,4.000000,4.000000,4.000000,100.000000
1602005821.740532,32.000000,0.000000,4137.948730,4135.897461,4147.179688,4136.922852,4132.307617,4137.436035,4126.153809,4129.743652,4138.974121,4144.615234,4139.487305,4141.538574,4138.461426,4141.025879,0.000000,4.000000,,,,0.000000,4.000000,4.000000,4.000000,4.000000,4.000000,4.000000,4.000000,4.000000,4.000000,4.000000,4.000000,4.000000,4.000000,4.000000,100.000000
1602005821.748421,33.000000,0.000000,4139.487305,4138.461426,4156.410156,4139.487305,4123.077148,4130.256348,4124.615234,4129.230957,4136.922852,4136.410156,4133.333496,4136.922852,4132.820313,4140.512695,0.000000,4.000000,,,,0.000000,4.000000,4.000000,4.000000,4.000000,4.000000,4.000000,4.000000,4.000000,4.000000,4.000000,4.000000,4.000000,4.000000,4.000000,100.000000
1602005821.756207,34.000000,0.000000,4130.256348,4124.615234,4149.230957,4135.384766,4118.461426,4124.615234,4125.128418,4128.205078,4134.871582,4140.000000,4124.102539,4127.179688,4116.410156,4123.589844,0.000000,4.000000,,,,0.000000,4.000000,4.000000,4.000000,4.000000,4.000000,4.000000,4.000000,4.000000,4.000000,4.000000,4.000000,4.000000,4.000000,4.000000,100.000000
1602005821.764093,35.000000,0.000000,4120.512695,4117.436035,4136.922852,4133.846191,4121.538574,4128.717773,4134.871582,4132.307617,4136.410156,4139.487305,4122.051270,4127.692383,4118.461426,4120.000000,0.000000,4.000000,,,,0.000000,4.000000,4.000000,4.000000,4.000000,4.000000,4.000000,4.000000,4.000000,4.000000,4.000000,4.000000,4.000000,4.000000,4.000000,100.000000
1602005821.771979,36.000000,0.000000,4124.615234,4133.846191,4138.461426,4137.948730,4123.077148,4126.153809,4140.512695,4128.205078,4130.256348,4110.769043,4126.153809,4128.205078,4122.051270,4123.077148,0.000000,4.000000,,,,0.000000,4.000000,4.000000,4.000000,4.000000,4.000000,4.000000,4.000000,4.000000,4.000000,4.000000,4.000000,4.000000,4.000000,4.000000,100.000000
1602005821.779865,37.000000,0.000000,4126.153809,4145.128418,4140.512695,4138.974121,4120.512695,4120.000000,4132.820313,4121.025879,4119.487305,4101.538574,4123.077148,4121.025879,4109.230957,4108.205078,0.000000,4.000000,,,,0.000000,4.000000,4.000000,4.000000,4.000000,4.000000,4.000000,4.000000,4.000000,4.000000,4.000000,4.000000,4.000000,4.000000,4.000000,100.000000
1602005821.787751,38.000000,0.000000,4120.512695,4143.589844,4126.666504,4136.410156,4120.000000,4121.538574,4123.589844,4120.512695,4118.461426,4123.589844,4114.871582,4117.436035,4100.000000,4087.179443,0.000000,4.000000,,,,0.000000,4.000000,4.000000,4.000000,4.000000,4.000000,4.000000,4.000000,4.000000,4.000000,4.000000,4.000000,4.000000,4.000000,4.000000,100.000000
1602005821.795540,39.000000,0.000000,4118.974121,4150.256348,4118.461426,4136.922852,4122.563965,4121.538574,4121.538574,4120.512695,4120.000000,4122.563965,4115.384766,4120.000000,4106.666504,4090.256348,0.000000,4.000000,,,,0.000000,4.000000,4.000000,4.000000,4.000000,4.000000,4.000000,4.000000,4.000000,4.000000,4.000000,4.000000,4.000000,4.000000,4.000000,100.000000
1602005821.803429,40.000000,0.000000,4129.230957,4159.487305,4132.307617,4139.487305,4125.128418,4121.025879,4123.077148,4122.051270,4120.000000,4118.461426,4125.128418,4124.615234,4112.820313,4105.641113,0.000000,4.000000,,,,0.000000,4.000000,4.000000,4.000000,4.000000,4.000000,4.000000,4.000000,4.000000,4.000000,4.000000,4.000000,4.000000,4.000000,4.000000,100.000000
1602005821.811317,41.000000,0.000000,4135.897461,4156.410156,4139.487305,4143.077148,4125.641113,4126.666504,4124.615234,4121.025879,4126.666504,4137.948730,4123.589844,4126.153809,4109.743652,4103.077148,0.000000,4.000000,,,,0.000000,4.000000,4.000000,4.000000,4.000000,4.000000,4.000000,4.000000,4.000000,4.000000,4.000000,4.000000,4.000000,4.000000,4.000000,100.000000
1602005821.819206,42.000000,0.000000,4129.743652,4143.589844,4124.102539,4136.410156,4123.077148,4124.102539,4121.025879,4113.333496,4126.153809,4127.179688,4106.153809,4123.077148,4102.563965,4088.205078,0.000000,4.000000,,,,0.000000,4.000000,4.000000,4.000000,4.000000,4.000000,4.000000,4.000000,4.000000,4.000000,4.000000,4.000000,4.000000,4.000000,4.000000,100.000000
1602005821.827095,43.000000,0.000000,4117.948730,4135.897461,4119.487305,4125.641113,4122.051270,4120.000000,4119.487305,4114.871582,4119.487305,4094.358887,4105.128418,4128.717773,4101.025879,4085.641113,0.000000,4.000000,,,,0.000000,4.000000,4.000000,4.000000,4.000000,4.000000,4.000000,4.000000,4.000000,4.000000,4.000000,4.000000,4.000000,4.000000,4.000000,100.000000
1602005821.834984,44.000000,0.000000,4121.538574,4145.128418,4134.871582,4130.769043,4123.077148,4126.153809,4119.487305,4121.025879,4123.077148,4110.256348,4124.102539,4142.563965,4109.230957,4100.000000,0.000000,4.000000,,,,0.000000,4.000000,4.000000,4.000000,4.000000,4.000000,4.000000,4.000000,4.000000,4.000000,4.000000,4.000000,4.000000,4.000000,4.000000,100.000000
1602005821.842873,45.000000,0.000000,4136.410156,4157.948730,4143.589844,4141.025879,4123.589844,4128.717773,4114.871582,4115.384766,4132.820313,4136.410156,4132.307617,4146.153809,4115.384766,4110.256348,0.000000,4.000000,,,,0.000000,4.000000,4.000000,4.000000,4.000000,4.000000,4.000000,4.000000,4.000000,4.000000,4.000000,4.000000,4.000000,4.000000,4.000000,100.000000
1602005821.850661,46.000000,0.000000,4133.846191,4151.794922,4140.000000,4137.436035,4120.000000,4117.948730,4113.333496,4105.128418,4126.153809,4115.897461,4120.512695,4138.461426,4110.769043,4109.230957,0.000000,4.000000,,,,0.000000,4.000000,4.000000,4.000000,4.000000,4.000000,4.000000,4.000000,4.000000,4.000000,4.000000,4.000000,4.000000,4.000000,4.000000,100.000000
1602005821.858549,47.000000,0.000000,4123.077148,4143.077148,4137.436035,4135.897461,4117.436035,4110.256348,4118.461426,4107.692383,4111.794922,4095.384521,4113.333496,4132.820313,4106.666504,4107.179688,0.000000,4.000000,,,,0.000000,4.000000,4.000000,4.000000,4.000000,4.000000,4.000000,4.000000,4.000000,4.000000,4.000000,4.000000,4.000000,4.000000,4.000000,100.000000
1602005821.866438,48.000000,0.000000,4122.563965,4146.153809,4139.487305,4141.538574,4116.410156,4115.384766,4127.179688,4118.974121,4113.333496,4109.743652,4120.512695,4137.948730,4109.743652,4105.128418,0.000000,4.000000,,,,0.000000,4.000000,4.000000,4.000000,4.000000,4.000000,4.000000,4.000000,4.000000,4.000000,4.000000,4.000000,4.000000,4.000000,4.000000,100.000000
1602005821.874326,49.000000,0.000000,4118.974121,4144.102539,4136.410156,4134.358887,4114.358887,4124.615234,4136.410156,4128.717773,4122.051270,4117.436035,4118.974121,4136.922852,4104.615234,4095.897461,0.000000,4.000000,,,,0.000000,4.000000,4.000000,4.000000,4.000000,4.000000,4.000000,4.000000,4.000000,4.000000,4.000000,4.000000,4.000000,4.000000,4.000000,100.000000
1602005821.882214,50.000000,0.000000,4106.666504,4132.307617,4125.641113,4121.538574,4113.846191,4127.179688,4141.025879,4133.333496,4124.102539,4113.333496,4105.641113,4127.692383,4093.333252,4087.692383,0.000000,4.000000,,,,0.000000,4.000000,4.000000,4.000000,4.000000,4.000000,4.000000,4.000000,4.000000,4.000000,4.000000,4.000000,4.000000,4.000000,4.000000,100.000000
1602005821.890103,51.000000,0.000000,4107.692383,4127.179688,4120.512695,4120.000000,4113.333496,4123.589844,4136.410156,4136.922852,4123.589844,4120.000000,4108.717773,4130.256348,4096.410156,4090.256348,0.000000,4.000000,,,,0.000000,4.000000,4.000000,4.000000,4.000000,4.000000,4.000000,4.000000,4.000000,4.000000,4.000000,4.000000,4.000000,4.000000,4.000000,100.000000
1602005821.897991,52.000000,0.000000,4115.897461,4133.333496,4127.179688,4126.666504,4114.358887,4124.102539,4135.897461,4139.487305,4126.153809,4130.256348,4130.256348,4142.563965,4108.717773,4100.000000,0.000000,4.000000,,,,0.000000,4.000000,4.000000,4.000000,4.000000,4.000000,4.000000,4.000000,4.000000,4.000000,4.000000,4.000000,4.000000,4.000000,4.000000,100.000000
1602005821.905781,53.000000,0.000000,4111.794922,4137.948730,4129.743652,4129.230957,4115.897461,4125.128418,4136.410156,4133.846191,4126.153809,4131.282227,4128.717773,4137.948730,4110.769043,4103.077148,0.000000,4.000000,,,,0.000000,4.000000,4.000000,4.000000,4.000000,4.000000,4.000000,4.000000,4.000000,4.000000,4.000000,4.000000,4.000000,4.000000,4.000000,100.000000
1602005821.913671,54.000000,0.000000,4112.307617,4133.846191,4122.051270,4124.615234,4114.871582,4121.025879,4127.692383,4124.615234,4121.025879,4117.436035,4108.717773,4123.077148,4103.589844,4095.384521,0.000000,4.000000,,,,0.000000,4.000000,4.000000,4.000000,4.000000,4.000000,4.000000,4.000000,4.000000,4.000000,4.000000,4.000000,4.000000,4.000000,4.000000,100.000000
1602005821.921560,55.000000,0.000000,4108.205078,4119.487305,4120.000000,4120.512695,4115.897461,4123.077148,4125.128418,4123.077148,4115.384766,4104.102539,4107.692383,4122.051270,4096.410156,4087.692383,0.000000,4.000000,,,,0.000000,4.000000,4.000000,4.000000,4.000000,4.000000,4.000000,4.000000,4.000000,4.000000,4.000000,4.000000,4.000000,4.000000,4.000000,100.000000
1602005821.929450,56.000000,0.000000,4096.410156,4110.769043,4121.538574,4119.487305,4118.461426,4129.230957,4127.692383,4126.666504,4113.333496,4107.179688,4111.794922,4125.128418,4091.281982,4083.589844,0.000000,4.000000,,,,0.000000,4.000000,4.000000,4.000000,4.000000,4.000000,4.000000,4.000000,4.000000,4.000000,4.000000,4.000000,4.000000,4.000000,4.000000,100.000000
1602005821.937340,57.000000,0.000000,4106.666504,4125.641113,4116.922852,4121.025879,4121.025879,4127.179688,4122.051270,4120.512695,4112.307617,4108.717773,4101.538574,4114.871582,4085.128174,4078.461426,0.000000,4.000000,,,,0.000000,4.000000,4.000000,4.000000,4.000000,4.000000,4.000000,4.000000,4.000000,4.000000,4.000000,4.000000,4.000000,4.000000,4.000000,100.000000
1602005821.945230,58.000000,0.000000,4125.641113,4148.205078,4109.743652,4127.179688,4121.025879,4126.153809,4116.410156,4108.205078,4108.717773,4093.333252,4094.871826,4105.128418,4072.820557,4073.846191,0.000000,4.000000,,,,0.000000,4.000000,4.000000,4.000000,4.000000,4.000000,4.000000,4.000000,4.000000,4.000000,4.000000,4.000000,4.000000,4.000000,4.000000,100.000000
1602005821.953119,59.000000,0.000000,4126.666504,4153.846191,4110.769043,4134.871582,4115.384766,4126.666504,4118.974121,4105.641113,4105.641113,4086.666748,4094.871826,4103.077148,4064.102539,4066.153809,0.000000,4.000000,,,,0.000000,4.000000,4.000000,4.000000,4.000000,4.000000,4.000000,4.000000,4.000000,4.000000,4.000000,4.000000,4.000000,4.000000,4.000000,100.000000
1602005821.961009,60.000000,0.000000,4128.205078,4152.307617,4118.974121,4137.948730,4111.794922,4120.512695,4121.538574,4109.230957,4106.153809,4102.563965,4092.820557,4104.615234,4069.230713,4056.923096,0.000000,4.000000,,,,0.000000,4.000000,4.000000,4.000000,4.000000,4.000000,4.000000,4.000000,4.000000,4.000000,4.000000,4.000000,4.000000,4.000000,4.000000,100.000000
1602005821.968800,61.000000,0.000000,4137.948730,4159.487305,4126.666504,4138.974121,4120.512695,4122.563965,4123.077148,4111.282227,4112.307617,4120.000000,4094.358887,4113.333496,4075.897461,4063.589844,0.000000,4.000000,,,,0.000000,4.000000,4.000000,4.000000,4.000000,4.000000,4.000000,4.000000,4.000000,4.000000,4.000000,4.000000,4.000000,4.000000,4.000000,100.000000
1602005821.976691,62.000000,0.000000,4140.512695,4166.666504,4130.256348,4141.538574,4129.743652,4136.922852,4124.615234,4114.871582,4120.000000,4127.179688,4095.897461,4120.000000,4077.948730,4075.384521,0.000000,4.000000,,,,0.000000,4.000000,4.000000,4.000000,4.000000,4.000000,4.000000,4.000000,4.000000,4.000000,4.000000,4.000000,4.000000,4.000000,4.000000,100.000000
1602005821.984582,63.000000,0.000000,4137.948730,4163.589844,4126.153809,4140.000000,4126.666504,4140.512695,4122.563965,4120.000000,4124.615234,4119.487305,4097.948730,4113.846191,4081.025635,4075.897461,0.000000,4.000000,,,,0.000000,4.000000,4.000000,4.000000,4.000000,4.000000,4.000000,4.000000,4.000000,4.000000,4.000000,4.000000,4.000000,4.000000,4.000000,100.000000
1602005821.992473,64.000000,0.000000,4136.410156,4156.922852,4120.512695,4138.974121,4126.666504,4132.307617,4119.487305,4120.000000,4124.615234,4102.051270,4107.179688,4106.666504,4081.025635,4070.769287,806.000000,4.000000,,,,0.000000,4.000000,4.000000,4.000000,4.000000,4.000000,4.000000,4.000000,4.000000,4.000000,4.000000,4.000000,4.000000,4.000000,4.000000,100.000000
1602005822.000364,65.000000,0.000000,4135.897461,4154.358887,4120.000000,4138.461426,4128.205078,4124.102539,4118.461426,4115.384766,4118.461426,4097.436035,4108.205078,4105.128418,4075.897461,4069.743652,795.000000,4.000000,,,,0.000000,4.000000,4.000000,4.000000,4.000000,4.000000,4.000000,4.000000,4.000000,4.000000,4.000000,4.000000,4.000000,4.000000,4.000000,100.000000
1602005822.008255,66.000000,0.000000,4135.384766,4153.846191,4122.563965,4136.922852,4126.153809,4120.512695,4119.487305,4112.820313,4113.333496,4113.846191,4102.563965,4103.589844,4074.358887,4072.820557,851.000000,4.000000,,,,0.000000,4.000000,4.000000,4.000000,4.000000,4.000000,4.000000,4.000000,4.000000,4.000000,4.000000,4.000000,4.000000,4.000000,4.000000,100.000000
1602005822.016146,67.000000,0.000000,4127.692383,4151.794922,4121.538574,4134.358887,4127.179688,4122.051270,4118.461426,4114.871582,4113.846191,4124.102539,4104.102539,4111.282227,4074.871826,4075.384521,865.000000,4.000000,,,,0.000000,4.000000,4.000000,4.000000,4.000000,4.000000,4.000000,4.000000,4.000000,4.000000,4.000000,4.000000,4.000000,4.000000,4.000000,100.000000
1602005822.024037,68.000000,0.000000,4122.051270,4147.179688,4121.538574,4131.794922,4128.717773,4122.563965,4119.487305,4118.974121,4117.436035,4122.563965,4108.205078,4121.025879,4074.871826,4073.846191,813.000000,4.000000,,,,0.000000,4.000000,4.000000,4.000000,4.000000,4.000000,4.000000,4.000000,4.000000,4.000000,4.000000,4.000000,4.000000,4.000000,4.000000,100.000000
1602005822.031928,69.000000,0.000000,4123.077148,4144.615234,4122.051270,4131.794922,4124.102539,4120.512695,4124.102539,4121.025879,4122.563965,4122.563965,4105.128418,4115.384766,4075.897461,4072.820557,827.000000,4.000000,,,,0.000000,4.000000,4.000000,4.000000,4.000000,4.000000,4.000000,4.000000,4.000000,4.000000,4.000000,4.000000,4.000000,4.000000,4.000000,100.000000
1602005822.039719,70.000000,0.000000,4124.102539,4148.205078,4121.538574,4131.794922,4121.025879,4122.563965,4130.256348,4116.922852,4122.563965,4123.077148,4102.051270,4109.230957,4075.384521,4078.461426,769.000000,4.000000,,,,0.000000,4.000000,4.000000,4.000000,4.000000,4.000000,4.000000,4.000000,4.000000,4.000000,4.000000,4.000000,4.000000,4.000000,4.000000,100.000000
1602005822.047610,71.000000,0.000000,4126.666504,4151.794922,4129.230957,4129.743652,4124.102539,4127.179688,4131.794922,4113.333496,4114.871582,4109.230957,4109.743652,4116.410156,4077.948730,4090.256348,711.000000,4.000000,,,,0.000000,4.000000,4.000000,4.000000,4.000000,4.000000,4.000000,4.000000,4.000000,4.000000,4.000000,4.000000,4.000000,4.000000,4.000000,100.000000
1602005822.055501,72.000000,0.000000,4134.358887,4151.794922,4137.948730,4130.769043,4123.589844,4124.615234,4128.205078,4117.436035,4113.846191,4089.230713,4122.051270,4126.153809,4090.256348,4105.641113,786.000000,4.000000,,,,0.000000,4.000000,4.000000,4.000000,4.000000,4.000000,4.000000,4.000000,4.000000,4.000000,4.000000,4.000000,4.000000,4.000000,4.000000,100.000000
1602005822.063391,73.000000,0.000000,4142.563965,4153.333496,4139.487305,4137.436035,4120.000000,4122.563965,4131.794922,4125.641113,4123.589844,4106.153809,4127.692383,4133.333496,4106.666504,4108.205078,854.000000,4.000000,,,,0.000000,4.000000,4.000000,4.000000,4.000000,4.000000,4.000000,4.000000,4.000000,4.000000,4.000000,4.000000,4.000000,4.000000,4.000000,100.000000
1602005822.071282,74.000000,0.000000,4146.153809,4160.000000,4141.025879,4140.512695,4124.102539,4129.230957,4136.922852,4128.205078,4128.205078,4142.563965,4128.205078,4135.384766,4110.769043,4096.410156,877.000000,4.000000,,,,0.000000,4.000000,4.000000,4.000000,4.000000,4.000000,4.000000,4.000000,4.000000,4.000000,4.000000,4.000000,4.000000,4.000000,4.000000,100.000000
1602005822.079173,75.000000,0.000000,4141.538574,4161.025879,4140.000000,4137.436035,4126.666504,4136.922852,4130.256348,4123.589844,4125.128418,4144.102539,4117.436035,4120.512695,4098.974121,4090.256348,841.000000,4.000000,,,,0.000000,4.000000,4.000000,4.000000,4.000000,4.000000,4.000000,4.000000,4.000000,4.000000,4.000000,4.000000,4.000000,4.000000,4.000000,100.000000
1602005822.087064,76.000000,0.000000,4133.333496,4158.461426,4126.153809,4135.384766,4122.051270,4135.384766,4127.179688,4122.563965,4122.563965,4128.717773,4104.102539,4105.128418,4086.666748,4088.718018,773.000000,4.000000,,,,0.000000,4.000000,4.000000,4.000000,4.000000,4.000000,4.000000,4.000000,4.000000,4.000000,4.000000,4.000000,4.000000,4.000000,4.000000,100.000000
1602005822.094955,77.000000,0.000000,4133.333496,4161.538574,4119.487305,4135.897461,4125.128418,4133.846191,4137.948730,4125.641113,4119.487305,4124.102539,4112.820313,4112.820313,4092.307617,4085.128174,771.000000,4.000000,,,,0.000000,4.000000,4.000000,4.000000,4.000000,4.000000,4.000000,4.000000,4.000000,4.000000,4.000000,4.000000,4.000000,4.000000,4.000000,100.000000
1602005822.102846,78.000000,0.000000,4140.512695,4169.230957,4131.794922,4141.025879,4140.000000,4143.077148,4142.051270,4129.743652,4118.974121,4111.794922,4121.538574,4125.641113,4106.666504,4092.820557,877.000000,4.000000,,,,0.000000,4.000000,4.000000,4.000000,4.000000,4.000000,4.000000,4.000000,4.000000,4.000000,4.000000,4.000000,4.000000,4.000000,4.000000,100.000000
1602005822.110737,79.000000,0.000000,4143.589844,4172.307617,4138.461426,4143.077148,4149.230957,4146.153809,4135.897461,4133.846191,4127.179688,4105.641113,4111.282227,4122.563965,4103.589844,4107.179688,841.000000,4.000000,,,,0.000000,4.000000,4.000000,4.000000,4.000000,4.000000,4.000000,4.000000,4.000000,4.000000,4.000000,4.000000,4.000000,4.000000,4.000000,100.000000
1602005822.118527,80.000000,0.000000,4138.461426,4165.641113,4133.846191,4140.000000,4147.179688,4137.948730,4135.897461,4141.025879,4136.410156,4129.230957,4112.820313,4118.974121,4093.846191,4103.589844,773.000000,4.000000,,,,0.000000,4.000000,4.000000,4.000000,4.000000,4.000000,4.000000,4.000000,4.000000,4.000000,4.000000,4.000000,4.000000,4.000000,4.000000,100.000000
1602005822.126417,81.000000,0.000000,4128.205078,4154.358887,4135.384766,4137.948730,4144.615234,4138.461426,4134.871582,4148.717773,4140.000000,4145.128418,4124.102539,4125.641113,4096.410156,4089.743652,771.000000,4.000000,,,,0.000000,4.000000,4.000000,4.000000,4.000000,4.000000,4.000000,4.000000,4.000000,4.000000,4.000000,4.000000,4.000000,4.000000,4.000000,100.000000
1602005822.134307,82.000000,0.000000,4121.538574,4150.256348,4137.436035,4135.897461,4141.025879,4139.487305,4128.717773,4148.205078,4135.897461,4132.820313,4114.871582,4126.153809,4094.358887,4082.051270,877.000000,4.000000,,,,0.000000,4.000000,4.000000,4.000000,4.000000,4.000000,4.000000,4.000000,4.000000,4.000000,4.000000,4.000000,4.000000,4.000000,4.000000,100.000000
1602005822.142197,83.000000,0.000000,4121.538574,4153.846191,4128.717773,4135.384766,4136.922852,4126.666504,4123.589844,4134.871582,4125.641113,4122.051270,4097.436035,4120.512695,4075.897461,4074.871826,841.000000,4.000000,,,,0.000000,4.000000,4.000000,4.000000,4.000000,4.000000,4.000000,4.000000,4.000000,4.000000,4.000000,4.000000,4.000000,4.000000,4.000000,100.000000
1602005822.150087,84.000000,0.000000,4123.077148,4153.846191,4122.051270,4135.384766,4136.922852,4120.000000,4123.589844,4122.563965,4110.256348,4113.333496,4097.436035,4126.153809,4070.256348,4076.410156,773.000000,4.000000,,,,0.000000,4.000000,4.000000,4.000000,4.000000,4.000000,4.000000,4.000000,4.000000,4.000000,4.000000,4.000000,4.000000,4.000000,4.000000,100.000000
1602005822.157977,85.000000,0.000000,4124.615234,4151.282227,4122.563965,4132.820313,4131.794922,4123.077148,4122.563965,4119.487305,4095.897461,4087.179443,4107.179688,4134.871582,4084.102539,4088.718018,771.000000,4.000000,,,,0.000000,4.000000,4.000000,4.000000,4.000000,4.000000,4.000000,4.000000,4.000000,4.000000,4.000000,4.000000,4.000000,4.000000,4.000000,100.000000
1602005822.165867,86.000000,0.000000,4123.589844,4150.769043,4120.512695,4130.256348,4125.128418,4119.487305,4118.974121,4118.461426,4095.384521,4075.384521,4108.205078,4129.743652,4089.230713,4092.307617,877.000000,4.000000,,,,0.000000,4.000000,4.000000,4.000000,4.000000,4.000000,4.000000,4.000000,4.000000,4.000000,4.000000,4.000000,4.000000,4.000000,4.000000,100.000000
1602005822.173757,87.000000,0.000000,4124.102539,4151.282227,4118.974121,4134.871582,4130.256348,4121.025879,4123.589844,4124.102539,4108.717773,4104.615234,4105.128418,4122.563965,4092.307617,4087.179443,841.000000,4.000000,,,,0.000000,4.000000,4.000000,4.000000,4.000000,4.000000,4.000000,4.000000,4.000000,4.000000,4.000000,4.000000,4.000000,4.000000,4.000000,100.000000
1602005822.181647,88.000000,0.000000,4132.307617,4155.897461,4121.538574,4142.051270,4142.051270,4135.384766,4136.410156,4136.922852,4124.615234,4138.461426,4113.846191,4126.666504,4103.589844,4094.871826,773.000000,4.000000,,,,0.000000,4.000000,4.000000,4.000000,4.000000,4.000000,4.000000,4.000000,4.000000,4.000000,4.000000,4.000000,4.000000,4.000000,4.000000,100.000000
1602005822.189435,89.000000,0.000000,4140.512695,4159.487305,4126.153809,4142.563965,4143.589844,4142.051270,4141.025879,4144.615234,4137.436035,4142.563965,4125.641113,4133.333496,4112.307617,4106.153809,771.000000,4.000000,,,,0.000000,4.000000,4.000000,4.000000,4.000000,4.000000,4.000000,4.000000,4.000000,4.000000,4.000000,4.000000,4.000000,4.000000,4.000000,100.000000
1602005822.197323,90.000000,0.000000,4141.538574,4158.461426,4132.820313,4141.538574,4140.512695,4135.384766,4133.846191,4145.128418,4145.641113,4129.230957,4127.179688,4135.897461,4117.948730,4103.589844,877.000000,4.000000,,,,0.000000,4.000000,4.000000,4.000000,4.000000,4.000000,4.000000,4.000000,4.000000,4.000000,4.000000,4.000000,4.000000,4.000000,4.000000,100.000000
1602005822.205211,91.000000,0.000000,4145.641113,4163.589844,4136.922852,4142.563965,4139.487305,4127.179688,4127.179688,4141.538574,4144.615234,4132.307617,4130.769043,4138.974121,4125.128418,4109.743652,841.000000,4.000000,,,,0.000000,4.000000,4.000000,4.000000,4.000000,4.000000,4.000000,4.000000,4.000000,4.000000,4.000000,4.000000,4.000000,4.000000,4.000000,100.000000
1602005822.213100,92.000000,0.000000,4157.436035,4168.717773,4136.922852,4141.538574,4137.436035,4122.051270,4126.153809,4138.461426,4146.153809,4150.256348,4136.410156,4142.563965,4125.641113,4123.077148,773.000000,4.000000,,,,0.000000,4.000000,4.000000,4.000000,4.000000,4.000000,4.000000,4.000000,4.000000,4.000000,4.000000,4.000000,4.000000,4.000000,4.000000,100.000000
1602005822.220988,93.000000,0.000000,4159.487305,4167.179688,4138.461426,4142.051270,4137.436035,4126.153809,4129.743652,4141.025879,4153.846191,4148.205078,4140.000000,4145.641113,4125.128418,4121.538574,771.000000,4.000000,,,,0.000000,4.000000,4.000000,4.000000,4.000000,4.000000,4.000000,4.000000,4.000000,4.000000,4.000000,4.000000,4.000000,4.000000,4.000000,100.000000
1602005822.228876,94.000000,0.000000,4144.615234,4161.025879,4133.333496,4142.563965,4138.461426,4136.410156,4134.358887,4143.589844,4144.615234,4127.179688,4136.410156,4144.102539,4123.589844,4108.205078,877.000000,4.000000,,,,0.000000,4.000000,4.000000,4.000000,4.000000,4.000000,4.000000,4.000000,4.000000,4.000000,4.000000,4.000000,4.000000,4.000000,4.000000,100.000000
1602005822.236764,95.000000,0.000000,4125.641113,4149.230957,4120.512695,4136.410156,4138.974121,4135.897461,4129.743652,4134.358887,4120.512695,4118.974121,4114.871582,4128.717773,4104.102539,4093.333252,841.000000,4.000000,,,,0.000000,4.000000,4.000000,4.000000,4.000000,4.000000,4.000000,4.000000,4.000000,4.000000,4.000000,4.000000,4.000000,4.000000,4.000000,100.000000
1602005822.244547,96.000000,0.000000,4116.410156,4142.051270,4117.436035,4131.794922,4134.871582,4123.589844,4120.512695,4121.538574,4103.077148,4108.205078,4089.230713,4108.717773,4079.487061,4077.435791,773.000000,4.000000,,,,0.000000,4.000000,4.000000,4.000000,4.000000,4.000000,4.000000,4.000000,4.000000,4.000000,4.000000,4.000000,4.000000,4.000000,4.000000,100.000000
1602005822.252431,97.000000,0.000000,4121.538574,4149.230957,4124.615234,4135.897461,4125.641113,4117.436035,4120.000000,4118.974121,4096.922852,4077.948730,4085.641113,4102.563965,4071.281982,4070.769287,771.000000,4.000000,,,,0.000000,4.000000,4.000000,4.000000,4.000000,4.000000,4.000000,4.000000,4.000000,4.000000,4.000000,4.000000,4.000000,4.000000,4.000000,100.000000
1602005822.260315,98.000000,0.000000,4124.102539,4150.256348,4123.589844,4138.461426,4123.589844,4121.025879,4124.102539,4123.589844,4103.077148,4070.769287,4098.461426,4108.205078,4073.846191,4072.307617,877.000000,4.000000,,,,0.000000,4.000000,4.000000,4.000000,4.000000,4.000000,4.000000,4.000000,4.000000,4.000000,4.000000,4.000000,4.000000,4.000000,4.000000,100.000000
1602005822.268100,99.000000,0.000000,4113.333496,4140.000000,4112.307617,4130.256348,4132.307617,4119.487305,4121.025879,4130.769043,4117.436035,4100.512695,4104.102539,4112.307617,4080.000000,4073.333252,841.000000,4.000000,,,,0.000000,4.000000,4.000000,4.000000,4.000000,4.000000,4.000000,4.000000,4.000000,4.000000,4.000000,4.000000,4.000000,4.000000,4.000000,100.000000
1602005822.275986,100.000000,0.000000,4109.743652,4143.589844,4109.230957,4126.666504,4136.922852,4118.974121,4122.051270,4138.461426,4126.666504,4125.641113,4104.615234,4116.922852,4088.718018,4082.564209,773.000000,4.000000,,,,0.000000,4.000000,4.000000,4.000000,4.000000,4.000000,4.000000,4.000000,4.000000,4.000000,4.000000,4.000000,4.000000,4.000000,4.000000,100.000000
1602005822.283872,101.000000,0.000000,4121.538574,4154.358887,4117.436035,4134.871582,4135.897461,4125.128418,4132.820313,4143.077148,4128.205078,4125.641113,4107.179688,4123.589844,4092.820557,4092.307617,771.000000,4.000000,,,,0.000000,4.000000,4.000000,4.000000,4.000000,4.000000,4.000000,4.000000,4.000000,4.000000,4.000000,4.000000,4.000000,4.000000,4.000000,100.000000
1602005822.291757,102.000000,0.000000,4126.153809,4153.333496,4121.025879,4138.974121,4141.025879,4125.641113,4134.871582,4140.000000,4127.179688,4121.025879,4104.102539,4121.538574,4088.718018,4087.692383,877.000000,4.000000,,,,0.000000,4.000000,4.000000,4.000000,4.000000,4.000000,4.000000,4.000000,4.000000,4.000000,4.000000,4.000000,4.000000,4.000000,4.000000,100.000000
1602005822.299643,103.000000,0.000000,4123.077148,4150.256348,4123.077148,4136.410156,4145.641113,4122.051270,4126.666504,4135.897461,4124.102539,4121.538574,4104.102539,4121.025879,4094.358887,4092.307617,841.000000,4.000000,,,,0.000000,4.000000,4.000000,4.000000,4.000000,4.000000,4.000000,4.000000,4.000000,4.000000,4.000000,4.000000,4.000000,4.000000,4.000000,100.000000
1602005822.307429,104.000000,0.000000,4126.666504,4146.666504,4132.307617,4134.358887,4140.512695,4125.641113,4123.077148,4134.871582,4123.077148,4122.051270,4115.897461,4132.820313,4108.205078,4116.410156,773.000000,4.000000,,,,0.000000,4.000000,4.000000,4.000000,4.000000,4.000000,4.000000,4.000000,4.000000,4.000000,4.000000,4.000000,4.000000,4.000000,4.000000,100.000000
1602005822.315315,105.000000,0.000000,4127.179688,4140.000000,4136.922852,4130.256348,4136.410156,4130.769043,4125.128418,4137.948730,4126.153809,4125.641113,4126.666504,4142.563965,4110.256348,4124.102539,771.000000,4.000000,,,,0.000000,4.000000,4.000000,4.000000,4.000000,4.000000,4.000000,4.000000,4.000000,4.000000,4.000000,4.000000,4.000000,4.000000,4.000000,100.000000
1602005822.323201,106.000000,0.000000,4119.487305,4136.922852,4131.282227,4125.641113,4135.384766,4125.641113,4123.077148,4137.436035,4125.641113,4124.102539,4122.051270,4136.922852,4102.051270,4107.692383,877.000000,4.000000,,,,0.000000,4.000000,4.000000,4.000000,4.000000,4.000000,4.000000,4.000000,4.000000,4.000000,4.000000,4.000000,4.000000,4.000000,4.000000,100.000000
1602005822.331087,107.000000,0.000000,4121.538574,4138.461426,4129.230957,4129.230957,4134.871582,4124.615234,4125.641113,4135.897461,4125.128418,4123.589844,4115.384766,4127.692383,4103.589844,4097.436035,841.000000,4.000000,,,,0.000000,4.000000,4.000000,4.000000,4.000000,4.000000,4.000000,4.000000,4.000000,4.000000,4.000000,4.000000,4.000000,4.000000,4.000000,100.000000
1602005822.338973,108.000000,0.000000,4125.128418,4139.487305,4125.641113,4129.230957,4135.897461,4137.436035,4135.897461,4136.410156,4126.666504,4125.128418,4109.743652,4127.179688,4105.128418,4096.922852,773.000000,4.000000,,,,0.000000,4.000000,4.000000,4.000000,4.000000,4.000000,4.000000,4.000000,4.000000,4.000000,4.000000,4.000000,4.000000,4.000000,4.000000,100.000000
1602005822.346762,109.000000,0.000000,4113.333496,4137.436035,4109.230957,4120.512695,4138.974121,4139.487305,4137.948730,4135.897461,4124.615234,4108.717773,4103.077148,4118.461426,4091.794922,4087.692383,771.000000,4.000000,,,,0.000000,4.000000,4.000000,4.000000,4.000000,4.000000,4.000000,4.000000,4.000000,4.000000,4.000000,4.000000,4.000000,4.000000,4.000000,100.000000
1602005822.354650,110.000000,0.000000,4102.051270,4133.846191,4096.922852,4116.410156,4135.897461,4123.077148,4127.179688,4136.922852,4127.692383,4103.077148,4111.282227,4103.589844,4088.718018,4080.512939,877.000000,4.000000,,,,0.000000,4.000000,4.000000,4.000000,4.000000,4.000000,4.000000,4.000000,4.000000,4.000000,4.000000,4.000000,4.000000,4.000000,4.000000,100.000000
1602005822.362539,111.000000,0.000000,4108.717773,4136.922852,4101.538574,4121.025879,4127.692383,4120.512695,4124.615234,4139.487305,4138.461426,4140.512695,4125.128418,4105.641113,4102.563965,4090.256348,841.000000,4.000000,,,,0.000000,4.000000,4.000000,4.000000,4.000000,4.000000,4.000000,4.000000,4.000000,4.000000,4.000000,4.000000,4.000000,4.000000,4.000000,100.000000
1602005822.370427,112.000000,0.000000,4123.077148,4140.512695,4110.256348,4124.615234,4129.743652,4138.974121,4135.384766,4138.974121,4144.615234,4170.256348,4127.179688,4114.358887,4110.769043,4098.461426,773.000000,4.000000,,,,0.000000,4.000000,4.000000,4.000000,4.000000,4.000000,4.000000,4.000000,4.000000,4.000000,4.000000,4.000000,4.000000,4.000000,4.000000,100.000000
1602005822.378316,113.000000,0.000000,4122.051270,4132.307617,4116.410156,4121.538574,4133.846191,4143.589844,4135.897461,4136.410156,4137.436035,4144.615234,4119.487305,4112.307617,4104.615234,4096.410156,771.000000,4.000000,,,,0.000000,4.000000,4.000000,4.000000,4.000000,4.000000,4.000000,4.000000,4.000000,4.000000,4.000000,4.000000,4.000000,4.000000,4.000000,100.000000
1602005822.386204,114.000000,0.000000,4112.820313,4121.538574,4121.025879,4118.461426,4126.153809,4132.820313,4127.179688,4135.897461,4125.128418,4117.436035,4111.794922,4108.205078,4096.922852,4091.794922,877.000000,4.000000,,,,0.000000,4.000000,4.000000,4.000000,4.000000,4.000000,4.000000,4.000000,4.000000,4.000000,4.000000,4.000000,4.000000,4.000000,4.000000,100.000000
1602005822.394093,115.000000,0.000000,4115.897461,4119.487305,4124.615234,4120.512695,4120.000000,4135.384766,4130.256348,4134.871582,4120.000000,4127.692383,4101.538574,4109.230957,4089.743652,4086.666748,841.000000,4.000000,,,,0.000000,4.000000,4.000000,4.000000,4.000000,4.000000,4.000000,4.000000,4.000000,4.000000,4.000000,4.000000,4.000000,4.000000,4.000000,100.000000
1602005822.401880,116.000000,0.000000,4121.025879,4121.538574,4125.641113,4123.589844,4123.589844,4142.051270,4141.538574,4141.025879,4126.666504,4137.436035,4095.897461,4112.307617,4084.102539,4082.564209,773.000000,4.000000,,,,0.000000,4.000000,4.000000,4.000000,4.000000,4.000000,4.000000,4.000000,4.000000,4.000000,4.000000,4.000000,4.000000,4.000000,4.000000,100.000000
1602005822.409766,117.000000,0.000000,4120.512695,4129.230957,4126.153809,4122.563965,4125.128418,4133.846191,4141.025879,4153.333496,4138.461426,4121.538574,4103.077148,4120.512695,4093.846191,4088.205078,771.000000,4.000000,,,,0.000000,4.000000,4.000000,4.000000,4.000000,4.000000,4.000000,4.000000,4.000000,4.000000,4.000000,4.000000,4.000000,4.000000,4.000000,100.000000
1602005822.417653,118.000000,0.000000,4127.692383,4137.436035,4127.692383,4123.077148,4124.102539,4120.000000,4130.769043,4152.820313,4143.077148,4114.871582,4109.230957,4129.743652,4104.102539,4105.128418,877.000000,4.000000,,,,0.000000,4.000000,4.000000,4.000000,4.000000,4.000000,4.000000,4.000000,4.000000,4.000000,4.000000,4.000000,4.000000,4.000000,4.000000,100.000000
1602005822.425540,119.000000,0.000000,4140.000000,4142.051270,4135.384766,4130.769043,4124.102539,4113.333496,4122.051270,4142.051270,4137.948730,4129.743652,4107.692383,4138.974121,4100.000000,4117.436035,841.000000,4.000000,,,,0.000000,4.000000,4.000000,4.000000,4.000000,4.000000,4.000000,4.000000,4.000000,4.000000,4.000000,4.000000,4.000000,4.000000,4.000000,100.000000
1602005822.433426,120.000000,0.000000,4143.077148,4145.641113,4136.922852,4136.410156,4126.666504,4110.769043,4111.794922,4131.282227,4125.641113,4129.230957,4105.641113,4141.025879,4095.897461,4112.307617,773.000000,4.000000,,,,0.000000,4.000000,4.000000,4.000000,4.000000,4.000000,4.000000,4.000000,4.000000,4.000000,4.000000,4.000000,4.000000,4.000000,4.000000,100.000000
1602005822.441217,121.000000,0.000000,4147.179688,4152.820313,4133.333496,4138.461426,4134.358887,4112.820313,4107.692383,4129.743652,4120.000000,4129.230957,4115.384766,4132.307617,4104.615234,4113.846191,771.000000,4.000000,,,,0.000000,4.000000,4.000000,4.000000,4.000000,4.000000,4.000000,4.000000,4.000000,4.000000,4.000000,4.000000,4.000000,4.000000,4.000000,100.000000
1602005822.449108,122.000000,0.000000,4156.410156,4158.974121,4136.410156,4140.512695,4139.487305,4121.025879,4116.410156,4136.410156,4122.051270,4144.102539,4124.615234,4129.743652,4109.230957,4125.641113,877.000000,4.000000,,,,0.000000,4.000000,4.000000,4.000000,4.000000,4.000000,4.000000,4.000000,4.000000,4.000000,4.000000,4.000000,4.000000,4.000000,4.000000,100.000000
1602005822.456999,123.000000,0.000000,4153.846191,4157.948730,4133.846191,4140.512695,4138.974121,4127.179688,4121.538574,4134.358887,4123.589844,4145.641113,4121.538574,4134.358887,4103.589844,4114.871582,841.000000,4.000000,,,,0.000000,4.000000,4.000000,4.000000,4.000000,4.000000,4.000000,4.000000,4.000000,4.000000,4.000000,4.000000,4.000000,4.000000,4.000000,100.000000
1602005822.464890,124.000000,0.000000,4152.307617,4158.974121,4128.717773,4139.487305,4137.948730,4122.563965,4110.256348,4121.025879,4122.051270,4134.358887,4118.974121,4132.820313,4113.846191,4110.256348,773.000000,4.000000,,,,0.000000,4.000000,4.000000,4.000000,4.000000,4.000000,4.000000,4.000000,4.000000,4.000000,4.000000,4.000000,4.000000,4.000000,4.000000,100.000000
1602005822.472781,125.000000,0.000000,4157.436035,4157.948730,4131.794922,4139.487305,4132.820313,4118.974121,4106.153809,4118.461426,4118.974121,4116.922852,4124.102539,4134.358887,4133.846191,4134.871582,771.000000,4.000000,,,,0.000000,4.000000,4.000000,4.000000,4.000000,4.000000,4.000000,4.000000,4.000000,4.000000,4.000000,4.000000,4.000000,4.000000,4.000000,100.000000
1602005822.480672,126.000000,0.000000,4149.743652,4145.641113,4131.794922,4133.846191,4123.589844,4123.077148,4119.487305,4124.615234,4120.512695,4100.512695,4125.641113,4136.410156,4147.179688,4146.153809,877.000000,4.000000,,,,0.000000,4.000000,4.000000,4.000000,4.000000,4.000000,4.000000,4.000000,4.000000,4.000000,4.000000,4.000000,4.000000,4.000000,4.000000,100.000000
1602005822.488563,127.000000,0.000000,4130.769043,4122.051270,4121.538574,4121.538574,4121.025879,4117.436035,4118.974121,4121.025879,4120.512695,4121.025879,4125.641113,4134.358887,4152.820313,4143.589844,841.000000,4.000000,,,,0.000000,4.000000,4.000000,4.000000,4.000000,4.000000,4.000000,4.000000,4.000000,4.000000,4.000000,4.000000,4.000000,4.000000,4.000000,100.000000
1602005822.496454,128.000000,0.000000,4121.538574,4107.179688,4123.077148,4116.410156,4122.563965,4106.666504,4112.820313,4124.102539,4117.948730,4167.692383,4141.538574,4144.615234,4156.922852,4155.384766,773.000000,4.000000,,,,0.000000,4.000000,4.000000,4.000000,4.000000,4.000000,4.000000,4.000000,4.000000,4.000000,4.000000,4.000000,4.000000,4.000000,4.000000,100.000000
1602005822.504345,0.000000,0.000000,4124.615234,4111.282227,4136.410156,4120.000000,4122.563965,4114.358887,4121.538574,4137.436035,4127.179688,4174.358887,4157.948730,4158.461426,4164.615234,4163.077148,806.000000,4.000000,,,,0.000000,4.000000,4.000000,4.000000,4.000000,4.000000,4.000000,4.000000,4.000000,4.000000,4.000000,4.000000,4.000000,4.000000,4.000000,100.000000
1602005822.512131,1.000000,0.000000,4125.641113,4118.461426,4139.487305,4123.589844,4126.666504,4121.025879,4122.051270,4135.384766,4134.871582,4154.871582,4151.282227,4155.384766,4165.128418,4155.897461,795.000000,4.000000,,,,0.000000,4.000000,4.000000,4.000000,4.000000,4.000000,4.000000,4.000000,4.000000,4.000000,4.000000,4.000000,4.000000,4.000000,4.000000,100.000000
1602005822.520018,2.000000,0.000000,4124.615234,4122.051270,4141.025879,4126.666504,4129.743652,4114.358887,4111.794922,4123.589844,4129.743652,4149.230957,4141.538574,4152.820313,4158.974121,4158.974121,851.000000,4.000000,,,,0.000000,4.000000,4.000000,4.000000,4.000000,4.000000,4.000000,4.000000,4.000000,4.000000,4.000000,4.000000,4.000000,4.000000,4.000000,100.000000
1602005822.527904,3.000000,0.000000,4123.589844,4121.538574,4143.589844,4128.205078,4127.179688,4109.743652,4115.384766,4121.538574,4126.153809,4134.871582,4136.410156,4154.871582,4153.846191,4157.436035,865.000000,4.000000,,,,0.000000,4.000000,4.000000,4.000000,4.000000,4.000000,4.000000,4.000000,4.000000,4.000000,4.000000,4.000000,4.000000,4.000000,4.000000,100.000000
1602005822.535790,4.000000,0.000000,4122.051270,4114.871582,4140.512695,4123.077148,4120.000000,4105.641113,4123.077148,4122.563965,4125.641113,4113.846191,4121.538574,4152.307617,4146.153809,4141.025879,813.000000,4.000000,,,,0.000000,4.000000,4.000000,4.000000,4.000000,4.000000,4.000000,4.000000,4.000000,4.000000,4.000000,4.000000,4.000000,4.000000,4.000000,100.000000
1602005822.543677,5.000000,0.000000,4127.179688,4110.256348,4141.538574,4118.974121,4117.436035,4107.692383,4120.000000,4121.025879,4122.051270,4128.205078,4119.487305,4154.358887,4135.897461,4137.436035,827.000000,4.000000,,,,0.000000,4.000000,4.000000,4.000000,4.000000,4.000000,4.000000,4.000000,4.000000,4.000000,4.000000,4.000000,4.000000,4.000000,4.000000,100.000000
1602005822.551465,6.000000,0.000000,4141.538574,4118.974121,4153.846191,4127.692383,4128.717773,4125.641113,4121.025879,4125.128418,4121.538574,4155.897461,4138.461426,4164.102539,4140.512695,4156.922852,769.000000,4.000000,,,,0.000000,4.000000,4.000000,4.000000,4.000000,4.000000,4.000000,4.000000,4.000000,4.000000,4.000000,4.000000,4.000000,4.000000,4.000000,100.000000
1602005822.559352,7.000000,0.000000,4146.153809,4126.666504,4162.051270,4135.897461,4136.410156,4132.307617,4129.230957,4130.769043,4123.077148,4152.307617,4149.743652,4164.102539,4153.846191,4169.230957,695.000000,4.000000,,,,0.000000,4.000000,4.000000,4.000000,4.000000,4.000000,4.000000,4.000000,4.000000,4.000000,4.000000,4.000000,4.000000,4.000000,4.000000,100.000000
1602005822.567240,8.000000,0.000000,4137.948730,4120.512695,4158.974121,4132.307617,4127.179688,4123.589844,4136.922852,4133.333496,4122.051270,4139.487305,4148.717773,4163.077148,4153.846191,4157.948730,787.000000,4.000000,,,,0.000000,4.000000,4.000000,4.000000,4.000000,4.000000,4.000000,4.000000,4.000000,4.000000,4.000000,4.000000,4.000000,4.000000,4.000000,100.000000
1602005822.575127,9.000000,0.000000,4136.410156,4114.358887,4156.922852,4125.641113,4120.512695,4130.256348,4139.487305,4135.384766,4120.000000,4139.487305,4152.307617,4166.153809,4150.769043,4152.307617,847.000000,4.000000,,,,0.000000,4.000000,4.000000,4.000000,4.000000,4.000000,4.000000,4.000000,4.000000,4.000000,4.000000,4.000000,4.000000,4.000000,4.000000,100.000000
1602005822.583015,10.000000,0.000000,4139.487305,4111.794922,4156.410156,4123.589844,4126.153809,4140.512695,4140.000000,4141.025879,4123.589844,4143.077148,4153.846191,4162.563965,4156.410156,4165.128418,877.000000,4.000000,,,,0.000000,4.000000,4.000000,4.000000,4.000000,4.000000,4.000000,4.000000,4.000000,4.000000,4.000000,4.000000,4.000000,4.000000,4.000000,100.000000
1602005822.590903,11.000000,0.000000,4138.974121,4108.717773,4154.871582,4123.589844,4129.230957,4137.436035,4140.512695,4147.692383,4144.102539,4156.410156,4153.333496,4160.512695,4166.666504,4176.410156,841.000000,4.000000,,,,0.000000,4.000000,4.000000,4.000000,4.000000,4.000000,4.000000,4.000000,4.000000,4.000000,4.000000,4.000000,4.000000,4.000000,4.000000,100.000000
1602005822.598691,12.000000,0.000000,4138.974121,4108.205078,4155.897461,4124.102539,4128.205078,4137.948730,4138.461426,4144.615234,4157.948730,4176.410156,4155.384766,4170.256348,4168.717773,4171.282227,773.000000,4.000000,,,,0.000000,4.000000,4.000000,4.000000,4.000000,4.000000,4.000000,4.000000,4.000000,4.000000,4.000000,4.000000,4.000000,4.000000,4.000000,100.000000
1602005822.606579,13.000000,0.000000,4132.820313,4108.717773,4155.384766,4123.589844,4126.666504,4141.025879,4134.871582,4135.897461,4145.128418,4180.000000,4154.871582,4170.769043,4158.461426,4155.897461,761.000000,4.000000,,,,0.000000,4.000000,4.000000,4.000000,4.000000,4.000000,4.000000,4.000000,4.000000,4.000000,4.000000,4.000000,4.000000,4.000000,4.000000,100.000000
1602005822.614468,14.000000,0.000000,4121.538574,4105.641113,4149.230957,4120.512695,4123.077148,4138.974121,4135.384766,4135.897461,4133.333496,4166.666504,4152.820313,4150.769043,4152.820313,4150.769043,877.000000,4.000000,,,,0.000000,4.000000,4.000000,4.000000,4.000000,4.000000,4.000000,4.000000,4.000000,4.000000,4.000000,4.000000,4.000000,4.000000,4.000000,100.000000
1602005822.622356,15.000000,0.000000,4124.102539,4109.230957,4142.051270,4123.077148,4129.743652,4138.461426,4133.333496,4134.871582,4136.410156,4158.461426,4153.333496,4139.487305,4159.487305,4156.410156,841.000000,4.000000,,,,0.000000,4.000000,4.000000,4.000000,4.000000,4.000000,4.000000,4.000000,4.000000,4.000000,4.000000,4.000000,4.000000,4.000000,4.000000,100.000000
1602005822.630244,16.000000,0.000000,4132.307617,4118.974121,4143.589844,4127.179688,4137.948730,4142.051270,4128.205078,4126.153809,4137.436035,4153.333496,4156.410156,4143.077148,4162.051270,4161.025879,0.000000,4.000000,,,,0.000000,4.000000,4.000000,4.000000,4.000000,4.000000,4.000000,4.000000,4.000000,4.000000,4.000000,4.000000,4.000000,4.000000,4.000000,100.000000
1602005822.638133,17.000000,0.000000,4127.692383,4117.436035,4143.077148,4125.128418,4131.794922,4140.512695,4129.743652,4124.615234,4132.820313,4141.025879,4153.846191,4142.051270,4155.384766,4160.000000,0.000000,4.000000,,,,0.000000,4.000000,4.000000,4.000000,4.000000,4.000000,4.000000,4.000000,4.000000,4.000000,4.000000,4.000000,4.000000,4.000000,4.000000,100.000000
1602005822.646021,18.000000,0.000000,4118.461426,4107.692383,4129.743652,4121.538574,4123.077148,4134.358887,4135.897461,4127.692383,4128.205078,4130.256348,4140.512695,4136.922852,4152.307617,4149.230957,0.000000,4.000000,,,,0.000000,4.000000,4.000000,4.000000,4.000000,4.000000,4.000000,4.000000,4.000000,4.000000,4.000000,4.000000,4.000000,4.000000,4.000000,100.000000
1602005822.653808,19.000000,0.000000,4115.384766,4110.256348,4122.051270,4122.051270,4122.563965,4131.794922,4137.436035,4128.205078,4126.153809,4134.358887,4132.307617,4131.794922,4152.820313,4138.461426,0.000000,4.000000,,,,0.000000,4.000000,4.000000,4.000000,4.000000,4.000000,4.000000,4.000000,4.000000,4.000000,4.000000,4.000000,4.000000,4.000000,4.000000,100.000000
1602005822.661696,20.000000,0.000000,4110.769043,4113.333496,4119.487305,4123.077148,4122.051270,4134.871582,4133.333496,4127.692383,4129.743652,4141.538574,4135.897461,4126.153809,4146.153809,4140.000000,0.000000,4.000000,,,,0.000000,4.000000,4.000000,4.000000,4.000000,4.000000,4.000000,4.000000,4.000000,4.000000,4.000000,4.000000,4.000000,4.000000,4.000000,100.000000
1602005822.669583,21.000000,0.000000,4106.666504,4107.692383,4108.717773,4120.000000,4121.025879,4137.436035,4133.333496,4127.692383,4137.436035,4143.589844,4136.410156,4120.512695,4137.948730,4134.358887,0.000000,4.000000,,,,0.000000,4.000000,4.000000,4.000000,4.000000,4.000000,4.000000,4.000000,4.000000,4.000000,4.000000,4.000000,4.000000,4.000000,4.000000,100.000000
1602005822.677470,22.000000,0.000000,4107.692383,4108.205078,4108.205078,4119.487305,4122.563965,4135.897461,4133.846191,4125.128418,4136.410156,4147.179688,4126.666504,4112.820313,4139.487305,4121.538574,0.000000,4.000000,,,,0.000000,4.000000,4.000000,4.000000,4.000000,4.000000,4.000000,4.000000,4.000000,4.000000,4.000000,4.000000,4.000000,4.000000,4.000000,100.000000
1602005822.685358,23.000000,0.000000,4108.205078,4114.358887,4121.025879,4122.563965,4123.077148,4131.794922,4128.717773,4121.538574,4124.615234,4142.051270,4126.153809,4109.743652,4141.538574,4128.205078,0.000000,4.000000,,,,0.000000,4.000000,4.000000,4.000000,4.000000,4.000000,4.000000,4.000000,4.000000,4.000000,4.000000,4.000000,4.000000,4.000000,4.000000,100.000000
1602005822.693245,24.000000,0.000000,4108.205078,4117.436035,4125.128418,4124.102539,4125.128418,4129.230957,4124.102539,4121.538574,4116.922852,4139.487305,4136.410156,4116.922852,4142.563965,4138.461426,0.000000,4.000000,,,,0.000000,4.000000,4.000000,4.000000,4.000000,4.000000,4.000000,4.000000,4.000000,4.000000,4.000000,4.000000,4.000000,4.000000,4.000000,100.000000
1602005822.701036,25.000000,0.000000,4110.256348,4121.538574,4122.563965,4126.153809,4125.641113,4125.641113,4124.615234,4123.077148,4125.641113,4158.974121,4142.051270,4124.615234,4151.794922,4135.897461,0.000000,4.000000,,,,0.000000,4.000000,4.000000,4.000000,4.000000,4.000000,4.000000,4.000000,4.000000,4.000000,4.000000,4.000000,4.000000,4.000000,4.000000,100.000000
1602005822.708927,26.000000,0.000000,4108.717773,4125.128418,4123.589844,4126.666504,4125.128418,4121.025879,4124.102539,4121.538574,4131.794922,4172.820313,4139.487305,4123.077148,4155.384766,4140.512695,0.000000,4.000000,,,,0.000000,4.000000,4.000000,4.000000,4.000000,4.000000,4.000000,4.000000,4.000000,4.000000,4.000000,4.000000,4.000000,4.000000,4.000000,100.000000
1602005822.716817,27.000000,0.000000,4111.282227,4125.128418,4120.000000,4127.179688,4131.794922,4125.641113,4119.487305,4117.436035,4124.102539,4162.051270,4138.461426,4125.641113,4154.871582,4149.743652,0.000000,4.000000,,,,0.000000,4.000000,4.000000,4.000000,4.000000,4.000000,4.000000,4.000000,4.000000,4.000000,4.000000,4.000000,4.000000,4.000000,4.000000,100.000000
1602005822.724708,28.000000,0.000000,4115.384766,4124.615234,4119.487305,4130.256348,4140.000000,4136.922852,4122.563965,4119.487305,4121.025879,4137.948730,4141.538574,4131.282227,4154.871582,4145.128418,0.000000,4.000000,,,,0.000000,4.000000,4.000000,4.000000,4.000000,4.000000,4.000000,4.000000,4.000000,4.000000,4.000000,4.000000,4.000000,4.000000,4.000000,100.000000
1602005822.732599,29.000000,0.000000,4107.692383,4121.025879,4123.589844,4127.692383,4135.897461,4136.922852,4128.717773,4123.077148,4124.102539,4121.538574,4137.436035,4128.205078,4142.563965,4132.307617,0.000000,4.000000,,,,0.000000,4.000000,4.000000,4.000000,4.000000,4.000000,4.000000,4.000000,4.000000,4.000000,4.000000,4.000000,4.000000,4.000000,4.000000,100.000000
1602005822.740490,30.000000,0.000000,4103.589844,4119.487305,4120.512695,4125.128418,4130.256348,4132.820313,4127.179688,4122.051270,4121.538574,4132.307617,4133.333496,4125.641113,4136.922852,4129.230957,0.000000,4.000000,,,,0.000000,4.000000,4.000000,4.000000,4.000000,4.000000,4.000000,4.000000,4.000000,4.000000,4.000000,4.000000,4.000000,4.000000,4.000000,100.000000
1602005822.748380,31.000000,0.000000,4120.000000,4125.128418,4127.179688,4133.333496,4136.922852,4138.974121,4128.717773,4128.205078,4127.179688,4160.000000,4144.102539,4134.358887,4159.487305,4146.153809,0.000000,4.000000,,,,0.000000,4.000000,4.000000,4.000000,4.000000,4.000000,4.000000,4.000000,4.000000,4.000000,4.000000,4.000000,4.000000,4.000000,4.000000,100.000000
1602005822.756271,32.000000,0.000000,4131.794922,4127.179688,4142.051270,4140.512695,4140.000000,4145.128418,4135.897461,4140.000000,4145.128418,4170.769043,4158.461426,4152.307617,4179.487305,4171.282227,0.000000,4.000000,,,,0.000000,4.000000,4.000000,4.000000,4.000000,4.000000,4.000000,4.000000,4.000000,4.000000,4.000000,4.000000,4.000000,4.000000,4.000000,100.000000
1602005822.764162,33.000000,0.000000,4118.461426,4123.589844,4135.384766,4132.820313,4131.282227,4143.589844,4130.769043,4137.436035,4143.589844,4167.179688,4155.897461,4152.820313,4174.358887,4169.230957,0.000000,4.000000,,,,0.000000,4.000000,4.000000,4.000000,4.000000,4.000000,4.000000,4.000000,4.000000,4.000000,4.000000,4.000000,4.000000,4.000000,4.000000,100.000000
1602005822.771947,34.000000,0.000000,4103.589844,4120.000000,4117.436035,4124.615234,4129.743652,4137.948730,4125.128418,4122.563965,4123.589844,4162.563965,4148.717773,4140.512695,4165.128418,4143.589844,0.000000,4.000000,,,,0.000000,4.000000,4.000000,4.000000,4.000000,4.000000,4.000000,4.000000,4.000000,4.000000,4.000000,4.000000,4.000000,4.000000,4.000000,100.000000
1602005822.779832,35.000000,0.000000,4105.128418,4122.051270,4117.436035,4126.153809,4133.846191,4135.897461,4134.871582,4122.563965,4124.102539,4145.128418,4153.846191,4146.153809,4167.179688,4139.487305,0.000000,4.000000,,,,0.000000,4.000000,4.000000,4.000000,4.000000,4.000000,4.000000,4.000000,4.000000,4.000000,4.000000,4.000000,4.000000,4.000000,4.000000,100.000000
1602005822.787717,36.000000,0.000000,4110.769043,4120.512695,4125.128418,4127.692383,4130.256348,4142.051270,4137.436035,4133.846191,4136.410156,4136.922852,4157.436035,4158.974121,4177.948730,4161.025879,0.000000,4.000000,,,,0.000000,4.000000,4.000000,4.000000,4.000000,4.000000,4.000000,4.000000,4.000000,4.000000,4.000000,4.000000,4.000000,4.000000,4.000000,100.000000
1602005822.795602,37.000000,0.000000,4109.230957,4112.820313,4121.538574,4124.615234,4124.615234,4136.410156,4123.589844,4137.436035,4141.025879,4160.512695,4160.000000,4155.384766,4186.153809,4174.871582,0.000000,4.000000,,,,0.000000,4.000000,4.000000,4.000000,4.000000,4.000000,4.000000,4.000000,4.000000,4.000000,4.000000,4.000000,4.000000,4.000000,4.000000,100.000000
1602005822.803384,38.000000,0.000000,4104.102539,4106.666504,4119.487305,4122.051270,4126.666504,4118.974121,4120.512695,4137.948730,4146.666504,4188.717773,4167.179688,4151.282227,4184.615234,4171.794922,0.000000,4.000000,,,,0.000000,4.000000,4.000000,4.000000,4.000000,4.000000,4.000000,4.000000,4.000000,4.000000,4.000000,4.000000,4.000000,4.000000,4.000000,100.000000
1602005822.811167,39.000000,0.000000,4104.615234,4106.666504,4129.230957,4120.000000,4131.282227,4124.102539,4132.820313,4142.563965,4150.769043,4191.794922,4172.307617,4163.589844,4183.589844,4169.230957,0.000000,4.000000,,,,0.000000,4.000000,4.000000,4.000000,4.000000,4.000000,4.000000,4.000000,4.000000,4.000000,4.000000,4.000000,4.000000,4.000000,4.000000,100.000000
1602005822.819050,40.000000,0.000000,4108.717773,4112.307617,4140.512695,4123.077148,4133.846191,4140.000000,4138.461426,4144.102539,4142.051270,4178.461426,4172.307617,4172.820313,4187.179688,4175.384766,0.000000,4.000000,,,,0.000000,4.000000,4.000000,4.000000,4.000000,4.000000,4.000000,4.000000,4.000000,4.000000,4.000000,4.000000,4.000000,4.000000,4.000000,100.000000
1602005822.826835,41.000000,0.000000,4111.794922,4115.897461,4140.512695,4126.666504,4133.846191,4133.846191,4135.897461,4136.410156,4131.794922,4166.666504,4167.179688,4168.717773,4184.102539,4170.769043,0.000000,4.000000,,,,0.000000,4.000000,4.000000,4.000000,4.000000,4.000000,4.000000,4.000000,4.000000,4.000000,4.000000,4.000000,4.000000,4.000000,4.000000,100.000000
1602005822.834721,42.000000,0.000000,4110.256348,4110.769043,4136.922852,4124.102539,4132.307617,4124.102539,4135.897461,4127.179688,4127.179688,4145.128418,4155.384766,4154.871582,4171.794922,4153.333496,0.000000,4.000000,,,,0.000000,4.000000,4.000000,4.000000,4.000000,4.000000,4.000000,4.000000,4.000000,4.000000,4.000000,4.000000,4.000000,4.000000,4.000000,100.000000
1602005822.842606,43.000000,0.000000,4106.666504,4111.282227,4138.974121,4126.666504,4134.871582,4129.230957,4136.922852,4124.102539,4122.563965,4131.794922,4148.717773,4141.025879,4165.128418,4147.179688,0.000000,4.000000,,,,0.000000,4.000000,4.000000,4.000000,4.000000,4.000000,4.000000,4.000000,4.000000,4.000000,4.000000,4.000000,4.000000,4.000000,4.000000,100.000000
1602005822.850492,44.000000,0.000000,4107.179688,4122.051270,4135.384766,4136.922852,4136.922852,4129.230957,4129.230957,4123.077148,4121.538574,4155.384766,4151.794922,4137.948730,4169.230957,4155.384766,0.000000,4.000000,,,,0.000000,4.000000,4.000000,4.000000,4.000000,4.000000,4.000000,4.000000,4.000000,4.000000,4.000000,4.000000,4.000000,4.000000,4.000000,100.000000
1602005822.858377,45.000000,0.000000,4108.717773,4124.615234,4127.692383,4137.436035,4137.436035,4122.563965,4121.538574,4121.538574,4127.692383,4175.897461,4152.820313,4140.512695,4170.769043,4157.436035,0.000000,4.000000,,,,0.000000,4.000000,4.000000,4.000000,4.000000,4.000000,4.000000,4.000000,4.000000,4.000000,4.000000,4.000000,4.000000,4.000000,4.000000,100.000000
1602005822.866164,46.000000,0.000000,4106.666504,4120.000000,4125.641113,4128.205078,4134.871582,4120.000000,4121.025879,4128.717773,4135.897461,4167.692383,4151.794922,4146.153809,4172.820313,4152.820313,0.000000,4.000000,,,,0.000000,4.000000,4.000000,4.000000,4.000000,4.000000,4.000000,4.000000,4.000000,4.000000,4.000000,4.000000,4.000000,4.000000,4.000000,100.000000
1602005822.874052,47.000000,0.000000,4103.077148,4122.563965,4128.205078,4124.102539,4127.179688,4119.487305,4122.051270,4140.000000,4142.051270,4173.846191,4160.000000,4149.743652,4182.563965,4153.333496,0.000000,4.000000,,,,0.000000,4.000000,4.000000,4.000000,4.000000,4.000000,4.000000,4.000000,4.000000,4.000000,4.000000,4.000000,4.000000,4.000000,4.000000,100.000000
1602005822.881939,48.000000,0.000000,4102.051270,4122.563965,4131.282227,4125.641113,4125.641113,4127.179688,4128.717773,4141.025879,4142.563965,4186.666504,4168.717773,4151.282227,4185.641113,4158.461426,0.000000,4.000000,,,,0.000000,4.000000,4.000000,4.000000,4.000000,4.000000,4.000000,4.000000,4.000000,4.000000,4.000000,4.000000,4.000000,4.000000,4.000000,100.000000
1602005822.889826,49.000000,0.000000,4109.743652,4122.051270,4140.000000,4129.230957,4134.871582,4134.871582,4137.436035,4141.538574,4143.589844,4181.025879,4170.256348,4158.974121,4183.077148,4167.179688,0.000000,4.000000,,,,0.000000,4.000000,4.000000,4.000000,4.000000,4.000000,4.000000,4.000000,4.000000,4.000000,4.000000,4.000000,4.000000,4.000000,4.000000,100.000000
1602005822.897713,50.000000,0.000000,4125.128418,4133.333496,4150.769043,4136.410156,4140.000000,4137.948730,4138.974121,4144.615234,4146.153809,4186.153809,4171.794922,4167.179688,4188.205078,4175.384766,0.000000,4.000000,,,,0.000000,4.000000,4.000000,4.000000,4.000000,4.000000,4.000000,4.000000,4.000000,4.000000,4.000000,4.000000,4.000000,4.000000,4.000000,100.000000
1602005822.905600,51.000000,0.000000,4132.820313,4140.512695,4148.717773,4141.538574,4137.948730,4141.025879,4136.922852,4143.077148,4142.563965,4182.563965,4172.307617,4164.102539,4186.666504,4174.358887,0.000000,4.000000,,,,0.000000,4.000000,4.000000,4.000000,4.000000,4.000000,4.000000,4.000000,4.000000,4.000000,4.000000,4.000000,4.000000,4.000000,4.000000,100.000000
1602005822.913389,52.000000,0.000000,4127.692383,4135.897461,4135.384766,4140.512695,4139.487305,4139.487305,4138.974121,4135.897461,4133.846191,4149.743652,4160.512695,4151.794922,4171.794922,4167.179688,0.000000,4.000000,,,,0.000000,4.000000,4.000000,4.000000,4.000000,4.000000,4.000000,4.000000,4.000000,4.000000,4.000000,4.000000,4.000000,4.000000,4.000000,100.000000
1602005822.921278,53.000000,0.000000,4124.102539,4133.846191,4125.128418,4136.922852,4140.000000,4136.922852,4138.974121,4128.205078,4132.307617,4140.512695,4144.615234,4144.615234,4161.538574,4157.948730,0.000000,4.000000,,,,0.000000,4.000000,4.000000,4.000000,4.000000,4.000000,4.000000,4.000000,4.000000,4.000000,4.000000,4.000000,4.000000,4.000000,4.000000,100.000000
1602005822.929167,54.000000,0.000000,4124.102539,4140.000000,4120.000000,4137.948730,4140.000000,4142.563965,4137.948730,4123.077148,4135.897461,4160.000000,4148.205078,4139.487305,4166.153809,4149.743652,0.000000,4.000000,,,,0.000000,4.000000,4.000000,4.000000,4.000000,4.000000,4.000000,4.000000,4.000000,4.000000,4.000000,4.000000,4.000000,4.000000,4.000000,100.000000
1602005822.937055,55.000000,0.000000,4117.436035,4140.000000,4113.846191,4136.922852,4143.589844,4144.615234,4137.436035,4121.025879,4135.384766,4165.128418,4155.384766,4129.230957,4170.256348,4150.256348,0.000000,4.000000,,,,0.000000,4.000000,4.000000,4.000000,4.000000,4.000000,4.000000,4.000000,4.000000,4.000000,4.000000,4.000000,4.000000,4.000000,4.000000,100.000000
1602005822.944944,56.000000,0.000000,4107.692383,4129.743652,4108.205078,4127.692383,4141.538574,4136.410156,4131.282227,4124.102539,4133.333496,4165.128418,4144.615234,4127.179688,4166.153809,4154.871582,0.000000,4.000000,,,,0.000000,4.000000,4.000000,4.000000,4.000000,4.000000,4.000000,4.000000,4.000000,4.000000,4.000000,4.000000,4.000000,4.000000,4.000000,100.000000
1602005822.952833,57.000000,0.000000,4103.589844,4121.538574,4109.743652,4122.051270,4134.358887,4132.820313,4127.179688,4134.871582,4133.333496,4180.000000,4140.000000,4138.974121,4165.128418,4151.794922,0.000000,4.000000,,,,0.000000,4.000000,4.000000,4.000000,4.000000,4.000000,4.000000,4.000000,4.000000,4.000000,4.000000,4.000000,4.000000,4.000000,4.000000,100.000000
1602005822.960722,58.000000,0.000000,4107.179688,4122.563965,4113.846191,4123.077148,4133.333496,4137.436035,4132.820313,4145.641113,4136.410156,4173.846191,4154.358887,4153.333496,4169.743652,4147.692383,0.000000,4.000000,,,,0.000000,4.000000,4.000000,4.000000,4.000000,4.000000,4.000000,4.000000,4.000000,4.000000,4.000000,4.000000,4.000000,4.000000,4.000000,100.000000
1602005822.968512,59.000000,0.000000,4106.666504,4120.000000,4114.358887,4122.563965,4135.384766,4142.051270,4139.487305,4147.179688,4136.410156,4143.077148,4158.974121,4157.948730,4169.743652,4157.948730,0.000000,4.000000,,,,0.000000,4.000000,4.000000,4.000000,4.000000,4.000000,4.000000,4.000000,4.000000,4.000000,4.000000,4.000000,4.000000,4.000000,4.000000,100.000000
1602005822.976402,60.000000,0.000000,4102.563965,4108.205078,4112.307617,4118.974121,4127.179688,4133.846191,4137.948730,4145.641113,4128.717773,4135.384766,4152.307617,4150.769043,4166.666504,4160.000000,0.000000,4.000000,,,,0.000000,4.000000,4.000000,4.000000,4.000000,4.000000,4.000000,4.000000,4.000000,4.000000,4.000000,4.000000,4.000000,4.000000,4.000000,100.000000
1602005822.984293,61.000000,0.000000,4103.077148,4103.589844,4114.358887,4117.948730,4117.948730,4118.461426,4136.922852,4146.153809,4127.179688,4150.256348,4152.307617,4144.102539,4167.179688,4145.128418,0.000000,4.000000,,,,0.000000,4.000000,4.000000,4.000000,4.000000,4.000000,4.000000,4.000000,4.000000,4.000000,4.000000,4.000000,4.000000,4.000000,4.000000,100.000000
1602005822.992183,62.000000,0.000000,4108.205078,4116.410156,4123.077148,4126.153809,4123.077148,4124.102539,4133.333496,4143.589844,4141.538574,4161.538574,4152.307617,4147.692383,4167.179688,4148.205078,0.000000,4.000000,,,,0.000000,4.000000,4.000000,4.000000,4.000000,4.000000,4.000000,4.000000,4.000000,4.000000,4.000000,4.000000,4.000000,4.000000,4.000000,100.000000
1602005823.000073,63.000000,0.000000,4118.974121,4130.769043,4130.256348,4139.487305,4141.538574,4144.615234,4125.641113,4136.410156,4147.692383,4171.794922,4145.641113,4147.692383,4160.512695,4162.563965,0.000000,4.000000,,,,0.000000,4.000000,4.000000,4.000000,4.000000,4.000000,4.000000,4.000000,4.000000,4.000000,4.000000,4.000000,4.000000,4.000000,4.000000,100.000000
1602005823.007963,64.000000,0.000000,4118.974121,4129.743652,4126.153809,4134.871582,4154.358887,4143.077148,4121.538574,4124.615234,4129.743652,4162.051270,4135.384766,4130.769043,4145.641113,4145.641113,806.000000,4.000000,,,,0.000000,4.000000,4.000000,4.000000,4.000000,4.000000,4.000000,4.000000,4.000000,4.000000,4.000000,4.000000,4.000000,4.000000,4.000000,100.000000
1602005823.015853,65.000000,0.000000,4106.666504,4124.102539,4118.461426,4121.025879,4152.307617,4134.871582,4124.102539,4115.897461,4115.897461,4128.205078,4131.794922,4125.128418,4138.974121,4122.051270,795.000000,4.000000,,,,0.000000,4.000000,4.000000,4.000000,4.000000,4.000000,4.000000,4.000000,4.000000,4.000000,4.000000,4.000000,4.000000,4.000000,4.000000,100.000000
1602005823.023744,66.000000,0.000000,4105.128418,4128.205078,4113.846191,4125.641113,4150.256348,4147.179688,4132.820313,4123.589844,4118.974121,4125.641113,4135.897461,4137.948730,4144.615234,4121.025879,851.000000,4.000000,,,,0.000000,4.000000,4.000000,4.000000,4.000000,4.000000,4.000000,4.000000,4.000000,4.000000,4.000000,4.000000,4.000000,4.000000,4.000000,100.000000
1602005823.031634,67.000000,0.000000,4108.205078,4130.769043,4111.282227,4132.820313,4154.358887,4157.436035,4138.461426,4135.384766,4122.563965,4145.641113,4136.410156,4142.051270,4142.563965,4123.589844,865.000000,4.000000,,,,0.000000,4.000000,4.000000,4.000000,4.000000,4.000000,4.000000,4.000000,4.000000,4.000000,4.000000,4.000000,4.000000,4.000000,4.000000,100.000000
1602005823.039424,68.000000,0.000000,4094.871826,4124.615234,4104.615234,4125.128418,4150.256348,4153.846191,4136.922852,4142.051270,4126.153809,4135.384766,4134.358887,4137.948730,4140.000000,4129.230957,813.000000,4.000000,,,,0.000000,4.000000,4.000000,4.000000,4.000000,4.000000,4.000000,4.000000,4.000000,4.000000,4.000000,4.000000,4.000000,4.000000,4.000000,100.000000
1602005823.047314,69.000000,0.000000,4082.564209,4120.512695,4102.563965,4121.025879,4139.487305,4150.769043,4137.948730,4149.743652,4141.025879,4137.436035,4137.436035,4132.820313,4151.282227,4141.025879,827.000000,4.000000,,,,0.000000,4.000000,4.000000,4.000000,4.000000,4.000000,4.000000,4.000000,4.000000,4.000000,4.000000,4.000000,4.000000,4.000000,4.000000,100.000000
1602005823.055203,70.000000,0.000000,4089.230713,4121.025879,4112.820313,4124.615234,4137.948730,4144.102539,4136.410156,4156.410156,4153.846191,4169.230957,4139.487305,4125.128418,4158.461426,4140.512695,769.000000,4.000000,,,,0.000000,4.000000,4.000000,4.000000,4.000000,4.000000,4.000000,4.000000,4.000000,4.000000,4.000000,4.000000,4.000000,4.000000,4.000000,100.000000
1602005823.063093,71.000000,0.000000,4100.000000,4120.512695,4124.102539,4126.153809,4141.025879,4133.846191,4129.230957,4156.922852,4152.307617,4162.563965,4142.563965,4123.589844,4155.897461,4136.922852,691.000000,4.000000,,,,0.000000,4.000000,4.000000,4.000000,4.000000,4.000000,4.000000,4.000000,4.000000,4.000000,4.000000,4.000000,4.000000,4.000000,4.000000,100.000000
1602005823.070983,72.000000,0.000000,4106.666504,4120.000000,4127.692383,4125.128418,4138.974121,4134.871582,4130.769043,4152.307617,4151.794922,4135.897461,4150.769043,4134.358887,4158.461426,4143.077148,787.000000,4.000000,,,,0.000000,4.000000,4.000000,4.000000,4.000000,4.000000,4.000000,4.000000,4.000000,4.000000,4.000000,4.000000,4.000000,4.000000,4.000000,100.000000
1602005823.078872,73.000000,0.000000,4106.153809,4121.025879,4126.666504,4126.153809,4136.922852,4143.077148,4139.487305,4143.589844,4150.769043,4149.743652,4151.282227,4144.102539,4158.461426,4141.025879,845.000000,4.000000,,,,0.000000,4.000000,4.000000,4.000000,4.000000,4.000000,4.000000,4.000000,4.000000,4.000000,4.000000,4.000000,4.000000,4.000000,4.000000,100.000000
1602005823.086762,74.000000,0.000000,4103.589844,4121.025879,4129.230957,4131.794922,4136.922852,4144.615234,4143.077148,4139.487305,4144.102539,4178.461426,4150.769043,4146.666504,4155.384766,4134.871582,877.000000,4.000000,,,,0.000000,4.000000,4.000000,4.000000,4.000000,4.000000,4.000000,4.000000,4.000000,4.000000,4.000000,4.000000,4.000000,4.000000,4.000000,100.000000
1602005823.094652,75.000000,0.000000,4112.307617,4122.051270,4130.769043,4133.846191,4135.897461,4142.051270,4142.563965,4139.487305,4136.410156,4172.307617,4146.153809,4142.563965,4155.897461,4139.487305,841.000000,4.000000,,,,0.000000,4.000000,4.000000,4.000000,4.000000,4.000000,4.000000,4.000000,4.000000,4.000000,4.000000,4.000000,4.000000,4.000000,4.000000,100.000000
1602005823.102440,76.000000,0.000000,4121.025879,4124.615234,4125.128418,4130.769043,4135.897461,4136.410156,4132.820313,4132.820313,4127.179688,4136.922852,4124.615234,4133.333496,4143.589844,4137.436035,773.000000,4.000000,,,,0.000000,4.000000,4.000000,4.000000,4.000000,4.000000,4.000000,4.000000,4.000000,4.000000,4.000000,4.000000,4.000000,4.000000,4.000000,100.000000
1602005823.110328,77.000000,0.000000,4122.563965,4127.692383,4120.512695,4133.846191,4141.025879,4134.871582,4123.077148,4131.282227,4118.974121,4113.846191,4118.974121,4132.820313,4132.307617,4134.871582,761.000000,4.000000,,,,0.000000,4.000000,4.000000,4.000000,4.000000,4.000000,4.000000,4.000000,4.000000,4.000000,4.000000,4.000000,4.000000,4.000000,4.000000,100.000000
1602005823.118216,78.000000,0.000000,4124.102539,4128.717773,4122.051270,4138.974121,4142.563965,4136.922852,4129.743652,4140.512695,4119.487305,4123.589844,4144.615234,4143.077148,4142.051270,4137.436035,877.000000,4.000000,,,,0.000000,4.000000,4.000000,4.000000,4.000000,4.000000,4.000000,4.000000,4.000000,4.000000,4.000000,4.000000,4.000000,4.000000,4.000000,100.000000
1602005823.126103,79.000000,0.000000,4121.025879,4129.230957,4121.025879,4135.384766,4141.025879,4136.922852,4137.436035,4142.563965,4131.794922,4153.333496,4156.410156,4148.717773,4153.846191,4135.897461,841.000000,4.000000,,,,0.000000,4.000000,4.000000,4.000000,4.000000,4.000000,4.000000,4.000000,4.000000,4.000000,4.000000,4.000000,4.000000,4.000000,4.000000,100.000000
1602005823.133991,80.000000,0.000000,4120.000000,4135.897461,4125.128418,4135.897461,4138.974121,4138.974121,4134.871582,4138.974121,4142.051270,4163.077148,4153.333496,4150.256348,4161.538574,4142.051270,773.000000,4.000000,,,,0.000000,4.000000,4.000000,4.000000,4.000000,4.000000,4.000000,4.000000,4.000000,4.000000,4.000000,4.000000,4.000000,4.000000,4.000000,100.000000
1602005823.141879,81.000000,0.000000,4129.230957,4142.563965,4137.436035,4142.563965,4134.871582,4142.563965,4135.384766,4140.000000,4140.512695,4154.358887,4160.512695,4152.307617,4170.769043,4156.922852,761.000000,4.000000,,,,0.000000,4.000000,4.000000,4.000000,4.000000,4.000000,4.000000,4.000000,4.000000,4.000000,4.000000,4.000000,4.000000,4.000000,4.000000,100.000000
1602005823.149767,82.000000,0.000000,4132.307617,4135.384766,4139.487305,4134.358887,4130.256348,4140.512695,4136.410156,4140.000000,4136.922852,4154.358887,4152.307617,4154.358887,4165.128418,4156.410156,877.000000,4.000000,,,,0.000000,4.000000,4.000000,4.000000,4.000000,4.000000,4.000000,4.000000,4.000000,4.000000,4.000000,4.000000,4.000000,4.000000,4.000000,100.000000
1602005823.157550,83.000000,0.000000,4123.589844,4123.589844,4133.333496,4125.641113,4129.230957,4139.487305,4135.897461,4138.974121,4139.487305,4150.256348,4138.974121,4153.846191,4154.871582,4150.256348,841.000000,4.000000,,,,0.000000,4.000000,4.000000,4.000000,4.000000,4.000000,4.000000,4.000000,4.000000,4.000000,4.000000,4.000000,4.000000,4.000000,4.000000,100.000000
1602005823.165433,84.000000,0.000000,4129.743652,4123.589844,4136.922852,4132.820313,4127.692383,4140.000000,4138.974121,4142.051270,4133.846191,4138.461426,4153.333496,4154.871582,4160.000000,4157.436035,773.000000,4.000000,,,,0.000000,4.000000,4.000000,4.000000,4.000000,4.000000,4.000000,4.000000,4.000000,4.000000,4.000000,4.000000,4.000000,4.000000,4.000000,100.000000
1602005823.173222,85.000000,0.000000,4145.128418,4122.051270,4148.205078,4134.358887,4122.563965,4131.282227,4140.000000,4138.974121,4121.538574,4138.974121,4157.436035,4156.410156,4161.025879,4153.333496,761.000000,4.000000,,,,0.000000,4.000000,4.000000,4.000000,4.000000,4.000000,4.000000,4.000000,4.000000,4.000000,4.000000,4.000000,4.000000,4.000000,4.000000,100.000000
1602005823.181110,86.000000,0.000000,4138.974121,4112.307617,4151.794922,4124.615234,4120.000000,4120.512695,4134.358887,4130.256348,4120.000000,4145.128418,4137.948730,4150.256348,4147.692383,4137.948730,877.000000,4.000000,,,,0.000000,4.000000,4.000000,4.000000,4.000000,4.000000,4.000000,4.000000,4.000000,4.000000,4.000000,4.000000,4.000000,4.000000,4.000000,100.000000
1602005823.188999,87.000000,0.000000,4123.589844,4105.641113,4145.128418,4121.025879,4120.512695,4119.487305,4127.692383,4125.128418,4122.051270,4135.897461,4135.897461,4142.051270,4137.436035,4132.820313,841.000000,4.000000,,,,0.000000,4.000000,4.000000,4.000000,4.000000,4.000000,4.000000,4.000000,4.000000,4.000000,4.000000,4.000000,4.000000,4.000000,4.000000,100.000000
1602005823.196888,88.000000,0.000000,4118.461426,4104.615234,4132.820313,4121.538574,4118.974121,4123.589844,4122.051270,4122.051270,4116.410156,4137.436035,4140.512695,4144.615234,4135.897461,4135.897461,773.000000,4.000000,,,,0.000000,4.000000,4.000000,4.000000,4.000000,4.000000,4.000000,4.000000,4.000000,4.000000,4.000000,4.000000,4.000000,4.000000,4.000000,100.000000
1602005823.204777,89.000000,0.000000,4117.948730,4110.769043,4125.128418,4120.000000,4124.102539,4126.666504,4120.512695,4122.563965,4118.461426,4156.410156,4136.922852,4152.820313,4142.563965,4143.589844,761.000000,4.000000,,,,0.000000,4.000000,4.000000,4.000000,4.000000,4.000000,4.000000,4.000000,4.000000,4.000000,4.000000,4.000000,4.000000,4.000000,4.000000,100.000000
1602005823.212666,90.000000,0.000000,4127.692383,4123.589844,4123.589844,4128.205078,4137.436035,4128.717773,4121.538574,4128.717773,4134.871582,4145.128418,4149.230957,4156.410156,4154.358887,4155.384766,877.000000,4.000000,,,,0.000000,4.000000,4.000000,4.000000,4.000000,4.000000,4.000000,4.000000,4.000000,4.000000,4.000000,4.000000,4.000000,4.000000,4.000000,100.000000
1602005823.220554,91.000000,0.000000,4136.922852,4130.769043,4122.051270,4136.922852,4139.487305,4125.128418,4117.948730,4128.205078,4137.436035,4121.025879,4153.846191,4150.769043,4157.948730,4156.922852,841.000000,4.000000,,,,0.000000,4.000000,4.000000,4.000000,4.000000,4.000000,4.000000,4.000000,4.000000,4.000000,4.000000,4.000000,4.000000,4.000000,4.000000,100.000000
1602005823.228443,92.000000,0.000000,4135.897461,4132.820313,4126.666504,4136.410156,4133.333496,4126.153809,4118.461426,4127.179688,4129.230957,4131.794922,4145.128418,4141.538574,4151.282227,4143.077148,773.000000,4.000000,,,,0.000000,4.000000,4.000000,4.000000,4.000000,4.000000,4.000000,4.000000,4.000000,4.000000,4.000000,4.000000,4.000000,4.000000,4.000000,100.000000
1602005823.236226,93.000000,0.000000,4142.563965,4139.487305,4135.897461,4138.461426,4136.410156,4134.871582,4130.256348,4142.563965,4139.487305,4157.436035,4148.205078,4136.922852,4150.769043,4140.512695,761.000000,4.000000,,,,0.000000,4.000000,4.000000,4.000000,4.000000,4.000000,4.000000,4.000000,4.000000,4.000000,4.000000,4.000000,4.000000,4.000000,4.000000,100.000000
1602005823.244109,94.000000,0.000000,4153.333496,4143.589844,4142.563965,4142.051270,4140.000000,4138.461426,4144.102539,4157.436035,4159.487305,4171.282227,4149.743652,4141.538574,4155.384766,4155.897461,877.000000,4.000000,,,,0.000000,4.000000,4.000000,4.000000,4.000000,4.000000,4.000000,4.000000,4.000000,4.000000,4.000000,4.000000,4.000000,4.000000,4.000000,100.000000
1602005823.251898,95.000000,0.000000,4146.153809,4138.461426,4137.948730,4141.025879,4136.922852,4139.487305,4153.846191,4160.000000,4161.025879,4177.436035,4141.025879,4150.769043,4157.948730,4166.666504,841.000000,4.000000,,,,0.000000,4.000000,4.000000,4.000000,4.000000,4.000000,4.000000,4.000000,4.000000,4.000000,4.000000,4.000000,4.000000,4.000000,4.000000,100.000000
1602005823.259786,96.000000,0.000000,4130.769043,4128.205078,4126.153809,4132.307617,4133.333496,4139.487305,4151.794922,4155.384766,4150.769043,4151.794922,4141.538574,4150.769043,4154.358887,4154.358887,773.000000,4.000000,,,,0.000000,4.000000,4.000000,4.000000,4.000000,4.000000,4.000000,4.000000,4.000000,4.000000,4.000000,4.000000,4.000000,4.000000,4.000000,100.000000
1602005823.267674,97.000000,0.000000,4122.051270,4118.461426,4116.922852,4122.563965,4126.666504,4129.230957,4135.384766,4140.000000,4134.871582,4113.846191,4141.538574,4139.487305,4142.563965,4136.922852,761.000000,4.000000,,,,0.000000,4.000000,4.000000,4.000000,4.000000,4.000000,4.000000,4.000000,4.000000,4.000000,4.000000,4.000000,4.000000,4.000000,4.000000,100.000000
1602005823.275562,98.000000,0.000000,4116.410156,4114.871582,4117.436035,4118.974121,4120.512695,4116.922852,4121.538574,4123.077148,4114.358887,4120.512695,4134.358887,4137.948730,4136.922852,4141.025879,877.000000,4.000000,,,,0.000000,4.000000,4.000000,4.000000,4.000000,4.000000,4.000000,4.000000,4.000000,4.000000,4.000000,4.000000,4.000000,4.000000,4.000000,100.000000
1602005823.283450,99.000000,0.000000,4124.102539,4120.000000,4130.256348,4123.589844,4127.179688,4128.205078,4122.051270,4121.538574,4112.307617,4145.128418,4144.102539,4152.307617,4148.717773,4153.846191,841.000000,4.000000,,,,0.000000,4.000000,4.000000,4.000000,4.000000,4.000000,4.000000,4.000000,4.000000,4.000000,4.000000,4.000000,4.000000,4.000000,4.000000,100.000000
1602005823.291338,100.000000,0.000000,4138.974121,4128.717773,4141.538574,4130.769043,4139.487305,4149.230957,4124.615234,4124.102539,4116.410156,4140.000000,4152.307617,4158.461426,4156.922852,4158.974121,773.000000,4.000000,,,,0.000000,4.000000,4.000000,4.000000,4.000000,4.000000,4.000000,4.000000,4.000000,4.000000,4.000000,4.000000,4.000000,4.000000,4.000000,100.000000
1602005823.299226,101.000000,0.000000,4136.922852,4135.897461,4140.000000,4134.871582,4136.922852,4146.153809,4117.948730,4119.487305,4108.717773,4121.538574,4143.077148,4151.794922,4149.743652,4163.589844,761.000000,4.000000,,,,0.000000,4.000000,4.000000,4.000000,4.000000,4.000000,4.000000,4.000000,4.000000,4.000000,4.000000,4.000000,4.000000,4.000000,4.000000,100.000000
1602005823.307013,102.000000,0.000000,4142.051270,4143.077148,4138.974121,4136.922852,4128.205078,4127.179688,4111.282227,4118.461426,4110.256348,4121.025879,4144.615234,4156.410156,4153.846191,4170.769043,877.000000,4.000000,,,,0.000000,4.000000,4.000000,4.000000,4.000000,4.000000,4.000000,4.000000,4.000000,4.000000,4.000000,4.000000,4.000000,4.000000,4.000000,100.000000
1602005823.314900,103.000000,0.000000,4166.666504,4156.410156,4152.307617,4147.179688,4133.333496,4120.512695,4114.871582,4128.717773,4135.897461,4147.179688,4157.948730,4169.743652,4172.307617,4174.871582,841.000000,4.000000,,,,0.000000,4.000000,4.000000,4.000000,4.000000,4.000000,4.000000,4.000000,4.000000,4.000000,4.000000,4.000000,4.000000,4.000000,4.000000,100.000000
1602005823.322788,104.000000,0.000000,4170.256348,4164.102539,4160.000000,4158.974121,4142.051270,4127.179688,4126.666504,4138.461426,4155.384766,4174.871582,4160.512695,4173.333496,4176.410156,4176.922852,773.000000,4.000000,,,,0.000000,4.000000,4.000000,4.000000,4.000000,4.000000,4.000000,4.000000,4.000000,4.000000,4.000000,4.000000,4.000000,4.000000,4.000000,100.000000
1602005823.330675,105.000000,0.000000,4153.846191,4155.384766,4154.871582,4152.820313,4137.436035,4129.230957,4135.897461,4142.051270,4147.179688,4166.153809,4155.384766,4170.256348,4169.743652,4176.922852,761.000000,4.000000,,,,0.000000,4.000000,4.000000,4.000000,4.000000,4.000000,4.000000,4.000000,4.000000,4.000000,4.000000,4.000000,4.000000,4.000000,4.000000,100.000000
1602005823.338562,106.000000,0.000000,4154.358887,4143.077148,4158.974121,4142.051270,4134.358887,4136.410156,4144.615234,4149.230957,4135.384766,4152.307617,4157.948730,4171.794922,4170.769043,4175.897461,877.000000,4.000000,,,,0.000000,4.000000,4.000000,4.000000,4.000000,4.000000,4.000000,4.000000,4.000000,4.000000,4.000000,4.000000,4.000000,4.000000,4.000000,100.000000
1602005823.346449,107.000000,0.000000,4156.410156,4133.333496,4160.512695,4137.436035,4138.974121,4152.820313,4155.384766,4153.333496,4128.717773,4151.282227,4154.871582,4169.743652,4160.512695,4165.128418,841.000000,4.000000,,,,0.000000,4.000000,4.000000,4.000000,4.000000,4.000000,4.000000,4.000000,4.000000,4.000000,4.000000,4.000000,4.000000,4.000000,4.000000,100.000000
1602005823.354239,108.000000,0.000000,4139.487305,4117.948730,4146.153809,4128.205078,4133.333496,4152.820313,4154.358887,4140.000000,4115.897461,4128.717773,4140.000000,4156.410156,4131.282227,4145.128418,773.000000,4.000000,,,,0.000000,4.000000,4.000000,4.000000,4.000000,4.000000,4.000000,4.000000,4.000000,4.000000,4.000000,4.000000,4.000000,4.000000,4.000000,100.000000
1602005823.362129,109.000000,0.000000,4123.077148,4103.077148,4128.717773,4112.820313,4120.512695,4142.563965,4143.077148,4123.589844,4102.563965,4107.179688,4122.563965,4144.615234,4114.871582,4134.358887,761.000000,4.000000,,,,0.000000,4.000000,4.000000,4.000000,4.000000,4.000000,4.000000,4.000000,4.000000,4.000000,4.000000,4.000000,4.000000,4.000000,4.000000,100.000000
1602005823.370019,110.000000,0.000000,4115.897461,4095.384521,4117.948730,4105.128418,4117.948730,4148.717773,4137.436035,4118.974121,4107.692383,4121.538574,4115.384766,4133.333496,4116.410156,4130.256348,877.000000,4.000000,,,,0.000000,4.000000,4.000000,4.000000,4.000000,4.000000,4.000000,4.000000,4.000000,4.000000,4.000000,4.000000,4.000000,4.000000,4.000000,100.000000
1602005823.377909,111.000000,0.000000,4115.384766,4099.487305,4113.333496,4109.230957,4121.538574,4153.846191,4135.384766,4119.487305,4126.666504,4147.692383,4126.666504,4123.589844,4124.102539,4127.692383,841.000000,4.000000,,,,0.000000,4.000000,4.000000,4.000000,4.000000,4.000000,4.000000,4.000000,4.000000,4.000000,4.000000,4.000000,4.000000,4.000000,4.000000,100.000000
1602005823.385799,112.000000,0.000000,4129.230957,4112.820313,4118.974121,4120.000000,4121.025879,4140.512695,4122.051270,4122.563965,4141.025879,4156.410156,4136.922852,4129.230957,4134.358887,4134.871582,773.000000,4.000000,,,,0.000000,4.000000,4.000000,4.000000,4.000000,4.000000,4.000000,4.000000,4.000000,4.000000,4.000000,4.000000,4.000000,4.000000,4.000000,100.000000
1602005823.393689,113.000000,0.000000,4148.717773,4126.666504,4135.384766,4131.794922,4125.641113,4125.128418,4107.692383,4126.666504,4143.589844,4149.743652,4140.000000,4147.179688,4141.538574,4148.205078,761.000000,4.000000,,,,0.000000,4.000000,4.000000,4.000000,4.000000,4.000000,4.000000,4.000000,4.000000,4.000000,4.000000,4.000000,4.000000,4.000000,4.000000,100.000000
1602005823.401579,114.000000,0.000000,4158.461426,4136.410156,4153.846191,4138.974121,4137.436035,4117.436035,4103.077148,4130.769043,4137.436035,4136.410156,4150.769043,4162.563965,4147.692383,4167.692383,877.000000,4.000000,,,,0.000000,4.000000,4.000000,4.000000,4.000000,4.000000,4.000000,4.000000,4.000000,4.000000,4.000000,4.000000,4.000000,4.000000,4.000000,100.000000
1602005823.409469,115.000000,0.000000,4157.948730,4141.025879,4160.000000,4142.563965,4143.077148,4113.846191,4104.615234,4137.436035,4137.436035,4136.922852,4164.102539,4170.769043,4155.384766,4189.230957,841.000000,4.000000,,,,0.000000,4.000000,4.000000,4.000000,4.000000,4.000000,4.000000,4.000000,4.000000,4.000000,4.000000,4.000000,4.000000,4.000000,4.000000,100.000000
1602005823.417359,116.000000,0.000000,4151.282227,4134.358887,4149.743652,4136.922852,4136.922852,4117.436035,4111.282227,4142.563965,4141.025879,4152.307617,4160.000000,4172.307617,4156.922852,4186.666504,773.000000,4.000000,,,,0.000000,4.000000,4.000000,4.000000,4.000000,4.000000,4.000000,4.000000,4.000000,4.000000,4.000000,4.000000,4.000000,4.000000,4.000000,100.000000
1602005823.425145,117.000000,0.000000,4140.512695,4124.102539,4138.974121,4124.615234,4127.179688,4127.692383,4125.641113,4141.025879,4138.974121,4158.461426,4148.205078,4168.205078,4149.743652,4170.256348,761.000000,4.000000,,,,0.000000,4.000000,4.000000,4.000000,4.000000,4.000000,4.000000,4.000000,4.000000,4.000000,4.000000,4.000000,4.000000,4.000000,4.000000,100.000000
1602005823.433030,118.000000,0.000000,4132.820313,4122.051270,4133.846191,4121.538574,4123.077148,4135.384766,4137.948730,4133.846191,4133.333496,4149.743652,4138.974121,4156.922852,4140.512695,4163.077148,877.000000,4.000000,,,,0.000000,4.000000,4.000000,4.000000,4.000000,4.000000,4.000000,4.000000,4.000000,4.000000,4.000000,4.000000,4.000000,4.000000,4.000000,100.000000
1602005823.440916,119.000000,0.000000,4140.512695,4121.025879,4133.333496,4121.025879,4122.563965,4142.563965,4145.641113,4130.256348,4131.282227,4140.000000,4131.794922,4147.692383,4132.820313,4162.051270,841.000000,4.000000,,,,0.000000,4.000000,4.000000,4.000000,4.000000,4.000000,4.000000,4.000000,4.000000,4.000000,4.000000,4.000000,4.000000,4.000000,4.000000,100.000000
1602005823.448802,120.000000,0.000000,4164.102539,4123.077148,4143.589844,4123.077148,4123.589844,4152.820313,4154.358887,4134.358887,4130.769043,4132.820313,4138.461426,4156.922852,4138.974121,4183.589844,773.000000,4.000000,,,,0.000000,4.000000,4.000000,4.000000,4.000000,4.000000,4.000000,4.000000,4.000000,4.000000,4.000000,4.000000,4.000000,4.000000,4.000000,100.000000
1602005823.456687,121.000000,0.000000,4197.948730,4133.846191,4154.871582,4132.820313,4121.538574,4159.487305,4153.846191,4139.487305,4129.230957,4120.000000,4153.846191,4170.769043,4161.025879,4230.769043,761.000000,4.000000,,,,0.000000,4.000000,4.000000,4.000000,4.000000,4.000000,4.000000,4.000000,4.000000,4.000000,4.000000,4.000000,4.000000,4.000000,4.000000,100.000000
1602005823.464476,122.000000,0.000000,4242.051270,4140.512695,4161.025879,4141.025879,4114.358887,4150.256348,4136.922852,4133.846191,4130.256348,4115.897461,4162.563965,4170.769043,4179.487305,4272.307617,877.000000,4.000000,,,,0.000000,4.000000,4.000000,4.000000,4.000000,4.000000,4.000000,4.000000,4.000000,4.000000,4.000000,4.000000,4.000000,4.000000,4.000000,100.000000
1602005823.472365,123.000000,0.000000,4283.589844,4140.512695,4163.589844,4138.974121,4110.256348,4126.153809,4117.436035,4124.102539,4127.692383,4138.461426,4153.846191,4169.743652,4180.000000,4303.589844,841.000000,4.000000,,,,0.000000,4.000000,4.000000,4.000000,4.000000,4.000000,4.000000,4.000000,4.000000,4.000000,4.000000,4.000000,4.000000,4.000000,4.000000,100.000000
1602005823.480254,124.000000,0.000000,4324.615234,4152.820313,4169.743652,4147.692383,4116.922852,4105.128418,4107.692383,4122.051270,4129.230957,4166.666504,4148.717773,4180.000000,4180.000000,4338.461426,773.000000,4.000000,,,,0.000000,4.000000,4.000000,4.000000,4.000000,4.000000,4.000000,4.000000,4.000000,4.000000,4.000000,4.000000,4.000000,4.000000,4.000000,100.000000
1602005823.488143,125.000000,0.000000,4370.256348,4170.256348,4182.563965,4166.153809,4120.000000,4096.922852,4099.487305,4119.487305,4136.410156,4164.615234,4169.230957,4185.128418,4198.974121,4379.487305,761.000000,4.000000,,,,0.000000,4.000000,4.000000,4.000000,4.000000,4.000000,4.000000,4.000000,4.000000,4.000000,4.000000,4.000000,4.000000,4.000000,4.000000,100.000000
1602005823.496032,126.000000,0.000000,4401.025879,4173.846191,4197.436035,4169.743652,4117.436035,4101.538574,4092.820557,4116.922852,4136.922852,4139.487305,4187.692383,4185.128418,4214.871582,4410.256348,877.000000,4.000000,,,,0.000000,4.000000,4.000000,4.000000,4.000000,4.000000,4.000000,4.000000,4.000000,4.000000,4.000000,4.000000,4.000000,4.000000,4.000000,100.000000
1602005823.503920,127.000000,0.000000,4417.948730,4172.820313,4205.128418,4169.230957,4124.102539,4112.307617,4097.948730,4125.128418,4136.410156,4137.436035,4184.615234,4198.974121,4217.436035,4418.461426,841.000000,4.000000,,,,0.000000,4.000000,4.000000,4.000000,4.000000,4.000000,4.000000,4.000000,4.000000,4.000000,4.000000,4.000000,4.000000,4.000000,4.000000,100.000000
1602005823.511809,128.000000,0.000000,4433.846191,4175.897461,4204.615234,4169.743652,4131.794922,4122.563965,4113.846191,4136.922852,4137.948730,4151.282227,4177.436035,4207.692383,4216.922852,4419.487305,773.000000,4.000000,,,,0.000000,4.000000,4.000000,4.000000,4.000000,4.000000,4.000000,4.000000,4.000000,4.000000,4.000000,4.000000,4.000000,4.000000,4.000000,100.000000
1602005823.519698,0.000000,0.000000,4432.307617,4174.358887,4198.974121,4161.538574,4129.230957,4131.794922,4130.256348,4140.000000,4127.179688,4146.666504,4163.589844,4199.487305,4201.538574,4406.666504,806.000000,4.000000,,,,0.000000,4.000000,4.000000,4.000000,4.000000,4.000000,4.000000,4.000000,4.000000,4.000000,4.000000,4.000000,4.000000,4.000000,4.000000,100.000000
1602005823.527485,1.000000,0.000000,4415.897461,4164.615234,4189.743652,4152.307617,4124.615234,4139.487305,4140.512695,4136.410156,4110.256348,4141.025879,4144.102539,4195.897461,4183.077148,4376.922852,795.000000,4.000000,,,,0.000000,4.000000,4.000000,4.000000,4.000000,4.000000,4.000000,4.000000,4.000000,4.000000,4.000000,4.000000,4.000000,4.000000,4.000000,100.000000
1602005823.535371,2.000000,0.000000,4403.077148,4155.384766,4181.025879,4153.333496,4124.615234,4137.948730,4142.051270,4127.692383,4106.666504,4124.615234,4146.666504,4189.743652,4185.641113,4379.487305,851.000000,4.000000,,,,0.000000,4.000000,4.000000,4.000000,4.000000,4.000000,4.000000,4.000000,4.000000,4.000000,4.000000,4.000000,4.000000,4.000000,4.000000,100.000000
1602005823.543258,3.000000,0.000000,4381.025879,4152.307617,4171.794922,4152.820313,4122.051270,4126.153809,4138.461426,4119.487305,4104.615234,4093.333252,4161.538574,4164.102539,4184.102539,4406.666504,865.000000,4.000000,,,,0.000000,4.000000,4.000000,4.000000,4.000000,4.000000,4.000000,4.000000,4.000000,4.000000,4.000000,4.000000,4.000000,4.000000,4.000000,100.000000
1602005823.551145,4.000000,0.000000,4348.717773,4152.820313,4172.820313,4148.717773,4120.000000,4121.538574,4137.436035,4125.641113,4108.205078,4106.666504,4157.948730,4153.333496,4170.769043,4387.179688,813.000000,4.000000,,,,0.000000,4.000000,4.000000,4.000000,4.000000,4.000000,4.000000,4.000000,4.000000,4.000000,4.000000,4.000000,4.000000,4.000000,4.000000,100.000000
1602005823.559031,5.000000,0.000000,4326.666504,4152.820313,4181.538574,4150.769043,4121.025879,4121.538574,4138.461426,4136.410156,4128.717773,4156.410156,4150.256348,4171.794922,4168.205078,4326.153809,827.000000,4.000000,,,,0.000000,4.000000,4.000000,4.000000,4.000000,4.000000,4.000000,4.000000,4.000000,4.000000,4.000000,4.000000,4.000000,4.000000,4.000000,100.000000
1602005823.566918,6.000000,0.000000,4312.820313,4148.717773,4184.102539,4153.333496,4113.846191,4110.256348,4135.384766,4140.512695,4147.692383,4168.205078,4154.358887,4185.128418,4171.282227,4286.153809,769.000000,4.000000,,,,0.000000,4.000000,4.000000,4.000000,4.000000,4.000000,4.000000,4.000000,4.000000,4.000000,4.000000,4.000000,4.000000,4.000000,4.000000,100.000000
1602005823.574708,7.000000,0.000000,4298.461426,4151.282227,4192.820313,4153.846191,4107.692383,4107.692383,4130.256348,4145.128418,4147.692383,4159.487305,4169.743652,4186.666504,4177.948730,4300.512695,691.000000,4.000000,,,,0.000000,4.000000,4.000000,4.000000,4.000000,4.000000,4.000000,4.000000,4.000000,4.000000,4.000000,4.000000,4.000000,4.000000,4.000000,100.000000
1602005823.582598,8.000000,0.000000,4282.051270,4153.846191,4204.615234,4155.897461,4116.922852,4120.000000,4125.641113,4145.128418,4141.025879,4157.436035,4183.077148,4187.179688,4182.051270,4322.563965,787.000000,4.000000,,,,0.000000,4.000000,4.000000,4.000000,4.000000,4.000000,4.000000,4.000000,4.000000,4.000000,4.000000,4.000000,4.000000,4.000000,4.000000,100.000000
1602005823.590488,9.000000,0.000000,4262.051270,4145.641113,4197.436035,4155.897461,4125.128418,4125.128418,4119.487305,4135.384766,4141.538574,4144.102539,4172.820313,4187.692383,4168.205078,4281.538574,844.000000,4.000000,,,,0.000000,4.000000,4.000000,4.000000,4.000000,4.000000,4.000000,4.000000,4.000000,4.000000,4.000000,4.000000,4.000000,4.000000,4.000000,100.000000
1602005823.598378,10.000000,0.000000,4236.922852,4135.897461,4176.922852,4149.230957,4120.000000,4121.538574,4110.256348,4123.077148,4135.897461,4139.487305,4150.769043,4186.666504,4153.846191,4222.563965,877.000000,4.000000,,,,0.000000,4.000000,4.000000,4.000000,4.000000,4.000000,4.000000,4.000000,4.000000,4.000000,4.000000,4.000000,4.000000,4.000000,4.000000,100.000000
1602005823.606268,11.000000,0.000000,4215.897461,4135.384766,4167.179688,4145.641113,4116.922852,4120.512695,4102.563965,4108.717773,4117.436035,4129.743652,4150.256348,4174.358887,4155.384766,4225.128418,840.000000,4.000000,,,,0.000000,4.000000,4.000000,4.000000,4.000000,4.000000,4.000000,4.000000,4.000000,4.000000,4.000000,4.000000,4.000000,4.000000,4.000000,100.000000
1602005823.614158,12.000000,0.000000,4207.692383,4138.974121,4167.692383,4151.282227,4121.538574,4129.230957,4106.153809,4104.102539,4109.743652,4114.358887,4155.384766,4157.436035,4152.307617,4231.794922,774.000000,4.000000,,,,0.000000,4.000000,4.000000,4.000000,4.000000,4.000000,4.000000,4.000000,4.000000,4.000000,4.000000,4.000000,4.000000,4.000000,4.000000,100.000000
1602005823.622048,13.000000,0.000000,4202.563965,4141.025879,4164.615234,4154.871582,4125.128418,4140.000000,4121.538574,4115.897461,4121.025879,4135.897461,4142.563965,4156.410156,4143.077148,4200.512695,759.000000,4.000000,,,,0.000000,4.000000,4.000000,4.000000,4.000000,4.000000,4.000000,4.000000,4.000000,4.000000,4.000000,4.000000,4.000000,4.000000,4.000000,100.000000
1602005823.629938,14.000000,0.000000,4186.666504,4138.461426,4154.358887,4150.769043,4125.641113,4134.358887,4135.897461,4131.794922,4127.692383,4151.282227,4136.410156,4161.025879,4138.974121,4179.487305,877.000000,4.000000,,,,0.000000,4.000000,4.000000,4.000000,4.000000,4.000000,4.000000,4.000000,4.000000,4.000000,4.000000,4.000000,4.000000,4.000000,4.000000,100.000000
1602005823.637828,15.000000,0.000000,4178.461426,4136.410156,4148.717773,4148.717773,4126.153809,4120.000000,4136.922852,4139.487305,4128.717773,4121.538574,4141.025879,4153.333496,4132.820313,4178.974121,840.000000,4.000000,,,,0.000000,4.000000,4.000000,4.000000,4.000000,4.000000,4.000000,4.000000,4.000000,4.000000,4.000000,4.000000,4.000000,4.000000,4.000000,100.000000
1602005823.645614,16.000000,0.000000,4193.846191,4146.666504,4158.974121,4154.358887,4130.256348,4117.436035,4129.230957,4140.512695,4134.871582,4120.000000,4138.461426,4151.794922,4140.512695,4185.641113,0.000000,4.000000,,,,0.000000,4.000000,4.000000,4.000000,4.000000,4.000000,4.000000,4.000000,4.000000,4.000000,4.000000,4.000000,4.000000,4.000000,4.000000,100.000000
1602005823.653500,17.000000,0.000000,4199.487305,4153.846191,4163.589844,4156.922852,4130.256348,4114.358887,4124.615234,4139.487305,4141.025879,4154.871582,4140.000000,4160.512695,4151.282227,4180.512695,0.000000,4.000000,,,,0.000000,4.000000,4.000000,4.000000,4.000000,4.000000,4.000000,4.000000,4.000000,4.000000,4.000000,4.000000,4.000000,4.000000,4.000000,100.000000
1602005823.661387,18.000000,0.000000,4188.717773,4147.692383,4154.871582,4154.358887,4129.230957,4107.692383,4119.487305,4143.589844,4148.205078,4158.974121,4152.307617,4160.000000,4150.769043,4163.589844,0.000000,4.000000,,,,0.000000,4.000000,4.000000,4.000000,4.000000,4.000000,4.000000,4.000000,4.000000,4.000000,4.000000,4.000000,4.000000,4.000000,4.000000,100.000000
1602005823.669273,19.000000,0.000000,4185.128418,4148.717773,4153.846191,4154.358887,4137.948730,4121.025879,4111.282227,4143.077148,4154.871582,4154.871582,4161.025879,4150.769043,4149.743652,4178.974121,0.000000,4.000000,,,,0.000000,4.000000,4.000000,4.000000,4.000000,4.000000,4.000000,4.000000,4.000000,4.000000,4.000000,4.000000,4.000000,4.000000,4.000000,100.000000
1602005823.677159,20.000000,0.000000,4180.000000,4153.846191,4155.384766,4156.410156,4145.128418,4143.589844,4104.102539,4126.153809,4144.615234,4164.615234,4161.538574,4144.102539,4149.230957,4197.436035,0.000000,4.000000,,,,0.000000,4.000000,4.000000,4.000000,4.000000,4.000000,4.000000,4.000000,4.000000,4.000000,4.000000,4.000000,4.000000,4.000000,4.000000,100.000000
1602005823.684949,21.000000,0.000000,4166.666504,4145.128418,4142.563965,4149.230957,4141.025879,4147.179688,4109.230957,4110.769043,4123.077148,4133.846191,4152.820313,4136.410156,4143.589844,4161.538574,0.000000,4.000000,,,,0.000000,4.000000,4.000000,4.000000,4.000000,4.000000,4.000000,4.000000,4.000000,4.000000,4.000000,4.000000,4.000000,4.000000,4.000000,100.000000
1602005823.692839,22.000000,0.000000,4155.897461,4133.333496,4124.615234,4137.948730,4134.358887,4142.563965,4118.974121,4108.717773,4110.769043,4086.153809,4140.512695,4129.230957,4136.922852,4127.179688,0.000000,4.000000,,,,0.000000,4.000000,4.000000,4.000000,4.000000,4.000000,4.000000,4.000000,4.000000,4.000000,4.000000,4.000000,4.000000,4.000000,4.000000,100.000000
1602005823.700730,23.000000,0.000000,4145.641113,4130.769043,4118.461426,4136.410156,4129.743652,4140.512695,4118.974121,4111.282227,4105.641113,4096.410156,4134.871582,4122.563965,4127.179688,4139.487305,0.000000,4.000000,,,,0.000000,4.000000,4.000000,4.000000,4.000000,4.000000,4.000000,4.000000,4.000000,4.000000,4.000000,4.000000,4.000000,4.000000,4.000000,100.000000
1602005823.708620,24.000000,0.000000,4128.205078,4125.641113,4111.794922,4138.974121,4125.128418,4131.794922,4115.897461,4114.871582,4105.128418,4130.769043,4125.641113,4119.487305,4114.871582,4122.563965,0.000000,4.000000,,,,0.000000,4.000000,4.000000,4.000000,4.000000,4.000000,4.000000,4.000000,4.000000,4.000000,4.000000,4.000000,4.000000,4.000000,4.000000,100.000000
1602005823.716510,25.000000,0.000000,4122.563965,4122.563965,4103.589844,4135.897461,4122.563965,4118.974121,4121.025879,4127.692383,4114.358887,4126.666504,4113.846191,4122.051270,4111.794922,4080.512939,0.000000,4.000000,,,,0.000000,4.000000,4.000000,4.000000,4.000000,4.000000,4.000000,4.000000,4.000000,4.000000,4.000000,4.000000,4.000000,4.000000,4.000000,100.000000
1602005823.724400,26.000000,0.000000,4125.128418,4125.128418,4106.666504,4136.922852,4124.615234,4117.436035,4129.230957,4140.512695,4118.974121,4113.333496,4120.000000,4114.358887,4107.692383,4094.871826,0.000000,4.000000,,,,0.000000,4.000000,4.000000,4.000000,4.000000,4.000000,4.000000,4.000000,4.000000,4.000000,4.000000,4.000000,4.000000,4.000000,4.000000,100.000000
1602005823.732291,27.000000,0.000000,4122.563965,4125.128418,4114.871582,4140.000000,4125.128418,4120.512695,4133.333496,4142.563965,4120.000000,4121.538574,4126.153809,4106.666504,4101.025879,4129.230957,0.000000,4.000000,,,,0.000000,4.000000,4.000000,4.000000,4.000000,4.000000,4.000000,4.000000,4.000000,4.000000,4.000000,4.000000,4.000000,4.000000,4.000000,100.000000
1602005823.740181,28.000000,0.000000,4127.692383,4128.717773,4117.948730,4138.461426,4121.538574,4117.436035,4135.384766,4141.025879,4125.641113,4122.563965,4120.512695,4122.051270,4109.743652,4126.153809,0.000000,4.000000,,,,0.000000,4.000000,4.000000,4.000000,4.000000,4.000000,4.000000,4.000000,4.000000,4.000000,4.000000,4.000000,4.000000,4.000000,4.000000,100.000000
1602005823.748071,29.000000,0.000000,4140.000000,4140.512695,4125.641113,4144.102539,4124.102539,4123.589844,4138.461426,4144.615234,4132.820313,4116.922852,4127.692383,4145.641113,4122.051270,4117.436035,0.000000,4.000000,,,,0.000000,4.000000,4.000000,4.000000,4.000000,4.000000,4.000000,4.000000,4.000000,4.000000,4.000000,4.000000,4.000000,4.000000,4.000000,100.000000
1602005823.755861,30.000000,0.000000,4143.589844,4144.615234,4136.922852,4149.743652,4131.282227,4136.410156,4136.922852,4146.153809,4134.871582,4121.538574,4146.153809,4153.333496,4124.102539,4129.230957,0.000000,4.000000,,,,0.000000,4.000000,4.000000,4.000000,4.000000,4.000000,4.000000,4.000000,4.000000,4.000000,4.000000,4.000000,4.000000,4.000000,4.000000,100.000000
1602005823.763751,31.000000,0.000000,4138.461426,4131.794922,4138.974121,4142.563965,4125.128418,4139.487305,4127.179688,4136.410156,4136.410156,4122.051270,4143.077148,4152.307617,4123.077148,4120.512695,0.000000,4.000000,,,,0.000000,4.000000,4.000000,4.000000,4.000000,4.000000,4.000000,4.000000,4.000000,4.000000,4.000000,4.000000,4.000000,4.000000,4.000000,100.000000
1602005823.771640,32.000000,0.000000,4135.384766,4125.128418,4138.974121,4136.922852,4117.436035,4142.051270,4119.487305,4128.205078,4137.948730,4118.974121,4125.641113,4154.358887,4122.563965,4104.615234,0.000000,4.000000,,,,0.000000,4.000000,4.000000,4.000000,4.000000,4.000000,4.000000,4.000000,4.000000,4.000000,4.000000,4.000000,4.000000,4.000000,4.000000,100.000000
1602005823.779530,33.000000,0.000000,4132.820313,4128.717773,4140.512695,4140.512695,4129.230957,4144.102539,4121.538574,4129.230957,4140.000000,4123.077148,4119.487305,4154.871582,4118.461426,4115.384766,0.000000,4.000000,,,,0.000000,4.000000,4.000000,4.000000,4.000000,4.000000,4.000000,4.000000,4.000000,4.000000,4.000000,4.000000,4.000000,4.000000,4.000000,100.000000
1602005823.787420,34.000000,0.000000,4126.666504,4125.641113,4139.487305,4138.974121,4136.410156,4133.846191,4122.563965,4128.717773,4141.025879,4128.717773,4121.025879,4156.922852,4109.743652,4115.897461,0.000000,4.000000,,,,0.000000,4.000000,4.000000,4.000000,4.000000,4.000000,4.000000,4.000000,4.000000,4.000000,4.000000,4.000000,4.000000,4.000000,4.000000,100.000000
1602005823.795310,35.000000,0.000000,4120.000000,4120.000000,4136.922852,4130.769043,4126.666504,4126.153809,4120.512695,4124.102539,4129.230957,4117.436035,4122.051270,4154.358887,4108.205078,4102.563965,0.000000,4.000000,,,,0.000000,4.000000,4.000000,4.000000,4.000000,4.000000,4.000000,4.000000,4.000000,4.000000,4.000000,4.000000,4.000000,4.000000,4.000000,100.000000
1602005823.803199,36.000000,0.000000,4108.205078,4117.436035,4130.256348,4123.077148,4123.077148,4134.358887,4124.102539,4118.974121,4110.256348,4100.000000,4118.461426,4138.461426,4107.179688,4102.563965,0.000000,4.000000,,,,0.000000,4.000000,4.000000,4.000000,4.000000,4.000000,4.000000,4.000000,4.000000,4.000000,4.000000,4.000000,4.000000,4.000000,4.000000,100.000000
1602005823.811089,37.000000,0.000000,4097.948730,4110.256348,4113.333496,4119.487305,4130.769043,4134.871582,4131.282227,4115.384766,4095.384521,4094.358887,4104.102539,4123.077148,4092.307617,4097.436035,0.000000,4.000000,,,,0.000000,4.000000,4.000000,4.000000,4.000000,4.000000,4.000000,4.000000,4.000000,4.000000,4.000000,4.000000,4.000000,4.000000,4.000000,100.000000
