Timestamp,EEG.Counter,EEG.Interpolated,EEG.AF3,EEG.F7,EEG.F3,EEG.FC5,EEG.T7,EEG.P7,EEG.O1,EEG.O2,EEG.P8,EEG.T8,EEG.FC6,EEG.F4,EEG.F8,EEG.AF4,EEG.RawCq,EEG.Battery,MarkerIndex,MarkerType,MarkerValueInt,EEG.MarkerHardware,CQ.AF3,CQ.F7,CQ.F3,CQ.FC5,CQ.T7,CQ.P7,CQ.O1,CQ.O2,CQ.P8,CQ.T8,CQ.FC6,CQ.F4,CQ.F8,CQ.AF4,CQ.Overall
1602005834.509256,106.000000,0.000000,4055.897461,4118.461426,4112.307617,4121.538574,4121.025879,4115.897461,4121.025879,4112.820313,4115.384766,4107.179688,4121.538574,4123.077148,4119.487305,4054.871826,877.000000,4.000000,,,,0.000000,4.000000,4.000000,4.000000,4.000000,4.000000,4.000000,4.000000,4.000000,4.000000,4.000000,4.000000,4.000000,4.000000,4.000000,100.000000
1602005834.517043,107.000000,0.000000,4062.051270,4122.563965,4117.436035,4123.589844,4126.153809,4121.538574,4125.641113,4121.538574,4118.461426,4109.230957,4136.410156,4126.666504,4128.717773,4072.307617,840.000000,4.000000,,,,0.000000,4.000000,4.000000,4.000000,4.000000,4.000000,4.000000,4.000000,4.000000,4.000000,4.000000,4.000000,4.000000,4.000000,4.000000,100.000000
1602005834.524930,108.000000,0.000000,4074.871826,4126.666504,4124.102539,4132.307617,4135.384766,4124.615234,4129.230957,4127.179688,4121.025879,4103.589844,4142.051270,4135.384766,4138.974121,4083.076904,779.000000,4.000000,,,,0.000000,4.000000,4.000000,4.000000,4.000000,4.000000,4.000000,4.000000,4.000000,4.000000,4.000000,4.000000,4.000000,4.000000,4.000000,100.000000
1602005834.532817,109.000000,0.000000,4073.333252,4124.615234,4125.128418,4135.384766,4142.563965,4131.282227,4132.820313,4127.692383,4119.487305,4128.717773,4137.436035,4131.282227,4136.410156,4073.333252,750.000000,4.000000,,,,0.000000,4.000000,4.000000,4.000000,4.000000,4.000000,4.000000,4.000000,4.000000,4.000000,4.000000,4.000000,4.000000,4.000000,4.000000,100.000000
1602005834.540704,110.000000,0.000000,4059.487061,4122.563965,4118.974121,4127.179688,4144.615234,4143.077148,4137.948730,4126.666504,4125.641113,4145.128418,4134.358887,4122.563965,4126.666504,4058.974365,877.000000,4.000000,,,,0.000000,4.000000,4.000000,4.000000,4.000000,4.000000,4.000000,4.000000,4.000000,4.000000,4.000000,4.000000,4.000000,4.000000,4.000000,100.000000
1602005834.548591,111.000000,0.000000,4050.769287,4121.538574,4112.307617,4117.948730,4141.025879,4142.563965,4133.333496,4124.615234,4127.692383,4116.410156,4137.948730,4116.922852,4123.589844,4063.589844,840.000000,4.000000,,,,0.000000,4.000000,4.000000,4.000000,4.000000,4.000000,4.000000,4.000000,4.000000,4.000000,4.000000,4.000000,4.000000,4.000000,4.000000,100.000000
1602005834.556478,112.000000,0.000000,4052.307617,4118.461426,4107.179688,4113.333496,4138.461426,4136.410156,4122.563965,4122.051270,4122.563965,4109.743652,4130.769043,4108.717773,4124.102539,4071.794922,779.000000,4.000000,,,,0.000000,4.000000,4.000000,4.000000,4.000000,4.000000,4.000000,4.000000,4.000000,4.000000,4.000000,4.000000,4.000000,4.000000,4.000000,100.000000
1602005834.564365,113.000000,0.000000,4055.384521,4118.461426,4102.051270,4112.820313,4141.025879,4136.410156,4119.487305,4122.563965,4129.230957,4138.461426,4125.641113,4108.717773,4128.205078,4067.692383,750.000000,4.000000,,,,0.000000,4.000000,4.000000,4.000000,4.000000,4.000000,4.000000,4.000000,4.000000,4.000000,4.000000,4.000000,4.000000,4.000000,4.000000,100.000000
1602005834.572149,114.000000,0.000000,4064.102539,4124.615234,4109.230957,4122.563965,4140.512695,4129.743652,4122.051270,4125.128418,4136.410156,4150.769043,4135.384766,4120.512695,4139.487305,4077.435791,877.000000,4.000000,,,,0.000000,4.000000,4.000000,4.000000,4.000000,4.000000,4.000000,4.000000,4.000000,4.000000,4.000000,4.000000,4.000000,4.000000,4.000000,100.000000
1602005834.580033,115.000000,0.000000,4070.769287,4130.769043,4123.077148,4134.358887,4138.974121,4122.563965,4123.589844,4126.153809,4129.743652,4151.282227,4143.589844,4126.153809,4146.666504,4096.410156,840.000000,4.000000,,,,0.000000,4.000000,4.000000,4.000000,4.000000,4.000000,4.000000,4.000000,4.000000,4.000000,4.000000,4.000000,4.000000,4.000000,4.000000,100.000000
1602005834.587917,116.000000,0.000000,4069.230713,4127.179688,4122.051270,4130.769043,4139.487305,4125.128418,4124.615234,4123.077148,4115.384766,4138.461426,4138.974121,4120.000000,4139.487305,4081.538574,779.000000,4.000000,,,,0.000000,4.000000,4.000000,4.000000,4.000000,4.000000,4.000000,4.000000,4.000000,4.000000,4.000000,4.000000,4.000000,4.000000,4.000000,100.000000
1602005834.595801,117.000000,0.000000,4068.718018,4125.128418,4113.333496,4124.102539,4135.897461,4131.794922,4123.589844,4121.025879,4103.077148,4104.102539,4135.897461,4114.358887,4131.282227,4064.102539,750.000000,4.000000,,,,0.000000,4.000000,4.000000,4.000000,4.000000,4.000000,4.000000,4.000000,4.000000,4.000000,4.000000,4.000000,4.000000,4.000000,4.000000,100.000000
1602005834.603589,118.000000,0.000000,4074.358887,4133.333496,4117.948730,4130.769043,4141.538574,4139.487305,4125.641113,4122.563965,4102.563965,4094.871826,4138.461426,4119.487305,4135.897461,4082.564209,877.000000,4.000000,,,,0.000000,4.000000,4.000000,4.000000,4.000000,4.000000,4.000000,4.000000,4.000000,4.000000,4.000000,4.000000,4.000000,4.000000,4.000000,100.000000
1602005834.611477,119.000000,0.000000,4078.974365,4141.025879,4125.128418,4138.974121,4151.794922,4144.615234,4131.794922,4123.077148,4113.333496,4126.666504,4137.948730,4133.333496,4142.051270,4100.000000,840.000000,4.000000,,,,0.000000,4.000000,4.000000,4.000000,4.000000,4.000000,4.000000,4.000000,4.000000,4.000000,4.000000,4.000000,4.000000,4.000000,4.000000,100.000000
1602005834.619365,120.000000,0.000000,4082.564209,4140.512695,4127.179688,4136.922852,4146.153809,4142.051270,4135.897461,4123.077148,4121.025879,4150.769043,4130.769043,4134.871582,4140.000000,4087.179443,779.000000,4.000000,,,,0.000000,4.000000,4.000000,4.000000,4.000000,4.000000,4.000000,4.000000,4.000000,4.000000,4.000000,4.000000,4.000000,4.000000,4.000000,100.000000
1602005834.627252,121.000000,0.000000,4092.307617,4140.000000,4130.256348,4136.410156,4136.922852,4141.025879,4137.436035,4125.641113,4127.692383,4149.230957,4125.128418,4124.615234,4138.461426,4076.410156,750.000000,4.000000,,,,0.000000,4.000000,4.000000,4.000000,4.000000,4.000000,4.000000,4.000000,4.000000,4.000000,4.000000,4.000000,4.000000,4.000000,4.000000,100.000000
1602005834.635140,122.000000,0.000000,4093.846191,4141.025879,4128.205078,4137.436035,4135.384766,4137.948730,4134.358887,4130.256348,4139.487305,4135.897461,4129.230957,4121.538574,4143.077148,4090.256348,877.000000,4.000000,,,,0.000000,4.000000,4.000000,4.000000,4.000000,4.000000,4.000000,4.000000,4.000000,4.000000,4.000000,4.000000,4.000000,4.000000,4.000000,100.000000
1602005834.643028,123.000000,0.000000,4079.487061,4133.846191,4124.102539,4128.717773,4128.205078,4124.102539,4128.205078,4136.410156,4142.563965,4129.230957,4140.000000,4128.205078,4145.641113,4100.000000,840.000000,4.000000,,,,0.000000,4.000000,4.000000,4.000000,4.000000,4.000000,4.000000,4.000000,4.000000,4.000000,4.000000,4.000000,4.000000,4.000000,4.000000,100.000000
1602005834.650916,124.000000,0.000000,4064.102539,4121.538574,4121.025879,4121.538574,4125.128418,4117.948730,4124.102539,4142.563965,4145.641113,4134.358887,4146.153809,4125.128418,4143.077148,4084.615479,779.000000,4.000000,,,,0.000000,4.000000,4.000000,4.000000,4.000000,4.000000,4.000000,4.000000,4.000000,4.000000,4.000000,4.000000,4.000000,4.000000,4.000000,100.000000
1602005834.658804,125.000000,0.000000,4058.974365,4119.487305,4110.256348,4121.538574,4133.333496,4125.641113,4124.615234,4143.589844,4155.897461,4134.358887,4138.974121,4111.282227,4133.333496,4068.718018,750.000000,4.000000,,,,0.000000,4.000000,4.000000,4.000000,4.000000,4.000000,4.000000,4.000000,4.000000,4.000000,4.000000,4.000000,4.000000,4.000000,4.000000,100.000000
1602005834.666592,126.000000,0.000000,4057.435791,4123.589844,4100.512695,4121.025879,4138.461426,4128.205078,4122.563965,4137.436035,4156.410156,4129.230957,4123.077148,4102.051270,4123.589844,4072.307617,877.000000,4.000000,,,,0.000000,4.000000,4.000000,4.000000,4.000000,4.000000,4.000000,4.000000,4.000000,4.000000,4.000000,4.000000,4.000000,4.000000,4.000000,100.000000
1602005834.674480,127.000000,0.000000,4052.307617,4123.077148,4100.000000,4121.538574,4138.974121,4125.128418,4116.410156,4128.717773,4144.615234,4135.384766,4117.436035,4102.051270,4120.512695,4076.410156,840.000000,4.000000,,,,0.000000,4.000000,4.000000,4.000000,4.000000,4.000000,4.000000,4.000000,4.000000,4.000000,4.000000,4.000000,4.000000,4.000000,4.000000,100.000000
1602005834.682368,128.000000,0.000000,4051.281982,4121.538574,4102.563965,4122.051270,4136.922852,4124.615234,4115.384766,4124.102539,4132.820313,4137.436035,4121.538574,4107.692383,4122.563965,4071.794922,779.000000,4.000000,,,,0.000000,4.000000,4.000000,4.000000,4.000000,4.000000,4.000000,4.000000,4.000000,4.000000,4.000000,4.000000,4.000000,4.000000,4.000000,100.000000
1602005834.690256,0.000000,0.000000,4060.512939,4123.589844,4113.333496,4120.512695,4131.794922,4116.922852,4118.461426,4117.436035,4116.922852,4121.025879,4118.974121,4118.461426,4130.769043,4076.410156,807.000000,4.000000,,,,0.000000,4.000000,4.000000,4.000000,4.000000,4.000000,4.000000,4.000000,4.000000,4.000000,4.000000,4.000000,4.000000,4.000000,4.000000,100.000000
1602005834.698144,1.000000,0.000000,4081.025635,4131.794922,4132.820313,4128.717773,4134.358887,4113.333496,4121.025879,4109.743652,4105.128418,4124.102539,4125.641113,4128.205078,4139.487305,4092.820557,795.000000,4.000000,,,,0.000000,4.000000,4.000000,4.000000,4.000000,4.000000,4.000000,4.000000,4.000000,4.000000,4.000000,4.000000,4.000000,4.000000,4.000000,100.000000
1602005834.706032,2.000000,0.000000,4094.358887,4139.487305,4137.948730,4137.436035,4141.538574,4120.000000,4124.615234,4106.666504,4104.615234,4131.282227,4145.128418,4126.666504,4143.077148,4096.922852,851.000000,4.000000,,,,0.000000,4.000000,4.000000,4.000000,4.000000,4.000000,4.000000,4.000000,4.000000,4.000000,4.000000,4.000000,4.000000,4.000000,4.000000,100.000000
1602005834.713920,3.000000,0.000000,4085.641113,4133.333496,4126.666504,4128.205078,4140.512695,4126.666504,4127.179688,4108.717773,4096.410156,4103.589844,4147.692383,4123.077148,4144.102539,4088.205078,867.000000,4.000000,,,,0.000000,4.000000,4.000000,4.000000,4.000000,4.000000,4.000000,4.000000,4.000000,4.000000,4.000000,4.000000,4.000000,4.000000,4.000000,100.000000
1602005834.721808,4.000000,0.000000,4079.487061,4125.641113,4121.538574,4120.512695,4140.000000,4131.282227,4123.589844,4115.384766,4091.794922,4097.436035,4136.922852,4123.589844,4143.077148,4096.922852,816.000000,4.000000,,,,0.000000,4.000000,4.000000,4.000000,4.000000,4.000000,4.000000,4.000000,4.000000,4.000000,4.000000,4.000000,4.000000,4.000000,4.000000,100.000000
1602005834.729594,5.000000,0.000000,4080.000000,4125.128418,4124.102539,4125.128418,4140.512695,4137.948730,4124.615234,4127.179688,4115.384766,4131.794922,4137.948730,4123.077148,4142.051270,4104.102539,825.000000,4.000000,,,,0.000000,4.000000,4.000000,4.000000,4.000000,4.000000,4.000000,4.000000,4.000000,4.000000,4.000000,4.000000,4.000000,4.000000,4.000000,100.000000
1602005834.737479,6.000000,0.000000,4068.718018,4118.461426,4122.563965,4118.461426,4137.948730,4140.512695,4134.871582,4138.974121,4149.743652,4147.179688,4142.051270,4124.615234,4143.077148,4087.692383,769.000000,4.000000,,,,0.000000,4.000000,4.000000,4.000000,4.000000,4.000000,4.000000,4.000000,4.000000,4.000000,4.000000,4.000000,4.000000,4.000000,4.000000,100.000000
1602005834.745365,7.000000,0.000000,4067.179443,4118.974121,4122.563965,4113.333496,4138.461426,4138.974121,4138.974121,4143.589844,4163.589844,4143.077148,4135.384766,4122.051270,4138.461426,4075.384521,704.000000,4.000000,,,,0.000000,4.000000,4.000000,4.000000,4.000000,4.000000,4.000000,4.000000,4.000000,4.000000,4.000000,4.000000,4.000000,4.000000,4.000000,100.000000
1602005834.753250,8.000000,0.000000,4093.846191,4145.128418,4124.102539,4127.692383,4142.051270,4141.025879,4135.897461,4138.974121,4160.512695,4148.205078,4125.641113,4108.205078,4125.641113,4078.461426,788.000000,4.000000,,,,0.000000,4.000000,4.000000,4.000000,4.000000,4.000000,4.000000,4.000000,4.000000,4.000000,4.000000,4.000000,4.000000,4.000000,4.000000,100.000000
1602005834.761136,9.000000,0.000000,4124.615234,4175.384766,4122.563965,4141.025879,4138.461426,4134.871582,4136.922852,4134.871582,4157.436035,4147.692383,4116.410156,4101.025879,4114.871582,4081.538574,842.000000,4.000000,,,,0.000000,4.000000,4.000000,4.000000,4.000000,4.000000,4.000000,4.000000,4.000000,4.000000,4.000000,4.000000,4.000000,4.000000,4.000000,100.000000
1602005834.768925,10.000000,0.000000,4140.512695,4187.179688,4124.615234,4148.717773,4135.897461,4124.102539,4139.487305,4138.461426,4150.256348,4133.846191,4111.282227,4109.743652,4100.000000,4067.692383,894.000000,4.000000,,,,0.000000,4.000000,4.000000,4.000000,4.000000,4.000000,4.000000,4.000000,4.000000,4.000000,4.000000,4.000000,4.000000,4.000000,4.000000,100.000000
1602005834.776815,11.000000,0.000000,4140.000000,4189.230957,4121.538574,4151.794922,4141.538574,4124.102539,4135.897461,4136.410156,4129.230957,4117.436035,4105.128418,4107.692383,4072.307617,4049.743652,862.000000,4.000000,,,,0.000000,4.000000,4.000000,4.000000,4.000000,4.000000,4.000000,4.000000,4.000000,4.000000,4.000000,4.000000,4.000000,4.000000,4.000000,100.000000
1602005834.784704,12.000000,0.000000,4131.282227,4186.153809,4105.641113,4144.615234,4142.563965,4123.589844,4128.717773,4124.615234,4109.230957,4101.025879,4087.179443,4091.281982,4055.384521,4048.718018,779.000000,4.000000,,,,0.000000,4.000000,4.000000,4.000000,4.000000,4.000000,4.000000,4.000000,4.000000,4.000000,4.000000,4.000000,4.000000,4.000000,4.000000,100.000000
1602005834.792593,13.000000,0.000000,4135.384766,4184.615234,4106.666504,4144.102539,4143.077148,4121.538574,4124.102539,4117.436035,4101.025879,4103.589844,4087.692383,4092.820557,4066.153809,4058.974365,750.000000,4.000000,,,,0.000000,4.000000,4.000000,4.000000,4.000000,4.000000,4.000000,4.000000,4.000000,4.000000,4.000000,4.000000,4.000000,4.000000,4.000000,100.000000
1602005834.800482,14.000000,0.000000,4144.615234,4194.871582,4132.820313,4156.922852,4153.846191,4125.641113,4117.436035,4112.307617,4093.846191,4115.384766,4106.666504,4106.153809,4076.923096,4062.564209,894.000000,4.000000,,,,0.000000,4.000000,4.000000,4.000000,4.000000,4.000000,4.000000,4.000000,4.000000,4.000000,4.000000,4.000000,4.000000,4.000000,4.000000,100.000000
1602005834.808372,15.000000,0.000000,4141.538574,4202.051270,4146.666504,4159.487305,4153.333496,4124.615234,4106.153809,4101.538574,4086.666748,4097.948730,4105.128418,4107.179688,4074.871826,4064.102539,862.000000,4.000000,,,,0.000000,4.000000,4.000000,4.000000,4.000000,4.000000,4.000000,4.000000,4.000000,4.000000,4.000000,4.000000,4.000000,4.000000,4.000000,100.000000
1602005834.816261,16.000000,0.000000,4146.153809,4196.410156,4143.589844,4153.333496,4137.948730,4118.974121,4104.615234,4104.102539,4094.871826,4081.538574,4100.000000,4106.153809,4087.692383,4078.461426,0.000000,4.000000,,,,0.000000,4.000000,4.000000,4.000000,4.000000,4.000000,4.000000,4.000000,4.000000,4.000000,4.000000,4.000000,4.000000,4.000000,4.000000,100.000000
1602005834.824150,17.000000,0.000000,4157.436035,4192.307617,4145.128418,4156.410156,4137.436035,4122.563965,4116.922852,4123.589844,4118.974121,4103.589844,4117.948730,4109.743652,4105.128418,4086.153809,0.000000,4.000000,,,,0.000000,4.000000,4.000000,4.000000,4.000000,4.000000,4.000000,4.000000,4.000000,4.000000,4.000000,4.000000,4.000000,4.000000,4.000000,100.000000
1602005834.832039,18.000000,0.000000,4151.794922,4190.769043,4143.589844,4156.410156,4145.128418,4125.641113,4132.820313,4140.000000,4139.487305,4138.461426,4124.102539,4108.205078,4098.974121,4074.358887,0.000000,4.000000,,,,0.000000,4.000000,4.000000,4.000000,4.000000,4.000000,4.000000,4.000000,4.000000,4.000000,4.000000,4.000000,4.000000,4.000000,4.000000,100.000000
1602005834.839929,19.000000,0.000000,4131.794922,4177.436035,4131.282227,4143.589844,4140.000000,4128.717773,4147.179688,4148.717773,4145.128418,4143.077148,4107.179688,4106.153809,4089.230713,4062.051270,0.000000,4.000000,,,,0.000000,4.000000,4.000000,4.000000,4.000000,4.000000,4.000000,4.000000,4.000000,4.000000,4.000000,4.000000,4.000000,4.000000,4.000000,100.000000
1602005834.847717,20.000000,0.000000,4121.538574,4163.589844,4120.512695,4133.333496,4136.410156,4136.410156,4155.897461,4147.692383,4141.025879,4128.717773,4094.358887,4100.512695,4081.538574,4052.820557,0.000000,4.000000,,,,0.000000,4.000000,4.000000,4.000000,4.000000,4.000000,4.000000,4.000000,4.000000,4.000000,4.000000,4.000000,4.000000,4.000000,4.000000,100.000000
1602005834.855605,21.000000,0.000000,4121.025879,4166.153809,4117.436035,4137.436035,4141.025879,4137.948730,4156.922852,4139.487305,4137.948730,4122.051270,4087.179443,4087.179443,4059.487061,4039.487061,0.000000,4.000000,,,,0.000000,4.000000,4.000000,4.000000,4.000000,4.000000,4.000000,4.000000,4.000000,4.000000,4.000000,4.000000,4.000000,4.000000,4.000000,100.000000
1602005834.863494,22.000000,0.000000,4116.922852,4169.230957,4117.948730,4140.512695,4142.563965,4141.538574,4151.794922,4137.948730,4128.205078,4112.307617,4081.025635,4079.487061,4048.718018,4028.718018,0.000000,4.000000,,,,0.000000,4.000000,4.000000,4.000000,4.000000,4.000000,4.000000,4.000000,4.000000,4.000000,4.000000,4.000000,4.000000,4.000000,4.000000,100.000000
1602005834.871382,23.000000,0.000000,4115.897461,4165.641113,4125.641113,4136.410156,4144.615234,4149.230957,4143.077148,4140.512695,4120.512695,4106.153809,4085.641113,4085.641113,4061.025635,4037.948730,0.000000,4.000000,,,,0.000000,4.000000,4.000000,4.000000,4.000000,4.000000,4.000000,4.000000,4.000000,4.000000,4.000000,4.000000,4.000000,4.000000,4.000000,100.000000
1602005834.879270,24.000000,0.000000,4124.615234,4168.205078,4137.948730,4139.487305,4153.846191,4151.794922,4138.461426,4141.025879,4133.846191,4120.000000,4102.563965,4101.538574,4074.871826,4068.205078,0.000000,4.000000,,,,0.000000,4.000000,4.000000,4.000000,4.000000,4.000000,4.000000,4.000000,4.000000,4.000000,4.000000,4.000000,4.000000,4.000000,4.000000,100.000000
1602005834.887159,25.000000,0.000000,4127.692383,4167.179688,4136.922852,4143.589844,4150.769043,4149.743652,4135.384766,4137.948730,4137.948730,4132.307617,4104.102539,4110.256348,4076.923096,4078.461426,0.000000,4.000000,,,,0.000000,4.000000,4.000000,4.000000,4.000000,4.000000,4.000000,4.000000,4.000000,4.000000,4.000000,4.000000,4.000000,4.000000,4.000000,100.000000
1602005834.895047,26.000000,0.000000,4120.512695,4158.461426,4125.128418,4138.461426,4131.794922,4141.025879,4125.641113,4131.794922,4120.000000,4108.205078,4091.281982,4105.128418,4073.846191,4057.948730,0.000000,4.000000,,,,0.000000,4.000000,4.000000,4.000000,4.000000,4.000000,4.000000,4.000000,4.000000,4.000000,4.000000,4.000000,4.000000,4.000000,4.000000,100.000000
1602005834.902935,27.000000,0.000000,4118.461426,4156.410156,4116.922852,4133.846191,4125.641113,4134.358887,4121.025879,4130.769043,4118.974121,4082.051270,4102.051270,4103.077148,4080.512939,4057.435791,0.000000,4.000000,,,,0.000000,4.000000,4.000000,4.000000,4.000000,4.000000,4.000000,4.000000,4.000000,4.000000,4.000000,4.000000,4.000000,4.000000,4.000000,100.000000
1602005834.910723,28.000000,0.000000,4125.641113,4160.512695,4111.282227,4135.384766,4135.384766,4151.282227,4134.358887,4145.128418,4146.153809,4111.282227,4126.153809,4109.230957,4094.871826,4078.974365,0.000000,4.000000,,,,0.000000,4.000000,4.000000,4.000000,4.000000,4.000000,4.000000,4.000000,4.000000,4.000000,4.000000,4.000000,4.000000,4.000000,4.000000,100.000000
1602005834.918611,29.000000,0.000000,4124.615234,4160.512695,4105.128418,4135.384766,4140.512695,4170.256348,4147.692383,4155.897461,4161.025879,4154.358887,4122.563965,4107.692383,4097.436035,4074.358887,0.000000,4.000000,,,,0.000000,4.000000,4.000000,4.000000,4.000000,4.000000,4.000000,4.000000,4.000000,4.000000,4.000000,4.000000,4.000000,4.000000,4.000000,100.000000
1602005834.926499,30.000000,0.000000,4109.743652,4153.333496,4104.102539,4129.230957,4138.461426,4164.615234,4151.282227,4154.358887,4152.307617,4160.000000,4104.615234,4102.563965,4086.666748,4056.410156,0.000000,4.000000,,,,0.000000,4.000000,4.000000,4.000000,4.000000,4.000000,4.000000,4.000000,4.000000,4.000000,4.000000,4.000000,4.000000,4.000000,4.000000,100.000000
1602005834.934387,31.000000,0.000000,4103.589844,4143.589844,4111.794922,4125.128418,4136.410156,4153.333496,4154.358887,4150.769043,4148.717773,4153.846191,4101.025879,4105.641113,4083.589844,4056.410156,0.000000,4.000000,,,,0.000000,4.000000,4.000000,4.000000,4.000000,4.000000,4.000000,4.000000,4.000000,4.000000,4.000000,4.000000,4.000000,4.000000,4.000000,100.000000
1602005834.942275,32.000000,0.000000,4103.589844,4138.461426,4117.436035,4124.615234,4137.436035,4140.000000,4152.307617,4145.641113,4146.153809,4150.769043,4090.256348,4101.538574,4076.410156,4054.871826,0.000000,4.000000,,,,0.000000,4.000000,4.000000,4.000000,4.000000,4.000000,4.000000,4.000000,4.000000,4.000000,4.000000,4.000000,4.000000,4.000000,4.000000,100.000000
1602005834.950162,33.000000,0.000000,4092.307617,4136.410156,4113.333496,4121.025879,4133.846191,4123.077148,4141.025879,4137.436035,4130.256348,4120.512695,4073.846191,4086.666748,4055.897461,4046.153809,0.000000,4.000000,,,,0.000000,4.000000,4.000000,4.000000,4.000000,4.000000,4.000000,4.000000,4.000000,4.000000,4.000000,4.000000,4.000000,4.000000,4.000000,100.000000
1602005834.958050,34.000000,0.000000,4090.769287,4136.922852,4106.666504,4123.589844,4137.948730,4127.692383,4135.897461,4134.871582,4119.487305,4087.179443,4077.435791,4082.051270,4057.435791,4048.205078,0.000000,4.000000,,,,0.000000,4.000000,4.000000,4.000000,4.000000,4.000000,4.000000,4.000000,4.000000,4.000000,4.000000,4.000000,4.000000,4.000000,4.000000,100.000000
1602005834.965938,35.000000,0.000000,4107.179688,4145.641113,4109.230957,4136.922852,4146.666504,4143.077148,4139.487305,4139.487305,4120.000000,4087.692383,4092.307617,4088.718018,4073.846191,4056.410156,0.000000,4.000000,,,,0.000000,4.000000,4.000000,4.000000,4.000000,4.000000,4.000000,4.000000,4.000000,4.000000,4.000000,4.000000,4.000000,4.000000,4.000000,100.000000
1602005834.973721,36.000000,0.000000,4113.333496,4150.769043,4108.205078,4135.897461,4142.563965,4134.358887,4130.769043,4134.358887,4111.282227,4090.769287,4092.307617,4083.076904,4068.205078,4057.435791,0.000000,4.000000,,,,0.000000,4.000000,4.000000,4.000000,4.000000,4.000000,4.000000,4.000000,4.000000,4.000000,4.000000,4.000000,4.000000,4.000000,4.000000,100.000000
1602005834.981603,37.000000,0.000000,4106.153809,4146.153809,4103.077148,4128.205078,4139.487305,4126.153809,4118.974121,4120.000000,4098.974121,4088.718018,4081.025635,4070.256348,4058.974365,4053.846191,0.000000,4.000000,,,,0.000000,4.000000,4.000000,4.000000,4.000000,4.000000,4.000000,4.000000,4.000000,4.000000,4.000000,4.000000,4.000000,4.000000,4.000000,100.000000
1602005834.989392,38.000000,0.000000,4106.153809,4149.743652,4111.794922,4135.384766,4153.333496,4143.077148,4128.717773,4121.025879,4106.153809,4102.563965,4078.461426,4075.384521,4072.307617,4056.410156,0.000000,4.000000,,,,0.000000,4.000000,4.000000,4.000000,4.000000,4.000000,4.000000,4.000000,4.000000,4.000000,4.000000,4.000000,4.000000,4.000000,4.000000,100.000000
1602005834.997281,39.000000,0.000000,4109.743652,4156.922852,4123.589844,4138.461426,4154.358887,4154.871582,4140.000000,4134.358887,4119.487305,4112.820313,4089.743652,4096.922852,4086.153809,4067.692383,0.000000,4.000000,,,,0.000000,4.000000,4.000000,4.000000,4.000000,4.000000,4.000000,4.000000,4.000000,4.000000,4.000000,4.000000,4.000000,4.000000,4.000000,100.000000
1602005835.005169,40.000000,0.000000,4108.205078,4148.205078,4123.077148,4126.153809,4137.948730,4151.282227,4139.487305,4140.000000,4125.641113,4103.589844,4104.102539,4112.820313,4095.897461,4075.897461,0.000000,4.000000,,,,0.000000,4.000000,4.000000,4.000000,4.000000,4.000000,4.000000,4.000000,4.000000,4.000000,4.000000,4.000000,4.000000,4.000000,4.000000,100.000000
1602005835.013058,41.000000,0.000000,4105.128418,4138.974121,4126.666504,4124.102539,4135.384766,4150.256348,4144.615234,4143.589844,4138.974121,4116.922852,4114.358887,4124.102539,4107.179688,4083.589844,0.000000,4.000000,,,,0.000000,4.000000,4.000000,4.000000,4.000000,4.000000,4.000000,4.000000,4.000000,4.000000,4.000000,4.000000,4.000000,4.000000,4.000000,100.000000
1602005835.020946,42.000000,0.000000,4105.641113,4146.153809,4138.974121,4136.922852,4142.051270,4153.846191,4155.897461,4159.487305,4158.974121,4154.871582,4129.230957,4144.102539,4110.256348,4099.487305,0.000000,4.000000,,,,0.000000,4.000000,4.000000,4.000000,4.000000,4.000000,4.000000,4.000000,4.000000,4.000000,4.000000,4.000000,4.000000,4.000000,4.000000,100.000000
1602005835.028835,43.000000,0.000000,4111.282227,4154.358887,4139.487305,4141.538574,4142.051270,4157.948730,4157.436035,4171.282227,4172.820313,4165.128418,4141.538574,4156.410156,4116.410156,4112.820313,0.000000,4.000000,,,,0.000000,4.000000,4.000000,4.000000,4.000000,4.000000,4.000000,4.000000,4.000000,4.000000,4.000000,4.000000,4.000000,4.000000,4.000000,100.000000
1602005835.036723,44.000000,0.000000,4111.282227,4156.410156,4129.743652,4140.512695,4140.512695,4168.717773,4155.384766,4171.794922,4184.615234,4149.743652,4132.820313,4150.256348,4123.077148,4114.871582,0.000000,4.000000,,,,0.000000,4.000000,4.000000,4.000000,4.000000,4.000000,4.000000,4.000000,4.000000,4.000000,4.000000,4.000000,4.000000,4.000000,4.000000,100.000000
1602005835.044612,45.000000,0.000000,4106.153809,4152.307617,4125.641113,4139.487305,4138.974121,4173.333496,4160.000000,4169.743652,4187.692383,4144.615234,4115.384766,4137.948730,4112.820313,4099.487305,0.000000,4.000000,,,,0.000000,4.000000,4.000000,4.000000,4.000000,4.000000,4.000000,4.000000,4.000000,4.000000,4.000000,4.000000,4.000000,4.000000,4.000000,100.000000
1602005835.052501,46.000000,0.000000,4100.512695,4145.128418,4119.487305,4135.384766,4140.000000,4157.948730,4153.846191,4158.461426,4166.153809,4134.358887,4105.128418,4121.025879,4097.436035,4074.358887,0.000000,4.000000,,,,0.000000,4.000000,4.000000,4.000000,4.000000,4.000000,4.000000,4.000000,4.000000,4.000000,4.000000,4.000000,4.000000,4.000000,4.000000,100.000000
1602005835.060286,47.000000,0.000000,4094.871826,4142.051270,4112.307617,4129.743652,4140.000000,4143.589844,4138.461426,4143.077148,4144.102539,4108.717773,4094.358887,4103.589844,4082.564209,4065.128174,0.000000,4.000000,,,,0.000000,4.000000,4.000000,4.000000,4.000000,4.000000,4.000000,4.000000,4.000000,4.000000,4.000000,4.000000,4.000000,4.000000,4.000000,100.000000
1602005835.068172,48.000000,0.000000,4094.358887,4142.051270,4108.717773,4127.179688,4134.871582,4143.589844,4133.846191,4133.846191,4133.333496,4099.487305,4086.153809,4100.512695,4072.820557,4066.153809,0.000000,4.000000,,,,0.000000,4.000000,4.000000,4.000000,4.000000,4.000000,4.000000,4.000000,4.000000,4.000000,4.000000,4.000000,4.000000,4.000000,4.000000,100.000000
1602005835.076058,49.000000,0.000000,4094.358887,4133.846191,4107.179688,4125.128418,4133.846191,4143.589844,4133.333496,4125.128418,4115.897461,4103.077148,4088.205078,4105.641113,4071.281982,4055.897461,0.000000,4.000000,,,,0.000000,4.000000,4.000000,4.000000,4.000000,4.000000,4.000000,4.000000,4.000000,4.000000,4.000000,4.000000,4.000000,4.000000,4.000000,100.000000
1602005835.083943,50.000000,0.000000,4091.794922,4124.102539,4110.769043,4122.051270,4137.436035,4137.948730,4123.589844,4117.436035,4105.641113,4090.769287,4089.743652,4103.077148,4073.333252,4060.000000,0.000000,4.000000,,,,0.000000,4.000000,4.000000,4.000000,4.000000,4.000000,4.000000,4.000000,4.000000,4.000000,4.000000,4.000000,4.000000,4.000000,4.000000,100.000000
1602005835.091829,51.000000,0.000000,4094.871826,4123.077148,4118.461426,4123.077148,4135.384766,4129.230957,4122.051270,4121.025879,4117.436035,4084.102539,4090.256348,4104.615234,4079.487061,4088.205078,0.000000,4.000000,,,,0.000000,4.000000,4.000000,4.000000,4.000000,4.000000,4.000000,4.000000,4.000000,4.000000,4.000000,4.000000,4.000000,4.000000,4.000000,100.000000
1602005835.099715,52.000000,0.000000,4108.205078,4129.743652,4126.666504,4130.769043,4133.846191,4121.538574,4131.282227,4131.794922,4124.102539,4097.436035,4102.051270,4115.384766,4092.307617,4096.922852,0.000000,4.000000,,,,0.000000,4.000000,4.000000,4.000000,4.000000,4.000000,4.000000,4.000000,4.000000,4.000000,4.000000,4.000000,4.000000,4.000000,4.000000,100.000000
1602005835.107497,53.000000,0.000000,4122.563965,4138.461426,4133.846191,4136.922852,4137.436035,4118.974121,4136.410156,4137.948730,4124.102539,4104.615234,4117.948730,4123.589844,4100.512695,4094.871826,0.000000,4.000000,,,,0.000000,4.000000,4.000000,4.000000,4.000000,4.000000,4.000000,4.000000,4.000000,4.000000,4.000000,4.000000,4.000000,4.000000,4.000000,100.000000
1602005835.115380,54.000000,0.000000,4126.666504,4140.000000,4140.512695,4137.948730,4132.307617,4120.000000,4137.948730,4144.102539,4131.794922,4109.230957,4122.563965,4127.692383,4103.077148,4105.641113,0.000000,4.000000,,,,0.000000,4.000000,4.000000,4.000000,4.000000,4.000000,4.000000,4.000000,4.000000,4.000000,4.000000,4.000000,4.000000,4.000000,4.000000,100.000000
1602005835.123168,55.000000,0.000000,4126.666504,4140.000000,4144.615234,4137.948730,4125.641113,4123.077148,4139.487305,4151.282227,4142.051270,4127.179688,4121.538574,4133.333496,4112.820313,4111.282227,0.000000,4.000000,,,,0.000000,4.000000,4.000000,4.000000,4.000000,4.000000,4.000000,4.000000,4.000000,4.000000,4.000000,4.000000,4.000000,4.000000,4.000000,100.000000
1602005835.131056,56.000000,0.000000,4136.922852,4150.769043,4153.333496,4142.563965,4134.871582,4136.922852,4142.051270,4155.897461,4154.871582,4147.179688,4128.205078,4145.641113,4126.666504,4110.256348,0.000000,4.000000,,,,0.000000,4.000000,4.000000,4.000000,4.000000,4.000000,4.000000,4.000000,4.000000,4.000000,4.000000,4.000000,4.000000,4.000000,4.000000,100.000000
1602005835.138944,57.000000,0.000000,4145.641113,4158.974121,4158.974121,4145.641113,4142.051270,4142.051270,4142.563965,4157.948730,4165.641113,4155.384766,4127.179688,4152.307617,4130.769043,4108.717773,0.000000,4.000000,,,,0.000000,4.000000,4.000000,4.000000,4.000000,4.000000,4.000000,4.000000,4.000000,4.000000,4.000000,4.000000,4.000000,4.000000,4.000000,100.000000
1602005835.146832,58.000000,0.000000,4133.846191,4147.179688,4149.230957,4142.051270,4135.384766,4124.615234,4133.846191,4148.717773,4153.846191,4141.025879,4111.794922,4140.512695,4116.410156,4104.615234,0.000000,4.000000,,,,0.000000,4.000000,4.000000,4.000000,4.000000,4.000000,4.000000,4.000000,4.000000,4.000000,4.000000,4.000000,4.000000,4.000000,4.000000,100.000000
1602005835.154720,59.000000,0.000000,4125.641113,4136.410156,4145.128418,4138.461426,4134.358887,4117.436035,4121.025879,4130.256348,4128.205078,4114.358887,4111.282227,4130.769043,4102.563965,4107.692383,0.000000,4.000000,,,,0.000000,4.000000,4.000000,4.000000,4.000000,4.000000,4.000000,4.000000,4.000000,4.000000,4.000000,4.000000,4.000000,4.000000,4.000000,100.000000
1602005835.162608,60.000000,0.000000,4135.384766,4143.589844,4154.358887,4141.025879,4140.000000,4125.641113,4117.948730,4119.487305,4120.000000,4101.538574,4119.487305,4135.897461,4104.615234,4112.820313,0.000000,4.000000,,,,0.000000,4.000000,4.000000,4.000000,4.000000,4.000000,4.000000,4.000000,4.000000,4.000000,4.000000,4.000000,4.000000,4.000000,4.000000,100.000000
1602005835.170496,61.000000,0.000000,4142.563965,4154.358887,4161.025879,4150.256348,4144.615234,4132.820313,4128.205078,4119.487305,4122.563965,4114.871582,4113.333496,4141.025879,4108.205078,4115.897461,0.000000,4.000000,,,,0.000000,4.000000,4.000000,4.000000,4.000000,4.000000,4.000000,4.000000,4.000000,4.000000,4.000000,4.000000,4.000000,4.000000,4.000000,100.000000
1602005835.178384,62.000000,0.000000,4134.358887,4152.820313,4153.333496,4152.307617,4146.666504,4137.948730,4137.436035,4120.512695,4116.410156,4121.538574,4102.051270,4136.922852,4109.230957,4118.974121,0.000000,4.000000,,,,0.000000,4.000000,4.000000,4.000000,4.000000,4.000000,4.000000,4.000000,4.000000,4.000000,4.000000,4.000000,4.000000,4.000000,4.000000,100.000000
1602005835.186170,63.000000,0.000000,4125.128418,4141.538574,4141.025879,4142.051270,4136.922852,4135.384766,4138.974121,4126.153809,4111.794922,4105.641113,4106.153809,4136.410156,4106.153809,4114.358887,0.000000,4.000000,,,,0.000000,4.000000,4.000000,4.000000,4.000000,4.000000,4.000000,4.000000,4.000000,4.000000,4.000000,4.000000,4.000000,4.000000,4.000000,100.000000
1602005835.194056,64.000000,0.000000,4125.128418,4138.461426,4137.948730,4136.410156,4128.717773,4129.230957,4139.487305,4134.871582,4120.512695,4103.077148,4119.487305,4137.436035,4101.538574,4107.179688,807.000000,4.000000,,,,0.000000,4.000000,4.000000,4.000000,4.000000,4.000000,4.000000,4.000000,4.000000,4.000000,4.000000,4.000000,4.000000,4.000000,4.000000,100.000000
1602005835.201942,65.000000,0.000000,4128.205078,4141.538574,4141.538574,4138.461426,4136.922852,4134.871582,4141.025879,4143.077148,4133.846191,4137.436035,4123.077148,4136.410156,4105.641113,4107.692383,795.000000,4.000000,,,,0.000000,4.000000,4.000000,4.000000,4.000000,4.000000,4.000000,4.000000,4.000000,4.000000,4.000000,4.000000,4.000000,4.000000,4.000000,100.000000
1602005835.209828,66.000000,0.000000,4133.333496,4141.025879,4149.230957,4140.000000,4136.410156,4143.589844,4140.512695,4152.307617,4152.307617,4160.512695,4127.692383,4141.538574,4124.615234,4114.871582,851.000000,4.000000,,,,0.000000,4.000000,4.000000,4.000000,4.000000,4.000000,4.000000,4.000000,4.000000,4.000000,4.000000,4.000000,4.000000,4.000000,4.000000,100.000000
1602005835.217714,67.000000,0.000000,4144.615234,4142.051270,4155.384766,4139.487305,4125.641113,4132.820313,4138.461426,4152.820313,4168.205078,4147.692383,4143.589844,4148.205078,4137.948730,4124.615234,867.000000,4.000000,,,,0.000000,4.000000,4.000000,4.000000,4.000000,4.000000,4.000000,4.000000,4.000000,4.000000,4.000000,4.000000,4.000000,4.000000,4.000000,100.000000
1602005835.225600,68.000000,0.000000,4140.512695,4138.974121,4150.769043,4135.384766,4129.230957,4121.538574,4136.410156,4141.538574,4161.538574,4143.589844,4138.974121,4142.563965,4123.589844,4108.717773,816.000000,4.000000,,,,0.000000,4.000000,4.000000,4.000000,4.000000,4.000000,4.000000,4.000000,4.000000,4.000000,4.000000,4.000000,4.000000,4.000000,4.000000,100.000000
1602005835.233383,69.000000,0.000000,4119.487305,4130.256348,4138.974121,4131.794922,4139.487305,4130.769043,4131.794922,4128.205078,4141.025879,4133.333496,4111.794922,4129.743652,4102.051270,4083.589844,825.000000,4.000000,,,,0.000000,4.000000,4.000000,4.000000,4.000000,4.000000,4.000000,4.000000,4.000000,4.000000,4.000000,4.000000,4.000000,4.000000,4.000000,100.000000
1602005835.241267,70.000000,0.000000,4112.820313,4131.282227,4128.717773,4137.948730,4142.051270,4140.000000,4126.666504,4123.589844,4129.230957,4105.641113,4109.743652,4127.179688,4111.282227,4102.051270,769.000000,4.000000,,,,0.000000,4.000000,4.000000,4.000000,4.000000,4.000000,4.000000,4.000000,4.000000,4.000000,4.000000,4.000000,4.000000,4.000000,4.000000,100.000000
1602005835.249150,71.000000,0.000000,4112.820313,4136.410156,4117.436035,4137.436035,4140.000000,4131.282227,4123.589844,4124.615234,4129.743652,4114.871582,4126.666504,4129.230957,4133.333496,4123.077148,694.000000,4.000000,,,,0.000000,4.000000,4.000000,4.000000,4.000000,4.000000,4.000000,4.000000,4.000000,4.000000,4.000000,4.000000,4.000000,4.000000,4.000000,100.000000
1602005835.256933,72.000000,0.000000,4094.871826,4127.179688,4107.692383,4124.102539,4139.487305,4120.000000,4118.974121,4116.922852,4128.205078,4140.000000,4121.538574,4123.077148,4137.948730,4112.307617,788.000000,4.000000,,,,0.000000,4.000000,4.000000,4.000000,4.000000,4.000000,4.000000,4.000000,4.000000,4.000000,4.000000,4.000000,4.000000,4.000000,4.000000,100.000000
1602005835.264817,73.000000,0.000000,4076.410156,4112.820313,4104.615234,4120.000000,4140.000000,4113.846191,4108.717773,4104.102539,4123.077148,4125.641113,4118.461426,4117.436035,4143.589844,4107.179688,842.000000,4.000000,,,,0.000000,4.000000,4.000000,4.000000,4.000000,4.000000,4.000000,4.000000,4.000000,4.000000,4.000000,4.000000,4.000000,4.000000,4.000000,100.000000
1602005835.272700,74.000000,0.000000,4069.743652,4108.717773,4103.589844,4124.102539,4137.436035,4110.769043,4100.000000,4104.102539,4120.512695,4104.615234,4133.333496,4119.487305,4156.922852,4110.256348,882.000000,4.000000,,,,0.000000,4.000000,4.000000,4.000000,4.000000,4.000000,4.000000,4.000000,4.000000,4.000000,4.000000,4.000000,4.000000,4.000000,4.000000,100.000000
1602005835.280489,75.000000,0.000000,4074.358887,4108.205078,4110.769043,4125.128418,4134.871582,4116.410156,4101.025879,4109.230957,4118.974121,4116.922852,4137.948730,4122.563965,4163.077148,4111.794922,848.000000,4.000000,,,,0.000000,4.000000,4.000000,4.000000,4.000000,4.000000,4.000000,4.000000,4.000000,4.000000,4.000000,4.000000,4.000000,4.000000,4.000000,100.000000
1602005835.288377,76.000000,0.000000,4086.666748,4108.205078,4121.538574,4123.077148,4132.820313,4118.974121,4108.717773,4106.666504,4124.615234,4134.358887,4136.922852,4122.051270,4165.641113,4128.205078,779.000000,4.000000,,,,0.000000,4.000000,4.000000,4.000000,4.000000,4.000000,4.000000,4.000000,4.000000,4.000000,4.000000,4.000000,4.000000,4.000000,4.000000,100.000000
1602005835.296266,77.000000,0.000000,4085.128174,4107.179688,4123.589844,4120.000000,4128.205078,4122.051270,4122.563965,4116.410156,4142.051270,4141.538574,4147.692383,4125.641113,4171.282227,4142.051270,751.000000,4.000000,,,,0.000000,4.000000,4.000000,4.000000,4.000000,4.000000,4.000000,4.000000,4.000000,4.000000,4.000000,4.000000,4.000000,4.000000,4.000000,100.000000
1602005835.304154,78.000000,0.000000,4077.948730,4105.641113,4130.256348,4120.512695,4128.205078,4134.358887,4137.948730,4136.922852,4154.358887,4148.717773,4156.922852,4141.538574,4177.948730,4141.025879,882.000000,4.000000,,,,0.000000,4.000000,4.000000,4.000000,4.000000,4.000000,4.000000,4.000000,4.000000,4.000000,4.000000,4.000000,4.000000,4.000000,4.000000,100.000000
1602005835.312043,79.000000,0.000000,4087.179443,4101.538574,4137.948730,4120.000000,4135.384766,4140.512695,4146.666504,4144.615234,4150.769043,4155.897461,4157.948730,4156.922852,4178.461426,4143.077148,848.000000,4.000000,,,,0.000000,4.000000,4.000000,4.000000,4.000000,4.000000,4.000000,4.000000,4.000000,4.000000,4.000000,4.000000,4.000000,4.000000,4.000000,100.000000
1602005835.319932,80.000000,0.000000,4086.666748,4091.794922,4129.230957,4111.794922,4138.461426,4137.948730,4146.153809,4141.538574,4145.128418,4156.922852,4152.820313,4151.282227,4165.128418,4135.384766,779.000000,4.000000,,,,0.000000,4.000000,4.000000,4.000000,4.000000,4.000000,4.000000,4.000000,4.000000,4.000000,4.000000,4.000000,4.000000,4.000000,4.000000,100.000000
1602005835.327820,81.000000,0.000000,4066.666748,4087.692383,4117.948730,4107.179688,4137.948730,4132.820313,4141.538574,4140.512695,4136.410156,4136.410156,4140.512695,4136.922852,4152.820313,4120.000000,751.000000,4.000000,,,,0.000000,4.000000,4.000000,4.000000,4.000000,4.000000,4.000000,4.000000,4.000000,4.000000,4.000000,4.000000,4.000000,4.000000,4.000000,100.000000
1602005835.335709,82.000000,0.000000,4063.076904,4089.743652,4118.974121,4113.846191,4136.922852,4115.384766,4137.436035,4138.974121,4120.512695,4117.436035,4133.333496,4136.922852,4150.769043,4120.000000,882.000000,4.000000,,,,0.000000,4.000000,4.000000,4.000000,4.000000,4.000000,4.000000,4.000000,4.000000,4.000000,4.000000,4.000000,4.000000,4.000000,4.000000,100.000000
1602005835.343597,83.000000,0.000000,4079.487061,4095.897461,4128.205078,4125.128418,4135.897461,4107.179688,4136.410156,4134.871582,4120.512695,4124.615234,4141.025879,4143.589844,4150.256348,4137.436035,848.000000,4.000000,,,,0.000000,4.000000,4.000000,4.000000,4.000000,4.000000,4.000000,4.000000,4.000000,4.000000,4.000000,4.000000,4.000000,4.000000,4.000000,100.000000
1602005835.351385,84.000000,0.000000,4093.333252,4113.846191,4140.000000,4136.410156,4140.512695,4126.666504,4133.333496,4135.897461,4132.820313,4148.717773,4143.077148,4142.563965,4157.948730,4157.436035,779.000000,4.000000,,,,0.000000,4.000000,4.000000,4.000000,4.000000,4.000000,4.000000,4.000000,4.000000,4.000000,4.000000,4.000000,4.000000,4.000000,4.000000,100.000000
1602005835.359273,85.000000,0.000000,4096.922852,4124.615234,4143.077148,4139.487305,4144.102539,4137.948730,4125.128418,4135.897461,4142.051270,4160.000000,4135.897461,4143.077148,4169.230957,4155.384766,751.000000,4.000000,,,,0.000000,4.000000,4.000000,4.000000,4.000000,4.000000,4.000000,4.000000,4.000000,4.000000,4.000000,4.000000,4.000000,4.000000,4.000000,100.000000
1602005835.367162,86.000000,0.000000,4092.820557,4116.922852,4131.794922,4132.307617,4137.948730,4131.794922,4119.487305,4128.205078,4150.256348,4144.615234,4144.615234,4145.641113,4167.692383,4137.436035,882.000000,4.000000,,,,0.000000,4.000000,4.000000,4.000000,4.000000,4.000000,4.000000,4.000000,4.000000,4.000000,4.000000,4.000000,4.000000,4.000000,4.000000,100.000000
1602005835.375050,87.000000,0.000000,4090.769287,4112.307617,4122.051270,4127.179688,4133.846191,4134.871582,4126.153809,4122.563965,4152.820313,4132.307617,4156.922852,4138.974121,4158.974121,4138.974121,848.000000,4.000000,,,,0.000000,4.000000,4.000000,4.000000,4.000000,4.000000,4.000000,4.000000,4.000000,4.000000,4.000000,4.000000,4.000000,4.000000,4.000000,100.000000
1602005835.382938,88.000000,0.000000,4099.487305,4120.512695,4123.077148,4127.179688,4136.410156,4144.102539,4138.461426,4127.692383,4153.333496,4140.000000,4154.871582,4134.358887,4158.974121,4154.871582,779.000000,4.000000,,,,0.000000,4.000000,4.000000,4.000000,4.000000,4.000000,4.000000,4.000000,4.000000,4.000000,4.000000,4.000000,4.000000,4.000000,4.000000,100.000000
1602005835.390826,89.000000,0.000000,4109.230957,4123.077148,4129.743652,4128.717773,4135.384766,4145.641113,4142.563965,4137.948730,4159.487305,4145.641113,4151.794922,4133.846191,4164.102539,4153.333496,751.000000,4.000000,,,,0.000000,4.000000,4.000000,4.000000,4.000000,4.000000,4.000000,4.000000,4.000000,4.000000,4.000000,4.000000,4.000000,4.000000,4.000000,100.000000
1602005835.398714,90.000000,0.000000,4096.410156,4111.282227,4126.153809,4124.102539,4127.179688,4137.436035,4140.512695,4138.461426,4159.487305,4138.461426,4146.666504,4126.153809,4156.410156,4137.436035,882.000000,4.000000,,,,0.000000,4.000000,4.000000,4.000000,4.000000,4.000000,4.000000,4.000000,4.000000,4.000000,4.000000,4.000000,4.000000,4.000000,4.000000,100.000000
1602005835.406602,91.000000,0.000000,4071.281982,4094.358887,4111.282227,4111.794922,4121.538574,4122.563965,4140.000000,4135.897461,4150.256348,4135.384766,4128.717773,4117.436035,4141.025879,4122.051270,848.000000,4.000000,,,,0.000000,4.000000,4.000000,4.000000,4.000000,4.000000,4.000000,4.000000,4.000000,4.000000,4.000000,4.000000,4.000000,4.000000,4.000000,100.000000
1602005835.414387,92.000000,0.000000,4069.230713,4088.718018,4111.282227,4107.692383,4128.717773,4122.563965,4140.512695,4146.153809,4153.333496,4145.128418,4125.128418,4123.077148,4140.000000,4117.436035,779.000000,4.000000,,,,0.000000,4.000000,4.000000,4.000000,4.000000,4.000000,4.000000,4.000000,4.000000,4.000000,4.000000,4.000000,4.000000,4.000000,4.000000,100.000000
1602005835.422272,93.000000,0.000000,4085.128174,4100.000000,4132.307617,4119.487305,4138.974121,4147.179688,4142.563965,4160.512695,4159.487305,4160.512695,4141.025879,4137.948730,4155.384766,4133.333496,751.000000,4.000000,,,,0.000000,4.000000,4.000000,4.000000,4.000000,4.000000,4.000000,4.000000,4.000000,4.000000,4.000000,4.000000,4.000000,4.000000,4.000000,100.000000
1602005835.430157,94.000000,0.000000,4092.820557,4108.717773,4142.563965,4126.153809,4141.025879,4162.051270,4143.077148,4155.897461,4150.769043,4163.077148,4142.563965,4143.589844,4159.487305,4142.051270,882.000000,4.000000,,,,0.000000,4.000000,4.000000,4.000000,4.000000,4.000000,4.000000,4.000000,4.000000,4.000000,4.000000,4.000000,4.000000,4.000000,4.000000,100.000000
1602005835.438042,95.000000,0.000000,4090.256348,4108.205078,4129.230957,4122.563965,4143.589844,4148.205078,4137.948730,4138.974121,4140.512695,4135.897461,4128.717773,4131.282227,4145.128418,4120.512695,848.000000,4.000000,,,,0.000000,4.000000,4.000000,4.000000,4.000000,4.000000,4.000000,4.000000,4.000000,4.000000,4.000000,4.000000,4.000000,4.000000,4.000000,100.000000
1602005835.445927,96.000000,0.000000,4087.692383,4114.871582,4125.128418,4124.102539,4155.384766,4139.487305,4134.358887,4130.769043,4138.461426,4113.846191,4129.230957,4120.000000,4136.922852,4106.666504,779.000000,4.000000,,,,0.000000,4.000000,4.000000,4.000000,4.000000,4.000000,4.000000,4.000000,4.000000,4.000000,4.000000,4.000000,4.000000,4.000000,4.000000,100.000000
1602005835.453715,97.000000,0.000000,4092.307617,4121.538574,4138.461426,4129.230957,4156.410156,4145.128418,4131.794922,4122.051270,4127.692383,4120.512695,4133.333496,4124.615234,4139.487305,4120.000000,751.000000,4.000000,,,,0.000000,4.000000,4.000000,4.000000,4.000000,4.000000,4.000000,4.000000,4.000000,4.000000,4.000000,4.000000,4.000000,4.000000,4.000000,100.000000
1602005835.461603,98.000000,0.000000,4093.333252,4114.871582,4135.897461,4126.153809,4141.538574,4135.897461,4122.563965,4110.769043,4109.230957,4125.128418,4125.641113,4126.666504,4137.436035,4127.692383,882.000000,4.000000,,,,0.000000,4.000000,4.000000,4.000000,4.000000,4.000000,4.000000,4.000000,4.000000,4.000000,4.000000,4.000000,4.000000,4.000000,4.000000,100.000000
1602005835.469491,99.000000,0.000000,4085.641113,4108.205078,4123.077148,4120.512695,4136.410156,4115.384766,4114.358887,4113.846191,4109.230957,4123.077148,4116.922852,4121.538574,4134.871582,4119.487305,848.000000,4.000000,,,,0.000000,4.000000,4.000000,4.000000,4.000000,4.000000,4.000000,4.000000,4.000000,4.000000,4.000000,4.000000,4.000000,4.000000,4.000000,100.000000
1602005835.477379,100.000000,0.000000,4081.025635,4105.641113,4127.179688,4120.512695,4133.846191,4106.666504,4115.384766,4121.025879,4118.461426,4121.025879,4122.563965,4125.128418,4136.410156,4115.384766,779.000000,4.000000,,,,0.000000,4.000000,4.000000,4.000000,4.000000,4.000000,4.000000,4.000000,4.000000,4.000000,4.000000,4.000000,4.000000,4.000000,4.000000,100.000000
1602005835.485267,101.000000,0.000000,4087.179443,4097.436035,4138.974121,4120.000000,4121.538574,4104.102539,4117.436035,4120.000000,4117.436035,4120.000000,4135.897461,4139.487305,4138.461426,4123.589844,751.000000,4.000000,,,,0.000000,4.000000,4.000000,4.000000,4.000000,4.000000,4.000000,4.000000,4.000000,4.000000,4.000000,4.000000,4.000000,4.000000,4.000000,100.000000
1602005835.493156,102.000000,0.000000,4096.922852,4096.922852,4149.743652,4117.436035,4113.846191,4104.615234,4123.589844,4126.666504,4117.948730,4134.358887,4137.948730,4153.333496,4145.128418,4135.384766,882.000000,4.000000,,,,0.000000,4.000000,4.000000,4.000000,4.000000,4.000000,4.000000,4.000000,4.000000,4.000000,4.000000,4.000000,4.000000,4.000000,4.000000,100.000000
1602005835.501044,103.000000,0.000000,4101.538574,4108.717773,4158.461426,4122.051270,4119.487305,4118.974121,4136.922852,4141.538574,4129.230957,4147.179688,4143.077148,4160.512695,4156.922852,4143.077148,848.000000,4.000000,,,,0.000000,4.000000,4.000000,4.000000,4.000000,4.000000,4.000000,4.000000,4.000000,4.000000,4.000000,4.000000,4.000000,4.000000,4.000000,100.000000
1602005835.508932,104.000000,0.000000,4095.897461,4106.153809,4151.282227,4119.487305,4120.000000,4123.077148,4138.974121,4143.077148,4130.256348,4125.128418,4152.307617,4152.820313,4157.948730,4149.230957,779.000000,4.000000,,,,0.000000,4.000000,4.000000,4.000000,4.000000,4.000000,4.000000,4.000000,4.000000,4.000000,4.000000,4.000000,4.000000,4.000000,4.000000,100.000000
1602005835.516720,105.000000,0.000000,4089.743652,4091.281982,4134.871582,4107.692383,4113.333496,4109.743652,4126.153809,4137.436035,4122.563965,4118.974121,4151.282227,4138.461426,4152.307617,4154.871582,751.000000,4.000000,,,,0.000000,4.000000,4.000000,4.000000,4.000000,4.000000,4.000000,4.000000,4.000000,4.000000,4.000000,4.000000,4.000000,4.000000,4.000000,100.000000
1602005835.524608,106.000000,0.000000,4095.384521,4096.922852,4126.666504,4108.205078,4117.436035,4118.461426,4120.000000,4137.948730,4125.641113,4147.179688,4142.563965,4131.794922,4154.358887,4150.769043,882.000000,4.000000,,,,0.000000,4.000000,4.000000,4.000000,4.000000,4.000000,4.000000,4.000000,4.000000,4.000000,4.000000,4.000000,4.000000,4.000000,4.000000,100.000000
1602005835.532496,107.000000,0.000000,4091.794922,4105.641113,4116.922852,4112.307617,4124.615234,4130.256348,4115.897461,4133.333496,4128.717773,4146.666504,4133.846191,4122.563965,4148.717773,4136.410156,848.000000,4.000000,,,,0.000000,4.000000,4.000000,4.000000,4.000000,4.000000,4.000000,4.000000,4.000000,4.000000,4.000000,4.000000,4.000000,4.000000,4.000000,100.000000
1602005835.540384,108.000000,0.000000,4072.820557,4097.948730,4102.051270,4106.153809,4126.666504,4113.846191,4106.666504,4127.692383,4126.153809,4132.307617,4126.153809,4105.128418,4134.358887,4122.051270,779.000000,4.000000,,,,0.000000,4.000000,4.000000,4.000000,4.000000,4.000000,4.000000,4.000000,4.000000,4.000000,4.000000,4.000000,4.000000,4.000000,4.000000,100.000000
1602005835.548272,109.000000,0.000000,4070.256348,4097.948730,4101.025879,4108.717773,4132.307617,4109.230957,4112.820313,4133.846191,4131.794922,4140.512695,4124.102539,4103.589844,4134.358887,4121.025879,751.000000,4.000000,,,,0.000000,4.000000,4.000000,4.000000,4.000000,4.000000,4.000000,4.000000,4.000000,4.000000,4.000000,4.000000,4.000000,4.000000,4.000000,100.000000
1602005835.556160,110.000000,0.000000,4077.948730,4107.692383,4107.179688,4114.871582,4134.358887,4128.205078,4123.077148,4138.461426,4142.563965,4135.897461,4126.153809,4107.179688,4136.410156,4120.512695,882.000000,4.000000,,,,0.000000,4.000000,4.000000,4.000000,4.000000,4.000000,4.000000,4.000000,4.000000,4.000000,4.000000,4.000000,4.000000,4.000000,4.000000,100.000000
1602005835.564048,111.000000,0.000000,4070.256348,4106.153809,4103.077148,4109.743652,4126.153809,4122.051270,4112.820313,4134.871582,4134.358887,4117.948730,4118.461426,4094.871826,4127.692383,4111.282227,848.000000,4.000000,,,,0.000000,4.000000,4.000000,4.000000,4.000000,4.000000,4.000000,4.000000,4.000000,4.000000,4.000000,4.000000,4.000000,4.000000,4.000000,100.000000
1602005835.571936,112.000000,0.000000,4067.692383,4102.563965,4100.000000,4112.307617,4127.692383,4101.025879,4104.102539,4133.333496,4121.538574,4123.077148,4119.487305,4089.230713,4128.717773,4117.436035,779.000000,4.000000,,,,0.000000,4.000000,4.000000,4.000000,4.000000,4.000000,4.000000,4.000000,4.000000,4.000000,4.000000,4.000000,4.000000,4.000000,4.000000,100.000000
1602005835.579720,113.000000,0.000000,4089.743652,4109.743652,4114.358887,4125.128418,4140.000000,4110.769043,4116.922852,4137.948730,4130.256348,4127.179688,4133.333496,4106.153809,4146.153809,4146.153809,751.000000,4.000000,,,,0.000000,4.000000,4.000000,4.000000,4.000000,4.000000,4.000000,4.000000,4.000000,4.000000,4.000000,4.000000,4.000000,4.000000,4.000000,100.000000
1602005835.587604,114.000000,0.000000,4109.230957,4115.384766,4127.692383,4127.179688,4141.538574,4131.282227,4128.205078,4138.974121,4138.461426,4119.487305,4144.102539,4121.025879,4156.922852,4158.461426,882.000000,4.000000,,,,0.000000,4.000000,4.000000,4.000000,4.000000,4.000000,4.000000,4.000000,4.000000,4.000000,4.000000,4.000000,4.000000,4.000000,4.000000,100.000000
1602005835.595488,115.000000,0.000000,4101.538574,4112.307617,4124.102539,4122.051270,4137.436035,4126.666504,4123.589844,4133.846191,4126.153809,4126.666504,4140.000000,4115.897461,4150.769043,4141.538574,848.000000,4.000000,,,,0.000000,4.000000,4.000000,4.000000,4.000000,4.000000,4.000000,4.000000,4.000000,4.000000,4.000000,4.000000,4.000000,4.000000,4.000000,100.000000
1602005835.603372,116.000000,0.000000,4088.718018,4106.666504,4120.512695,4120.512695,4138.974121,4116.410156,4122.051270,4129.743652,4114.871582,4137.948730,4125.641113,4110.256348,4139.487305,4125.641113,779.000000,4.000000,,,,0.000000,4.000000,4.000000,4.000000,4.000000,4.000000,4.000000,4.000000,4.000000,4.000000,4.000000,4.000000,4.000000,4.000000,4.000000,100.000000
1602005835.611158,117.000000,0.000000,4098.461426,4109.743652,4134.871582,4123.589844,4142.051270,4127.179688,4130.769043,4136.410156,4128.205078,4141.538574,4127.692383,4117.948730,4138.974121,4131.282227,751.000000,4.000000,,,,0.000000,4.000000,4.000000,4.000000,4.000000,4.000000,4.000000,4.000000,4.000000,4.000000,4.000000,4.000000,4.000000,4.000000,4.000000,100.000000
1602005835.619044,118.000000,0.000000,4109.743652,4113.333496,4145.128418,4123.589844,4144.102539,4138.974121,4137.436035,4142.563965,4143.589844,4144.615234,4135.897461,4126.153809,4141.538574,4143.589844,882.000000,4.000000,,,,0.000000,4.000000,4.000000,4.000000,4.000000,4.000000,4.000000,4.000000,4.000000,4.000000,4.000000,4.000000,4.000000,4.000000,4.000000,100.000000
1602005835.626930,119.000000,0.000000,4098.974121,4105.128418,4131.282227,4119.487305,4136.410156,4129.743652,4130.256348,4132.307617,4132.307617,4137.436035,4126.153809,4118.461426,4128.205078,4136.922852,848.000000,4.000000,,,,0.000000,4.000000,4.000000,4.000000,4.000000,4.000000,4.000000,4.000000,4.000000,4.000000,4.000000,4.000000,4.000000,4.000000,4.000000,100.000000
1602005835.634816,120.000000,0.000000,4093.333252,4102.563965,4121.025879,4117.948730,4128.205078,4123.077148,4123.589844,4127.692383,4120.512695,4122.563965,4122.051270,4115.897461,4119.487305,4130.769043,779.000000,4.000000,,,,0.000000,4.000000,4.000000,4.000000,4.000000,4.000000,4.000000,4.000000,4.000000,4.000000,4.000000,4.000000,4.000000,4.000000,4.000000,100.000000
1602005835.642701,121.000000,0.000000,4106.153809,4117.948730,4135.384766,4124.615234,4134.358887,4129.743652,4130.256348,4140.512695,4130.769043,4133.846191,4141.025879,4135.897461,4137.436035,4149.230957,751.000000,4.000000,,,,0.000000,4.000000,4.000000,4.000000,4.000000,4.000000,4.000000,4.000000,4.000000,4.000000,4.000000,4.000000,4.000000,4.000000,4.000000,100.000000
1602005835.650587,122.000000,0.000000,4116.410156,4129.230957,4145.641113,4133.333496,4140.000000,4129.230957,4133.846191,4145.641113,4133.846191,4153.846191,4144.102539,4148.205078,4151.794922,4161.025879,882.000000,4.000000,,,,0.000000,4.000000,4.000000,4.000000,4.000000,4.000000,4.000000,4.000000,4.000000,4.000000,4.000000,4.000000,4.000000,4.000000,4.000000,100.000000
1602005835.658372,123.000000,0.000000,4113.333496,4126.153809,4132.820313,4136.922852,4137.436035,4119.487305,4124.102539,4137.436035,4113.846191,4121.538574,4121.538574,4142.051270,4144.615234,4153.846191,848.000000,4.000000,,,,0.000000,4.000000,4.000000,4.000000,4.000000,4.000000,4.000000,4.000000,4.000000,4.000000,4.000000,4.000000,4.000000,4.000000,4.000000,100.000000
1602005835.666257,124.000000,0.000000,4109.743652,4124.615234,4124.102539,4132.820313,4137.948730,4120.000000,4118.461426,4131.794922,4110.769043,4094.358887,4120.512695,4135.897461,4137.948730,4149.230957,779.000000,4.000000,,,,0.000000,4.000000,4.000000,4.000000,4.000000,4.000000,4.000000,4.000000,4.000000,4.000000,4.000000,4.000000,4.000000,4.000000,4.000000,100.000000
1602005835.674142,125.000000,0.000000,4109.230957,4121.538574,4127.179688,4128.717773,4135.384766,4122.563965,4121.538574,4126.666504,4121.025879,4117.436035,4131.282227,4133.846191,4134.871582,4147.692383,751.000000,4.000000,,,,0.000000,4.000000,4.000000,4.000000,4.000000,4.000000,4.000000,4.000000,4.000000,4.000000,4.000000,4.000000,4.000000,4.000000,4.000000,100.000000
1602005835.682026,126.000000,0.000000,4103.077148,4109.743652,4124.102539,4124.102539,4120.000000,4118.974121,4121.025879,4120.512695,4109.230957,4117.436035,4125.128418,4123.589844,4124.615234,4138.974121,882.000000,4.000000,,,,0.000000,4.000000,4.000000,4.000000,4.000000,4.000000,4.000000,4.000000,4.000000,4.000000,4.000000,4.000000,4.000000,4.000000,4.000000,100.000000
1602005835.689911,127.000000,0.000000,4102.051270,4103.589844,4121.025879,4117.948730,4112.307617,4126.153809,4124.615234,4126.666504,4104.102539,4105.128418,4121.025879,4120.512695,4122.051270,4132.307617,848.000000,4.000000,,,,0.000000,4.000000,4.000000,4.000000,4.000000,4.000000,4.000000,4.000000,4.000000,4.000000,4.000000,4.000000,4.000000,4.000000,4.000000,100.000000
1602005835.697699,128.000000,0.000000,4106.666504,4107.692383,4124.615234,4118.974121,4120.512695,4135.897461,4136.410156,4140.000000,4131.794922,4141.538574,4137.436035,4132.307617,4137.436035,4141.538574,779.000000,4.000000,,,,0.000000,4.000000,4.000000,4.000000,4.000000,4.000000,4.000000,4.000000,4.000000,4.000000,4.000000,4.000000,4.000000,4.000000,4.000000,100.000000
1602005835.705586,0.000000,0.000000,4106.666504,4109.230957,4129.743652,4123.589844,4121.538574,4131.282227,4139.487305,4144.102539,4155.384766,4174.871582,4149.743652,4136.922852,4150.769043,4154.871582,807.000000,4.000000,,,,0.000000,4.000000,4.000000,4.000000,4.000000,4.000000,4.000000,4.000000,4.000000,4.000000,4.000000,4.000000,4.000000,4.000000,4.000000,100.000000
1602005835.713474,1.000000,0.000000,4110.769043,4115.384766,4136.410156,4123.589844,4120.000000,4129.743652,4133.846191,4148.205078,4154.871582,4160.000000,4146.153809,4145.641113,4156.922852,4158.461426,795.000000,4.000000,,,,0.000000,4.000000,4.000000,4.000000,4.000000,4.000000,4.000000,4.000000,4.000000,4.000000,4.000000,4.000000,4.000000,4.000000,4.000000,100.000000
1602005835.721362,2.000000,0.000000,4122.051270,4124.102539,4144.102539,4125.641113,4131.282227,4142.563965,4138.461426,4160.000000,4156.922852,4153.846191,4150.256348,4157.948730,4162.051270,4156.922852,851.000000,4.000000,,,,0.000000,4.000000,4.000000,4.000000,4.000000,4.000000,4.000000,4.000000,4.000000,4.000000,4.000000,4.000000,4.000000,4.000000,4.000000,100.000000
1602005835.729249,3.000000,0.000000,4111.794922,4116.922852,4137.948730,4125.128418,4134.358887,4140.512695,4140.000000,4158.974121,4159.487305,4158.461426,4145.641113,4143.077148,4149.743652,4144.615234,867.000000,4.000000,,,,0.000000,4.000000,4.000000,4.000000,4.000000,4.000000,4.000000,4.000000,4.000000,4.000000,4.000000,4.000000,4.000000,4.000000,4.000000,100.000000
1602005835.737137,4.000000,0.000000,4088.718018,4104.102539,4123.077148,4118.974121,4125.641113,4121.025879,4127.179688,4142.051270,4141.538574,4130.256348,4121.025879,4111.794922,4125.128418,4121.025879,816.000000,4.000000,,,,0.000000,4.000000,4.000000,4.000000,4.000000,4.000000,4.000000,4.000000,4.000000,4.000000,4.000000,4.000000,4.000000,4.000000,4.000000,100.000000
1602005835.745024,5.000000,0.000000,4092.307617,4105.641113,4119.487305,4119.487305,4131.282227,4115.897461,4120.512695,4134.871582,4121.538574,4100.000000,4112.820313,4102.563965,4117.436035,4114.358887,825.000000,4.000000,,,,0.000000,4.000000,4.000000,4.000000,4.000000,4.000000,4.000000,4.000000,4.000000,4.000000,4.000000,4.000000,4.000000,4.000000,4.000000,100.000000
1602005835.752912,6.000000,0.000000,4104.615234,4111.282227,4123.077148,4125.128418,4141.025879,4125.641113,4121.538574,4133.846191,4119.487305,4107.179688,4120.000000,4110.769043,4124.102539,4123.077148,769.000000,4.000000,,,,0.000000,4.000000,4.000000,4.000000,4.000000,4.000000,4.000000,4.000000,4.000000,4.000000,4.000000,4.000000,4.000000,4.000000,4.000000,100.000000
1602005835.760699,7.000000,0.000000,4097.948730,4109.230957,4123.077148,4123.589844,4130.769043,4127.179688,4115.897461,4125.128418,4123.589844,4129.230957,4112.820313,4109.230957,4119.487305,4116.410156,692.000000,4.000000,,,,0.000000,4.000000,4.000000,4.000000,4.000000,4.000000,4.000000,4.000000,4.000000,4.000000,4.000000,4.000000,4.000000,4.000000,4.000000,100.000000
1602005835.768586,8.000000,0.000000,4088.205078,4106.666504,4120.000000,4120.512695,4120.000000,4119.487305,4113.846191,4118.974121,4118.461426,4125.641113,4106.666504,4109.743652,4110.256348,4111.794922,788.000000,4.000000,,,,0.000000,4.000000,4.000000,4.000000,4.000000,4.000000,4.000000,4.000000,4.000000,4.000000,4.000000,4.000000,4.000000,4.000000,4.000000,100.000000
1602005835.776473,9.000000,0.000000,4096.410156,4108.717773,4119.487305,4121.538574,4125.641113,4117.436035,4121.025879,4123.589844,4112.307617,4116.922852,4115.897461,4116.922852,4114.871582,4122.051270,842.000000,4.000000,,,,0.000000,4.000000,4.000000,4.000000,4.000000,4.000000,4.000000,4.000000,4.000000,4.000000,4.000000,4.000000,4.000000,4.000000,4.000000,100.000000
1602005835.784360,10.000000,0.000000,4109.743652,4111.794922,4127.692383,4123.077148,4127.692383,4122.563965,4123.589844,4131.282227,4117.948730,4126.153809,4122.563965,4124.102539,4124.102539,4123.589844,881.000000,4.000000,,,,0.000000,4.000000,4.000000,4.000000,4.000000,4.000000,4.000000,4.000000,4.000000,4.000000,4.000000,4.000000,4.000000,4.000000,4.000000,100.000000
1602005835.792247,11.000000,0.000000,4109.743652,4111.794922,4137.948730,4122.563965,4121.025879,4123.077148,4122.051270,4136.922852,4123.077148,4129.743652,4125.641113,4127.692383,4125.128418,4127.692383,842.000000,4.000000,,,,0.000000,4.000000,4.000000,4.000000,4.000000,4.000000,4.000000,4.000000,4.000000,4.000000,4.000000,4.000000,4.000000,4.000000,4.000000,100.000000
1602005835.800134,12.000000,0.000000,4106.153809,4110.769043,4134.358887,4124.615234,4118.974121,4112.820313,4121.025879,4138.461426,4115.897461,4116.410156,4126.666504,4126.153809,4122.051270,4143.077148,779.000000,4.000000,,,,0.000000,4.000000,4.000000,4.000000,4.000000,4.000000,4.000000,4.000000,4.000000,4.000000,4.000000,4.000000,4.000000,4.000000,4.000000,100.000000
1602005835.808020,13.000000,0.000000,4108.205078,4112.307617,4121.025879,4125.128418,4120.000000,4105.128418,4120.000000,4134.871582,4108.717773,4100.000000,4122.563965,4123.077148,4121.538574,4136.922852,751.000000,4.000000,,,,0.000000,4.000000,4.000000,4.000000,4.000000,4.000000,4.000000,4.000000,4.000000,4.000000,4.000000,4.000000,4.000000,4.000000,4.000000,100.000000
1602005835.815809,14.000000,0.000000,4108.717773,4115.897461,4125.128418,4121.538574,4123.589844,4108.205078,4120.512695,4134.871582,4109.743652,4106.666504,4121.538574,4124.102539,4125.128418,4123.077148,881.000000,4.000000,,,,0.000000,4.000000,4.000000,4.000000,4.000000,4.000000,4.000000,4.000000,4.000000,4.000000,4.000000,4.000000,4.000000,4.000000,4.000000,100.000000
1602005835.823697,15.000000,0.000000,4110.256348,4121.538574,4139.487305,4126.666504,4133.846191,4112.820313,4119.487305,4139.487305,4115.897461,4128.717773,4128.205078,4133.333496,4130.256348,4142.563965,842.000000,4.000000,,,,0.000000,4.000000,4.000000,4.000000,4.000000,4.000000,4.000000,4.000000,4.000000,4.000000,4.000000,4.000000,4.000000,4.000000,4.000000,100.000000
1602005835.831585,16.000000,0.000000,4116.410156,4126.153809,4138.461426,4138.461426,4142.051270,4116.410156,4113.333496,4133.846191,4119.487305,4140.000000,4135.384766,4140.000000,4135.384766,4164.102539,0.000000,4.000000,,,,0.000000,4.000000,4.000000,4.000000,4.000000,4.000000,4.000000,4.000000,4.000000,4.000000,4.000000,4.000000,4.000000,4.000000,4.000000,100.000000
1602005835.839473,17.000000,0.000000,4120.000000,4126.666504,4126.153809,4139.487305,4141.025879,4121.025879,4107.692383,4121.025879,4115.384766,4141.538574,4142.051270,4135.897461,4144.102539,4152.307617,0.000000,4.000000,,,,0.000000,4.000000,4.000000,4.000000,4.000000,4.000000,4.000000,4.000000,4.000000,4.000000,4.000000,4.000000,4.000000,4.000000,4.000000,100.000000
1602005835.847361,18.000000,0.000000,4122.563965,4130.769043,4122.563965,4136.922852,4141.538574,4122.051270,4111.794922,4124.615234,4112.307617,4142.051270,4146.153809,4133.846191,4151.282227,4136.410156,0.000000,4.000000,,,,0.000000,4.000000,4.000000,4.000000,4.000000,4.000000,4.000000,4.000000,4.000000,4.000000,4.000000,4.000000,4.000000,4.000000,4.000000,100.000000
1602005835.855249,19.000000,0.000000,4122.563965,4136.410156,4125.641113,4140.512695,4135.384766,4122.563965,4122.563965,4136.922852,4118.974121,4133.846191,4136.922852,4134.871582,4145.128418,4135.384766,0.000000,4.000000,,,,0.000000,4.000000,4.000000,4.000000,4.000000,4.000000,4.000000,4.000000,4.000000,4.000000,4.000000,4.000000,4.000000,4.000000,4.000000,100.000000
1602005835.863137,20.000000,0.000000,4112.307617,4132.307617,4117.948730,4136.410156,4127.692383,4133.333496,4133.333496,4138.974121,4125.128418,4120.512695,4128.205078,4130.256348,4138.461426,4141.025879,0.000000,4.000000,,,,0.000000,4.000000,4.000000,4.000000,4.000000,4.000000,4.000000,4.000000,4.000000,4.000000,4.000000,4.000000,4.000000,4.000000,4.000000,100.000000
1602005835.871025,21.000000,0.000000,4102.051270,4127.692383,4105.641113,4125.128418,4133.846191,4141.538574,4137.948730,4136.922852,4124.102539,4128.205078,4134.358887,4126.153809,4141.025879,4137.436035,0.000000,4.000000,,,,0.000000,4.000000,4.000000,4.000000,4.000000,4.000000,4.000000,4.000000,4.000000,4.000000,4.000000,4.000000,4.000000,4.000000,4.000000,100.000000
1602005835.878913,22.000000,0.000000,4103.077148,4130.256348,4107.179688,4125.128418,4143.077148,4134.871582,4133.333496,4134.358887,4122.563965,4139.487305,4137.948730,4130.256348,4143.077148,4126.666504,0.000000,4.000000,,,,0.000000,4.000000,4.000000,4.000000,4.000000,4.000000,4.000000,4.000000,4.000000,4.000000,4.000000,4.000000,4.000000,4.000000,4.000000,100.000000
1602005835.886701,23.000000,0.000000,4113.333496,4132.820313,4118.974121,4132.820313,4142.563965,4124.615234,4119.487305,4127.179688,4123.589844,4128.717773,4126.153809,4136.922852,4146.153809,4127.692383,0.000000,4.000000,,,,0.000000,4.000000,4.000000,4.000000,4.000000,4.000000,4.000000,4.000000,4.000000,4.000000,4.000000,4.000000,4.000000,4.000000,4.000000,100.000000
1602005835.894589,24.000000,0.000000,4123.589844,4134.871582,4129.230957,4135.897461,4140.512695,4120.512695,4109.230957,4120.000000,4124.102539,4121.025879,4127.179688,4137.948730,4151.794922,4138.461426,0.000000,4.000000,,,,0.000000,4.000000,4.000000,4.000000,4.000000,4.000000,4.000000,4.000000,4.000000,4.000000,4.000000,4.000000,4.000000,4.000000,4.000000,100.000000
1602005835.902477,25.000000,0.000000,4127.692383,4138.974121,4134.871582,4137.436035,4141.025879,4112.307617,4104.102539,4120.000000,4128.205078,4135.384766,4150.769043,4137.436035,4154.871582,4146.666504,0.000000,4.000000,,,,0.000000,4.000000,4.000000,4.000000,4.000000,4.000000,4.000000,4.000000,4.000000,4.000000,4.000000,4.000000,4.000000,4.000000,4.000000,100.000000
1602005835.910365,26.000000,0.000000,4123.589844,4140.512695,4135.897461,4139.487305,4138.461426,4102.563965,4096.922852,4129.230957,4136.922852,4155.897461,4158.461426,4145.128418,4159.487305,4152.820313,0.000000,4.000000,,,,0.000000,4.000000,4.000000,4.000000,4.000000,4.000000,4.000000,4.000000,4.000000,4.000000,4.000000,4.000000,4.000000,4.000000,4.000000,100.000000
1602005835.918253,27.000000,0.000000,4123.589844,4138.974121,4136.410156,4139.487305,4138.461426,4112.307617,4094.871826,4138.974121,4142.051270,4162.051270,4143.077148,4156.410156,4161.025879,4153.333496,0.000000,4.000000,,,,0.000000,4.000000,4.000000,4.000000,4.000000,4.000000,4.000000,4.000000,4.000000,4.000000,4.000000,4.000000,4.000000,4.000000,4.000000,100.000000
1602005835.926140,28.000000,0.000000,4132.820313,4140.000000,4142.051270,4138.461426,4139.487305,4126.153809,4101.538574,4140.512695,4133.333496,4147.692383,4138.974121,4152.820313,4151.282227,4146.153809,0.000000,4.000000,,,,0.000000,4.000000,4.000000,4.000000,4.000000,4.000000,4.000000,4.000000,4.000000,4.000000,4.000000,4.000000,4.000000,4.000000,4.000000,100.000000
1602005835.934028,29.000000,0.000000,4135.384766,4136.922852,4147.179688,4138.974121,4133.333496,4124.102539,4113.333496,4135.897461,4124.102539,4127.179688,4144.102539,4139.487305,4143.077148,4138.974121,0.000000,4.000000,,,,0.000000,4.000000,4.000000,4.000000,4.000000,4.000000,4.000000,4.000000,4.000000,4.000000,4.000000,4.000000,4.000000,4.000000,4.000000,100.000000
1602005835.941916,30.000000,0.000000,4124.102539,4126.153809,4139.487305,4131.794922,4121.538574,4120.000000,4123.077148,4129.230957,4118.974121,4118.461426,4128.717773,4136.922852,4136.922852,4135.897461,0.000000,4.000000,,,,0.000000,4.000000,4.000000,4.000000,4.000000,4.000000,4.000000,4.000000,4.000000,4.000000,4.000000,4.000000,4.000000,4.000000,4.000000,100.000000
1602005835.949705,31.000000,0.000000,4108.205078,4113.846191,4126.153809,4120.512695,4117.436035,4126.666504,4126.153809,4122.051270,4109.743652,4119.487305,4112.307617,4138.974121,4124.615234,4131.794922,0.000000,4.000000,,,,0.000000,4.000000,4.000000,4.000000,4.000000,4.000000,4.000000,4.000000,4.000000,4.000000,4.000000,4.000000,4.000000,4.000000,4.000000,100.000000
1602005835.957593,32.000000,0.000000,4103.589844,4108.717773,4124.102539,4119.487305,4122.563965,4128.717773,4125.128418,4115.384766,4103.077148,4106.666504,4120.512695,4136.922852,4117.436035,4128.717773,0.000000,4.000000,,,,0.000000,4.000000,4.000000,4.000000,4.000000,4.000000,4.000000,4.000000,4.000000,4.000000,4.000000,4.000000,4.000000,4.000000,4.000000,100.000000
1602005835.965482,33.000000,0.000000,4109.230957,4111.282227,4131.282227,4122.563965,4122.051270,4116.410156,4118.974121,4111.794922,4101.025879,4096.922852,4126.153809,4138.974121,4119.487305,4126.153809,0.000000,4.000000,,,,0.000000,4.000000,4.000000,4.000000,4.000000,4.000000,4.000000,4.000000,4.000000,4.000000,4.000000,4.000000,4.000000,4.000000,4.000000,100.000000
1602005835.973370,34.000000,0.000000,4117.436035,4118.461426,4135.897461,4124.102539,4123.077148,4106.666504,4109.743652,4112.820313,4102.051270,4105.641113,4121.538574,4147.179688,4126.666504,4129.743652,0.000000,4.000000,,,,0.000000,4.000000,4.000000,4.000000,4.000000,4.000000,4.000000,4.000000,4.000000,4.000000,4.000000,4.000000,4.000000,4.000000,4.000000,100.000000
1602005835.981259,35.000000,0.000000,4130.256348,4130.256348,4140.000000,4131.794922,4134.358887,4106.153809,4102.563965,4122.051270,4109.743652,4120.000000,4126.666504,4162.563965,4140.512695,4148.717773,0.000000,4.000000,,,,0.000000,4.000000,4.000000,4.000000,4.000000,4.000000,4.000000,4.000000,4.000000,4.000000,4.000000,4.000000,4.000000,4.000000,4.000000,100.000000
1602005835.989147,36.000000,0.000000,4140.000000,4139.487305,4151.794922,4144.102539,4146.666504,4104.615234,4100.000000,4133.846191,4126.153809,4133.846191,4140.512695,4178.461426,4157.436035,4172.307617,0.000000,4.000000,,,,0.000000,4.000000,4.000000,4.000000,4.000000,4.000000,4.000000,4.000000,4.000000,4.000000,4.000000,4.000000,4.000000,4.000000,4.000000,100.000000
1602005835.997036,37.000000,0.000000,4145.128418,4145.641113,4166.153809,4151.282227,4146.666504,4103.589844,4098.461426,4140.000000,4136.922852,4143.077148,4159.487305,4187.179688,4172.307617,4188.205078,0.000000,4.000000,,,,0.000000,4.000000,4.000000,4.000000,4.000000,4.000000,4.000000,4.000000,4.000000,4.000000,4.000000,4.000000,4.000000,4.000000,4.000000,100.000000
1602005836.004925,38.000000,0.000000,4155.384766,4155.897461,4175.897461,4155.897461,4140.512695,4108.205078,4106.666504,4140.000000,4139.487305,4145.641113,4172.307617,4185.128418,4181.025879,4188.205078,0.000000,4.000000,,,,0.000000,4.000000,4.000000,4.000000,4.000000,4.000000,4.000000,4.000000,4.000000,4.000000,4.000000,4.000000,4.000000,4.000000,4.000000,100.000000
1602005836.012813,39.000000,0.000000,4159.487305,4161.025879,4173.333496,4156.410156,4136.922852,4110.769043,4118.461426,4137.948730,4143.077148,4151.282227,4166.666504,4176.410156,4176.410156,4173.846191,0.000000,4.000000,,,,0.000000,4.000000,4.000000,4.000000,4.000000,4.000000,4.000000,4.000000,4.000000,4.000000,4.000000,4.000000,4.000000,4.000000,4.000000,100.000000
1602005836.020602,40.000000,0.000000,4144.102539,4148.205078,4149.230957,4143.077148,4130.256348,4108.717773,4120.512695,4139.487305,4141.538574,4166.153809,4149.743652,4162.563965,4161.538574,4157.436035,0.000000,4.000000,,,,0.000000,4.000000,4.000000,4.000000,4.000000,4.000000,4.000000,4.000000,4.000000,4.000000,4.000000,4.000000,4.000000,4.000000,4.000000,100.000000
1602005836.028490,41.000000,0.000000,4119.487305,4128.205078,4119.487305,4123.589844,4122.563965,4113.846191,4124.102539,4134.358887,4128.717773,4168.205078,4133.333496,4146.153809,4146.666504,4140.000000,0.000000,4.000000,,,,0.000000,4.000000,4.000000,4.000000,4.000000,4.000000,4.000000,4.000000,4.000000,4.000000,4.000000,4.000000,4.000000,4.000000,4.000000,100.000000
1602005836.036379,42.000000,0.000000,4109.230957,4124.615234,4112.820313,4121.538574,4128.717773,4133.333496,4136.922852,4127.179688,4119.487305,4143.077148,4130.256348,4140.512695,4140.512695,4129.743652,0.000000,4.000000,,,,0.000000,4.000000,4.000000,4.000000,4.000000,4.000000,4.000000,4.000000,4.000000,4.000000,4.000000,4.000000,4.000000,4.000000,4.000000,100.000000
1602005836.044267,43.000000,0.000000,4106.666504,4124.615234,4114.871582,4124.615234,4143.589844,4149.230957,4137.436035,4121.025879,4117.948730,4114.871582,4125.641113,4133.846191,4131.282227,4121.538574,0.000000,4.000000,,,,0.000000,4.000000,4.000000,4.000000,4.000000,4.000000,4.000000,4.000000,4.000000,4.000000,4.000000,4.000000,4.000000,4.000000,4.000000,100.000000
1602005836.052156,44.000000,0.000000,4095.384521,4106.153809,4107.179688,4111.282227,4138.461426,4143.589844,4125.128418,4112.307617,4109.230957,4094.871826,4105.128418,4115.384766,4109.743652,4109.230957,0.000000,4.000000,,,,0.000000,4.000000,4.000000,4.000000,4.000000,4.000000,4.000000,4.000000,4.000000,4.000000,4.000000,4.000000,4.000000,4.000000,4.000000,100.000000
1602005836.060045,45.000000,0.000000,4083.589844,4092.820557,4102.051270,4101.025879,4121.538574,4135.384766,4121.538574,4107.692383,4094.871826,4077.948730,4094.871826,4109.230957,4092.820557,4094.871826,0.000000,4.000000,,,,0.000000,4.000000,4.000000,4.000000,4.000000,4.000000,4.000000,4.000000,4.000000,4.000000,4.000000,4.000000,4.000000,4.000000,4.000000,100.000000
1602005836.067933,46.000000,0.000000,4083.589844,4101.025879,4108.717773,4106.666504,4123.589844,4142.563965,4124.102539,4108.717773,4091.281982,4078.461426,4106.153809,4118.461426,4093.333252,4088.718018,0.000000,4.000000,,,,0.000000,4.000000,4.000000,4.000000,4.000000,4.000000,4.000000,4.000000,4.000000,4.000000,4.000000,4.000000,4.000000,4.000000,4.000000,100.000000
1602005836.075822,47.000000,0.000000,4097.948730,4110.256348,4118.461426,4115.897461,4138.974121,4148.205078,4123.589844,4109.230957,4096.410156,4106.666504,4109.743652,4122.051270,4101.025879,4098.461426,0.000000,4.000000,,,,0.000000,4.000000,4.000000,4.000000,4.000000,4.000000,4.000000,4.000000,4.000000,4.000000,4.000000,4.000000,4.000000,4.000000,4.000000,100.000000
1602005836.083710,48.000000,0.000000,4106.153809,4111.282227,4118.974121,4117.948730,4137.436035,4140.000000,4123.077148,4109.743652,4104.615234,4130.769043,4098.461426,4121.538574,4105.641113,4109.230957,0.000000,4.000000,,,,0.000000,4.000000,4.000000,4.000000,4.000000,4.000000,4.000000,4.000000,4.000000,4.000000,4.000000,4.000000,4.000000,4.000000,4.000000,100.000000
1602005836.091495,49.000000,0.000000,4103.589844,4118.974121,4114.871582,4121.025879,4126.666504,4136.410156,4122.563965,4117.436035,4116.410156,4127.179688,4107.692383,4128.205078,4114.871582,4110.256348,0.000000,4.000000,,,,0.000000,4.000000,4.000000,4.000000,4.000000,4.000000,4.000000,4.000000,4.000000,4.000000,4.000000,4.000000,4.000000,4.000000,4.000000,100.000000
1602005836.099379,50.000000,0.000000,4109.743652,4132.820313,4120.512695,4131.794922,4129.743652,4139.487305,4118.461426,4120.000000,4121.538574,4115.384766,4130.256348,4137.948730,4128.205078,4113.846191,0.000000,4.000000,,,,0.000000,4.000000,4.000000,4.000000,4.000000,4.000000,4.000000,4.000000,4.000000,4.000000,4.000000,4.000000,4.000000,4.000000,4.000000,100.000000
1602005836.107263,51.000000,0.000000,4127.692383,4140.512695,4136.922852,4141.025879,4138.461426,4126.666504,4109.743652,4112.820313,4122.051270,4127.692383,4133.333496,4149.230957,4134.871582,4132.307617,0.000000,4.000000,,,,0.000000,4.000000,4.000000,4.000000,4.000000,4.000000,4.000000,4.000000,4.000000,4.000000,4.000000,4.000000,4.000000,4.000000,4.000000,100.000000
1602005836.115147,52.000000,0.000000,4136.410156,4137.948730,4145.641113,4142.051270,4134.358887,4106.153809,4098.461426,4108.717773,4128.717773,4142.051270,4124.102539,4150.256348,4130.256348,4139.487305,0.000000,4.000000,,,,0.000000,4.000000,4.000000,4.000000,4.000000,4.000000,4.000000,4.000000,4.000000,4.000000,4.000000,4.000000,4.000000,4.000000,4.000000,100.000000
1602005836.122936,53.000000,0.000000,4127.692383,4131.794922,4146.666504,4140.512695,4129.743652,4107.179688,4097.436035,4113.333496,4125.641113,4113.333496,4123.077148,4139.487305,4121.538574,4125.641113,0.000000,4.000000,,,,0.000000,4.000000,4.000000,4.000000,4.000000,4.000000,4.000000,4.000000,4.000000,4.000000,4.000000,4.000000,4.000000,4.000000,4.000000,100.000000
1602005836.130824,54.000000,0.000000,4114.871582,4123.077148,4141.538574,4135.384766,4134.871582,4122.563965,4105.641113,4119.487305,4110.256348,4082.051270,4120.000000,4134.358887,4113.846191,4118.461426,0.000000,4.000000,,,,0.000000,4.000000,4.000000,4.000000,4.000000,4.000000,4.000000,4.000000,4.000000,4.000000,4.000000,4.000000,4.000000,4.000000,4.000000,100.000000
1602005836.138712,55.000000,0.000000,4106.153809,4112.820313,4128.205078,4123.589844,4138.974121,4131.794922,4116.922852,4121.538574,4110.256348,4107.179688,4105.641113,4137.436035,4110.256348,4120.512695,0.000000,4.000000,,,,0.000000,4.000000,4.000000,4.000000,4.000000,4.000000,4.000000,4.000000,4.000000,4.000000,4.000000,4.000000,4.000000,4.000000,4.000000,100.000000
1602005836.146600,56.000000,0.000000,4105.641113,4106.153809,4122.563965,4117.436035,4134.871582,4143.077148,4131.794922,4125.641113,4124.615234,4127.692383,4100.000000,4146.153809,4117.948730,4119.487305,0.000000,4.000000,,,,0.000000,4.000000,4.000000,4.000000,4.000000,4.000000,4.000000,4.000000,4.000000,4.000000,4.000000,4.000000,4.000000,4.000000,4.000000,100.000000
1602005836.154488,57.000000,0.000000,4107.692383,4098.461426,4127.179688,4115.897461,4130.769043,4154.871582,4142.563965,4126.666504,4125.128418,4096.922852,4111.282227,4154.871582,4122.563965,4117.436035,0.000000,4.000000,,,,0.000000,4.000000,4.000000,4.000000,4.000000,4.000000,4.000000,4.000000,4.000000,4.000000,4.000000,4.000000,4.000000,4.000000,4.000000,100.000000
1602005836.162376,58.000000,0.000000,4107.179688,4092.820557,4128.205078,4111.282227,4122.563965,4148.717773,4137.948730,4123.589844,4123.589844,4094.871826,4122.051270,4155.897461,4118.461426,4120.512695,0.000000,4.000000,,,,0.000000,4.000000,4.000000,4.000000,4.000000,4.000000,4.000000,4.000000,4.000000,4.000000,4.000000,4.000000,4.000000,4.000000,4.000000,100.000000
1602005836.170264,59.000000,0.000000,4106.153809,4094.358887,4123.589844,4108.717773,4109.230957,4134.358887,4126.153809,4121.538574,4128.205078,4127.692383,4123.077148,4151.794922,4119.487305,4121.538574,0.000000,4.000000,,,,0.000000,4.000000,4.000000,4.000000,4.000000,4.000000,4.000000,4.000000,4.000000,4.000000,4.000000,4.000000,4.000000,4.000000,4.000000,100.000000
1602005836.178152,60.000000,0.000000,4104.615234,4100.000000,4118.461426,4112.820313,4109.230957,4123.589844,4118.974121,4120.512695,4126.153809,4135.897461,4126.666504,4152.820313,4123.589844,4122.051270,0.000000,4.000000,,,,0.000000,4.000000,4.000000,4.000000,4.000000,4.000000,4.000000,4.000000,4.000000,4.000000,4.000000,4.000000,4.000000,4.000000,4.000000,100.000000
1602005836.186040,61.000000,0.000000,4107.179688,4109.230957,4121.538574,4123.589844,4118.974121,4114.871582,4113.846191,4121.025879,4124.615234,4135.384766,4135.897461,4154.871582,4128.205078,4130.769043,0.000000,4.000000,,,,0.000000,4.000000,4.000000,4.000000,4.000000,4.000000,4.000000,4.000000,4.000000,4.000000,4.000000,4.000000,4.000000,4.000000,4.000000,100.000000
1602005836.193824,62.000000,0.000000,4119.487305,4124.102539,4135.384766,4136.410156,4126.666504,4108.717773,4109.743652,4124.615234,4129.743652,4143.077148,4140.000000,4154.358887,4137.948730,4142.051270,0.000000,4.000000,,,,0.000000,4.000000,4.000000,4.000000,4.000000,4.000000,4.000000,4.000000,4.000000,4.000000,4.000000,4.000000,4.000000,4.000000,4.000000,100.000000
1602005836.201708,63.000000,0.000000,4131.282227,4136.410156,4145.641113,4143.077148,4131.282227,4097.436035,4105.128418,4126.153809,4126.666504,4124.102539,4137.948730,4154.871582,4141.538574,4146.666504,0.000000,4.000000,,,,0.000000,4.000000,4.000000,4.000000,4.000000,4.000000,4.000000,4.000000,4.000000,4.000000,4.000000,4.000000,4.000000,4.000000,4.000000,100.000000
1602005836.209592,64.000000,0.000000,4136.410156,4136.410156,4142.051270,4144.615234,4132.307617,4089.230713,4105.641113,4122.563965,4117.436035,4099.487305,4132.307617,4152.820313,4135.384766,4135.384766,807.000000,4.000000,,,,0.000000,4.000000,4.000000,4.000000,4.000000,4.000000,4.000000,4.000000,4.000000,4.000000,4.000000,4.000000,4.000000,4.000000,4.000000,100.000000
1602005836.217476,65.000000,0.000000,4137.948730,4136.410156,4136.410156,4142.563965,4127.692383,4096.922852,4114.871582,4122.563965,4115.897461,4108.717773,4123.077148,4153.846191,4133.846191,4120.512695,795.000000,4.000000,,,,0.000000,4.000000,4.000000,4.000000,4.000000,4.000000,4.000000,4.000000,4.000000,4.000000,4.000000,4.000000,4.000000,4.000000,4.000000,100.000000
1602005836.225260,66.000000,0.000000,4133.333496,4138.974121,4136.410156,4141.025879,4123.589844,4105.641113,4123.077148,4121.025879,4119.487305,4123.077148,4121.025879,4157.436035,4135.384766,4125.128418,851.000000,4.000000,,,,0.000000,4.000000,4.000000,4.000000,4.000000,4.000000,4.000000,4.000000,4.000000,4.000000,4.000000,4.000000,4.000000,4.000000,4.000000,100.000000
1602005836.233144,67.000000,0.000000,4125.128418,4134.871582,4134.871582,4141.025879,4123.589844,4108.717773,4127.692383,4115.897461,4122.051270,4127.692383,4127.179688,4153.333496,4134.358887,4140.000000,867.000000,4.000000,,,,0.000000,4.000000,4.000000,4.000000,4.000000,4.000000,4.000000,4.000000,4.000000,4.000000,4.000000,4.000000,4.000000,4.000000,4.000000,100.000000
1602005836.241027,68.000000,0.000000,4122.563965,4126.153809,4136.410156,4137.948730,4122.051270,4119.487305,4136.410156,4116.922852,4124.102539,4137.436035,4129.743652,4144.615234,4134.358887,4139.487305,816.000000,4.000000,,,,0.000000,4.000000,4.000000,4.000000,4.000000,4.000000,4.000000,4.000000,4.000000,4.000000,4.000000,4.000000,4.000000,4.000000,4.000000,100.000000
1602005836.248809,69.000000,0.000000,4126.153809,4124.102539,4137.436035,4135.384766,4121.538574,4137.948730,4141.538574,4121.538574,4124.615234,4141.025879,4128.717773,4140.000000,4133.846191,4131.794922,825.000000,4.000000,,,,0.000000,4.000000,4.000000,4.000000,4.000000,4.000000,4.000000,4.000000,4.000000,4.000000,4.000000,4.000000,4.000000,4.000000,4.000000,100.000000
1602005836.256594,70.000000,0.000000,4129.230957,4130.256348,4131.282227,4134.871582,4128.717773,4142.051270,4137.436035,4124.102539,4131.794922,4129.230957,4127.179688,4140.000000,4135.384766,4136.922852,769.000000,4.000000,,,,0.000000,4.000000,4.000000,4.000000,4.000000,4.000000,4.000000,4.000000,4.000000,4.000000,4.000000,4.000000,4.000000,4.000000,4.000000,100.000000
1602005836.264480,71.000000,0.000000,4128.205078,4134.871582,4123.077148,4135.384766,4133.333496,4133.846191,4132.820313,4126.666504,4141.025879,4132.307617,4128.205078,4141.025879,4140.512695,4139.487305,692.000000,4.000000,,,,0.000000,4.000000,4.000000,4.000000,4.000000,4.000000,4.000000,4.000000,4.000000,4.000000,4.000000,4.000000,4.000000,4.000000,4.000000,100.000000
1602005836.272366,72.000000,0.000000,4127.179688,4137.436035,4121.538574,4137.436035,4128.717773,4123.077148,4128.717773,4128.717773,4131.282227,4135.384766,4128.717773,4141.025879,4140.512695,4128.717773,788.000000,4.000000,,,,0.000000,4.000000,4.000000,4.000000,4.000000,4.000000,4.000000,4.000000,4.000000,4.000000,4.000000,4.000000,4.000000,4.000000,4.000000,100.000000
1602005836.280252,73.000000,0.000000,4132.307617,4137.436035,4130.256348,4139.487305,4128.205078,4107.179688,4122.051270,4122.563965,4111.282227,4110.256348,4120.512695,4140.000000,4137.436035,4124.102539,842.000000,4.000000,,,,0.000000,4.000000,4.000000,4.000000,4.000000,4.000000,4.000000,4.000000,4.000000,4.000000,4.000000,4.000000,4.000000,4.000000,4.000000,100.000000
1602005836.288137,74.000000,0.000000,4139.487305,4138.974121,4141.025879,4146.153809,4135.897461,4101.538574,4121.025879,4113.846191,4103.589844,4102.563965,4118.974121,4141.538574,4137.436035,4133.333496,881.000000,4.000000,,,,0.000000,4.000000,4.000000,4.000000,4.000000,4.000000,4.000000,4.000000,4.000000,4.000000,4.000000,4.000000,4.000000,4.000000,4.000000,100.000000
1602005836.296023,75.000000,0.000000,4139.487305,4141.025879,4142.563965,4150.769043,4138.974121,4114.358887,4125.128418,4108.717773,4099.487305,4123.589844,4126.666504,4143.077148,4132.820313,4141.025879,842.000000,4.000000,,,,0.000000,4.000000,4.000000,4.000000,4.000000,4.000000,4.000000,4.000000,4.000000,4.000000,4.000000,4.000000,4.000000,4.000000,4.000000,100.000000
1602005836.303809,76.000000,0.000000,4136.922852,4136.922852,4137.436035,4143.077148,4136.922852,4124.615234,4127.179688,4106.153809,4092.307617,4127.692383,4128.717773,4138.461426,4124.615234,4134.871582,779.000000,4.000000,,,,0.000000,4.000000,4.000000,4.000000,4.000000,4.000000,4.000000,4.000000,4.000000,4.000000,4.000000,4.000000,4.000000,4.000000,4.000000,100.000000
1602005836.311696,77.000000,0.000000,4133.846191,4132.820313,4136.922852,4135.897461,4134.871582,4119.487305,4121.538574,4105.128418,4097.948730,4116.922852,4126.153809,4133.333496,4125.128418,4131.794922,751.000000,4.000000,,,,0.000000,4.000000,4.000000,4.000000,4.000000,4.000000,4.000000,4.000000,4.000000,4.000000,4.000000,4.000000,4.000000,4.000000,4.000000,100.000000
1602005836.319582,78.000000,0.000000,4129.743652,4134.871582,4136.922852,4139.487305,4134.871582,4118.974121,4121.025879,4112.820313,4119.487305,4128.717773,4134.358887,4136.922852,4133.333496,4145.128418,881.000000,4.000000,,,,0.000000,4.000000,4.000000,4.000000,4.000000,4.000000,4.000000,4.000000,4.000000,4.000000,4.000000,4.000000,4.000000,4.000000,4.000000,100.000000
1602005836.327469,79.000000,0.000000,4137.436035,4137.948730,4138.974121,4142.563965,4136.410156,4134.358887,4132.820313,4132.820313,4141.025879,4143.589844,4151.282227,4150.256348,4144.102539,4157.948730,842.000000,4.000000,,,,0.000000,4.000000,4.000000,4.000000,4.000000,4.000000,4.000000,4.000000,4.000000,4.000000,4.000000,4.000000,4.000000,4.000000,4.000000,100.000000
1602005836.335355,80.000000,0.000000,4153.846191,4139.487305,4155.897461,4141.538574,4130.769043,4141.025879,4141.025879,4149.743652,4146.666504,4133.333496,4153.846191,4167.179688,4157.436035,4157.948730,779.000000,4.000000,,,,0.000000,4.000000,4.000000,4.000000,4.000000,4.000000,4.000000,4.000000,4.000000,4.000000,4.000000,4.000000,4.000000,4.000000,4.000000,100.000000
1602005836.343242,81.000000,0.000000,4162.051270,4142.563965,4173.333496,4142.563965,4123.077148,4133.846191,4145.641113,4153.846191,4142.051270,4118.461426,4140.512695,4176.922852,4157.436035,4155.384766,751.000000,4.000000,,,,0.000000,4.000000,4.000000,4.000000,4.000000,4.000000,4.000000,4.000000,4.000000,4.000000,4.000000,4.000000,4.000000,4.000000,4.000000,100.000000
1602005836.351128,82.000000,0.000000,4154.358887,4141.025879,4169.743652,4138.974121,4123.077148,4134.358887,4156.922852,4153.333496,4142.563965,4122.051270,4133.333496,4173.846191,4143.077148,4151.282227,881.000000,4.000000,,,,0.000000,4.000000,4.000000,4.000000,4.000000,4.000000,4.000000,4.000000,4.000000,4.000000,4.000000,4.000000,4.000000,4.000000,4.000000,100.000000
1602005836.358915,83.000000,0.000000,4141.538574,4130.769043,4152.820313,4134.871582,4124.102539,4136.410156,4159.487305,4147.692383,4140.000000,4138.974121,4140.512695,4164.102539,4132.307617,4141.538574,842.000000,4.000000,,,,0.000000,4.000000,4.000000,4.000000,4.000000,4.000000,4.000000,4.000000,4.000000,4.000000,4.000000,4.000000,4.000000,4.000000,4.000000,100.000000
1602005836.366803,84.000000,0.000000,4136.922852,4122.051270,4140.000000,4135.897461,4131.282227,4129.230957,4146.153809,4132.820313,4126.153809,4142.051270,4136.922852,4155.384766,4128.717773,4135.384766,779.000000,4.000000,,,,0.000000,4.000000,4.000000,4.000000,4.000000,4.000000,4.000000,4.000000,4.000000,4.000000,4.000000,4.000000,4.000000,4.000000,4.000000,100.000000
1602005836.374690,85.000000,0.000000,4131.282227,4120.512695,4131.794922,4130.769043,4140.512695,4122.051270,4131.282227,4117.436035,4114.358887,4136.410156,4113.333496,4149.230957,4122.051270,4135.897461,751.000000,4.000000,,,,0.000000,4.000000,4.000000,4.000000,4.000000,4.000000,4.000000,4.000000,4.000000,4.000000,4.000000,4.000000,4.000000,4.000000,4.000000,100.000000
1602005836.382577,86.000000,0.000000,4122.563965,4118.974121,4128.717773,4123.589844,4135.384766,4117.948730,4116.922852,4107.692383,4108.717773,4124.615234,4106.153809,4146.666504,4115.384766,4133.846191,881.000000,4.000000,,,,0.000000,4.000000,4.000000,4.000000,4.000000,4.000000,4.000000,4.000000,4.000000,4.000000,4.000000,4.000000,4.000000,4.000000,4.000000,100.000000
1602005836.390465,87.000000,0.000000,4128.717773,4120.512695,4135.384766,4128.205078,4131.282227,4116.922852,4106.153809,4103.077148,4103.589844,4099.487305,4128.717773,4148.205078,4123.589844,4133.333496,842.000000,4.000000,,,,0.000000,4.000000,4.000000,4.000000,4.000000,4.000000,4.000000,4.000000,4.000000,4.000000,4.000000,4.000000,4.000000,4.000000,4.000000,100.000000
1602005836.398352,88.000000,0.000000,4136.410156,4127.692383,4142.051270,4137.948730,4139.487305,4122.563965,4107.692383,4104.102539,4101.538574,4098.461426,4145.641113,4152.307617,4136.922852,4138.461426,779.000000,4.000000,,,,0.000000,4.000000,4.000000,4.000000,4.000000,4.000000,4.000000,4.000000,4.000000,4.000000,4.000000,4.000000,4.000000,4.000000,4.000000,100.000000
1602005836.406240,89.000000,0.000000,4130.256348,4133.333496,4141.538574,4138.461426,4140.000000,4117.948730,4110.256348,4110.769043,4110.256348,4125.641113,4133.846191,4151.794922,4138.461426,4138.974121,751.000000,4.000000,,,,0.000000,4.000000,4.000000,4.000000,4.000000,4.000000,4.000000,4.000000,4.000000,4.000000,4.000000,4.000000,4.000000,4.000000,4.000000,100.000000
1602005836.414127,90.000000,0.000000,4130.256348,4135.384766,4141.025879,4134.358887,4134.358887,4111.794922,4110.256348,4125.128418,4121.025879,4141.025879,4119.487305,4149.743652,4133.333496,4137.948730,881.000000,4.000000,,,,0.000000,4.000000,4.000000,4.000000,4.000000,4.000000,4.000000,4.000000,4.000000,4.000000,4.000000,4.000000,4.000000,4.000000,4.000000,100.000000
1602005836.421915,91.000000,0.000000,4142.563965,4138.974121,4143.077148,4137.948730,4137.948730,4118.974121,4116.922852,4137.436035,4124.615234,4144.615234,4126.666504,4154.871582,4136.410156,4141.025879,842.000000,4.000000,,,,0.000000,4.000000,4.000000,4.000000,4.000000,4.000000,4.000000,4.000000,4.000000,4.000000,4.000000,4.000000,4.000000,4.000000,4.000000,100.000000
1602005836.429804,92.000000,0.000000,4144.615234,4141.025879,4134.871582,4140.512695,4136.410156,4120.000000,4122.051270,4136.922852,4122.051270,4135.384766,4137.948730,4156.410156,4142.563965,4140.512695,779.000000,4.000000,,,,0.000000,4.000000,4.000000,4.000000,4.000000,4.000000,4.000000,4.000000,4.000000,4.000000,4.000000,4.000000,4.000000,4.000000,4.000000,100.000000
1602005836.437692,93.000000,0.000000,4132.307617,4134.871582,4121.538574,4132.307617,4123.589844,4111.794922,4118.974121,4130.256348,4119.487305,4105.641113,4136.410156,4144.102539,4137.948730,4132.820313,751.000000,4.000000,,,,0.000000,4.000000,4.000000,4.000000,4.000000,4.000000,4.000000,4.000000,4.000000,4.000000,4.000000,4.000000,4.000000,4.000000,4.000000,100.000000
1602005836.445580,94.000000,0.000000,4125.128418,4129.743652,4125.128418,4126.153809,4118.461426,4118.461426,4127.692383,4134.871582,4124.615234,4102.563965,4136.922852,4138.974121,4134.871582,4136.410156,881.000000,4.000000,,,,0.000000,4.000000,4.000000,4.000000,4.000000,4.000000,4.000000,4.000000,4.000000,4.000000,4.000000,4.000000,4.000000,4.000000,4.000000,100.000000
1602005836.453469,95.000000,0.000000,4134.871582,4130.256348,4141.025879,4129.230957,4123.077148,4127.692383,4143.589844,4145.128418,4138.974121,4135.384766,4140.512695,4151.282227,4142.051270,4142.563965,842.000000,4.000000,,,,0.000000,4.000000,4.000000,4.000000,4.000000,4.000000,4.000000,4.000000,4.000000,4.000000,4.000000,4.000000,4.000000,4.000000,4.000000,100.000000
1602005836.461357,96.000000,0.000000,4143.589844,4124.615234,4145.641113,4127.692383,4124.615234,4118.461426,4139.487305,4136.410156,4140.000000,4145.641113,4133.333496,4155.897461,4142.563965,4130.769043,779.000000,4.000000,,,,0.000000,4.000000,4.000000,4.000000,4.000000,4.000000,4.000000,4.000000,4.000000,4.000000,4.000000,4.000000,4.000000,4.000000,4.000000,100.000000
1602005836.469245,97.000000,0.000000,4133.333496,4113.333496,4136.410156,4118.974121,4120.000000,4111.794922,4125.128418,4115.384766,4127.692383,4137.948730,4128.717773,4152.820313,4128.205078,4127.179688,751.000000,4.000000,,,,0.000000,4.000000,4.000000,4.000000,4.000000,4.000000,4.000000,4.000000,4.000000,4.000000,4.000000,4.000000,4.000000,4.000000,4.000000,100.000000
1602005836.477134,98.000000,0.000000,4121.025879,4108.717773,4126.153809,4112.820313,4120.000000,4120.000000,4120.512695,4104.102539,4120.512695,4135.384766,4128.717773,4149.230957,4121.025879,4133.846191,881.000000,4.000000,,,,0.000000,4.000000,4.000000,4.000000,4.000000,4.000000,4.000000,4.000000,4.000000,4.000000,4.000000,4.000000,4.000000,4.000000,4.000000,100.000000
1602005836.485022,99.000000,0.000000,4118.461426,4110.256348,4118.974121,4111.794922,4124.615234,4127.179688,4116.922852,4100.000000,4116.410156,4126.666504,4123.077148,4140.512695,4125.128418,4126.666504,842.000000,4.000000,,,,0.000000,4.000000,4.000000,4.000000,4.000000,4.000000,4.000000,4.000000,4.000000,4.000000,4.000000,4.000000,4.000000,4.000000,4.000000,100.000000
1602005836.492807,100.000000,0.000000,4116.410156,4114.871582,4117.436035,4116.922852,4126.153809,4123.589844,4111.282227,4097.948730,4113.333496,4117.436035,4125.641113,4138.974121,4123.077148,4122.051270,779.000000,4.000000,,,,0.000000,4.000000,4.000000,4.000000,4.000000,4.000000,4.000000,4.000000,4.000000,4.000000,4.000000,4.000000,4.000000,4.000000,4.000000,100.000000
1602005836.500692,101.000000,0.000000,4119.487305,4121.025879,4125.641113,4124.615234,4123.077148,4121.538574,4116.410156,4108.205078,4126.153809,4123.589844,4142.563965,4155.384766,4125.128418,4135.897461,751.000000,4.000000,,,,0.000000,4.000000,4.000000,4.000000,4.000000,4.000000,4.000000,4.000000,4.000000,4.000000,4.000000,4.000000,4.000000,4.000000,4.000000,100.000000
1602005836.508577,102.000000,0.000000,4124.615234,4122.051270,4136.410156,4124.615234,4121.538574,4123.077148,4125.641113,4124.615234,4138.461426,4132.820313,4153.333496,4169.743652,4139.487305,4143.077148,881.000000,4.000000,,,,0.000000,4.000000,4.000000,4.000000,4.000000,4.000000,4.000000,4.000000,4.000000,4.000000,4.000000,4.000000,4.000000,4.000000,4.000000,100.000000
1602005836.516462,103.000000,0.000000,4127.179688,4121.025879,4141.025879,4124.102539,4128.205078,4122.563965,4127.179688,4130.256348,4137.948730,4134.871582,4151.794922,4170.769043,4145.128418,4137.948730,842.000000,4.000000,,,,0.000000,4.000000,4.000000,4.000000,4.000000,4.000000,4.000000,4.000000,4.000000,4.000000,4.000000,4.000000,4.000000,4.000000,4.000000,100.000000
1602005836.524347,104.000000,0.000000,4123.589844,4123.077148,4140.512695,4127.692383,4126.666504,4122.051270,4125.128418,4128.717773,4137.948730,4133.333496,4142.563965,4164.615234,4131.794922,4126.153809,779.000000,4.000000,,,,0.000000,4.000000,4.000000,4.000000,4.000000,4.000000,4.000000,4.000000,4.000000,4.000000,4.000000,4.000000,4.000000,4.000000,4.000000,100.000000
1602005836.532132,105.000000,0.000000,4113.846191,4121.025879,4132.820313,4125.641113,4110.256348,4111.794922,4123.589844,4120.000000,4129.743652,4125.128418,4124.102539,4147.692383,4117.436035,4108.205078,751.000000,4.000000,,,,0.000000,4.000000,4.000000,4.000000,4.000000,4.000000,4.000000,4.000000,4.000000,4.000000,4.000000,4.000000,4.000000,4.000000,4.000000,100.000000
1602005836.540018,106.000000,0.000000,4110.769043,4116.410156,4125.128418,4123.589844,4109.230957,4104.102539,4124.615234,4107.692383,4114.871582,4116.410156,4116.410156,4134.358887,4116.922852,4107.692383,881.000000,4.000000,,,,0.000000,4.000000,4.000000,4.000000,4.000000,4.000000,4.000000,4.000000,4.000000,4.000000,4.000000,4.000000,4.000000,4.000000,4.000000,100.000000
1602005836.547903,107.000000,0.000000,4121.025879,4119.487305,4128.717773,4129.230957,4124.615234,4119.487305,4124.102539,4108.717773,4117.436035,4117.948730,4127.179688,4136.410156,4122.563965,4126.666504,842.000000,4.000000,,,,0.000000,4.000000,4.000000,4.000000,4.000000,4.000000,4.000000,4.000000,4.000000,4.000000,4.000000,4.000000,4.000000,4.000000,4.000000,100.000000
1602005836.555789,108.000000,0.000000,4132.820313,4124.615234,4137.436035,4130.256348,4126.153809,4141.538574,4123.589844,4120.000000,4134.358887,4132.307617,4136.922852,4143.077148,4127.692383,4136.922852,779.000000,4.000000,,,,0.000000,4.000000,4.000000,4.000000,4.000000,4.000000,4.000000,4.000000,4.000000,4.000000,4.000000,4.000000,4.000000,4.000000,4.000000,100.000000
1602005836.563674,109.000000,0.000000,4135.897461,4124.102539,4135.384766,4125.641113,4125.128418,4140.000000,4130.256348,4124.615234,4141.538574,4141.025879,4140.000000,4143.077148,4137.436035,4135.897461,751.000000,4.000000,,,,0.000000,4.000000,4.000000,4.000000,4.000000,4.000000,4.000000,4.000000,4.000000,4.000000,4.000000,4.000000,4.000000,4.000000,4.000000,100.000000
1602005836.571560,110.000000,0.000000,4130.769043,4120.512695,4125.641113,4124.102539,4136.410156,4129.230957,4137.436035,4123.589844,4137.436035,4140.512695,4137.948730,4138.974121,4139.487305,4132.307617,881.000000,4.000000,,,,0.000000,4.000000,4.000000,4.000000,4.000000,4.000000,4.000000,4.000000,4.000000,4.000000,4.000000,4.000000,4.000000,4.000000,4.000000,100.000000
1602005836.579348,111.000000,0.000000,4126.153809,4118.974121,4126.153809,4124.615234,4140.512695,4132.820313,4136.922852,4125.128418,4137.436035,4138.461426,4128.717773,4135.384766,4125.641113,4125.128418,842.000000,4.000000,,,,0.000000,4.000000,4.000000,4.000000,4.000000,4.000000,4.000000,4.000000,4.000000,4.000000,4.000000,4.000000,4.000000,4.000000,4.000000,100.000000
1602005836.587235,112.000000,0.000000,4132.820313,4121.025879,4135.897461,4123.077148,4134.358887,4135.384766,4136.922852,4126.153809,4139.487305,4125.641113,4126.666504,4133.333496,4122.051270,4122.051270,779.000000,4.000000,,,,0.000000,4.000000,4.000000,4.000000,4.000000,4.000000,4.000000,4.000000,4.000000,4.000000,4.000000,4.000000,4.000000,4.000000,4.000000,100.000000
1602005836.595123,113.000000,0.000000,4139.487305,4125.128418,4142.563965,4124.102539,4129.230957,4122.051270,4135.384766,4125.128418,4132.307617,4120.512695,4137.436035,4145.128418,4131.282227,4129.230957,751.000000,4.000000,,,,0.000000,4.000000,4.000000,4.000000,4.000000,4.000000,4.000000,4.000000,4.000000,4.000000,4.000000,4.000000,4.000000,4.000000,4.000000,100.000000
1602005836.603011,114.000000,0.000000,4137.948730,4125.128418,4140.000000,4126.153809,4126.666504,4109.230957,4125.641113,4122.051270,4117.948730,4135.384766,4132.820313,4152.820313,4126.666504,4129.230957,881.000000,4.000000,,,,0.000000,4.000000,4.000000,4.000000,4.000000,4.000000,4.000000,4.000000,4.000000,4.000000,4.000000,4.000000,4.000000,4.000000,4.000000,100.000000
1602005836.610899,115.000000,0.000000,4136.410156,4124.615234,4135.897461,4127.179688,4131.282227,4113.846191,4115.897461,4120.000000,4118.461426,4144.102539,4117.436035,4144.615234,4123.589844,4121.025879,842.000000,4.000000,,,,0.000000,4.000000,4.000000,4.000000,4.000000,4.000000,4.000000,4.000000,4.000000,4.000000,4.000000,4.000000,4.000000,4.000000,4.000000,100.000000
1602005836.618787,116.000000,0.000000,4135.384766,4131.794922,4136.922852,4128.205078,4140.512695,4124.615234,4116.922852,4118.461426,4124.615234,4132.820313,4124.102539,4138.461426,4134.871582,4124.102539,779.000000,4.000000,,,,0.000000,4.000000,4.000000,4.000000,4.000000,4.000000,4.000000,4.000000,4.000000,4.000000,4.000000,4.000000,4.000000,4.000000,4.000000,100.000000
1602005836.626675,117.000000,0.000000,4137.948730,4136.922852,4135.897461,4130.769043,4143.077148,4129.743652,4124.615234,4114.358887,4118.974121,4127.692383,4131.282227,4144.102539,4131.794922,4130.769043,751.000000,4.000000,,,,0.000000,4.000000,4.000000,4.000000,4.000000,4.000000,4.000000,4.000000,4.000000,4.000000,4.000000,4.000000,4.000000,4.000000,4.000000,100.000000
1602005836.634563,118.000000,0.000000,4134.358887,4127.692383,4131.282227,4129.230957,4139.487305,4126.666504,4126.153809,4108.205078,4110.769043,4121.025879,4113.333496,4143.077148,4109.230957,4126.153809,881.000000,4.000000,,,,0.000000,4.000000,4.000000,4.000000,4.000000,4.000000,4.000000,4.000000,4.000000,4.000000,4.000000,4.000000,4.000000,4.000000,4.000000,100.000000
1602005836.642350,119.000000,0.000000,4123.589844,4116.922852,4132.307617,4122.051270,4132.307617,4120.000000,4124.102539,4108.205078,4108.717773,4094.358887,4101.538574,4135.897461,4098.974121,4118.974121,842.000000,4.000000,,,,0.000000,4.000000,4.000000,4.000000,4.000000,4.000000,4.000000,4.000000,4.000000,4.000000,4.000000,4.000000,4.000000,4.000000,4.000000,100.000000
1602005836.650237,120.000000,0.000000,4128.717773,4125.641113,4139.487305,4124.102539,4131.794922,4117.948730,4130.769043,4116.922852,4110.256348,4090.256348,4115.897461,4142.563965,4110.256348,4123.077148,779.000000,4.000000,,,,0.000000,4.000000,4.000000,4.000000,4.000000,4.000000,4.000000,4.000000,4.000000,4.000000,4.000000,4.000000,4.000000,4.000000,4.000000,100.000000
1602005836.658124,121.000000,0.000000,4142.051270,4137.436035,4144.615234,4133.333496,4140.512695,4125.128418,4140.000000,4127.179688,4122.051270,4114.871582,4126.153809,4154.358887,4125.641113,4133.846191,751.000000,4.000000,,,,0.000000,4.000000,4.000000,4.000000,4.000000,4.000000,4.000000,4.000000,4.000000,4.000000,4.000000,4.000000,4.000000,4.000000,4.000000,100.000000
1602005836.666011,122.000000,0.000000,4143.077148,4130.769043,4141.538574,4129.230957,4141.025879,4133.333496,4139.487305,4135.897461,4138.461426,4123.077148,4125.128418,4155.384766,4132.307617,4141.538574,881.000000,4.000000,,,,0.000000,4.000000,4.000000,4.000000,4.000000,4.000000,4.000000,4.000000,4.000000,4.000000,4.000000,4.000000,4.000000,4.000000,4.000000,100.000000
1602005836.673898,123.000000,0.000000,4135.384766,4117.436035,4130.769043,4120.000000,4135.897461,4127.179688,4137.948730,4142.563965,4140.000000,4125.128418,4131.282227,4149.743652,4133.846191,4142.051270,842.000000,4.000000,,,,0.000000,4.000000,4.000000,4.000000,4.000000,4.000000,4.000000,4.000000,4.000000,4.000000,4.000000,4.000000,4.000000,4.000000,4.000000,100.000000
1602005836.681785,124.000000,0.000000,4130.769043,4115.384766,4123.077148,4121.538574,4137.436035,4119.487305,4136.922852,4144.615234,4137.436035,4145.641113,4142.051270,4151.282227,4136.410156,4135.384766,779.000000,4.000000,,,,0.000000,4.000000,4.000000,4.000000,4.000000,4.000000,4.000000,4.000000,4.000000,4.000000,4.000000,4.000000,4.000000,4.000000,4.000000,100.000000
1602005836.689673,125.000000,0.000000,4128.717773,4122.563965,4128.205078,4124.615234,4138.974121,4129.230957,4129.743652,4138.974121,4143.077148,4146.153809,4139.487305,4155.384766,4132.820313,4129.230957,751.000000,4.000000,,,,0.000000,4.000000,4.000000,4.000000,4.000000,4.000000,4.000000,4.000000,4.000000,4.000000,4.000000,4.000000,4.000000,4.000000,4.000000,100.000000
1602005836.697560,126.000000,0.000000,4127.692383,4123.589844,4136.410156,4123.077148,4138.974121,4139.487305,4128.205078,4133.333496,4138.974121,4121.025879,4128.717773,4154.871582,4124.615234,4126.666504,881.000000,4.000000,,,,0.000000,4.000000,4.000000,4.000000,4.000000,4.000000,4.000000,4.000000,4.000000,4.000000,4.000000,4.000000,4.000000,4.000000,4.000000,100.000000
1602005836.705345,127.000000,0.000000,4130.769043,4122.563965,4135.897461,4124.102539,4144.615234,4141.025879,4137.948730,4137.436035,4135.897461,4124.102539,4124.615234,4156.410156,4130.769043,4128.717773,842.000000,4.000000,,,,0.000000,4.000000,4.000000,4.000000,4.000000,4.000000,4.000000,4.000000,4.000000,4.000000,4.000000,4.000000,4.000000,4.000000,4.000000,100.000000
1602005836.713231,128.000000,0.000000,4135.384766,4128.205078,4133.333496,4127.179688,4141.025879,4132.307617,4133.846191,4135.897461,4141.538574,4144.102539,4127.179688,4155.384766,4135.897461,4123.077148,779.000000,4.000000,,,,0.000000,4.000000,4.000000,4.000000,4.000000,4.000000,4.000000,4.000000,4.000000,4.000000,4.000000,4.000000,4.000000,4.000000,4.000000,100.000000
1602005836.721117,0.000000,0.000000,4140.000000,4136.410156,4136.410156,4128.717773,4137.436035,4118.461426,4122.051270,4121.025879,4132.820313,4140.512695,4130.256348,4154.358887,4125.641113,4119.487305,807.000000,4.000000,,,,0.000000,4.000000,4.000000,4.000000,4.000000,4.000000,4.000000,4.000000,4.000000,4.000000,4.000000,4.000000,4.000000,4.000000,4.000000,100.000000
1602005836.729003,1.000000,0.000000,4147.179688,4142.051270,4143.077148,4137.948730,4149.743652,4126.153809,4126.666504,4119.487305,4122.563965,4141.025879,4126.666504,4164.615234,4125.641113,4135.384766,795.000000,4.000000,,,,0.000000,4.000000,4.000000,4.000000,4.000000,4.000000,4.000000,4.000000,4.000000,4.000000,4.000000,4.000000,4.000000,4.000000,4.000000,100.000000
1602005836.736888,2.000000,0.000000,4147.179688,4140.000000,4143.077148,4141.538574,4153.333496,4139.487305,4132.820313,4126.153809,4123.077148,4141.025879,4121.538574,4168.717773,4132.307617,4134.871582,851.000000,4.000000,,,,0.000000,4.000000,4.000000,4.000000,4.000000,4.000000,4.000000,4.000000,4.000000,4.000000,4.000000,4.000000,4.000000,4.000000,4.000000,100.000000
1602005836.744774,3.000000,0.000000,4137.436035,4127.179688,4136.922852,4129.743652,4138.974121,4126.666504,4126.153809,4117.436035,4111.282227,4101.538574,4119.487305,4156.922852,4117.436035,4113.846191,826.000000,4.000000,,,,0.000000,4.000000,4.000000,4.000000,4.000000,4.000000,4.000000,4.000000,4.000000,4.000000,4.000000,4.000000,4.000000,4.000000,4.000000,100.000000
1602005836.752560,4.000000,0.000000,4132.820313,4118.974121,4135.897461,4126.153809,4130.769043,4114.871582,4123.589844,4112.307617,4101.538574,4073.333252,4121.538574,4148.717773,4103.589844,4113.333496,816.000000,4.000000,,,,0.000000,4.000000,4.000000,4.000000,4.000000,4.000000,4.000000,4.000000,4.000000,4.000000,4.000000,4.000000,4.000000,4.000000,4.000000,100.000000
1602005836.760446,5.000000,0.000000,4139.487305,4123.589844,4140.000000,4134.871582,4132.820313,4127.179688,4125.128418,4121.538574,4116.410156,4100.000000,4120.512695,4150.256348,4114.871582,4127.179688,825.000000,4.000000,,,,0.000000,4.000000,4.000000,4.000000,4.000000,4.000000,4.000000,4.000000,4.000000,4.000000,4.000000,4.000000,4.000000,4.000000,4.000000,100.000000
1602005836.768332,6.000000,0.000000,4141.025879,4126.153809,4141.025879,4130.769043,4136.922852,4132.307617,4127.179688,4129.230957,4126.153809,4127.179688,4116.410156,4152.307617,4124.615234,4123.589844,769.000000,4.000000,,,,0.000000,4.000000,4.000000,4.000000,4.000000,4.000000,4.000000,4.000000,4.000000,4.000000,4.000000,4.000000,4.000000,4.000000,4.000000,100.000000
1602005836.776218,7.000000,0.000000,4135.384766,4121.025879,4137.948730,4122.051270,4141.025879,4123.589844,4131.794922,4133.846191,4118.461426,4127.179688,4125.641113,4153.333496,4121.538574,4116.922852,691.000000,4.000000,,,,0.000000,4.000000,4.000000,4.000000,4.000000,4.000000,4.000000,4.000000,4.000000,4.000000,4.000000,4.000000,4.000000,4.000000,4.000000,100.000000
1602005836.784104,8.000000,0.000000,4134.358887,4124.615234,4138.974121,4128.717773,4140.512695,4116.922852,4130.256348,4133.846191,4119.487305,4133.333496,4137.948730,4155.384766,4122.051270,4123.077148,788.000000,4.000000,,,,0.000000,4.000000,4.000000,4.000000,4.000000,4.000000,4.000000,4.000000,4.000000,4.000000,4.000000,4.000000,4.000000,4.000000,4.000000,100.000000
1602005836.791990,9.000000,0.000000,4147.692383,4137.948730,4150.769043,4139.487305,4144.102539,4128.205078,4124.102539,4127.179688,4129.743652,4151.282227,4140.512695,4163.077148,4133.846191,4138.974121,842.000000,4.000000,,,,0.000000,4.000000,4.000000,4.000000,4.000000,4.000000,4.000000,4.000000,4.000000,4.000000,4.000000,4.000000,4.000000,4.000000,4.000000,100.000000
1602005836.799775,10.000000,0.000000,4163.589844,4146.666504,4156.922852,4144.102539,4153.333496,4142.563965,4126.666504,4126.666504,4128.205078,4145.128418,4141.538574,4175.384766,4149.743652,4158.461426,881.000000,4.000000,,,,0.000000,4.000000,4.000000,4.000000,4.000000,4.000000,4.000000,4.000000,4.000000,4.000000,4.000000,4.000000,4.000000,4.000000,4.000000,100.000000
1602005836.807661,11.000000,0.000000,4153.846191,4141.025879,4143.077148,4142.051270,4141.538574,4129.230957,4121.025879,4122.051270,4109.743652,4108.205078,4135.897461,4170.256348,4141.538574,4149.743652,842.000000,4.000000,,,,0.000000,4.000000,4.000000,4.000000,4.000000,4.000000,4.000000,4.000000,4.000000,4.000000,4.000000,4.000000,4.000000,4.000000,4.000000,100.000000
1602005836.815547,12.000000,0.000000,4134.871582,4134.358887,4132.820313,4137.948730,4127.179688,4111.794922,4110.256348,4108.717773,4097.948730,4090.769287,4124.102539,4150.256348,4119.487305,4124.102539,779.000000,4.000000,,,,0.000000,4.000000,4.000000,4.000000,4.000000,4.000000,4.000000,4.000000,4.000000,4.000000,4.000000,4.000000,4.000000,4.000000,4.000000,100.000000
1602005836.823432,13.000000,0.000000,4139.487305,4136.410156,4139.487305,4139.487305,4134.871582,4120.000000,4116.410156,4113.846191,4107.692383,4106.666504,4122.563965,4142.051270,4118.974121,4125.128418,751.000000,4.000000,,,,0.000000,4.000000,4.000000,4.000000,4.000000,4.000000,4.000000,4.000000,4.000000,4.000000,4.000000,4.000000,4.000000,4.000000,4.000000,100.000000
1602005836.831318,14.000000,0.000000,4142.051270,4130.256348,4142.051270,4135.384766,4136.922852,4126.666504,4126.153809,4120.512695,4109.230957,4096.922852,4120.000000,4143.589844,4122.051270,4127.179688,881.000000,4.000000,,,,0.000000,4.000000,4.000000,4.000000,4.000000,4.000000,4.000000,4.000000,4.000000,4.000000,4.000000,4.000000,4.000000,4.000000,4.000000,100.000000
1602005836.839204,15.000000,0.000000,4125.128418,4117.436035,4130.769043,4124.615234,4126.153809,4121.025879,4126.666504,4108.717773,4093.846191,4081.538574,4105.128418,4137.436035,4104.102539,4103.589844,842.000000,4.000000,,,,0.000000,4.000000,4.000000,4.000000,4.000000,4.000000,4.000000,4.000000,4.000000,4.000000,4.000000,4.000000,4.000000,4.000000,4.000000,100.000000
1602005836.846991,16.000000,0.000000,4114.871582,4115.384766,4124.615234,4121.025879,4128.205078,4121.538574,4128.717773,4107.692383,4093.846191,4103.589844,4100.512695,4134.358887,4091.794922,4092.820557,0.000000,4.000000,,,,0.000000,4.000000,4.000000,4.000000,4.000000,4.000000,4.000000,4.000000,4.000000,4.000000,4.000000,4.000000,4.000000,4.000000,4.000000,100.000000
1602005836.854877,17.000000,0.000000,4122.051270,4118.974121,4132.820313,4122.563965,4137.436035,4124.102539,4131.794922,4119.487305,4101.538574,4103.589844,4110.769043,4140.000000,4099.487305,4111.794922,0.000000,4.000000,,,,0.000000,4.000000,4.000000,4.000000,4.000000,4.000000,4.000000,4.000000,4.000000,4.000000,4.000000,4.000000,4.000000,4.000000,4.000000,100.000000
1602005836.862764,18.000000,0.000000,4132.307617,4124.102539,4141.025879,4127.179688,4142.051270,4124.615234,4127.179688,4122.051270,4106.153809,4087.179443,4121.538574,4143.077148,4110.769043,4121.025879,0.000000,4.000000,,,,0.000000,4.000000,4.000000,4.000000,4.000000,4.000000,4.000000,4.000000,4.000000,4.000000,4.000000,4.000000,4.000000,4.000000,4.000000,100.000000
1602005836.870651,19.000000,0.000000,4138.974121,4130.769043,4140.000000,4135.897461,4144.615234,4129.743652,4123.589844,4121.025879,4120.000000,4113.846191,4127.692383,4141.025879,4122.051270,4117.436035,0.000000,4.000000,,,,0.000000,4.000000,4.000000,4.000000,4.000000,4.000000,4.000000,4.000000,4.000000,4.000000,4.000000,4.000000,4.000000,4.000000,4.000000,100.000000
1602005836.878537,20.000000,0.000000,4141.025879,4131.794922,4135.897461,4137.948730,4142.563965,4127.179688,4123.077148,4125.641113,4127.179688,4134.871582,4126.153809,4138.974121,4125.128418,4122.051270,0.000000,4.000000,,,,0.000000,4.000000,4.000000,4.000000,4.000000,4.000000,4.000000,4.000000,4.000000,4.000000,4.000000,4.000000,4.000000,4.000000,4.000000,100.000000
1602005836.886424,21.000000,0.000000,4137.436035,4131.282227,4136.410156,4134.358887,4138.461426,4121.025879,4121.025879,4124.615234,4123.077148,4122.051270,4124.102539,4135.897461,4122.051270,4125.128418,0.000000,4.000000,,,,0.000000,4.000000,4.000000,4.000000,4.000000,4.000000,4.000000,4.000000,4.000000,4.000000,4.000000,4.000000,4.000000,4.000000,4.000000,100.000000
1602005836.894311,22.000000,0.000000,4135.897461,4135.897461,4144.102539,4136.410156,4141.538574,4127.179688,4127.692383,4122.563965,4135.384766,4136.410156,4133.333496,4138.461426,4129.743652,4121.025879,0.000000,4.000000,,,,0.000000,4.000000,4.000000,4.000000,4.000000,4.000000,4.000000,4.000000,4.000000,4.000000,4.000000,4.000000,4.000000,4.000000,4.000000,100.000000
1602005836.902099,23.000000,0.000000,4142.051270,4140.000000,4152.820313,4140.512695,4144.615234,4143.589844,4136.922852,4127.692383,4146.666504,4153.846191,4140.000000,4151.282227,4136.922852,4120.512695,0.000000,4.000000,,,,0.000000,4.000000,4.000000,4.000000,4.000000,4.000000,4.000000,4.000000,4.000000,4.000000,4.000000,4.000000,4.000000,4.000000,4.000000,100.000000
1602005836.909987,24.000000,0.000000,4143.589844,4134.358887,4147.179688,4137.948730,4141.025879,4138.974121,4129.230957,4122.051270,4121.538574,4107.692383,4130.256348,4152.307617,4125.641113,4115.897461,0.000000,4.000000,,,,0.000000,4.000000,4.000000,4.000000,4.000000,4.000000,4.000000,4.000000,4.000000,4.000000,4.000000,4.000000,4.000000,4.000000,4.000000,100.000000
1602005836.917875,25.000000,0.000000,4135.384766,4127.179688,4136.922852,4135.384766,4137.948730,4122.051270,4117.436035,4107.179688,4096.410156,4063.589844,4117.436035,4138.461426,4113.333496,4108.205078,0.000000,4.000000,,,,0.000000,4.000000,4.000000,4.000000,4.000000,4.000000,4.000000,4.000000,4.000000,4.000000,4.000000,4.000000,4.000000,4.000000,4.000000,100.000000
1602005836.925763,26.000000,0.000000,4136.922852,4132.307617,4144.615234,4137.948730,4141.538574,4129.230957,4125.128418,4110.256348,4107.179688,4093.333252,4122.563965,4141.025879,4124.102539,4121.025879,0.000000,4.000000,,,,0.000000,4.000000,4.000000,4.000000,4.000000,4.000000,4.000000,4.000000,4.000000,4.000000,4.000000,4.000000,4.000000,4.000000,4.000000,100.000000
1602005836.933651,27.000000,0.000000,4152.307617,4140.512695,4152.307617,4141.025879,4145.128418,4143.589844,4138.461426,4126.666504,4129.230957,4133.333496,4137.948730,4157.436035,4139.487305,4141.025879,0.000000,4.000000,,,,0.000000,4.000000,4.000000,4.000000,4.000000,4.000000,4.000000,4.000000,4.000000,4.000000,4.000000,4.000000,4.000000,4.000000,4.000000,100.000000
1602005836.941539,28.000000,0.000000,4151.282227,4133.846191,4144.102539,4138.974121,4140.512695,4141.538574,4138.461426,4130.769043,4136.922852,4125.641113,4137.436035,4156.922852,4134.358887,4137.948730,0.000000,4.000000,,,,0.000000,4.000000,4.000000,4.000000,4.000000,4.000000,4.000000,4.000000,4.000000,4.000000,4.000000,4.000000,4.000000,4.000000,4.000000,100.000000
1602005836.949427,29.000000,0.000000,4134.358887,4120.512695,4134.871582,4136.922852,4134.358887,4134.358887,4138.461426,4123.589844,4135.897461,4124.615234,4125.641113,4138.974121,4121.538574,4124.102539,0.000000,4.000000,,,,0.000000,4.000000,4.000000,4.000000,4.000000,4.000000,4.000000,4.000000,4.000000,4.000000,4.000000,4.000000,4.000000,4.000000,4.000000,100.000000
1602005836.957315,30.000000,0.000000,4134.358887,4121.025879,4133.333496,4136.922852,4133.846191,4126.153809,4137.436035,4122.051270,4135.897461,4141.538574,4129.230957,4133.846191,4121.025879,4121.538574,0.000000,4.000000,,,,0.000000,4.000000,4.000000,4.000000,4.000000,4.000000,4.000000,4.000000,4.000000,4.000000,4.000000,4.000000,4.000000,4.000000,4.000000,100.000000
1602005836.965203,31.000000,0.000000,4140.512695,4126.666504,4131.282227,4135.384766,4137.948730,4120.000000,4131.794922,4124.615234,4131.794922,4125.128418,4137.948730,4140.512695,4128.205078,4127.179688,0.000000,4.000000,,,,0.000000,4.000000,4.000000,4.000000,4.000000,4.000000,4.000000,4.000000,4.000000,4.000000,4.000000,4.000000,4.000000,4.000000,4.000000,100.000000
1602005836.972989,32.000000,0.000000,4131.794922,4125.641113,4126.153809,4130.256348,4138.974121,4125.641113,4130.256348,4124.102539,4125.641113,4103.589844,4130.256348,4141.538574,4127.692383,4125.641113,0.000000,4.000000,,,,0.000000,4.000000,4.000000,4.000000,4.000000,4.000000,4.000000,4.000000,4.000000,4.000000,4.000000,4.000000,4.000000,4.000000,4.000000,100.000000
1602005836.980875,33.000000,0.000000,4119.487305,4115.897461,4121.538574,4121.538574,4129.743652,4128.717773,4131.282227,4122.051270,4124.102539,4117.436035,4123.589844,4138.461426,4123.077148,4114.358887,0.000000,4.000000,,,,0.000000,4.000000,4.000000,4.000000,4.000000,4.000000,4.000000,4.000000,4.000000,4.000000,4.000000,4.000000,4.000000,4.000000,4.000000,100.000000
1602005836.988761,34.000000,0.000000,4116.922852,4108.205078,4118.974121,4115.384766,4126.153809,4122.051270,4123.077148,4120.512695,4121.538574,4125.128418,4124.615234,4138.461426,4123.077148,4115.897461,0.000000,4.000000,,,,0.000000,4.000000,4.000000,4.000000,4.000000,4.000000,4.000000,4.000000,4.000000,4.000000,4.000000,4.000000,4.000000,4.000000,4.000000,100.000000
1602005836.996647,35.000000,0.000000,4120.000000,4115.384766,4121.025879,4118.461426,4138.461426,4127.179688,4118.461426,4120.000000,4124.615234,4117.948730,4123.589844,4138.461426,4125.641113,4121.538574,0.000000,4.000000,,,,0.000000,4.000000,4.000000,4.000000,4.000000,4.000000,4.000000,4.000000,4.000000,4.000000,4.000000,4.000000,4.000000,4.000000,4.000000,100.000000
1602005837.004533,36.000000,0.000000,4120.000000,4124.102539,4122.051270,4126.153809,4150.256348,4136.922852,4127.692383,4120.512695,4133.846191,4129.230957,4126.153809,4135.897461,4125.641113,4107.179688,0.000000,4.000000,,,,0.000000,4.000000,4.000000,4.000000,4.000000,4.000000,4.000000,4.000000,4.000000,4.000000,4.000000,4.000000,4.000000,4.000000,4.000000,100.000000
1602005837.012419,37.000000,0.000000,4120.000000,4124.102539,4119.487305,4131.282227,4147.179688,4138.974121,4128.717773,4118.461426,4129.743652,4127.179688,4121.025879,4132.307617,4115.897461,4098.974121,0.000000,4.000000,,,,0.000000,4.000000,4.000000,4.000000,4.000000,4.000000,4.000000,4.000000,4.000000,4.000000,4.000000,4.000000,4.000000,4.000000,4.000000,100.000000
1602005837.020204,38.000000,0.000000,4119.487305,4126.153809,4118.461426,4133.846191,4138.974121,4139.487305,4122.563965,4113.333496,4109.743652,4099.487305,4108.717773,4128.205078,4103.589844,4108.205078,0.000000,4.000000,,,,0.000000,4.000000,4.000000,4.000000,4.000000,4.000000,4.000000,4.000000,4.000000,4.000000,4.000000,4.000000,4.000000,4.000000,4.000000,100.000000
