Timestamp,EEG.Counter,EEG.Interpolated,EEG.AF3,EEG.F7,EEG.F3,EEG.FC5,EEG.T7,EEG.P7,EEG.O1,EEG.O2,EEG.P8,EEG.T8,EEG.FC6,EEG.F4,EEG.F8,EEG.AF4,EEG.RawCq,EEG.Battery,MarkerIndex,MarkerType,MarkerValueInt,EEG.MarkerHardware,CQ.AF3,CQ.F7,CQ.F3,CQ.FC5,CQ.T7,CQ.P7,CQ.O1,CQ.O2,CQ.P8,CQ.T8,CQ.FC6,CQ.F4,CQ.F8,CQ.AF4,CQ.Overall
1602006227.260444,22.000000,0.000000,4121.025879,4128.205078,4133.333496,4129.743652,4135.384766,4124.615234,4145.128418,4139.487305,4134.358887,4118.461426,4118.974121,4151.282227,4121.025879,4088.718018,0.000000,4.000000,,,,0.000000,4.000000,4.000000,4.000000,4.000000,4.000000,4.000000,4.000000,4.000000,4.000000,4.000000,4.000000,4.000000,4.000000,4.000000,100.000000
1602006227.268226,23.000000,0.000000,4122.563965,4126.153809,4123.589844,4124.102539,4138.974121,4128.717773,4135.384766,4135.897461,4140.512695,4118.974121,4111.794922,4136.410156,4121.538574,4090.256348,0.000000,4.000000,,,,0.000000,4.000000,4.000000,4.000000,4.000000,4.000000,4.000000,4.000000,4.000000,4.000000,4.000000,4.000000,4.000000,4.000000,4.000000,100.000000
1602006227.276108,24.000000,0.000000,4118.974121,4131.282227,4121.025879,4119.487305,4146.153809,4124.102539,4123.077148,4127.692383,4137.436035,4130.769043,4106.666504,4121.538574,4117.948730,4081.538574,0.000000,4.000000,,,,0.000000,4.000000,4.000000,4.000000,4.000000,4.000000,4.000000,4.000000,4.000000,4.000000,4.000000,4.000000,4.000000,4.000000,4.000000,100.000000
1602006227.283989,25.000000,0.000000,4118.974121,4138.461426,4122.563965,4127.692383,4151.282227,4120.512695,4118.974121,4122.051270,4138.974121,4144.102539,4104.102539,4121.025879,4112.307617,4074.358887,0.000000,4.000000,,,,0.000000,4.000000,4.000000,4.000000,4.000000,4.000000,4.000000,4.000000,4.000000,4.000000,4.000000,4.000000,4.000000,4.000000,4.000000,100.000000
1602006227.291871,26.000000,0.000000,4124.615234,4146.153809,4123.077148,4137.436035,4153.846191,4122.051270,4121.025879,4124.102539,4143.077148,4141.025879,4114.358887,4123.589844,4121.025879,4092.820557,0.000000,4.000000,,,,0.000000,4.000000,4.000000,4.000000,4.000000,4.000000,4.000000,4.000000,4.000000,4.000000,4.000000,4.000000,4.000000,4.000000,4.000000,100.000000
1602006227.299753,27.000000,0.000000,4124.102539,4147.179688,4120.512695,4138.461426,4149.230957,4121.025879,4120.000000,4123.589844,4128.717773,4115.897461,4124.615234,4122.563965,4126.666504,4107.692383,0.000000,4.000000,,,,0.000000,4.000000,4.000000,4.000000,4.000000,4.000000,4.000000,4.000000,4.000000,4.000000,4.000000,4.000000,4.000000,4.000000,4.000000,100.000000
1602006227.307634,28.000000,0.000000,4121.538574,4140.512695,4122.563965,4135.897461,4141.538574,4121.025879,4117.948730,4121.538574,4115.897461,4103.589844,4122.563965,4127.692383,4125.128418,4106.153809,0.000000,4.000000,,,,0.000000,4.000000,4.000000,4.000000,4.000000,4.000000,4.000000,4.000000,4.000000,4.000000,4.000000,4.000000,4.000000,4.000000,4.000000,100.000000
1602006227.315516,29.000000,0.000000,4128.205078,4137.436035,4132.307617,4134.871582,4138.974121,4122.563965,4128.205078,4124.102539,4128.205078,4115.897461,4123.077148,4136.410156,4127.179688,4102.563965,0.000000,4.000000,,,,0.000000,4.000000,4.000000,4.000000,4.000000,4.000000,4.000000,4.000000,4.000000,4.000000,4.000000,4.000000,4.000000,4.000000,4.000000,100.000000
1602006227.323397,30.000000,0.000000,4138.974121,4140.000000,4140.000000,4135.384766,4138.461426,4121.538574,4140.000000,4125.128418,4136.922852,4126.153809,4121.025879,4143.077148,4126.153809,4104.615234,0.000000,4.000000,,,,0.000000,4.000000,4.000000,4.000000,4.000000,4.000000,4.000000,4.000000,4.000000,4.000000,4.000000,4.000000,4.000000,4.000000,4.000000,100.000000
1602006227.331379,31.000000,0.000000,4142.563965,4138.974121,4145.128418,4136.410156,4141.025879,4120.512695,4136.922852,4125.128418,4127.692383,4120.512695,4109.743652,4150.769043,4125.128418,4114.871582,0.000000,4.000000,,,,0.000000,4.000000,4.000000,4.000000,4.000000,4.000000,4.000000,4.000000,4.000000,4.000000,4.000000,4.000000,4.000000,4.000000,4.000000,100.000000
1602006227.339261,32.000000,0.000000,4143.589844,4138.461426,4151.282227,4141.538574,4149.743652,4121.025879,4129.230957,4127.179688,4129.230957,4121.538574,4109.743652,4157.948730,4133.846191,4123.077148,0.000000,4.000000,,,,0.000000,4.000000,4.000000,4.000000,4.000000,4.000000,4.000000,4.000000,4.000000,4.000000,4.000000,4.000000,4.000000,4.000000,4.000000,100.000000
1602006227.347143,33.000000,0.000000,4133.846191,4138.974121,4145.128418,4138.974121,4154.358887,4121.025879,4126.153809,4125.641113,4138.461426,4127.692383,4116.410156,4152.307617,4129.743652,4112.820313,0.000000,4.000000,,,,0.000000,4.000000,4.000000,4.000000,4.000000,4.000000,4.000000,4.000000,4.000000,4.000000,4.000000,4.000000,4.000000,4.000000,4.000000,100.000000
1602006227.355025,34.000000,0.000000,4124.102539,4135.897461,4132.307617,4128.205078,4150.256348,4121.025879,4123.589844,4120.512695,4137.436035,4123.589844,4115.384766,4140.512695,4117.436035,4101.538574,0.000000,4.000000,,,,0.000000,4.000000,4.000000,4.000000,4.000000,4.000000,4.000000,4.000000,4.000000,4.000000,4.000000,4.000000,4.000000,4.000000,4.000000,100.000000
1602006227.362907,35.000000,0.000000,4131.282227,4137.948730,4127.692383,4127.692383,4149.743652,4120.512695,4120.000000,4125.128418,4137.436035,4127.692383,4121.538574,4138.974121,4129.743652,4114.358887,0.000000,4.000000,,,,0.000000,4.000000,4.000000,4.000000,4.000000,4.000000,4.000000,4.000000,4.000000,4.000000,4.000000,4.000000,4.000000,4.000000,4.000000,100.000000
1602006227.370789,36.000000,0.000000,4133.333496,4140.512695,4127.692383,4136.410156,4152.307617,4121.538574,4119.487305,4130.769043,4142.563965,4138.461426,4128.717773,4137.948730,4141.025879,4123.077148,0.000000,4.000000,,,,0.000000,4.000000,4.000000,4.000000,4.000000,4.000000,4.000000,4.000000,4.000000,4.000000,4.000000,4.000000,4.000000,4.000000,4.000000,100.000000
1602006227.378671,37.000000,0.000000,4123.077148,4141.025879,4123.077148,4137.436035,4150.769043,4122.051270,4120.000000,4126.666504,4144.615234,4136.410156,4123.077148,4126.666504,4132.820313,4113.846191,0.000000,4.000000,,,,0.000000,4.000000,4.000000,4.000000,4.000000,4.000000,4.000000,4.000000,4.000000,4.000000,4.000000,4.000000,4.000000,4.000000,4.000000,100.000000
1602006227.386552,38.000000,0.000000,4122.051270,4139.487305,4117.436035,4132.307617,4150.769043,4119.487305,4121.025879,4121.538574,4135.384766,4133.846191,4115.384766,4118.974121,4133.333496,4108.717773,0.000000,4.000000,,,,0.000000,4.000000,4.000000,4.000000,4.000000,4.000000,4.000000,4.000000,4.000000,4.000000,4.000000,4.000000,4.000000,4.000000,4.000000,100.000000
1602006227.394434,39.000000,0.000000,4124.102539,4138.461426,4113.846191,4132.307617,4151.282227,4125.128418,4120.512695,4120.000000,4126.153809,4136.410156,4116.410156,4122.051270,4141.538574,4112.307617,0.000000,4.000000,,,,0.000000,4.000000,4.000000,4.000000,4.000000,4.000000,4.000000,4.000000,4.000000,4.000000,4.000000,4.000000,4.000000,4.000000,4.000000,100.000000
1602006227.402216,40.000000,0.000000,4121.538574,4145.128418,4117.436035,4136.922852,4150.769043,4137.436035,4119.487305,4118.974121,4130.769043,4128.717773,4123.589844,4123.077148,4139.487305,4115.384766,0.000000,4.000000,,,,0.000000,4.000000,4.000000,4.000000,4.000000,4.000000,4.000000,4.000000,4.000000,4.000000,4.000000,4.000000,4.000000,4.000000,4.000000,100.000000
1602006227.410098,41.000000,0.000000,4129.230957,4153.846191,4123.077148,4141.538574,4150.769043,4140.512695,4120.000000,4120.000000,4133.333496,4120.512695,4126.666504,4121.538574,4140.000000,4109.230957,0.000000,4.000000,,,,0.000000,4.000000,4.000000,4.000000,4.000000,4.000000,4.000000,4.000000,4.000000,4.000000,4.000000,4.000000,4.000000,4.000000,4.000000,100.000000
1602006227.417979,42.000000,0.000000,4138.461426,4156.922852,4125.641113,4142.563965,4152.820313,4132.820313,4122.051270,4123.589844,4122.051270,4130.256348,4120.000000,4121.538574,4138.974121,4109.743652,0.000000,4.000000,,,,0.000000,4.000000,4.000000,4.000000,4.000000,4.000000,4.000000,4.000000,4.000000,4.000000,4.000000,4.000000,4.000000,4.000000,4.000000,100.000000
1602006227.425861,43.000000,0.000000,4136.410156,4151.794922,4129.743652,4140.000000,4150.769043,4125.128418,4124.102539,4122.563965,4121.538574,4135.897461,4120.000000,4126.666504,4127.179688,4123.077148,0.000000,4.000000,,,,0.000000,4.000000,4.000000,4.000000,4.000000,4.000000,4.000000,4.000000,4.000000,4.000000,4.000000,4.000000,4.000000,4.000000,4.000000,100.000000
1602006227.433743,44.000000,0.000000,4138.974121,4142.051270,4135.897461,4136.922852,4142.051270,4121.538574,4122.563965,4123.077148,4135.897461,4136.922852,4126.666504,4135.897461,4127.179688,4127.692383,0.000000,4.000000,,,,0.000000,4.000000,4.000000,4.000000,4.000000,4.000000,4.000000,4.000000,4.000000,4.000000,4.000000,4.000000,4.000000,4.000000,4.000000,100.000000
1602006227.441624,45.000000,0.000000,4151.794922,4138.461426,4138.974121,4134.871582,4135.897461,4127.179688,4127.179688,4133.333496,4141.025879,4145.641113,4130.769043,4142.563965,4140.000000,4121.025879,0.000000,4.000000,,,,0.000000,4.000000,4.000000,4.000000,4.000000,4.000000,4.000000,4.000000,4.000000,4.000000,4.000000,4.000000,4.000000,4.000000,4.000000,100.000000
1602006227.449506,46.000000,0.000000,4156.922852,4140.000000,4139.487305,4137.948730,4142.051270,4135.384766,4137.436035,4137.436035,4138.461426,4141.025879,4134.871582,4141.025879,4143.077148,4129.230957,0.000000,4.000000,,,,0.000000,4.000000,4.000000,4.000000,4.000000,4.000000,4.000000,4.000000,4.000000,4.000000,4.000000,4.000000,4.000000,4.000000,4.000000,100.000000
1602006227.457387,47.000000,0.000000,4145.128418,4141.025879,4139.487305,4138.974121,4152.307617,4135.897461,4137.948730,4131.794922,4135.897461,4122.563965,4136.922852,4137.948730,4140.512695,4143.077148,0.000000,4.000000,,,,0.000000,4.000000,4.000000,4.000000,4.000000,4.000000,4.000000,4.000000,4.000000,4.000000,4.000000,4.000000,4.000000,4.000000,4.000000,100.000000
1602006227.465369,48.000000,0.000000,4138.974121,4147.179688,4137.436035,4138.974121,4149.743652,4139.487305,4129.230957,4123.589844,4127.179688,4127.692383,4140.000000,4139.487305,4146.153809,4134.871582,0.000000,4.000000,,,,0.000000,4.000000,4.000000,4.000000,4.000000,4.000000,4.000000,4.000000,4.000000,4.000000,4.000000,4.000000,4.000000,4.000000,4.000000,100.000000
1602006227.473251,49.000000,0.000000,4143.077148,4151.282227,4128.205078,4138.974121,4141.538574,4136.410156,4125.128418,4114.871582,4112.307617,4139.487305,4133.846191,4136.410156,4143.077148,4119.487305,0.000000,4.000000,,,,0.000000,4.000000,4.000000,4.000000,4.000000,4.000000,4.000000,4.000000,4.000000,4.000000,4.000000,4.000000,4.000000,4.000000,4.000000,100.000000
1602006227.481133,50.000000,0.000000,4134.358887,4141.025879,4120.000000,4130.769043,4137.948730,4117.436035,4119.487305,4109.743652,4104.102539,4124.615234,4113.846191,4126.153809,4128.717773,4119.487305,0.000000,4.000000,,,,0.000000,4.000000,4.000000,4.000000,4.000000,4.000000,4.000000,4.000000,4.000000,4.000000,4.000000,4.000000,4.000000,4.000000,4.000000,100.000000
1602006227.489015,51.000000,0.000000,4122.563965,4135.897461,4118.974121,4127.692383,4138.461426,4109.230957,4111.794922,4110.256348,4103.077148,4113.333496,4108.205078,4121.538574,4127.179688,4125.128418,0.000000,4.000000,,,,0.000000,4.000000,4.000000,4.000000,4.000000,4.000000,4.000000,4.000000,4.000000,4.000000,4.000000,4.000000,4.000000,4.000000,4.000000,100.000000
1602006227.496897,52.000000,0.000000,4129.743652,4141.538574,4118.461426,4137.436035,4140.512695,4123.077148,4110.769043,4110.256348,4102.051270,4124.102539,4122.563965,4129.743652,4136.410156,4121.538574,0.000000,4.000000,,,,0.000000,4.000000,4.000000,4.000000,4.000000,4.000000,4.000000,4.000000,4.000000,4.000000,4.000000,4.000000,4.000000,4.000000,4.000000,100.000000
1602006227.504779,53.000000,0.000000,4141.538574,4142.563965,4124.615234,4138.974121,4141.538574,4129.743652,4113.846191,4110.769043,4106.153809,4132.820313,4130.769043,4142.051270,4139.487305,4127.179688,0.000000,4.000000,,,,0.000000,4.000000,4.000000,4.000000,4.000000,4.000000,4.000000,4.000000,4.000000,4.000000,4.000000,4.000000,4.000000,4.000000,4.000000,100.000000
1602006227.512661,54.000000,0.000000,4140.512695,4141.025879,4134.871582,4132.307617,4139.487305,4122.051270,4116.410156,4116.922852,4111.794922,4128.205078,4133.333496,4151.794922,4136.410156,4142.051270,0.000000,4.000000,,,,0.000000,4.000000,4.000000,4.000000,4.000000,4.000000,4.000000,4.000000,4.000000,4.000000,4.000000,4.000000,4.000000,4.000000,4.000000,100.000000
1602006227.520542,55.000000,0.000000,4140.000000,4141.025879,4139.487305,4136.922852,4137.436035,4124.615234,4122.051270,4122.051270,4118.461426,4118.461426,4143.589844,4154.871582,4140.000000,4145.128418,0.000000,4.000000,,,,0.000000,4.000000,4.000000,4.000000,4.000000,4.000000,4.000000,4.000000,4.000000,4.000000,4.000000,4.000000,4.000000,4.000000,4.000000,100.000000
1602006227.528424,56.000000,0.000000,4142.051270,4136.922852,4138.461426,4137.948730,4139.487305,4130.256348,4127.692383,4125.641113,4123.077148,4124.615234,4142.563965,4149.230957,4141.538574,4133.846191,0.000000,4.000000,,,,0.000000,4.000000,4.000000,4.000000,4.000000,4.000000,4.000000,4.000000,4.000000,4.000000,4.000000,4.000000,4.000000,4.000000,4.000000,100.000000
1602006227.536405,57.000000,0.000000,4138.974121,4134.871582,4133.333496,4129.230957,4136.922852,4124.102539,4127.692383,4126.666504,4121.538574,4150.769043,4131.794922,4147.692383,4138.461426,4129.230957,0.000000,4.000000,,,,0.000000,4.000000,4.000000,4.000000,4.000000,4.000000,4.000000,4.000000,4.000000,4.000000,4.000000,4.000000,4.000000,4.000000,4.000000,100.000000
1602006227.544287,58.000000,0.000000,4137.436035,4138.461426,4131.794922,4131.282227,4130.769043,4120.000000,4124.102539,4126.153809,4123.589844,4158.461426,4132.307617,4152.820313,4145.641113,4141.538574,0.000000,4.000000,,,,0.000000,4.000000,4.000000,4.000000,4.000000,4.000000,4.000000,4.000000,4.000000,4.000000,4.000000,4.000000,4.000000,4.000000,4.000000,100.000000
1602006227.552168,59.000000,0.000000,4140.000000,4142.051270,4136.922852,4137.948730,4134.871582,4131.794922,4125.128418,4130.256348,4135.384766,4137.436035,4142.051270,4151.282227,4154.358887,4153.846191,0.000000,4.000000,,,,0.000000,4.000000,4.000000,4.000000,4.000000,4.000000,4.000000,4.000000,4.000000,4.000000,4.000000,4.000000,4.000000,4.000000,4.000000,100.000000
1602006227.560049,60.000000,0.000000,4139.487305,4142.563965,4138.461426,4136.922852,4142.563965,4141.025879,4133.333496,4138.461426,4142.563965,4135.384766,4139.487305,4143.589844,4152.820313,4153.846191,0.000000,4.000000,,,,0.000000,4.000000,4.000000,4.000000,4.000000,4.000000,4.000000,4.000000,4.000000,4.000000,4.000000,4.000000,4.000000,4.000000,4.000000,100.000000
1602006227.567930,61.000000,0.000000,4136.410156,4138.461426,4136.922852,4135.897461,4141.025879,4132.820313,4136.922852,4137.436035,4133.846191,4146.153809,4122.563965,4136.922852,4140.512695,4143.077148,0.000000,4.000000,,,,0.000000,4.000000,4.000000,4.000000,4.000000,4.000000,4.000000,4.000000,4.000000,4.000000,4.000000,4.000000,4.000000,4.000000,4.000000,100.000000
1602006227.575711,62.000000,0.000000,4135.897461,4136.410156,4138.461426,4136.410156,4134.358887,4119.487305,4133.846191,4127.692383,4124.102539,4132.307617,4115.897461,4133.846191,4128.717773,4129.230957,0.000000,4.000000,,,,0.000000,4.000000,4.000000,4.000000,4.000000,4.000000,4.000000,4.000000,4.000000,4.000000,4.000000,4.000000,4.000000,4.000000,4.000000,100.000000
1602006227.583592,63.000000,0.000000,4137.948730,4140.512695,4140.000000,4136.410156,4135.384766,4121.025879,4135.384766,4124.615234,4120.000000,4118.974121,4122.563965,4136.922852,4129.743652,4126.666504,0.000000,4.000000,,,,0.000000,4.000000,4.000000,4.000000,4.000000,4.000000,4.000000,4.000000,4.000000,4.000000,4.000000,4.000000,4.000000,4.000000,4.000000,100.000000
1602006227.591573,64.000000,0.000000,4141.025879,4142.563965,4139.487305,4138.461426,4138.974121,4133.846191,4135.384766,4127.692383,4112.307617,4135.384766,4125.641113,4140.000000,4137.436035,4135.897461,801.000000,4.000000,,,,0.000000,4.000000,4.000000,4.000000,4.000000,4.000000,4.000000,4.000000,4.000000,4.000000,4.000000,4.000000,4.000000,4.000000,4.000000,100.000000
1602006227.599454,65.000000,0.000000,4141.025879,4138.974121,4141.025879,4141.025879,4138.461426,4138.974121,4127.692383,4126.666504,4111.794922,4147.179688,4129.743652,4136.922852,4138.461426,4142.563965,793.000000,4.000000,,,,0.000000,4.000000,4.000000,4.000000,4.000000,4.000000,4.000000,4.000000,4.000000,4.000000,4.000000,4.000000,4.000000,4.000000,4.000000,100.000000
1602006227.607335,66.000000,0.000000,4143.589844,4138.974121,4145.641113,4137.948730,4136.922852,4134.358887,4122.051270,4121.538574,4118.974121,4136.922852,4137.436035,4142.563965,4135.384766,4140.512695,852.000000,4.000000,,,,0.000000,4.000000,4.000000,4.000000,4.000000,4.000000,4.000000,4.000000,4.000000,4.000000,4.000000,4.000000,4.000000,4.000000,4.000000,100.000000
1602006227.615217,67.000000,0.000000,4153.333496,4145.641113,4152.307617,4138.461426,4141.538574,4134.358887,4123.077148,4122.563965,4117.436035,4138.974121,4137.948730,4152.307617,4139.487305,4141.538574,869.000000,4.000000,,,,0.000000,4.000000,4.000000,4.000000,4.000000,4.000000,4.000000,4.000000,4.000000,4.000000,4.000000,4.000000,4.000000,4.000000,4.000000,100.000000
1602006227.622998,68.000000,0.000000,4153.846191,4149.743652,4154.871582,4141.025879,4148.205078,4140.000000,4123.589844,4126.153809,4116.922852,4159.487305,4136.922852,4153.333496,4146.153809,4141.025879,813.000000,4.000000,,,,0.000000,4.000000,4.000000,4.000000,4.000000,4.000000,4.000000,4.000000,4.000000,4.000000,4.000000,4.000000,4.000000,4.000000,4.000000,100.000000
1602006227.630878,69.000000,0.000000,4139.487305,4143.077148,4149.743652,4135.897461,4145.128418,4134.871582,4122.563965,4125.128418,4127.179688,4162.563965,4142.051270,4152.820313,4145.641113,4137.948730,823.000000,4.000000,,,,0.000000,4.000000,4.000000,4.000000,4.000000,4.000000,4.000000,4.000000,4.000000,4.000000,4.000000,4.000000,4.000000,4.000000,4.000000,100.000000
1602006227.638859,70.000000,0.000000,4137.948730,4140.000000,4145.128418,4135.384766,4138.461426,4122.563965,4121.538574,4121.025879,4117.948730,4130.256348,4136.410156,4153.333496,4139.487305,4149.743652,762.000000,4.000000,,,,0.000000,4.000000,4.000000,4.000000,4.000000,4.000000,4.000000,4.000000,4.000000,4.000000,4.000000,4.000000,4.000000,4.000000,4.000000,100.000000
1602006227.646740,71.000000,0.000000,4147.179688,4141.025879,4142.563965,4142.563965,4139.487305,4124.102539,4121.538574,4118.461426,4096.922852,4114.871582,4123.589844,4151.794922,4132.820313,4155.897461,670.000000,4.000000,,,,0.000000,4.000000,4.000000,4.000000,4.000000,4.000000,4.000000,4.000000,4.000000,4.000000,4.000000,4.000000,4.000000,4.000000,4.000000,100.000000
1602006227.654522,72.000000,0.000000,4137.436035,4128.205078,4139.487305,4140.000000,4144.615234,4135.897461,4123.589844,4122.051270,4105.641113,4139.487305,4121.538574,4153.846191,4129.743652,4141.538574,787.000000,4.000000,,,,0.000000,4.000000,4.000000,4.000000,4.000000,4.000000,4.000000,4.000000,4.000000,4.000000,4.000000,4.000000,4.000000,4.000000,4.000000,100.000000
1602006227.662404,73.000000,0.000000,4132.307617,4125.128418,4137.948730,4132.820313,4145.641113,4140.512695,4124.615234,4120.512695,4115.897461,4133.333496,4125.128418,4150.769043,4127.179688,4136.410156,839.000000,4.000000,,,,0.000000,4.000000,4.000000,4.000000,4.000000,4.000000,4.000000,4.000000,4.000000,4.000000,4.000000,4.000000,4.000000,4.000000,4.000000,100.000000
1602006227.670285,74.000000,0.000000,4146.153809,4148.717773,4137.436035,4138.461426,4144.102539,4130.256348,4120.000000,4108.205078,4094.358887,4103.077148,4121.025879,4133.333496,4116.410156,4140.512695,871.000000,4.000000,,,,0.000000,4.000000,4.000000,4.000000,4.000000,4.000000,4.000000,4.000000,4.000000,4.000000,4.000000,4.000000,4.000000,4.000000,4.000000,100.000000
1602006227.678167,75.000000,0.000000,4148.205078,4162.563965,4135.897461,4152.820313,4141.538574,4123.077148,4114.358887,4101.025879,4083.076904,4116.410156,4108.717773,4120.512695,4101.538574,4126.666504,844.000000,4.000000,,,,0.000000,4.000000,4.000000,4.000000,4.000000,4.000000,4.000000,4.000000,4.000000,4.000000,4.000000,4.000000,4.000000,4.000000,4.000000,100.000000
1602006227.686049,76.000000,0.000000,4136.410156,4157.436035,4133.846191,4150.769043,4137.948730,4121.025879,4113.333496,4104.615234,4097.436035,4143.077148,4101.538574,4121.025879,4096.410156,4111.282227,767.000000,4.000000,,,,0.000000,4.000000,4.000000,4.000000,4.000000,4.000000,4.000000,4.000000,4.000000,4.000000,4.000000,4.000000,4.000000,4.000000,4.000000,100.000000
1602006227.693930,77.000000,0.000000,4135.897461,4157.948730,4136.410156,4139.487305,4136.410156,4118.974121,4116.922852,4109.743652,4105.641113,4142.563965,4113.333496,4122.563965,4106.153809,4115.384766,744.000000,4.000000,,,,0.000000,4.000000,4.000000,4.000000,4.000000,4.000000,4.000000,4.000000,4.000000,4.000000,4.000000,4.000000,4.000000,4.000000,4.000000,100.000000
1602006227.701812,78.000000,0.000000,4144.615234,4160.512695,4141.025879,4138.974121,4141.025879,4127.692383,4123.589844,4113.333496,4111.794922,4138.461426,4128.717773,4124.615234,4114.358887,4117.948730,871.000000,4.000000,,,,0.000000,4.000000,4.000000,4.000000,4.000000,4.000000,4.000000,4.000000,4.000000,4.000000,4.000000,4.000000,4.000000,4.000000,4.000000,100.000000
1602006227.709594,79.000000,0.000000,4144.615234,4156.410156,4132.820313,4140.512695,4138.461426,4135.384766,4121.538574,4112.307617,4117.436035,4128.717773,4118.974121,4129.230957,4108.717773,4107.179688,844.000000,4.000000,,,,0.000000,4.000000,4.000000,4.000000,4.000000,4.000000,4.000000,4.000000,4.000000,4.000000,4.000000,4.000000,4.000000,4.000000,4.000000,100.000000
1602006227.717475,80.000000,0.000000,4145.641113,4151.282227,4121.538574,4134.358887,4124.102539,4122.051270,4108.205078,4106.666504,4107.179688,4113.846191,4101.025879,4124.615234,4099.487305,4097.436035,767.000000,4.000000,,,,0.000000,4.000000,4.000000,4.000000,4.000000,4.000000,4.000000,4.000000,4.000000,4.000000,4.000000,4.000000,4.000000,4.000000,4.000000,100.000000
1602006227.725357,81.000000,0.000000,4152.307617,4154.358887,4128.205078,4137.436035,4124.102539,4116.922852,4108.717773,4109.230957,4110.769043,4128.717773,4109.743652,4116.922852,4103.077148,4104.102539,744.000000,4.000000,,,,0.000000,4.000000,4.000000,4.000000,4.000000,4.000000,4.000000,4.000000,4.000000,4.000000,4.000000,4.000000,4.000000,4.000000,4.000000,100.000000
1602006227.733239,82.000000,0.000000,4156.410156,4167.179688,4140.512695,4151.794922,4140.000000,4137.436035,4118.974121,4120.512695,4131.282227,4144.615234,4122.563965,4130.256348,4120.000000,4130.256348,871.000000,4.000000,,,,0.000000,4.000000,4.000000,4.000000,4.000000,4.000000,4.000000,4.000000,4.000000,4.000000,4.000000,4.000000,4.000000,4.000000,4.000000,100.000000
1602006227.741120,83.000000,0.000000,4155.897461,4173.846191,4142.051270,4156.922852,4145.128418,4143.077148,4117.436035,4123.589844,4129.230957,4141.538574,4122.051270,4144.615234,4127.692383,4147.692383,844.000000,4.000000,,,,0.000000,4.000000,4.000000,4.000000,4.000000,4.000000,4.000000,4.000000,4.000000,4.000000,4.000000,4.000000,4.000000,4.000000,4.000000,100.000000
1602006227.749002,84.000000,0.000000,4158.974121,4170.256348,4140.000000,4155.384766,4140.000000,4133.846191,4115.384766,4121.025879,4123.077148,4147.692383,4123.589844,4133.333496,4118.974121,4134.871582,767.000000,4.000000,,,,0.000000,4.000000,4.000000,4.000000,4.000000,4.000000,4.000000,4.000000,4.000000,4.000000,4.000000,4.000000,4.000000,4.000000,4.000000,100.000000
1602006227.756883,85.000000,0.000000,4157.436035,4170.256348,4133.333496,4151.282227,4140.000000,4134.871582,4122.051270,4121.025879,4128.717773,4147.179688,4126.153809,4120.000000,4112.307617,4116.922852,744.000000,4.000000,,,,0.000000,4.000000,4.000000,4.000000,4.000000,4.000000,4.000000,4.000000,4.000000,4.000000,4.000000,4.000000,4.000000,4.000000,4.000000,100.000000
1602006227.764765,86.000000,0.000000,4141.025879,4165.128418,4115.897461,4142.563965,4137.948730,4125.641113,4122.051270,4119.487305,4121.538574,4124.615234,4121.538574,4121.025879,4109.230957,4109.743652,871.000000,4.000000,,,,0.000000,4.000000,4.000000,4.000000,4.000000,4.000000,4.000000,4.000000,4.000000,4.000000,4.000000,4.000000,4.000000,4.000000,4.000000,100.000000
1602006227.772746,87.000000,0.000000,4131.282227,4153.846191,4104.102539,4135.897461,4135.384766,4117.948730,4120.000000,4117.436035,4120.512695,4125.128418,4119.487305,4122.563965,4106.666504,4108.717773,844.000000,4.000000,,,,0.000000,4.000000,4.000000,4.000000,4.000000,4.000000,4.000000,4.000000,4.000000,4.000000,4.000000,4.000000,4.000000,4.000000,4.000000,100.000000
1602006227.780628,88.000000,0.000000,4135.897461,4152.820313,4108.717773,4133.846191,4137.436035,4133.333496,4124.615234,4122.563965,4135.384766,4149.743652,4121.538574,4122.051270,4108.717773,4112.307617,767.000000,4.000000,,,,0.000000,4.000000,4.000000,4.000000,4.000000,4.000000,4.000000,4.000000,4.000000,4.000000,4.000000,4.000000,4.000000,4.000000,4.000000,100.000000
1602006227.788509,89.000000,0.000000,4136.410156,4156.410156,4112.820313,4136.922852,4132.820313,4141.538574,4124.102539,4127.179688,4141.538574,4150.769043,4122.051270,4123.589844,4111.794922,4119.487305,744.000000,4.000000,,,,0.000000,4.000000,4.000000,4.000000,4.000000,4.000000,4.000000,4.000000,4.000000,4.000000,4.000000,4.000000,4.000000,4.000000,4.000000,100.000000
1602006227.796391,90.000000,0.000000,4127.692383,4149.743652,4108.205078,4140.512695,4125.641113,4135.384766,4121.538574,4126.153809,4136.922852,4137.436035,4115.897461,4125.128418,4109.230957,4127.179688,871.000000,4.000000,,,,0.000000,4.000000,4.000000,4.000000,4.000000,4.000000,4.000000,4.000000,4.000000,4.000000,4.000000,4.000000,4.000000,4.000000,4.000000,100.000000
1602006227.804272,91.000000,0.000000,4116.922852,4138.461426,4104.615234,4131.794922,4124.102539,4133.333496,4119.487305,4122.563965,4122.051270,4123.077148,4100.512695,4122.051270,4098.461426,4116.410156,844.000000,4.000000,,,,0.000000,4.000000,4.000000,4.000000,4.000000,4.000000,4.000000,4.000000,4.000000,4.000000,4.000000,4.000000,4.000000,4.000000,4.000000,100.000000
1602006227.812153,92.000000,0.000000,4113.846191,4135.897461,4107.179688,4124.102539,4124.615234,4133.846191,4117.436035,4116.410156,4104.615234,4102.051270,4095.384521,4113.333496,4086.666748,4095.384521,767.000000,4.000000,,,,0.000000,4.000000,4.000000,4.000000,4.000000,4.000000,4.000000,4.000000,4.000000,4.000000,4.000000,4.000000,4.000000,4.000000,4.000000,100.000000
1602006227.819935,93.000000,0.000000,4120.000000,4140.000000,4107.692383,4134.358887,4124.615234,4133.846191,4120.512695,4113.333496,4104.615234,4098.974121,4108.205078,4111.282227,4091.794922,4094.358887,744.000000,4.000000,,,,0.000000,4.000000,4.000000,4.000000,4.000000,4.000000,4.000000,4.000000,4.000000,4.000000,4.000000,4.000000,4.000000,4.000000,4.000000,100.000000
1602006227.827816,94.000000,0.000000,4129.230957,4141.025879,4106.153809,4143.077148,4120.512695,4135.384766,4125.641113,4115.897461,4111.282227,4117.436035,4113.333496,4120.000000,4106.666504,4112.307617,871.000000,4.000000,,,,0.000000,4.000000,4.000000,4.000000,4.000000,4.000000,4.000000,4.000000,4.000000,4.000000,4.000000,4.000000,4.000000,4.000000,4.000000,100.000000
1602006227.835698,95.000000,0.000000,4138.461426,4145.641113,4115.897461,4140.512695,4125.128418,4136.922852,4125.128418,4120.512695,4108.205078,4131.794922,4112.307617,4125.641113,4110.256348,4126.153809,844.000000,4.000000,,,,0.000000,4.000000,4.000000,4.000000,4.000000,4.000000,4.000000,4.000000,4.000000,4.000000,4.000000,4.000000,4.000000,4.000000,4.000000,100.000000
1602006227.843579,96.000000,0.000000,4143.589844,4153.846191,4126.153809,4142.563965,4136.410156,4134.871582,4124.102539,4123.077148,4110.769043,4136.922852,4119.487305,4128.205078,4105.128418,4125.128418,767.000000,4.000000,,,,0.000000,4.000000,4.000000,4.000000,4.000000,4.000000,4.000000,4.000000,4.000000,4.000000,4.000000,4.000000,4.000000,4.000000,4.000000,100.000000
1602006227.851461,97.000000,0.000000,4138.461426,4152.820313,4124.102539,4143.589844,4133.846191,4126.666504,4127.179688,4125.128418,4125.641113,4138.461426,4125.641113,4136.922852,4108.717773,4122.563965,744.000000,4.000000,,,,0.000000,4.000000,4.000000,4.000000,4.000000,4.000000,4.000000,4.000000,4.000000,4.000000,4.000000,4.000000,4.000000,4.000000,4.000000,100.000000
1602006227.859342,98.000000,0.000000,4133.846191,4146.666504,4122.051270,4137.436035,4125.641113,4118.461426,4128.205078,4125.128418,4134.871582,4146.153809,4125.128418,4140.000000,4116.922852,4131.794922,871.000000,4.000000,,,,0.000000,4.000000,4.000000,4.000000,4.000000,4.000000,4.000000,4.000000,4.000000,4.000000,4.000000,4.000000,4.000000,4.000000,4.000000,100.000000
1602006227.867323,99.000000,0.000000,4138.461426,4149.230957,4127.179688,4137.948730,4131.794922,4120.000000,4128.717773,4125.128418,4130.256348,4147.692383,4125.128418,4136.922852,4116.410156,4139.487305,844.000000,4.000000,,,,0.000000,4.000000,4.000000,4.000000,4.000000,4.000000,4.000000,4.000000,4.000000,4.000000,4.000000,4.000000,4.000000,4.000000,4.000000,100.000000
1602006227.875205,100.000000,0.000000,4141.025879,4155.897461,4127.179688,4141.538574,4139.487305,4124.102539,4134.358887,4126.666504,4121.538574,4125.641113,4124.615234,4135.897461,4109.743652,4128.205078,767.000000,4.000000,,,,0.000000,4.000000,4.000000,4.000000,4.000000,4.000000,4.000000,4.000000,4.000000,4.000000,4.000000,4.000000,4.000000,4.000000,4.000000,100.000000
1602006227.883086,101.000000,0.000000,4137.436035,4152.820313,4123.077148,4141.025879,4136.410156,4126.666504,4135.384766,4126.666504,4122.051270,4118.974121,4111.794922,4135.897461,4107.179688,4114.871582,744.000000,4.000000,,,,0.000000,4.000000,4.000000,4.000000,4.000000,4.000000,4.000000,4.000000,4.000000,4.000000,4.000000,4.000000,4.000000,4.000000,4.000000,100.000000
1602006227.890967,102.000000,0.000000,4133.333496,4142.563965,4125.128418,4136.410156,4131.794922,4125.128418,4128.717773,4126.666504,4119.487305,4141.025879,4092.820557,4136.922852,4108.205078,4112.307617,871.000000,4.000000,,,,0.000000,4.000000,4.000000,4.000000,4.000000,4.000000,4.000000,4.000000,4.000000,4.000000,4.000000,4.000000,4.000000,4.000000,4.000000,100.000000
1602006227.898849,103.000000,0.000000,4134.358887,4137.436035,4126.666504,4128.717773,4124.102539,4121.025879,4122.051270,4122.563965,4105.641113,4136.410156,4092.307617,4132.307617,4100.000000,4103.077148,844.000000,4.000000,,,,0.000000,4.000000,4.000000,4.000000,4.000000,4.000000,4.000000,4.000000,4.000000,4.000000,4.000000,4.000000,4.000000,4.000000,4.000000,100.000000
1602006227.906730,104.000000,0.000000,4134.871582,4138.461426,4122.051270,4125.641113,4121.025879,4119.487305,4114.358887,4110.769043,4098.974121,4106.666504,4106.153809,4124.615234,4090.769287,4093.333252,767.000000,4.000000,,,,0.000000,4.000000,4.000000,4.000000,4.000000,4.000000,4.000000,4.000000,4.000000,4.000000,4.000000,4.000000,4.000000,4.000000,4.000000,100.000000
1602006227.914512,105.000000,0.000000,4134.358887,4141.538574,4117.436035,4133.333496,4131.282227,4122.051270,4105.128418,4107.692383,4112.307617,4106.153809,4109.230957,4126.153809,4090.769287,4098.461426,744.000000,4.000000,,,,0.000000,4.000000,4.000000,4.000000,4.000000,4.000000,4.000000,4.000000,4.000000,4.000000,4.000000,4.000000,4.000000,4.000000,4.000000,100.000000
1602006227.922393,106.000000,0.000000,4139.487305,4148.205078,4119.487305,4146.153809,4137.436035,4130.256348,4105.641113,4118.461426,4127.692383,4126.153809,4106.153809,4129.743652,4097.436035,4112.307617,871.000000,4.000000,,,,0.000000,4.000000,4.000000,4.000000,4.000000,4.000000,4.000000,4.000000,4.000000,4.000000,4.000000,4.000000,4.000000,4.000000,4.000000,100.000000
1602006227.930275,107.000000,0.000000,4138.461426,4152.820313,4124.615234,4148.205078,4136.410156,4132.820313,4110.256348,4125.128418,4127.179688,4122.563965,4109.743652,4126.666504,4105.641113,4123.589844,844.000000,4.000000,,,,0.000000,4.000000,4.000000,4.000000,4.000000,4.000000,4.000000,4.000000,4.000000,4.000000,4.000000,4.000000,4.000000,4.000000,4.000000,100.000000
1602006227.938156,108.000000,0.000000,4125.641113,4146.153809,4121.538574,4138.974121,4136.922852,4123.077148,4109.230957,4120.000000,4114.358887,4103.077148,4111.794922,4123.589844,4107.179688,4122.563965,767.000000,4.000000,,,,0.000000,4.000000,4.000000,4.000000,4.000000,4.000000,4.000000,4.000000,4.000000,4.000000,4.000000,4.000000,4.000000,4.000000,4.000000,100.000000
1602006227.946037,109.000000,0.000000,4118.461426,4137.436035,4115.897461,4133.846191,4131.794922,4115.384766,4112.307617,4118.974121,4113.333496,4104.102539,4108.205078,4122.563965,4104.102539,4116.922852,744.000000,4.000000,,,,0.000000,4.000000,4.000000,4.000000,4.000000,4.000000,4.000000,4.000000,4.000000,4.000000,4.000000,4.000000,4.000000,4.000000,4.000000,100.000000
1602006227.953919,110.000000,0.000000,4128.205078,4139.487305,4120.512695,4138.974121,4131.282227,4120.000000,4121.538574,4129.230957,4132.820313,4130.256348,4105.641113,4127.692383,4107.692383,4122.563965,871.000000,4.000000,,,,0.000000,4.000000,4.000000,4.000000,4.000000,4.000000,4.000000,4.000000,4.000000,4.000000,4.000000,4.000000,4.000000,4.000000,4.000000,100.000000
1602006227.961700,111.000000,0.000000,4136.922852,4144.102539,4126.666504,4141.538574,4137.436035,4125.641113,4128.717773,4136.410156,4139.487305,4141.538574,4104.615234,4139.487305,4113.333496,4123.589844,844.000000,4.000000,,,,0.000000,4.000000,4.000000,4.000000,4.000000,4.000000,4.000000,4.000000,4.000000,4.000000,4.000000,4.000000,4.000000,4.000000,4.000000,100.000000
1602006227.969582,112.000000,0.000000,4138.461426,4140.512695,4123.077148,4137.948730,4133.333496,4129.743652,4129.230957,4129.230957,4124.615234,4130.256348,4109.743652,4145.128418,4115.384766,4111.282227,767.000000,4.000000,,,,0.000000,4.000000,4.000000,4.000000,4.000000,4.000000,4.000000,4.000000,4.000000,4.000000,4.000000,4.000000,4.000000,4.000000,4.000000,100.000000
1602006227.977464,113.000000,0.000000,4140.512695,4140.512695,4121.538574,4138.461426,4128.717773,4138.974121,4127.179688,4120.000000,4118.461426,4114.358887,4120.512695,4142.051270,4117.436035,4105.128418,744.000000,4.000000,,,,0.000000,4.000000,4.000000,4.000000,4.000000,4.000000,4.000000,4.000000,4.000000,4.000000,4.000000,4.000000,4.000000,4.000000,4.000000,100.000000
1602006227.985345,114.000000,0.000000,4141.025879,4145.128418,4124.615234,4138.461426,4134.358887,4138.974121,4121.025879,4121.538574,4126.666504,4104.102539,4121.025879,4141.538574,4117.436035,4109.743652,871.000000,4.000000,,,,0.000000,4.000000,4.000000,4.000000,4.000000,4.000000,4.000000,4.000000,4.000000,4.000000,4.000000,4.000000,4.000000,4.000000,4.000000,100.000000
1602006227.993227,115.000000,0.000000,4141.025879,4144.615234,4125.641113,4133.846191,4132.307617,4128.205078,4112.307617,4124.615234,4135.384766,4115.384766,4112.307617,4140.000000,4112.307617,4109.230957,844.000000,4.000000,,,,0.000000,4.000000,4.000000,4.000000,4.000000,4.000000,4.000000,4.000000,4.000000,4.000000,4.000000,4.000000,4.000000,4.000000,4.000000,100.000000
1602006228.001109,116.000000,0.000000,4142.051270,4141.025879,4122.051270,4133.333496,4126.153809,4118.974121,4107.692383,4123.589844,4138.461426,4131.282227,4107.179688,4132.307617,4106.666504,4103.589844,767.000000,4.000000,,,,0.000000,4.000000,4.000000,4.000000,4.000000,4.000000,4.000000,4.000000,4.000000,4.000000,4.000000,4.000000,4.000000,4.000000,4.000000,100.000000
1602006228.008990,117.000000,0.000000,4136.922852,4141.538574,4114.358887,4138.461426,4129.230957,4123.077148,4112.307617,4124.102539,4133.846191,4117.436035,4099.487305,4123.077148,4104.615234,4100.000000,744.000000,4.000000,,,,0.000000,4.000000,4.000000,4.000000,4.000000,4.000000,4.000000,4.000000,4.000000,4.000000,4.000000,4.000000,4.000000,4.000000,4.000000,100.000000
1602006228.016872,118.000000,0.000000,4125.128418,4138.974121,4107.179688,4131.794922,4125.641113,4126.153809,4114.871582,4117.948730,4121.538574,4096.922852,4088.205078,4115.384766,4103.589844,4093.333252,871.000000,4.000000,,,,0.000000,4.000000,4.000000,4.000000,4.000000,4.000000,4.000000,4.000000,4.000000,4.000000,4.000000,4.000000,4.000000,4.000000,4.000000,100.000000
1602006228.024853,119.000000,0.000000,4120.512695,4132.820313,4104.102539,4121.025879,4120.000000,4114.871582,4110.256348,4110.256348,4120.512695,4109.743652,4093.846191,4114.871582,4106.666504,4090.256348,844.000000,4.000000,,,,0.000000,4.000000,4.000000,4.000000,4.000000,4.000000,4.000000,4.000000,4.000000,4.000000,4.000000,4.000000,4.000000,4.000000,4.000000,100.000000
1602006228.032734,120.000000,0.000000,4127.179688,4134.871582,4107.692383,4129.230957,4131.282227,4111.282227,4112.307617,4116.410156,4133.333496,4137.436035,4109.230957,4125.641113,4113.333496,4104.615234,767.000000,4.000000,,,,0.000000,4.000000,4.000000,4.000000,4.000000,4.000000,4.000000,4.000000,4.000000,4.000000,4.000000,4.000000,4.000000,4.000000,4.000000,100.000000
1602006228.040615,121.000000,0.000000,4135.897461,4141.025879,4116.922852,4135.897461,4137.436035,4128.205078,4122.051270,4128.205078,4143.589844,4138.974121,4113.333496,4137.436035,4124.615234,4121.025879,744.000000,4.000000,,,,0.000000,4.000000,4.000000,4.000000,4.000000,4.000000,4.000000,4.000000,4.000000,4.000000,4.000000,4.000000,4.000000,4.000000,4.000000,100.000000
1602006228.048497,122.000000,0.000000,4139.487305,4142.051270,4122.563965,4130.256348,4128.205078,4137.948730,4126.153809,4127.179688,4138.461426,4122.563965,4112.820313,4136.922852,4133.846191,4116.922852,871.000000,4.000000,,,,0.000000,4.000000,4.000000,4.000000,4.000000,4.000000,4.000000,4.000000,4.000000,4.000000,4.000000,4.000000,4.000000,4.000000,4.000000,100.000000
1602006228.056478,123.000000,0.000000,4129.743652,4137.948730,4120.512695,4130.256348,4122.563965,4125.128418,4124.615234,4119.487305,4125.128418,4118.974121,4113.846191,4128.717773,4128.717773,4101.538574,844.000000,4.000000,,,,0.000000,4.000000,4.000000,4.000000,4.000000,4.000000,4.000000,4.000000,4.000000,4.000000,4.000000,4.000000,4.000000,4.000000,4.000000,100.000000
1602006228.064360,124.000000,0.000000,4119.487305,4134.871582,4118.461426,4136.410156,4124.102539,4116.922852,4125.128418,4121.538574,4124.102539,4126.153809,4109.743652,4124.615234,4120.512695,4104.102539,767.000000,4.000000,,,,0.000000,4.000000,4.000000,4.000000,4.000000,4.000000,4.000000,4.000000,4.000000,4.000000,4.000000,4.000000,4.000000,4.000000,4.000000,100.000000
1602006228.072242,125.000000,0.000000,4128.205078,4135.897461,4123.077148,4137.436035,4123.589844,4125.128418,4125.641113,4127.179688,4135.384766,4124.615234,4109.743652,4130.256348,4120.000000,4124.615234,744.000000,4.000000,,,,0.000000,4.000000,4.000000,4.000000,4.000000,4.000000,4.000000,4.000000,4.000000,4.000000,4.000000,4.000000,4.000000,4.000000,4.000000,100.000000
1602006228.080124,126.000000,0.000000,4140.512695,4138.974121,4127.692383,4136.410156,4126.666504,4126.666504,4125.128418,4127.692383,4138.974121,4127.179688,4119.487305,4142.563965,4131.282227,4138.461426,871.000000,4.000000,,,,0.000000,4.000000,4.000000,4.000000,4.000000,4.000000,4.000000,4.000000,4.000000,4.000000,4.000000,4.000000,4.000000,4.000000,4.000000,100.000000
1602006228.088006,127.000000,0.000000,4138.461426,4139.487305,4129.743652,4136.922852,4133.333496,4122.051270,4121.538574,4125.128418,4133.846191,4125.641113,4124.615234,4151.794922,4136.922852,4137.436035,844.000000,4.000000,,,,0.000000,4.000000,4.000000,4.000000,4.000000,4.000000,4.000000,4.000000,4.000000,4.000000,4.000000,4.000000,4.000000,4.000000,4.000000,100.000000
1602006228.095888,128.000000,0.000000,4136.922852,4138.461426,4128.205078,4137.948730,4136.410156,4124.102539,4115.384766,4124.102539,4134.871582,4113.846191,4120.512695,4152.307617,4128.205078,4136.922852,767.000000,4.000000,,,,0.000000,4.000000,4.000000,4.000000,4.000000,4.000000,4.000000,4.000000,4.000000,4.000000,4.000000,4.000000,4.000000,4.000000,4.000000,100.000000
1602006228.103770,0.000000,0.000000,4142.051270,4136.922852,4125.128418,4143.077148,4134.358887,4130.256348,4115.384766,4123.589844,4136.410156,4126.666504,4121.025879,4154.358887,4123.589844,4138.974121,801.000000,4.000000,,,,0.000000,4.000000,4.000000,4.000000,4.000000,4.000000,4.000000,4.000000,4.000000,4.000000,4.000000,4.000000,4.000000,4.000000,4.000000,100.000000
1602006228.111651,1.000000,0.000000,4138.461426,4135.897461,4123.077148,4142.563965,4126.666504,4126.153809,4120.000000,4122.051270,4134.871582,4150.769043,4124.102539,4152.820313,4124.102539,4130.256348,793.000000,4.000000,,,,0.000000,4.000000,4.000000,4.000000,4.000000,4.000000,4.000000,4.000000,4.000000,4.000000,4.000000,4.000000,4.000000,4.000000,4.000000,100.000000
1602006228.119533,2.000000,0.000000,4133.333496,4134.871582,4120.512695,4136.922852,4118.974121,4115.897461,4120.000000,4122.051270,4135.897461,4137.948730,4113.333496,4141.025879,4118.974121,4111.282227,852.000000,4.000000,,,,0.000000,4.000000,4.000000,4.000000,4.000000,4.000000,4.000000,4.000000,4.000000,4.000000,4.000000,4.000000,4.000000,4.000000,4.000000,100.000000
1602006228.127315,3.000000,0.000000,4138.974121,4140.000000,4122.563965,4138.461426,4122.051270,4116.922852,4123.077148,4123.589844,4130.256348,4121.025879,4109.743652,4140.512695,4123.589844,4104.102539,869.000000,4.000000,,,,0.000000,4.000000,4.000000,4.000000,4.000000,4.000000,4.000000,4.000000,4.000000,4.000000,4.000000,4.000000,4.000000,4.000000,4.000000,100.000000
1602006228.135197,4.000000,0.000000,4141.025879,4142.563965,4124.615234,4141.025879,4130.256348,4122.051270,4125.641113,4124.615234,4116.410156,4129.230957,4124.102539,4153.333496,4138.974121,4118.974121,813.000000,4.000000,,,,0.000000,4.000000,4.000000,4.000000,4.000000,4.000000,4.000000,4.000000,4.000000,4.000000,4.000000,4.000000,4.000000,4.000000,4.000000,100.000000
1602006228.143078,5.000000,0.000000,4136.410156,4137.948730,4120.512695,4138.974121,4133.846191,4117.948730,4118.461426,4121.538574,4112.820313,4124.615234,4126.666504,4153.846191,4138.461426,4124.615234,875.000000,4.000000,,,,0.000000,4.000000,4.000000,4.000000,4.000000,4.000000,4.000000,4.000000,4.000000,4.000000,4.000000,4.000000,4.000000,4.000000,4.000000,100.000000
1602006228.150960,6.000000,0.000000,4138.974121,4142.051270,4124.615234,4138.461426,4136.922852,4117.436035,4114.358887,4119.487305,4124.102539,4119.487305,4127.179688,4148.205078,4134.358887,4116.410156,762.000000,4.000000,,,,0.000000,4.000000,4.000000,4.000000,4.000000,4.000000,4.000000,4.000000,4.000000,4.000000,4.000000,4.000000,4.000000,4.000000,4.000000,100.000000
1602006228.158842,7.000000,0.000000,4148.205078,4153.846191,4137.436035,4145.128418,4144.102539,4125.128418,4120.000000,4122.563965,4139.487305,4144.102539,4135.384766,4153.333496,4145.128418,4127.179688,670.000000,4.000000,,,,0.000000,4.000000,4.000000,4.000000,4.000000,4.000000,4.000000,4.000000,4.000000,4.000000,4.000000,4.000000,4.000000,4.000000,4.000000,100.000000
1602006228.166723,8.000000,0.000000,4151.794922,4156.922852,4140.000000,4154.871582,4145.641113,4128.717773,4122.563965,4124.615234,4143.589844,4163.077148,4131.794922,4153.333496,4147.692383,4145.641113,787.000000,4.000000,,,,0.000000,4.000000,4.000000,4.000000,4.000000,4.000000,4.000000,4.000000,4.000000,4.000000,4.000000,4.000000,4.000000,4.000000,4.000000,100.000000
1602006228.174605,9.000000,0.000000,4151.282227,4154.871582,4135.897461,4156.410156,4140.512695,4125.128418,4123.077148,4120.512695,4128.717773,4144.102539,4122.563965,4140.512695,4132.307617,4136.410156,839.000000,4.000000,,,,0.000000,4.000000,4.000000,4.000000,4.000000,4.000000,4.000000,4.000000,4.000000,4.000000,4.000000,4.000000,4.000000,4.000000,4.000000,100.000000
1602006228.182487,10.000000,0.000000,4148.205078,4150.256348,4136.922852,4145.641113,4137.948730,4120.512695,4131.282227,4120.000000,4113.846191,4116.922852,4119.487305,4132.820313,4119.487305,4120.000000,871.000000,4.000000,,,,0.000000,4.000000,4.000000,4.000000,4.000000,4.000000,4.000000,4.000000,4.000000,4.000000,4.000000,4.000000,4.000000,4.000000,4.000000,100.000000
1602006228.190468,11.000000,0.000000,4144.615234,4144.615234,4140.000000,4139.487305,4132.820313,4126.153809,4139.487305,4131.794922,4120.512695,4111.282227,4112.820313,4140.512695,4120.000000,4123.589844,844.000000,4.000000,,,,0.000000,4.000000,4.000000,4.000000,4.000000,4.000000,4.000000,4.000000,4.000000,4.000000,4.000000,4.000000,4.000000,4.000000,4.000000,100.000000
1602006228.198350,12.000000,0.000000,4140.512695,4143.077148,4135.384766,4145.641113,4124.102539,4135.384766,4135.897461,4137.948730,4131.282227,4113.846191,4116.922852,4151.794922,4125.641113,4126.666504,767.000000,4.000000,,,,0.000000,4.000000,4.000000,4.000000,4.000000,4.000000,4.000000,4.000000,4.000000,4.000000,4.000000,4.000000,4.000000,4.000000,4.000000,100.000000
1602006228.206232,13.000000,0.000000,4129.230957,4140.512695,4126.666504,4142.051270,4122.563965,4129.230957,4125.641113,4124.102539,4123.589844,4113.333496,4119.487305,4142.563965,4121.538574,4113.846191,773.000000,4.000000,,,,0.000000,4.000000,4.000000,4.000000,4.000000,4.000000,4.000000,4.000000,4.000000,4.000000,4.000000,4.000000,4.000000,4.000000,4.000000,100.000000
1602006228.214114,14.000000,0.000000,4121.538574,4134.871582,4119.487305,4130.769043,4130.256348,4119.487305,4120.512695,4108.205078,4116.410156,4122.051270,4106.153809,4128.205078,4114.358887,4107.692383,871.000000,4.000000,,,,0.000000,4.000000,4.000000,4.000000,4.000000,4.000000,4.000000,4.000000,4.000000,4.000000,4.000000,4.000000,4.000000,4.000000,4.000000,100.000000
1602006228.221996,15.000000,0.000000,4128.205078,4137.436035,4121.025879,4133.333496,4136.410156,4124.102539,4121.025879,4108.717773,4124.102539,4145.128418,4108.205078,4135.384766,4116.410156,4114.871582,844.000000,4.000000,,,,0.000000,4.000000,4.000000,4.000000,4.000000,4.000000,4.000000,4.000000,4.000000,4.000000,4.000000,4.000000,4.000000,4.000000,4.000000,100.000000
1602006228.229878,16.000000,0.000000,4137.948730,4141.538574,4130.769043,4142.051270,4136.922852,4128.717773,4122.563965,4117.948730,4127.692383,4155.897461,4125.128418,4153.333496,4123.077148,4123.077148,0.000000,4.000000,,,,0.000000,4.000000,4.000000,4.000000,4.000000,4.000000,4.000000,4.000000,4.000000,4.000000,4.000000,4.000000,4.000000,4.000000,4.000000,100.000000
1602006228.237760,17.000000,0.000000,4142.051270,4138.974121,4138.974121,4141.025879,4134.358887,4124.102539,4126.153809,4123.589844,4129.230957,4145.641113,4126.666504,4158.461426,4133.333496,4132.820313,0.000000,4.000000,,,,0.000000,4.000000,4.000000,4.000000,4.000000,4.000000,4.000000,4.000000,4.000000,4.000000,4.000000,4.000000,4.000000,4.000000,4.000000,100.000000
1602006228.245642,18.000000,0.000000,4144.615234,4137.436035,4138.461426,4138.461426,4129.230957,4113.333496,4128.205078,4124.102539,4132.820313,4135.384766,4121.025879,4158.461426,4140.000000,4142.563965,0.000000,4.000000,,,,0.000000,4.000000,4.000000,4.000000,4.000000,4.000000,4.000000,4.000000,4.000000,4.000000,4.000000,4.000000,4.000000,4.000000,4.000000,100.000000
1602006228.253523,19.000000,0.000000,4150.256348,4137.948730,4140.000000,4142.051270,4123.589844,4105.641113,4124.615234,4123.077148,4125.128418,4125.128418,4123.077148,4164.615234,4137.436035,4144.102539,0.000000,4.000000,,,,0.000000,4.000000,4.000000,4.000000,4.000000,4.000000,4.000000,4.000000,4.000000,4.000000,4.000000,4.000000,4.000000,4.000000,4.000000,100.000000
1602006228.261405,20.000000,0.000000,4152.307617,4143.589844,4151.794922,4144.102539,4127.179688,4113.846191,4123.589844,4130.256348,4121.538574,4116.922852,4129.743652,4172.307617,4136.922852,4143.077148,0.000000,4.000000,,,,0.000000,4.000000,4.000000,4.000000,4.000000,4.000000,4.000000,4.000000,4.000000,4.000000,4.000000,4.000000,4.000000,4.000000,4.000000,100.000000
1602006228.269186,21.000000,0.000000,4146.153809,4148.205078,4155.384766,4138.461426,4136.922852,4127.179688,4129.743652,4141.538574,4136.410156,4129.230957,4138.974121,4174.871582,4141.538574,4147.179688,0.000000,4.000000,,,,0.000000,4.000000,4.000000,4.000000,4.000000,4.000000,4.000000,4.000000,4.000000,4.000000,4.000000,4.000000,4.000000,4.000000,4.000000,100.000000
1602006228.277167,22.000000,0.000000,4136.410156,4141.538574,4141.025879,4135.384766,4137.948730,4124.615234,4129.230957,4142.051270,4136.410156,4147.692383,4139.487305,4166.153809,4138.461426,4144.615234,0.000000,4.000000,,,,0.000000,4.000000,4.000000,4.000000,4.000000,4.000000,4.000000,4.000000,4.000000,4.000000,4.000000,4.000000,4.000000,4.000000,4.000000,100.000000
1602006228.285048,23.000000,0.000000,4141.538574,4139.487305,4129.743652,4143.077148,4133.333496,4122.051270,4124.102539,4136.922852,4123.077148,4147.692383,4131.282227,4150.769043,4139.487305,4143.077148,0.000000,4.000000,,,,0.000000,4.000000,4.000000,4.000000,4.000000,4.000000,4.000000,4.000000,4.000000,4.000000,4.000000,4.000000,4.000000,4.000000,4.000000,100.000000
1602006228.293029,24.000000,0.000000,4141.538574,4140.000000,4126.666504,4145.641113,4135.384766,4132.820313,4129.743652,4134.358887,4122.563965,4132.307617,4124.615234,4137.436035,4135.897461,4132.307617,0.000000,4.000000,,,,0.000000,4.000000,4.000000,4.000000,4.000000,4.000000,4.000000,4.000000,4.000000,4.000000,4.000000,4.000000,4.000000,4.000000,4.000000,100.000000
1602006228.300910,25.000000,0.000000,4124.102539,4129.230957,4123.589844,4136.410156,4139.487305,4135.384766,4132.307617,4128.205078,4114.358887,4114.358887,4120.512695,4126.153809,4112.307617,4107.692383,0.000000,4.000000,,,,0.000000,4.000000,4.000000,4.000000,4.000000,4.000000,4.000000,4.000000,4.000000,4.000000,4.000000,4.000000,4.000000,4.000000,4.000000,100.000000
1602006228.308890,26.000000,0.000000,4126.153809,4128.205078,4123.077148,4135.384766,4137.436035,4127.179688,4122.051270,4117.436035,4102.563965,4102.051270,4119.487305,4121.538574,4115.897461,4114.358887,0.000000,4.000000,,,,0.000000,4.000000,4.000000,4.000000,4.000000,4.000000,4.000000,4.000000,4.000000,4.000000,4.000000,4.000000,4.000000,4.000000,4.000000,100.000000
1602006228.316871,27.000000,0.000000,4136.410156,4139.487305,4123.589844,4140.000000,4136.410156,4122.051270,4116.922852,4111.282227,4110.769043,4107.179688,4122.563965,4127.692383,4149.230957,4140.512695,0.000000,4.000000,,,,0.000000,4.000000,4.000000,4.000000,4.000000,4.000000,4.000000,4.000000,4.000000,4.000000,4.000000,4.000000,4.000000,4.000000,4.000000,100.000000
1602006228.324752,28.000000,0.000000,4121.538574,4128.717773,4121.538574,4130.769043,4136.410156,4124.102539,4122.051270,4110.256348,4118.461426,4122.051270,4129.743652,4136.410156,4160.512695,4147.692383,0.000000,4.000000,,,,0.000000,4.000000,4.000000,4.000000,4.000000,4.000000,4.000000,4.000000,4.000000,4.000000,4.000000,4.000000,4.000000,4.000000,4.000000,100.000000
1602006228.332733,29.000000,0.000000,4104.615234,4105.641113,4121.025879,4120.000000,4133.333496,4123.077148,4123.077148,4109.743652,4108.205078,4127.692383,4136.922852,4138.974121,4160.512695,4150.256348,0.000000,4.000000,,,,0.000000,4.000000,4.000000,4.000000,4.000000,4.000000,4.000000,4.000000,4.000000,4.000000,4.000000,4.000000,4.000000,4.000000,4.000000,100.000000
1602006228.340614,30.000000,0.000000,4104.102539,4103.589844,4123.589844,4119.487305,4132.307617,4120.000000,4123.077148,4109.230957,4104.102539,4129.230957,4140.000000,4140.000000,4171.282227,4160.000000,0.000000,4.000000,,,,0.000000,4.000000,4.000000,4.000000,4.000000,4.000000,4.000000,4.000000,4.000000,4.000000,4.000000,4.000000,4.000000,4.000000,4.000000,100.000000
1602006228.348495,31.000000,0.000000,4101.538574,4107.692383,4123.589844,4121.538574,4136.922852,4124.102539,4127.692383,4113.333496,4117.436035,4145.128418,4145.641113,4144.615234,4175.897461,4157.948730,0.000000,4.000000,,,,0.000000,4.000000,4.000000,4.000000,4.000000,4.000000,4.000000,4.000000,4.000000,4.000000,4.000000,4.000000,4.000000,4.000000,4.000000,100.000000
1602006228.356275,32.000000,0.000000,4100.000000,4107.692383,4122.051270,4121.538574,4138.974121,4136.922852,4127.692383,4125.641113,4141.025879,4168.717773,4157.948730,4150.256348,4179.487305,4156.922852,0.000000,4.000000,,,,0.000000,4.000000,4.000000,4.000000,4.000000,4.000000,4.000000,4.000000,4.000000,4.000000,4.000000,4.000000,4.000000,4.000000,4.000000,100.000000
1602006228.364057,33.000000,0.000000,4109.230957,4111.794922,4123.589844,4122.563965,4137.436035,4147.692383,4123.589844,4137.436035,4157.436035,4177.436035,4161.538574,4153.333496,4189.230957,4167.179688,0.000000,4.000000,,,,0.000000,4.000000,4.000000,4.000000,4.000000,4.000000,4.000000,4.000000,4.000000,4.000000,4.000000,4.000000,4.000000,4.000000,4.000000,100.000000
1602006228.371939,34.000000,0.000000,4104.615234,4112.307617,4126.153809,4121.025879,4140.000000,4143.589844,4124.615234,4144.615234,4153.333496,4177.436035,4153.846191,4153.846191,4186.666504,4169.230957,0.000000,4.000000,,,,0.000000,4.000000,4.000000,4.000000,4.000000,4.000000,4.000000,4.000000,4.000000,4.000000,4.000000,4.000000,4.000000,4.000000,4.000000,100.000000
1602006228.379820,35.000000,0.000000,4090.769287,4108.717773,4127.179688,4118.974121,4141.025879,4138.461426,4136.922852,4150.256348,4145.641113,4175.897461,4151.794922,4154.358887,4185.641113,4165.641113,0.000000,4.000000,,,,0.000000,4.000000,4.000000,4.000000,4.000000,4.000000,4.000000,4.000000,4.000000,4.000000,4.000000,4.000000,4.000000,4.000000,4.000000,100.000000
1602006228.387702,36.000000,0.000000,4095.384521,4107.692383,4126.153809,4124.102539,4131.794922,4140.512695,4144.615234,4147.692383,4143.077148,4159.487305,4153.846191,4155.384766,4187.179688,4168.205078,0.000000,4.000000,,,,0.000000,4.000000,4.000000,4.000000,4.000000,4.000000,4.000000,4.000000,4.000000,4.000000,4.000000,4.000000,4.000000,4.000000,4.000000,100.000000
1602006228.395584,37.000000,0.000000,4107.179688,4108.717773,4124.102539,4124.102539,4122.051270,4135.897461,4138.974121,4134.358887,4131.282227,4138.461426,4145.641113,4152.307617,4173.846191,4166.153809,0.000000,4.000000,,,,0.000000,4.000000,4.000000,4.000000,4.000000,4.000000,4.000000,4.000000,4.000000,4.000000,4.000000,4.000000,4.000000,4.000000,4.000000,100.000000
1602006228.403465,38.000000,0.000000,4107.179688,4107.692383,4125.128418,4115.384766,4128.717773,4131.282227,4137.436035,4125.641113,4112.820313,4134.358887,4135.897461,4151.282227,4163.077148,4155.897461,0.000000,4.000000,,,,0.000000,4.000000,4.000000,4.000000,4.000000,4.000000,4.000000,4.000000,4.000000,4.000000,4.000000,4.000000,4.000000,4.000000,4.000000,100.000000
1602006228.411347,39.000000,0.000000,4103.589844,4107.692383,4123.589844,4114.871582,4138.461426,4134.358887,4138.974121,4124.102539,4104.615234,4135.897461,4139.487305,4153.846191,4168.717773,4157.948730,0.000000,4.000000,,,,0.000000,4.000000,4.000000,4.000000,4.000000,4.000000,4.000000,4.000000,4.000000,4.000000,4.000000,4.000000,4.000000,4.000000,4.000000,100.000000
1602006228.419328,40.000000,0.000000,4105.641113,4109.230957,4121.538574,4127.179688,4140.512695,4138.461426,4128.205078,4116.922852,4104.102539,4131.794922,4143.589844,4155.897461,4167.179688,4170.769043,0.000000,4.000000,,,,0.000000,4.000000,4.000000,4.000000,4.000000,4.000000,4.000000,4.000000,4.000000,4.000000,4.000000,4.000000,4.000000,4.000000,4.000000,100.000000
1602006228.427210,41.000000,0.000000,4105.128418,4108.205078,4125.128418,4129.230957,4138.461426,4137.436035,4116.922852,4105.128418,4102.051270,4132.820313,4137.948730,4153.333496,4156.410156,4171.794922,0.000000,4.000000,,,,0.000000,4.000000,4.000000,4.000000,4.000000,4.000000,4.000000,4.000000,4.000000,4.000000,4.000000,4.000000,4.000000,4.000000,4.000000,100.000000
1602006228.435091,42.000000,0.000000,4100.000000,4105.128418,4129.743652,4117.948730,4132.307617,4134.358887,4119.487305,4103.077148,4107.692383,4138.974121,4134.358887,4151.282227,4157.948730,4165.641113,0.000000,4.000000,,,,0.000000,4.000000,4.000000,4.000000,4.000000,4.000000,4.000000,4.000000,4.000000,4.000000,4.000000,4.000000,4.000000,4.000000,4.000000,100.000000
1602006228.442972,43.000000,0.000000,4105.128418,4103.589844,4126.153809,4119.487305,4125.128418,4134.358887,4122.563965,4115.897461,4123.077148,4158.461426,4143.589844,4154.871582,4169.743652,4165.641113,0.000000,4.000000,,,,0.000000,4.000000,4.000000,4.000000,4.000000,4.000000,4.000000,4.000000,4.000000,4.000000,4.000000,4.000000,4.000000,4.000000,4.000000,100.000000
1602006228.450854,44.000000,0.000000,4112.820313,4101.538574,4118.974121,4124.615234,4124.615234,4140.000000,4123.077148,4134.871582,4137.948730,4180.000000,4150.769043,4155.384766,4173.846191,4161.538574,0.000000,4.000000,,,,0.000000,4.000000,4.000000,4.000000,4.000000,4.000000,4.000000,4.000000,4.000000,4.000000,4.000000,4.000000,4.000000,4.000000,4.000000,100.000000
1602006228.458735,45.000000,0.000000,4098.461426,4092.307617,4107.179688,4110.256348,4126.153809,4134.871582,4130.256348,4140.512695,4147.179688,4167.179688,4144.615234,4137.436035,4165.128418,4143.077148,0.000000,4.000000,,,,0.000000,4.000000,4.000000,4.000000,4.000000,4.000000,4.000000,4.000000,4.000000,4.000000,4.000000,4.000000,4.000000,4.000000,4.000000,100.000000
1602006228.466716,46.000000,0.000000,4080.000000,4091.794922,4099.487305,4100.000000,4121.538574,4128.717773,4137.436035,4140.512695,4152.820313,4146.666504,4134.871582,4118.461426,4156.410156,4135.384766,0.000000,4.000000,,,,0.000000,4.000000,4.000000,4.000000,4.000000,4.000000,4.000000,4.000000,4.000000,4.000000,4.000000,4.000000,4.000000,4.000000,4.000000,100.000000
1602006228.474598,47.000000,0.000000,4098.974121,4111.282227,4113.333496,4123.589844,4122.563965,4146.666504,4145.128418,4149.743652,4157.436035,4156.922852,4137.436035,4128.205078,4159.487305,4151.282227,0.000000,4.000000,,,,0.000000,4.000000,4.000000,4.000000,4.000000,4.000000,4.000000,4.000000,4.000000,4.000000,4.000000,4.000000,4.000000,4.000000,4.000000,100.000000
1602006228.482479,48.000000,0.000000,4129.743652,4125.641113,4135.897461,4145.128418,4133.846191,4162.051270,4152.307617,4156.410156,4154.871582,4168.205078,4146.666504,4152.820313,4165.128418,4170.769043,0.000000,4.000000,,,,0.000000,4.000000,4.000000,4.000000,4.000000,4.000000,4.000000,4.000000,4.000000,4.000000,4.000000,4.000000,4.000000,4.000000,4.000000,100.000000
1602006228.490360,49.000000,0.000000,4131.794922,4124.102539,4142.563965,4138.974121,4143.077148,4152.820313,4149.743652,4145.641113,4141.025879,4158.974121,4148.205078,4160.512695,4164.102539,4178.461426,0.000000,4.000000,,,,0.000000,4.000000,4.000000,4.000000,4.000000,4.000000,4.000000,4.000000,4.000000,4.000000,4.000000,4.000000,4.000000,4.000000,4.000000,100.000000
1602006228.498141,50.000000,0.000000,4117.436035,4115.897461,4135.897461,4130.769043,4135.384766,4137.436035,4136.922852,4130.769043,4118.974121,4141.538574,4139.487305,4149.743652,4152.307617,4173.333496,0.000000,4.000000,,,,0.000000,4.000000,4.000000,4.000000,4.000000,4.000000,4.000000,4.000000,4.000000,4.000000,4.000000,4.000000,4.000000,4.000000,4.000000,100.000000
1602006228.506023,51.000000,0.000000,4107.692383,4108.205078,4127.692383,4127.692383,4122.563965,4127.692383,4125.128418,4122.051270,4100.512695,4130.769043,4125.128418,4137.436035,4136.410156,4152.820313,0.000000,4.000000,,,,0.000000,4.000000,4.000000,4.000000,4.000000,4.000000,4.000000,4.000000,4.000000,4.000000,4.000000,4.000000,4.000000,4.000000,4.000000,100.000000
1602006228.513904,52.000000,0.000000,4108.205078,4104.615234,4123.589844,4122.563965,4126.153809,4123.077148,4122.563965,4116.410156,4092.820557,4111.282227,4118.461426,4133.333496,4128.205078,4133.333496,0.000000,4.000000,,,,0.000000,4.000000,4.000000,4.000000,4.000000,4.000000,4.000000,4.000000,4.000000,4.000000,4.000000,4.000000,4.000000,4.000000,4.000000,100.000000
1602006228.521786,53.000000,0.000000,4114.358887,4107.692383,4122.563965,4121.025879,4131.282227,4121.538574,4122.563965,4115.384766,4086.666748,4083.076904,4126.153809,4134.871582,4133.333496,4138.974121,0.000000,4.000000,,,,0.000000,4.000000,4.000000,4.000000,4.000000,4.000000,4.000000,4.000000,4.000000,4.000000,4.000000,4.000000,4.000000,4.000000,4.000000,100.000000
1602006228.529667,54.000000,0.000000,4109.230957,4108.205078,4121.025879,4125.641113,4123.589844,4120.000000,4122.563965,4116.922852,4089.230713,4096.410156,4138.461426,4134.871582,4146.666504,4150.769043,0.000000,4.000000,,,,0.000000,4.000000,4.000000,4.000000,4.000000,4.000000,4.000000,4.000000,4.000000,4.000000,4.000000,4.000000,4.000000,4.000000,4.000000,100.000000
1602006228.537648,55.000000,0.000000,4102.051270,4107.692383,4117.948730,4131.794922,4120.000000,4122.051270,4127.692383,4120.512695,4106.666504,4151.794922,4145.128418,4137.948730,4156.922852,4156.922852,0.000000,4.000000,,,,0.000000,4.000000,4.000000,4.000000,4.000000,4.000000,4.000000,4.000000,4.000000,4.000000,4.000000,4.000000,4.000000,4.000000,4.000000,100.000000
1602006228.545530,56.000000,0.000000,4120.512695,4115.897461,4127.179688,4137.436035,4124.615234,4127.179688,4137.436035,4131.794922,4126.666504,4184.615234,4151.794922,4155.384766,4170.256348,4175.897461,0.000000,4.000000,,,,0.000000,4.000000,4.000000,4.000000,4.000000,4.000000,4.000000,4.000000,4.000000,4.000000,4.000000,4.000000,4.000000,4.000000,4.000000,100.000000
1602006228.553411,57.000000,0.000000,4143.077148,4123.589844,4142.051270,4137.948730,4126.153809,4126.153809,4142.051270,4148.717773,4144.102539,4180.512695,4168.717773,4173.333496,4185.128418,4197.436035,0.000000,4.000000,,,,0.000000,4.000000,4.000000,4.000000,4.000000,4.000000,4.000000,4.000000,4.000000,4.000000,4.000000,4.000000,4.000000,4.000000,4.000000,100.000000
1602006228.561292,58.000000,0.000000,4136.922852,4123.589844,4141.538574,4138.974121,4130.256348,4122.051270,4136.410156,4151.794922,4157.436035,4179.487305,4174.358887,4171.794922,4190.769043,4194.358887,0.000000,4.000000,,,,0.000000,4.000000,4.000000,4.000000,4.000000,4.000000,4.000000,4.000000,4.000000,4.000000,4.000000,4.000000,4.000000,4.000000,4.000000,100.000000
1602006228.569174,59.000000,0.000000,4119.487305,4122.563965,4136.410156,4137.948730,4137.436035,4127.179688,4129.230957,4142.051270,4154.358887,4172.820313,4163.589844,4160.000000,4187.179688,4173.846191,0.000000,4.000000,,,,0.000000,4.000000,4.000000,4.000000,4.000000,4.000000,4.000000,4.000000,4.000000,4.000000,4.000000,4.000000,4.000000,4.000000,4.000000,100.000000
1602006228.577055,60.000000,0.000000,4120.000000,4118.974121,4133.846191,4129.230957,4133.333496,4127.179688,4128.205078,4137.436035,4135.384766,4144.102539,4153.846191,4155.897461,4177.948730,4170.256348,0.000000,4.000000,,,,0.000000,4.000000,4.000000,4.000000,4.000000,4.000000,4.000000,4.000000,4.000000,4.000000,4.000000,4.000000,4.000000,4.000000,4.000000,100.000000
1602006228.585037,61.000000,0.000000,4128.717773,4111.794922,4127.179688,4122.051270,4123.077148,4112.820313,4128.717773,4135.384766,4120.512695,4125.128418,4146.666504,4149.743652,4164.102539,4171.282227,0.000000,4.000000,,,,0.000000,4.000000,4.000000,4.000000,4.000000,4.000000,4.000000,4.000000,4.000000,4.000000,4.000000,4.000000,4.000000,4.000000,4.000000,100.000000
1602006228.592918,62.000000,0.000000,4123.077148,4105.641113,4120.512695,4123.589844,4119.487305,4107.179688,4127.692383,4126.666504,4120.000000,4131.282227,4134.871582,4137.436035,4150.256348,4156.410156,0.000000,4.000000,,,,0.000000,4.000000,4.000000,4.000000,4.000000,4.000000,4.000000,4.000000,4.000000,4.000000,4.000000,4.000000,4.000000,4.000000,4.000000,100.000000
1602006228.600800,63.000000,0.000000,4116.410156,4106.153809,4121.025879,4125.641113,4122.051270,4122.051270,4130.769043,4120.000000,4120.512695,4141.538574,4132.820313,4138.461426,4147.692383,4155.897461,0.000000,4.000000,,,,0.000000,4.000000,4.000000,4.000000,4.000000,4.000000,4.000000,4.000000,4.000000,4.000000,4.000000,4.000000,4.000000,4.000000,4.000000,100.000000
1602006228.608682,64.000000,0.000000,4127.692383,4114.358887,4130.256348,4129.230957,4128.717773,4133.333496,4137.436035,4125.128418,4118.974121,4142.051270,4144.102539,4153.846191,4158.461426,4180.512695,801.000000,4.000000,,,,0.000000,4.000000,4.000000,4.000000,4.000000,4.000000,4.000000,4.000000,4.000000,4.000000,4.000000,4.000000,4.000000,4.000000,4.000000,100.000000
1602006228.616563,65.000000,0.000000,4143.077148,4123.589844,4143.077148,4135.384766,4138.461426,4134.358887,4137.948730,4133.846191,4126.666504,4152.307617,4153.333496,4166.666504,4171.282227,4192.820313,793.000000,4.000000,,,,0.000000,4.000000,4.000000,4.000000,4.000000,4.000000,4.000000,4.000000,4.000000,4.000000,4.000000,4.000000,4.000000,4.000000,4.000000,100.000000
1602006228.624445,66.000000,0.000000,4146.666504,4127.179688,4150.256348,4139.487305,4141.538574,4139.487305,4135.897461,4141.025879,4140.512695,4169.230957,4163.077148,4172.820313,4177.436035,4184.615234,852.000000,4.000000,,,,0.000000,4.000000,4.000000,4.000000,4.000000,4.000000,4.000000,4.000000,4.000000,4.000000,4.000000,4.000000,4.000000,4.000000,4.000000,100.000000
1602006228.632327,67.000000,0.000000,4134.871582,4122.563965,4142.051270,4138.461426,4132.307617,4143.077148,4137.436035,4137.948730,4136.922852,4172.820313,4164.102539,4171.282227,4174.358887,4177.948730,869.000000,4.000000,,,,0.000000,4.000000,4.000000,4.000000,4.000000,4.000000,4.000000,4.000000,4.000000,4.000000,4.000000,4.000000,4.000000,4.000000,4.000000,100.000000
1602006228.640108,68.000000,0.000000,4118.461426,4110.769043,4125.128418,4129.230957,4121.025879,4129.743652,4133.846191,4126.666504,4116.410156,4155.384766,4148.717773,4152.307617,4166.153809,4168.205078,813.000000,4.000000,,,,0.000000,4.000000,4.000000,4.000000,4.000000,4.000000,4.000000,4.000000,4.000000,4.000000,4.000000,4.000000,4.000000,4.000000,4.000000,100.000000
1602006228.647990,69.000000,0.000000,4111.794922,4099.487305,4109.230957,4121.538574,4119.487305,4113.333496,4125.641113,4126.153809,4108.205078,4120.000000,4133.846191,4127.179688,4154.358887,4152.307617,838.000000,4.000000,,,,0.000000,4.000000,4.000000,4.000000,4.000000,4.000000,4.000000,4.000000,4.000000,4.000000,4.000000,4.000000,4.000000,4.000000,4.000000,100.000000
1602006228.655872,70.000000,0.000000,4121.538574,4110.769043,4114.871582,4132.820313,4127.179688,4123.077148,4128.717773,4135.897461,4118.461426,4118.974121,4139.487305,4125.128418,4153.846191,4150.769043,764.000000,4.000000,,,,0.000000,4.000000,4.000000,4.000000,4.000000,4.000000,4.000000,4.000000,4.000000,4.000000,4.000000,4.000000,4.000000,4.000000,4.000000,100.000000
1602006228.663753,71.000000,0.000000,4124.102539,4123.589844,4130.769043,4141.538574,4130.256348,4138.461426,4135.897461,4140.000000,4127.179688,4157.436035,4144.615234,4137.948730,4159.487305,4158.974121,670.000000,4.000000,,,,0.000000,4.000000,4.000000,4.000000,4.000000,4.000000,4.000000,4.000000,4.000000,4.000000,4.000000,4.000000,4.000000,4.000000,4.000000,100.000000
1602006228.671635,72.000000,0.000000,4107.692383,4110.769043,4124.615234,4126.666504,4124.102539,4129.743652,4131.282227,4135.897461,4128.205078,4161.025879,4130.769043,4135.897461,4146.666504,4155.384766,787.000000,4.000000,,,,0.000000,4.000000,4.000000,4.000000,4.000000,4.000000,4.000000,4.000000,4.000000,4.000000,4.000000,4.000000,4.000000,4.000000,4.000000,100.000000
1602006228.679517,73.000000,0.000000,4108.205078,4107.179688,4116.922852,4124.102539,4126.666504,4129.743652,4131.794922,4137.948730,4127.692383,4140.000000,4129.743652,4137.436035,4137.948730,4149.230957,839.000000,4.000000,,,,0.000000,4.000000,4.000000,4.000000,4.000000,4.000000,4.000000,4.000000,4.000000,4.000000,4.000000,4.000000,4.000000,4.000000,4.000000,100.000000
1602006228.687398,74.000000,0.000000,4126.666504,4121.025879,4130.256348,4135.897461,4137.436035,4142.563965,4135.384766,4140.512695,4125.641113,4138.461426,4143.589844,4152.307617,4145.641113,4152.820313,871.000000,4.000000,,,,0.000000,4.000000,4.000000,4.000000,4.000000,4.000000,4.000000,4.000000,4.000000,4.000000,4.000000,4.000000,4.000000,4.000000,4.000000,100.000000
1602006228.695280,75.000000,0.000000,4128.205078,4118.461426,4140.000000,4132.820313,4135.897461,4135.897461,4125.641113,4137.948730,4122.563965,4129.743652,4145.128418,4156.922852,4144.615234,4158.461426,844.000000,4.000000,,,,0.000000,4.000000,4.000000,4.000000,4.000000,4.000000,4.000000,4.000000,4.000000,4.000000,4.000000,4.000000,4.000000,4.000000,4.000000,100.000000
1602006228.703262,76.000000,0.000000,4120.512695,4108.717773,4138.461426,4130.769043,4122.051270,4129.743652,4124.102539,4137.436035,4129.230957,4124.615234,4136.922852,4152.307617,4145.641113,4163.077148,767.000000,4.000000,,,,0.000000,4.000000,4.000000,4.000000,4.000000,4.000000,4.000000,4.000000,4.000000,4.000000,4.000000,4.000000,4.000000,4.000000,4.000000,100.000000
1602006228.711144,77.000000,0.000000,4119.487305,4108.205078,4137.436035,4135.384766,4118.461426,4134.871582,4136.410156,4137.436035,4138.974121,4141.025879,4134.871582,4150.256348,4151.794922,4161.025879,757.000000,4.000000,,,,0.000000,4.000000,4.000000,4.000000,4.000000,4.000000,4.000000,4.000000,4.000000,4.000000,4.000000,4.000000,4.000000,4.000000,4.000000,100.000000
1602006228.719025,78.000000,0.000000,4114.871582,4104.615234,4129.230957,4128.717773,4124.615234,4126.153809,4136.410156,4134.358887,4134.871582,4146.153809,4132.307617,4138.974121,4143.077148,4147.179688,871.000000,4.000000,,,,0.000000,4.000000,4.000000,4.000000,4.000000,4.000000,4.000000,4.000000,4.000000,4.000000,4.000000,4.000000,4.000000,4.000000,4.000000,100.000000
1602006228.726907,79.000000,0.000000,4114.871582,4101.538574,4124.102539,4130.769043,4123.077148,4118.974121,4134.358887,4134.358887,4132.307617,4149.230957,4133.846191,4130.769043,4136.410156,4141.025879,844.000000,4.000000,,,,0.000000,4.000000,4.000000,4.000000,4.000000,4.000000,4.000000,4.000000,4.000000,4.000000,4.000000,4.000000,4.000000,4.000000,4.000000,100.000000
1602006228.734789,80.000000,0.000000,4122.051270,4106.153809,4135.384766,4143.589844,4119.487305,4126.153809,4141.538574,4141.025879,4138.974121,4156.410156,4145.128418,4142.051270,4149.743652,4159.487305,767.000000,4.000000,,,,0.000000,4.000000,4.000000,4.000000,4.000000,4.000000,4.000000,4.000000,4.000000,4.000000,4.000000,4.000000,4.000000,4.000000,4.000000,100.000000
1602006228.742671,81.000000,0.000000,4116.410156,4107.692383,4140.512695,4140.512695,4121.538574,4124.615234,4141.538574,4145.641113,4133.846191,4149.230957,4148.205078,4153.846191,4157.948730,4174.871582,757.000000,4.000000,,,,0.000000,4.000000,4.000000,4.000000,4.000000,4.000000,4.000000,4.000000,4.000000,4.000000,4.000000,4.000000,4.000000,4.000000,4.000000,100.000000
1602006228.750553,82.000000,0.000000,4110.769043,4105.641113,4129.743652,4131.282227,4124.615234,4120.000000,4138.974121,4141.538574,4122.051270,4155.897461,4146.153809,4154.358887,4154.871582,4164.615234,871.000000,4.000000,,,,0.000000,4.000000,4.000000,4.000000,4.000000,4.000000,4.000000,4.000000,4.000000,4.000000,4.000000,4.000000,4.000000,4.000000,4.000000,100.000000
1602006228.758435,83.000000,0.000000,4120.000000,4104.102539,4121.025879,4134.358887,4122.051270,4122.051270,4140.000000,4138.974121,4128.717773,4168.205078,4149.230957,4149.230957,4153.333496,4156.922852,844.000000,4.000000,,,,0.000000,4.000000,4.000000,4.000000,4.000000,4.000000,4.000000,4.000000,4.000000,4.000000,4.000000,4.000000,4.000000,4.000000,4.000000,100.000000
1602006228.766317,84.000000,0.000000,4126.153809,4110.769043,4123.077148,4144.102539,4123.589844,4123.077148,4136.922852,4138.974121,4136.922852,4156.922852,4154.871582,4144.615234,4156.410156,4166.666504,767.000000,4.000000,,,,0.000000,4.000000,4.000000,4.000000,4.000000,4.000000,4.000000,4.000000,4.000000,4.000000,4.000000,4.000000,4.000000,4.000000,4.000000,100.000000
1602006228.774199,85.000000,0.000000,4123.589844,4121.025879,4132.820313,4154.871582,4127.179688,4122.051270,4129.743652,4136.410156,4128.205078,4150.256348,4156.922852,4143.077148,4161.538574,4168.717773,757.000000,4.000000,,,,0.000000,4.000000,4.000000,4.000000,4.000000,4.000000,4.000000,4.000000,4.000000,4.000000,4.000000,4.000000,4.000000,4.000000,4.000000,100.000000
1602006228.781980,86.000000,0.000000,4121.025879,4121.025879,4137.948730,4156.410156,4127.179688,4120.512695,4125.641113,4134.871582,4120.512695,4150.256348,4145.128418,4144.615234,4156.922852,4160.000000,871.000000,4.000000,,,,0.000000,4.000000,4.000000,4.000000,4.000000,4.000000,4.000000,4.000000,4.000000,4.000000,4.000000,4.000000,4.000000,4.000000,4.000000,100.000000
1602006228.789861,87.000000,0.000000,4123.589844,4119.487305,4135.384766,4151.282227,4127.179688,4119.487305,4130.769043,4138.461426,4126.153809,4145.128418,4139.487305,4144.615234,4152.820313,4166.666504,844.000000,4.000000,,,,0.000000,4.000000,4.000000,4.000000,4.000000,4.000000,4.000000,4.000000,4.000000,4.000000,4.000000,4.000000,4.000000,4.000000,4.000000,100.000000
1602006228.797742,88.000000,0.000000,4124.615234,4122.563965,4134.358887,4151.794922,4125.128418,4125.641113,4136.410156,4140.000000,4131.282227,4146.666504,4149.230957,4142.563965,4155.897461,4173.333496,767.000000,4.000000,,,,0.000000,4.000000,4.000000,4.000000,4.000000,4.000000,4.000000,4.000000,4.000000,4.000000,4.000000,4.000000,4.000000,4.000000,4.000000,100.000000
1602006228.805623,89.000000,0.000000,4123.589844,4123.077148,4135.897461,4155.384766,4127.179688,4134.358887,4135.384766,4138.461426,4134.358887,4155.384766,4154.871582,4143.589844,4154.358887,4160.512695,757.000000,4.000000,,,,0.000000,4.000000,4.000000,4.000000,4.000000,4.000000,4.000000,4.000000,4.000000,4.000000,4.000000,4.000000,4.000000,4.000000,4.000000,100.000000
1602006228.813505,90.000000,0.000000,4130.769043,4124.615234,4137.948730,4156.922852,4135.384766,4140.000000,4135.384766,4138.974121,4136.410156,4156.410156,4150.769043,4151.794922,4158.461426,4159.487305,871.000000,4.000000,,,,0.000000,4.000000,4.000000,4.000000,4.000000,4.000000,4.000000,4.000000,4.000000,4.000000,4.000000,4.000000,4.000000,4.000000,4.000000,100.000000
1602006228.821286,91.000000,0.000000,4135.897461,4129.230957,4140.512695,4156.410156,4141.538574,4144.102539,4138.461426,4141.538574,4137.948730,4157.436035,4152.820313,4159.487305,4169.743652,4174.358887,844.000000,4.000000,,,,0.000000,4.000000,4.000000,4.000000,4.000000,4.000000,4.000000,4.000000,4.000000,4.000000,4.000000,4.000000,4.000000,4.000000,4.000000,100.000000
1602006228.829168,92.000000,0.000000,4126.666504,4125.128418,4137.948730,4153.333496,4136.922852,4143.589844,4138.461426,4140.000000,4134.358887,4149.230957,4155.384766,4156.410156,4162.051270,4166.666504,767.000000,4.000000,,,,0.000000,4.000000,4.000000,4.000000,4.000000,4.000000,4.000000,4.000000,4.000000,4.000000,4.000000,4.000000,4.000000,4.000000,4.000000,100.000000
1602006228.837050,93.000000,0.000000,4117.436035,4117.436035,4134.358887,4149.743652,4130.769043,4135.897461,4135.384766,4139.487305,4132.307617,4146.666504,4151.794922,4151.794922,4146.153809,4146.153809,757.000000,4.000000,,,,0.000000,4.000000,4.000000,4.000000,4.000000,4.000000,4.000000,4.000000,4.000000,4.000000,4.000000,4.000000,4.000000,4.000000,4.000000,100.000000
1602006228.844931,94.000000,0.000000,4118.461426,4120.512695,4139.487305,4150.769043,4133.846191,4128.205078,4132.307617,4145.128418,4149.743652,4176.922852,4154.358887,4164.615234,4158.974121,4154.871582,871.000000,4.000000,,,,0.000000,4.000000,4.000000,4.000000,4.000000,4.000000,4.000000,4.000000,4.000000,4.000000,4.000000,4.000000,4.000000,4.000000,4.000000,100.000000
1602006228.852813,95.000000,0.000000,4124.615234,4122.563965,4142.051270,4153.846191,4133.846191,4127.692383,4132.820313,4145.641113,4156.922852,4180.512695,4160.000000,4174.871582,4172.307617,4171.794922,844.000000,4.000000,,,,0.000000,4.000000,4.000000,4.000000,4.000000,4.000000,4.000000,4.000000,4.000000,4.000000,4.000000,4.000000,4.000000,4.000000,4.000000,100.000000
1602006228.860694,96.000000,0.000000,4127.179688,4115.897461,4136.922852,4151.794922,4123.589844,4125.641113,4134.871582,4135.384766,4129.743652,4138.461426,4154.871582,4160.000000,4155.897461,4160.512695,767.000000,4.000000,,,,0.000000,4.000000,4.000000,4.000000,4.000000,4.000000,4.000000,4.000000,4.000000,4.000000,4.000000,4.000000,4.000000,4.000000,4.000000,100.000000
1602006228.868576,97.000000,0.000000,4123.589844,4114.358887,4134.358887,4149.743652,4120.000000,4119.487305,4137.948730,4134.358887,4120.512695,4131.282227,4141.025879,4148.205078,4146.153809,4145.641113,757.000000,4.000000,,,,0.000000,4.000000,4.000000,4.000000,4.000000,4.000000,4.000000,4.000000,4.000000,4.000000,4.000000,4.000000,4.000000,4.000000,4.000000,100.000000
1602006228.876458,98.000000,0.000000,4125.641113,4126.666504,4134.871582,4154.871582,4133.846191,4126.666504,4147.692383,4148.205078,4148.205078,4159.487305,4140.000000,4162.051270,4160.000000,4152.820313,871.000000,4.000000,,,,0.000000,4.000000,4.000000,4.000000,4.000000,4.000000,4.000000,4.000000,4.000000,4.000000,4.000000,4.000000,4.000000,4.000000,4.000000,100.000000
1602006228.884440,99.000000,0.000000,4139.487305,4136.410156,4140.000000,4158.461426,4140.512695,4138.974121,4151.794922,4154.358887,4161.538574,4156.922852,4155.897461,4172.307617,4163.077148,4160.512695,844.000000,4.000000,,,,0.000000,4.000000,4.000000,4.000000,4.000000,4.000000,4.000000,4.000000,4.000000,4.000000,4.000000,4.000000,4.000000,4.000000,4.000000,100.000000
1602006228.892321,100.000000,0.000000,4141.025879,4136.922852,4152.307617,4152.820313,4135.384766,4140.000000,4142.563965,4152.307617,4153.333496,4140.512695,4156.410156,4170.256348,4156.922852,4154.358887,767.000000,4.000000,,,,0.000000,4.000000,4.000000,4.000000,4.000000,4.000000,4.000000,4.000000,4.000000,4.000000,4.000000,4.000000,4.000000,4.000000,4.000000,100.000000
1602006228.900203,101.000000,0.000000,4129.230957,4138.461426,4154.871582,4154.358887,4138.974121,4135.384766,4135.384766,4150.769043,4147.179688,4152.820313,4141.025879,4173.333496,4161.025879,4151.794922,757.000000,4.000000,,,,0.000000,4.000000,4.000000,4.000000,4.000000,4.000000,4.000000,4.000000,4.000000,4.000000,4.000000,4.000000,4.000000,4.000000,4.000000,100.000000
1602006228.908085,102.000000,0.000000,4125.641113,4136.410156,4140.000000,4164.615234,4141.538574,4138.974121,4132.820313,4143.589844,4138.974121,4162.563965,4139.487305,4171.282227,4162.051270,4158.974121,871.000000,4.000000,,,,0.000000,4.000000,4.000000,4.000000,4.000000,4.000000,4.000000,4.000000,4.000000,4.000000,4.000000,4.000000,4.000000,4.000000,4.000000,100.000000
1602006228.915967,103.000000,0.000000,4122.051270,4125.128418,4123.077148,4162.051270,4136.410156,4137.436035,4123.589844,4127.692383,4131.794922,4141.538574,4145.128418,4155.384766,4155.897461,4149.743652,844.000000,4.000000,,,,0.000000,4.000000,4.000000,4.000000,4.000000,4.000000,4.000000,4.000000,4.000000,4.000000,4.000000,4.000000,4.000000,4.000000,4.000000,100.000000
1602006228.923849,104.000000,0.000000,4118.974121,4118.974121,4118.974121,4148.717773,4133.846191,4124.615234,4117.948730,4122.051270,4134.358887,4119.487305,4143.077148,4149.743652,4156.410156,4133.846191,767.000000,4.000000,,,,0.000000,4.000000,4.000000,4.000000,4.000000,4.000000,4.000000,4.000000,4.000000,4.000000,4.000000,4.000000,4.000000,4.000000,4.000000,100.000000
1602006228.931731,105.000000,0.000000,4130.256348,4124.615234,4128.205078,4150.769043,4135.384766,4127.179688,4127.179688,4131.282227,4136.410156,4139.487305,4145.128418,4160.000000,4158.461426,4144.615234,757.000000,4.000000,,,,0.000000,4.000000,4.000000,4.000000,4.000000,4.000000,4.000000,4.000000,4.000000,4.000000,4.000000,4.000000,4.000000,4.000000,4.000000,100.000000
1602006228.939613,106.000000,0.000000,4129.230957,4125.641113,4139.487305,4156.410156,4134.358887,4136.922852,4136.410156,4138.974121,4140.000000,4173.333496,4152.307617,4162.051270,4156.410156,4154.358887,871.000000,4.000000,,,,0.000000,4.000000,4.000000,4.000000,4.000000,4.000000,4.000000,4.000000,4.000000,4.000000,4.000000,4.000000,4.000000,4.000000,4.000000,100.000000
1602006228.947495,107.000000,0.000000,4112.820313,4120.000000,4137.436035,4152.820313,4133.333496,4130.256348,4134.871582,4144.102539,4150.256348,4168.205078,4151.282227,4157.436035,4151.794922,4145.641113,844.000000,4.000000,,,,0.000000,4.000000,4.000000,4.000000,4.000000,4.000000,4.000000,4.000000,4.000000,4.000000,4.000000,4.000000,4.000000,4.000000,4.000000,100.000000
1602006228.955476,108.000000,0.000000,4121.025879,4128.205078,4135.384766,4155.897461,4134.871582,4130.256348,4135.897461,4151.282227,4154.871582,4151.282227,4152.307617,4166.153809,4152.820313,4151.282227,767.000000,4.000000,,,,0.000000,4.000000,4.000000,4.000000,4.000000,4.000000,4.000000,4.000000,4.000000,4.000000,4.000000,4.000000,4.000000,4.000000,4.000000,100.000000
1602006228.963358,109.000000,0.000000,4144.102539,4135.384766,4140.000000,4158.461426,4135.384766,4137.436035,4144.615234,4156.922852,4145.641113,4148.717773,4149.743652,4172.307617,4159.487305,4160.512695,757.000000,4.000000,,,,0.000000,4.000000,4.000000,4.000000,4.000000,4.000000,4.000000,4.000000,4.000000,4.000000,4.000000,4.000000,4.000000,4.000000,4.000000,100.000000
1602006228.971240,110.000000,0.000000,4136.410156,4124.615234,4131.794922,4151.282227,4134.871582,4129.743652,4144.102539,4152.820313,4135.384766,4143.077148,4139.487305,4158.974121,4153.333496,4142.563965,871.000000,4.000000,,,,0.000000,4.000000,4.000000,4.000000,4.000000,4.000000,4.000000,4.000000,4.000000,4.000000,4.000000,4.000000,4.000000,4.000000,4.000000,100.000000
1602006228.979122,111.000000,0.000000,4121.025879,4121.025879,4121.025879,4151.282227,4134.871582,4128.205078,4138.461426,4143.589844,4134.358887,4138.461426,4134.871582,4147.692383,4141.538574,4129.230957,844.000000,4.000000,,,,0.000000,4.000000,4.000000,4.000000,4.000000,4.000000,4.000000,4.000000,4.000000,4.000000,4.000000,4.000000,4.000000,4.000000,4.000000,100.000000
1602006228.987004,112.000000,0.000000,4125.128418,4134.871582,4130.256348,4156.410156,4136.922852,4142.563965,4137.948730,4137.948730,4133.333496,4141.025879,4138.974121,4152.307617,4147.692383,4140.000000,767.000000,4.000000,,,,0.000000,4.000000,4.000000,4.000000,4.000000,4.000000,4.000000,4.000000,4.000000,4.000000,4.000000,4.000000,4.000000,4.000000,4.000000,100.000000
1602006228.994886,113.000000,0.000000,4129.743652,4142.563965,4142.563965,4156.922852,4140.000000,4141.538574,4139.487305,4137.436035,4133.846191,4133.846191,4143.589844,4162.051270,4155.897461,4140.512695,757.000000,4.000000,,,,0.000000,4.000000,4.000000,4.000000,4.000000,4.000000,4.000000,4.000000,4.000000,4.000000,4.000000,4.000000,4.000000,4.000000,4.000000,100.000000
1602006229.002768,114.000000,0.000000,4125.128418,4140.000000,4138.974121,4163.589844,4140.512695,4134.358887,4134.871582,4140.512695,4138.461426,4126.153809,4150.256348,4168.205078,4155.384766,4136.922852,871.000000,4.000000,,,,0.000000,4.000000,4.000000,4.000000,4.000000,4.000000,4.000000,4.000000,4.000000,4.000000,4.000000,4.000000,4.000000,4.000000,4.000000,100.000000
1602006229.010649,115.000000,0.000000,4119.487305,4134.871582,4140.512695,4166.666504,4136.922852,4136.410156,4129.743652,4138.974121,4135.897461,4136.410156,4154.358887,4169.743652,4154.871582,4140.000000,844.000000,4.000000,,,,0.000000,4.000000,4.000000,4.000000,4.000000,4.000000,4.000000,4.000000,4.000000,4.000000,4.000000,4.000000,4.000000,4.000000,4.000000,100.000000
1602006229.018531,116.000000,0.000000,4120.512695,4126.153809,4149.230957,4157.948730,4135.384766,4136.410156,4131.282227,4138.461426,4138.974121,4154.871582,4143.589844,4168.205078,4153.846191,4135.897461,767.000000,4.000000,,,,0.000000,4.000000,4.000000,4.000000,4.000000,4.000000,4.000000,4.000000,4.000000,4.000000,4.000000,4.000000,4.000000,4.000000,4.000000,100.000000
1602006229.026413,117.000000,0.000000,4127.692383,4121.025879,4145.641113,4150.769043,4134.871582,4136.922852,4135.897461,4144.102539,4151.282227,4157.948730,4142.051270,4170.256348,4151.794922,4126.666504,757.000000,4.000000,,,,0.000000,4.000000,4.000000,4.000000,4.000000,4.000000,4.000000,4.000000,4.000000,4.000000,4.000000,4.000000,4.000000,4.000000,4.000000,100.000000
1602006229.034195,118.000000,0.000000,4123.589844,4121.025879,4137.948730,4143.589844,4129.230957,4133.333496,4138.461426,4151.282227,4149.743652,4143.077148,4155.897461,4173.846191,4153.846191,4128.205078,871.000000,4.000000,,,,0.000000,4.000000,4.000000,4.000000,4.000000,4.000000,4.000000,4.000000,4.000000,4.000000,4.000000,4.000000,4.000000,4.000000,4.000000,100.000000
1602006229.042076,119.000000,0.000000,4109.230957,4117.436035,4132.307617,4136.922852,4122.563965,4125.128418,4134.871582,4151.282227,4138.461426,4137.436035,4153.333496,4168.717773,4151.282227,4130.769043,844.000000,4.000000,,,,0.000000,4.000000,4.000000,4.000000,4.000000,4.000000,4.000000,4.000000,4.000000,4.000000,4.000000,4.000000,4.000000,4.000000,4.000000,100.000000
1602006229.049957,120.000000,0.000000,4109.743652,4115.897461,4125.128418,4143.589844,4120.000000,4121.025879,4128.205078,4142.563965,4139.487305,4142.563965,4138.974121,4155.897461,4141.538574,4122.051270,767.000000,4.000000,,,,0.000000,4.000000,4.000000,4.000000,4.000000,4.000000,4.000000,4.000000,4.000000,4.000000,4.000000,4.000000,4.000000,4.000000,4.000000,100.000000
1602006229.057838,121.000000,0.000000,4122.563965,4120.512695,4121.538574,4150.769043,4126.153809,4122.051270,4126.666504,4136.410156,4139.487305,4137.948730,4129.743652,4146.666504,4136.410156,4122.563965,757.000000,4.000000,,,,0.000000,4.000000,4.000000,4.000000,4.000000,4.000000,4.000000,4.000000,4.000000,4.000000,4.000000,4.000000,4.000000,4.000000,4.000000,100.000000
1602006229.065619,122.000000,0.000000,4122.563965,4124.102539,4123.077148,4149.230957,4134.358887,4127.692383,4134.358887,4143.589844,4135.384766,4134.358887,4121.025879,4149.743652,4140.000000,4138.974121,871.000000,4.000000,,,,0.000000,4.000000,4.000000,4.000000,4.000000,4.000000,4.000000,4.000000,4.000000,4.000000,4.000000,4.000000,4.000000,4.000000,4.000000,100.000000
1602006229.073500,123.000000,0.000000,4116.410156,4130.256348,4126.666504,4153.333496,4136.410156,4137.436035,4140.000000,4150.769043,4146.666504,4144.615234,4122.051270,4154.358887,4143.589844,4146.153809,844.000000,4.000000,,,,0.000000,4.000000,4.000000,4.000000,4.000000,4.000000,4.000000,4.000000,4.000000,4.000000,4.000000,4.000000,4.000000,4.000000,4.000000,100.000000
1602006229.081282,124.000000,0.000000,4125.128418,4134.871582,4132.820313,4157.948730,4137.948730,4144.102539,4138.974121,4146.153809,4153.333496,4144.615234,4142.563965,4154.871582,4140.512695,4138.974121,767.000000,4.000000,,,,0.000000,4.000000,4.000000,4.000000,4.000000,4.000000,4.000000,4.000000,4.000000,4.000000,4.000000,4.000000,4.000000,4.000000,4.000000,100.000000
1602006229.089163,125.000000,0.000000,4130.256348,4128.717773,4137.948730,4153.333496,4136.410156,4140.512695,4138.461426,4140.512695,4140.512695,4130.256348,4148.717773,4155.384766,4136.922852,4128.717773,757.000000,4.000000,,,,0.000000,4.000000,4.000000,4.000000,4.000000,4.000000,4.000000,4.000000,4.000000,4.000000,4.000000,4.000000,4.000000,4.000000,4.000000,100.000000
1602006229.097045,126.000000,0.000000,4118.974121,4122.051270,4136.410156,4151.794922,4130.769043,4136.922852,4140.512695,4140.512695,4133.333496,4129.743652,4131.282227,4151.794922,4139.487305,4123.077148,871.000000,4.000000,,,,0.000000,4.000000,4.000000,4.000000,4.000000,4.000000,4.000000,4.000000,4.000000,4.000000,4.000000,4.000000,4.000000,4.000000,4.000000,100.000000
1602006229.104927,127.000000,0.000000,4113.846191,4119.487305,4138.974121,4151.794922,4127.179688,4138.461426,4144.102539,4140.512695,4138.974121,4130.769043,4117.436035,4143.077148,4135.384766,4122.563965,844.000000,4.000000,,,,0.000000,4.000000,4.000000,4.000000,4.000000,4.000000,4.000000,4.000000,4.000000,4.000000,4.000000,4.000000,4.000000,4.000000,4.000000,100.000000
1602006229.112808,128.000000,0.000000,4122.563965,4113.333496,4137.436035,4142.051270,4123.077148,4137.948730,4142.051270,4137.948730,4138.461426,4127.692383,4113.846191,4142.563965,4122.563965,4122.051270,767.000000,4.000000,,,,0.000000,4.000000,4.000000,4.000000,4.000000,4.000000,4.000000,4.000000,4.000000,4.000000,4.000000,4.000000,4.000000,4.000000,4.000000,100.000000
1602006229.120690,0.000000,0.000000,4124.102539,4109.230957,4128.205078,4135.897461,4122.563965,4134.358887,4136.922852,4138.974121,4132.307617,4134.358887,4119.487305,4149.743652,4124.102539,4124.615234,801.000000,4.000000,,,,0.000000,4.000000,4.000000,4.000000,4.000000,4.000000,4.000000,4.000000,4.000000,4.000000,4.000000,4.000000,4.000000,4.000000,4.000000,100.000000
1602006229.128572,1.000000,0.000000,4118.461426,4116.922852,4129.230957,4145.128418,4132.820313,4140.000000,4138.974121,4146.666504,4141.025879,4135.384766,4132.820313,4154.358887,4141.025879,4136.922852,793.000000,4.000000,,,,0.000000,4.000000,4.000000,4.000000,4.000000,4.000000,4.000000,4.000000,4.000000,4.000000,4.000000,4.000000,4.000000,4.000000,4.000000,100.000000
1602006229.136453,2.000000,0.000000,4125.641113,4129.230957,4139.487305,4155.897461,4142.051270,4152.820313,4140.512695,4153.846191,4156.410156,4135.384766,4142.051270,4153.333496,4153.846191,4145.641113,852.000000,4.000000,,,,0.000000,4.000000,4.000000,4.000000,4.000000,4.000000,4.000000,4.000000,4.000000,4.000000,4.000000,4.000000,4.000000,4.000000,4.000000,100.000000
1602006229.144235,3.000000,0.000000,4136.410156,4135.897461,4140.000000,4157.948730,4138.461426,4151.282227,4138.974121,4151.794922,4161.538574,4160.512695,4145.641113,4152.307617,4153.846191,4135.897461,869.000000,4.000000,,,,0.000000,4.000000,4.000000,4.000000,4.000000,4.000000,4.000000,4.000000,4.000000,4.000000,4.000000,4.000000,4.000000,4.000000,4.000000,100.000000
1602006229.152117,4.000000,0.000000,4138.461426,4134.358887,4137.436035,4155.897461,4136.410156,4142.563965,4144.615234,4152.820313,4157.436035,4178.461426,4152.820313,4158.974121,4152.307617,4134.871582,813.000000,4.000000,,,,0.000000,4.000000,4.000000,4.000000,4.000000,4.000000,4.000000,4.000000,4.000000,4.000000,4.000000,4.000000,4.000000,4.000000,4.000000,100.000000
1602006229.159999,5.000000,0.000000,4136.410156,4128.205078,4141.025879,4149.743652,4138.461426,4138.974121,4153.846191,4160.000000,4158.974121,4169.743652,4153.846191,4170.256348,4154.871582,4152.820313,831.000000,4.000000,,,,0.000000,4.000000,4.000000,4.000000,4.000000,4.000000,4.000000,4.000000,4.000000,4.000000,4.000000,4.000000,4.000000,4.000000,4.000000,100.000000
1602006229.167881,6.000000,0.000000,4138.461426,4124.615234,4144.615234,4145.128418,4133.333496,4137.436035,4152.307617,4160.000000,4164.102539,4171.282227,4142.563965,4173.333496,4160.512695,4160.000000,765.000000,4.000000,,,,0.000000,4.000000,4.000000,4.000000,4.000000,4.000000,4.000000,4.000000,4.000000,4.000000,4.000000,4.000000,4.000000,4.000000,4.000000,100.000000
1602006229.175763,7.000000,0.000000,4138.974121,4124.615234,4145.641113,4151.282227,4127.179688,4134.358887,4144.102539,4152.820313,4161.538574,4175.384766,4136.410156,4165.641113,4163.589844,4148.205078,670.000000,4.000000,,,,0.000000,4.000000,4.000000,4.000000,4.000000,4.000000,4.000000,4.000000,4.000000,4.000000,4.000000,4.000000,4.000000,4.000000,4.000000,100.000000
1602006229.183645,8.000000,0.000000,4129.743652,4123.077148,4142.051270,4149.743652,4126.153809,4135.384766,4140.000000,4145.128418,4148.205078,4153.333496,4137.948730,4153.846191,4143.589844,4138.974121,787.000000,4.000000,,,,0.000000,4.000000,4.000000,4.000000,4.000000,4.000000,4.000000,4.000000,4.000000,4.000000,4.000000,4.000000,4.000000,4.000000,4.000000,100.000000
1602006229.191526,9.000000,0.000000,4124.102539,4122.051270,4131.794922,4141.025879,4129.743652,4143.589844,4139.487305,4134.871582,4128.205078,4123.077148,4130.769043,4142.563965,4120.000000,4135.897461,839.000000,4.000000,,,,0.000000,4.000000,4.000000,4.000000,4.000000,4.000000,4.000000,4.000000,4.000000,4.000000,4.000000,4.000000,4.000000,4.000000,4.000000,100.000000
1602006229.199408,10.000000,0.000000,4123.589844,4125.641113,4122.563965,4144.615234,4133.333496,4151.794922,4135.897461,4126.153809,4123.589844,4114.358887,4126.666504,4140.000000,4123.077148,4133.333496,871.000000,4.000000,,,,0.000000,4.000000,4.000000,4.000000,4.000000,4.000000,4.000000,4.000000,4.000000,4.000000,4.000000,4.000000,4.000000,4.000000,4.000000,100.000000
1602006229.207290,11.000000,0.000000,4128.205078,4134.871582,4128.205078,4154.871582,4139.487305,4156.410156,4136.922852,4127.692383,4131.282227,4130.256348,4136.922852,4147.692383,4137.948730,4137.436035,844.000000,4.000000,,,,0.000000,4.000000,4.000000,4.000000,4.000000,4.000000,4.000000,4.000000,4.000000,4.000000,4.000000,4.000000,4.000000,4.000000,4.000000,100.000000
1602006229.215071,12.000000,0.000000,4140.000000,4140.000000,4139.487305,4155.897461,4142.051270,4157.948730,4138.461426,4135.384766,4137.436035,4141.025879,4142.563965,4152.820313,4145.128418,4142.051270,767.000000,4.000000,,,,0.000000,4.000000,4.000000,4.000000,4.000000,4.000000,4.000000,4.000000,4.000000,4.000000,4.000000,4.000000,4.000000,4.000000,4.000000,100.000000
1602006229.222952,13.000000,0.000000,4146.153809,4137.948730,4142.051270,4151.794922,4136.922852,4149.230957,4130.256348,4140.000000,4145.128418,4144.102539,4137.436035,4156.922852,4151.794922,4142.563965,747.000000,4.000000,,,,0.000000,4.000000,4.000000,4.000000,4.000000,4.000000,4.000000,4.000000,4.000000,4.000000,4.000000,4.000000,4.000000,4.000000,4.000000,100.000000
1602006229.230934,14.000000,0.000000,4138.974121,4136.922852,4144.615234,4153.333496,4137.436035,4137.436035,4125.128418,4146.153809,4154.358887,4161.538574,4140.512695,4164.102539,4160.512695,4150.256348,871.000000,4.000000,,,,0.000000,4.000000,4.000000,4.000000,4.000000,4.000000,4.000000,4.000000,4.000000,4.000000,4.000000,4.000000,4.000000,4.000000,4.000000,100.000000
1602006229.238815,15.000000,0.000000,4133.846191,4140.512695,4152.307617,4154.358887,4141.025879,4140.000000,4136.922852,4153.333496,4156.410156,4176.410156,4153.846191,4170.256348,4164.102539,4158.974121,844.000000,4.000000,,,,0.000000,4.000000,4.000000,4.000000,4.000000,4.000000,4.000000,4.000000,4.000000,4.000000,4.000000,4.000000,4.000000,4.000000,4.000000,100.000000
1602006229.246697,16.000000,0.000000,4144.615234,4142.051270,4154.871582,4154.358887,4138.974121,4143.589844,4148.717773,4154.358887,4153.333496,4173.333496,4159.487305,4164.615234,4167.179688,4155.897461,0.000000,4.000000,,,,0.000000,4.000000,4.000000,4.000000,4.000000,4.000000,4.000000,4.000000,4.000000,4.000000,4.000000,4.000000,4.000000,4.000000,4.000000,100.000000
1602006229.254579,17.000000,0.000000,4151.282227,4138.974121,4148.717773,4152.307617,4136.410156,4137.436035,4153.846191,4152.820313,4154.358887,4172.820313,4158.461426,4156.410156,4169.230957,4153.846191,0.000000,4.000000,,,,0.000000,4.000000,4.000000,4.000000,4.000000,4.000000,4.000000,4.000000,4.000000,4.000000,4.000000,4.000000,4.000000,4.000000,4.000000,100.000000
1602006229.262460,18.000000,0.000000,4142.563965,4135.384766,4141.025879,4144.615234,4134.358887,4136.410156,4162.051270,4155.897461,4150.256348,4167.179688,4157.436035,4156.922852,4164.615234,4157.948730,0.000000,4.000000,,,,0.000000,4.000000,4.000000,4.000000,4.000000,4.000000,4.000000,4.000000,4.000000,4.000000,4.000000,4.000000,4.000000,4.000000,4.000000,100.000000
1602006229.270342,19.000000,0.000000,4137.436035,4139.487305,4137.436035,4143.589844,4129.743652,4145.128418,4163.589844,4154.871582,4136.922852,4146.153809,4152.820313,4160.512695,4160.000000,4156.410156,0.000000,4.000000,,,,0.000000,4.000000,4.000000,4.000000,4.000000,4.000000,4.000000,4.000000,4.000000,4.000000,4.000000,4.000000,4.000000,4.000000,4.000000,100.000000
1602006229.278224,20.000000,0.000000,4144.102539,4136.410156,4136.922852,4143.077148,4125.128418,4150.769043,4156.922852,4145.641113,4126.666504,4134.871582,4143.077148,4158.974121,4151.794922,4151.794922,0.000000,4.000000,,,,0.000000,4.000000,4.000000,4.000000,4.000000,4.000000,4.000000,4.000000,4.000000,4.000000,4.000000,4.000000,4.000000,4.000000,4.000000,100.000000
1602006229.286005,21.000000,0.000000,4145.128418,4124.615234,4137.436035,4137.436035,4126.666504,4147.692383,4151.794922,4138.974121,4122.563965,4137.436035,4131.794922,4153.846191,4140.512695,4149.230957,0.000000,4.000000,,,,0.000000,4.000000,4.000000,4.000000,4.000000,4.000000,4.000000,4.000000,4.000000,4.000000,4.000000,4.000000,4.000000,4.000000,4.000000,100.000000
1602006229.293887,22.000000,0.000000,4142.051270,4125.128418,4141.538574,4142.051270,4132.307617,4136.410156,4141.025879,4137.436035,4122.051270,4142.051270,4128.717773,4157.436035,4135.897461,4151.282227,0.000000,4.000000,,,,0.000000,4.000000,4.000000,4.000000,4.000000,4.000000,4.000000,4.000000,4.000000,4.000000,4.000000,4.000000,4.000000,4.000000,4.000000,100.000000
1602006229.301769,23.000000,0.000000,4150.769043,4137.436035,4151.794922,4158.974121,4138.461426,4135.384766,4124.102539,4138.461426,4125.641113,4154.358887,4146.153809,4169.230957,4149.230957,4159.487305,0.000000,4.000000,,,,0.000000,4.000000,4.000000,4.000000,4.000000,4.000000,4.000000,4.000000,4.000000,4.000000,4.000000,4.000000,4.000000,4.000000,4.000000,100.000000
1602006229.309650,24.000000,0.000000,4159.487305,4143.077148,4156.922852,4164.615234,4141.025879,4139.487305,4114.358887,4136.922852,4137.436035,4159.487305,4161.538574,4168.717773,4164.615234,4168.717773,0.000000,4.000000,,,,0.000000,4.000000,4.000000,4.000000,4.000000,4.000000,4.000000,4.000000,4.000000,4.000000,4.000000,4.000000,4.000000,4.000000,4.000000,100.000000
1602006229.317532,25.000000,0.000000,4162.051270,4145.128418,4154.358887,4155.897461,4140.000000,4134.358887,4114.871582,4135.384766,4150.769043,4149.230957,4154.358887,4158.974121,4170.256348,4171.794922,0.000000,4.000000,,,,0.000000,4.000000,4.000000,4.000000,4.000000,4.000000,4.000000,4.000000,4.000000,4.000000,4.000000,4.000000,4.000000,4.000000,4.000000,100.000000
1602006229.325414,26.000000,0.000000,4169.230957,4152.820313,4155.384766,4154.871582,4139.487305,4138.974121,4122.563965,4135.897461,4163.589844,4157.948730,4154.358887,4162.051270,4170.769043,4169.230957,0.000000,4.000000,,,,0.000000,4.000000,4.000000,4.000000,4.000000,4.000000,4.000000,4.000000,4.000000,4.000000,4.000000,4.000000,4.000000,4.000000,4.000000,100.000000
1602006229.333295,27.000000,0.000000,4173.333496,4151.282227,4157.436035,4157.948730,4139.487305,4154.358887,4134.358887,4143.077148,4167.692383,4182.051270,4156.410156,4167.179688,4165.641113,4163.077148,0.000000,4.000000,,,,0.000000,4.000000,4.000000,4.000000,4.000000,4.000000,4.000000,4.000000,4.000000,4.000000,4.000000,4.000000,4.000000,4.000000,4.000000,100.000000
1602006229.341077,28.000000,0.000000,4167.179688,4140.000000,4153.846191,4153.846191,4131.794922,4151.282227,4148.717773,4154.871582,4158.461426,4164.102539,4137.436035,4162.051270,4154.871582,4154.871582,0.000000,4.000000,,,,0.000000,4.000000,4.000000,4.000000,4.000000,4.000000,4.000000,4.000000,4.000000,4.000000,4.000000,4.000000,4.000000,4.000000,4.000000,100.000000
1602006229.348958,29.000000,0.000000,4158.461426,4136.410156,4152.307617,4142.563965,4120.512695,4140.512695,4160.512695,4159.487305,4153.846191,4134.358887,4138.974121,4165.128418,4155.384766,4159.487305,0.000000,4.000000,,,,0.000000,4.000000,4.000000,4.000000,4.000000,4.000000,4.000000,4.000000,4.000000,4.000000,4.000000,4.000000,4.000000,4.000000,4.000000,100.000000
1602006229.356839,30.000000,0.000000,4155.384766,4137.948730,4153.846191,4137.436035,4121.025879,4141.538574,4164.615234,4156.410156,4152.820313,4153.333496,4161.025879,4171.794922,4158.461426,4171.794922,0.000000,4.000000,,,,0.000000,4.000000,4.000000,4.000000,4.000000,4.000000,4.000000,4.000000,4.000000,4.000000,4.000000,4.000000,4.000000,4.000000,4.000000,100.000000
1602006229.364721,31.000000,0.000000,4166.153809,4140.000000,4153.846191,4150.256348,4125.641113,4141.025879,4159.487305,4153.333496,4142.051270,4181.538574,4157.948730,4168.717773,4156.410156,4174.358887,0.000000,4.000000,,,,0.000000,4.000000,4.000000,4.000000,4.000000,4.000000,4.000000,4.000000,4.000000,4.000000,4.000000,4.000000,4.000000,4.000000,4.000000,100.000000
1602006229.372602,32.000000,0.000000,4172.307617,4141.025879,4151.282227,4161.025879,4121.025879,4130.769043,4147.179688,4148.717773,4137.436035,4170.256348,4149.230957,4167.692383,4162.051270,4169.743652,0.000000,4.000000,,,,0.000000,4.000000,4.000000,4.000000,4.000000,4.000000,4.000000,4.000000,4.000000,4.000000,4.000000,4.000000,4.000000,4.000000,4.000000,100.000000
1602006229.380484,33.000000,0.000000,4156.410156,4142.051270,4151.282227,4156.410156,4124.102539,4122.051270,4131.794922,4136.922852,4136.410156,4152.307617,4154.358887,4166.666504,4167.179688,4166.153809,0.000000,4.000000,,,,0.000000,4.000000,4.000000,4.000000,4.000000,4.000000,4.000000,4.000000,4.000000,4.000000,4.000000,4.000000,4.000000,4.000000,4.000000,100.000000
1602006229.388265,34.000000,0.000000,4151.282227,4146.153809,4153.333496,4152.820313,4137.948730,4125.641113,4122.051270,4124.615234,4130.256348,4153.333496,4147.692383,4159.487305,4161.538574,4168.717773,0.000000,4.000000,,,,0.000000,4.000000,4.000000,4.000000,4.000000,4.000000,4.000000,4.000000,4.000000,4.000000,4.000000,4.000000,4.000000,4.000000,4.000000,100.000000
1602006229.396146,35.000000,0.000000,4169.230957,4150.769043,4150.769043,4155.897461,4142.051270,4134.871582,4118.461426,4121.025879,4129.743652,4148.717773,4134.871582,4157.436035,4156.922852,4170.256348,0.000000,4.000000,,,,0.000000,4.000000,4.000000,4.000000,4.000000,4.000000,4.000000,4.000000,4.000000,4.000000,4.000000,4.000000,4.000000,4.000000,4.000000,100.000000
1602006229.404126,36.000000,0.000000,4176.410156,4153.846191,4145.128418,4158.461426,4141.538574,4135.897461,4117.436035,4126.666504,4137.948730,4133.846191,4138.461426,4157.436035,4154.871582,4158.974121,0.000000,4.000000,,,,0.000000,4.000000,4.000000,4.000000,4.000000,4.000000,4.000000,4.000000,4.000000,4.000000,4.000000,4.000000,4.000000,4.000000,4.000000,100.000000
1602006229.412007,37.000000,0.000000,4161.538574,4150.256348,4141.025879,4155.897461,4143.589844,4138.461426,4125.641113,4136.922852,4147.692383,4138.974121,4148.717773,4153.333496,4153.333496,4152.820313,0.000000,4.000000,,,,0.000000,4.000000,4.000000,4.000000,4.000000,4.000000,4.000000,4.000000,4.000000,4.000000,4.000000,4.000000,4.000000,4.000000,4.000000,100.000000
1602006229.419789,38.000000,0.000000,4152.820313,4143.589844,4138.461426,4150.256348,4143.077148,4152.307617,4141.538574,4149.230957,4159.487305,4165.641113,4155.384766,4158.974121,4155.897461,4169.230957,0.000000,4.000000,,,,0.000000,4.000000,4.000000,4.000000,4.000000,4.000000,4.000000,4.000000,4.000000,4.000000,4.000000,4.000000,4.000000,4.000000,4.000000,100.000000
1602006229.427671,39.000000,0.000000,4155.897461,4141.025879,4137.948730,4151.282227,4139.487305,4160.512695,4150.256348,4158.461426,4161.538574,4177.948730,4149.230957,4170.256348,4160.000000,4170.769043,0.000000,4.000000,,,,0.000000,4.000000,4.000000,4.000000,4.000000,4.000000,4.000000,4.000000,4.000000,4.000000,4.000000,4.000000,4.000000,4.000000,4.000000,100.000000
1602006229.435552,40.000000,0.000000,4155.897461,4139.487305,4135.897461,4151.282227,4133.846191,4155.897461,4152.820313,4158.461426,4146.666504,4157.436035,4136.922852,4165.641113,4155.384766,4148.205078,0.000000,4.000000,,,,0.000000,4.000000,4.000000,4.000000,4.000000,4.000000,4.000000,4.000000,4.000000,4.000000,4.000000,4.000000,4.000000,4.000000,4.000000,100.000000
1602006229.443434,41.000000,0.000000,4152.820313,4136.410156,4132.307617,4139.487305,4126.153809,4153.333496,4153.846191,4150.256348,4137.948730,4139.487305,4139.487305,4152.820313,4150.769043,4150.256348,0.000000,4.000000,,,,0.000000,4.000000,4.000000,4.000000,4.000000,4.000000,4.000000,4.000000,4.000000,4.000000,4.000000,4.000000,4.000000,4.000000,4.000000,100.000000
1602006229.451316,42.000000,0.000000,4152.820313,4134.358887,4140.000000,4138.461426,4123.589844,4154.358887,4150.256348,4145.641113,4142.563965,4144.615234,4146.666504,4154.871582,4152.820313,4173.333496,0.000000,4.000000,,,,0.000000,4.000000,4.000000,4.000000,4.000000,4.000000,4.000000,4.000000,4.000000,4.000000,4.000000,4.000000,4.000000,4.000000,4.000000,100.000000
1602006229.459197,43.000000,0.000000,4161.025879,4140.512695,4154.871582,4154.358887,4131.794922,4148.717773,4142.051270,4137.948730,4135.897461,4147.179688,4142.563965,4164.102539,4156.410156,4180.512695,0.000000,4.000000,,,,0.000000,4.000000,4.000000,4.000000,4.000000,4.000000,4.000000,4.000000,4.000000,4.000000,4.000000,4.000000,4.000000,4.000000,4.000000,100.000000
1602006229.467079,44.000000,0.000000,4168.717773,4149.230957,4156.922852,4158.974121,4139.487305,4137.436035,4134.358887,4122.563965,4113.846191,4135.897461,4135.384766,4157.436035,4155.897461,4165.641113,0.000000,4.000000,,,,0.000000,4.000000,4.000000,4.000000,4.000000,4.000000,4.000000,4.000000,4.000000,4.000000,4.000000,4.000000,4.000000,4.000000,4.000000,100.000000
1602006229.474961,45.000000,0.000000,4168.205078,4152.820313,4152.820313,4151.282227,4141.025879,4133.846191,4129.230957,4114.871582,4105.128418,4133.333496,4135.897461,4151.794922,4151.794922,4152.820313,0.000000,4.000000,,,,0.000000,4.000000,4.000000,4.000000,4.000000,4.000000,4.000000,4.000000,4.000000,4.000000,4.000000,4.000000,4.000000,4.000000,4.000000,100.000000
1602006229.482842,46.000000,0.000000,4169.230957,4154.358887,4152.307617,4160.512695,4142.051270,4138.974121,4127.179688,4121.025879,4118.974121,4142.051270,4147.692383,4163.589844,4156.410156,4161.538574,0.000000,4.000000,,,,0.000000,4.000000,4.000000,4.000000,4.000000,4.000000,4.000000,4.000000,4.000000,4.000000,4.000000,4.000000,4.000000,4.000000,4.000000,100.000000
1602006229.490724,47.000000,0.000000,4177.436035,4156.922852,4156.922852,4174.871582,4141.538574,4129.743652,4127.179688,4129.743652,4126.666504,4144.102539,4149.743652,4173.333496,4158.974121,4172.820313,0.000000,4.000000,,,,0.000000,4.000000,4.000000,4.000000,4.000000,4.000000,4.000000,4.000000,4.000000,4.000000,4.000000,4.000000,4.000000,4.000000,4.000000,100.000000
1602006229.498606,48.000000,0.000000,4174.871582,4153.846191,4166.153809,4166.666504,4135.897461,4120.512695,4132.307617,4136.922852,4121.538574,4141.538574,4139.487305,4170.256348,4149.230957,4165.641113,0.000000,4.000000,,,,0.000000,4.000000,4.000000,4.000000,4.000000,4.000000,4.000000,4.000000,4.000000,4.000000,4.000000,4.000000,4.000000,4.000000,4.000000,100.000000
1602006229.506487,49.000000,0.000000,4160.000000,4144.102539,4166.666504,4152.307617,4126.666504,4138.461426,4137.948730,4143.077148,4128.205078,4143.077148,4138.974121,4165.128418,4138.461426,4162.563965,0.000000,4.000000,,,,0.000000,4.000000,4.000000,4.000000,4.000000,4.000000,4.000000,4.000000,4.000000,4.000000,4.000000,4.000000,4.000000,4.000000,4.000000,100.000000
1602006229.514369,50.000000,0.000000,4153.333496,4138.461426,4157.436035,4151.794922,4123.589844,4155.384766,4141.538574,4142.051270,4141.538574,4140.512695,4143.589844,4160.000000,4139.487305,4171.282227,0.000000,4.000000,,,,0.000000,4.000000,4.000000,4.000000,4.000000,4.000000,4.000000,4.000000,4.000000,4.000000,4.000000,4.000000,4.000000,4.000000,4.000000,100.000000
1602006229.522250,51.000000,0.000000,4153.333496,4135.384766,4151.794922,4154.871582,4130.769043,4155.897461,4144.102539,4139.487305,4142.051270,4137.948730,4132.820313,4150.769043,4141.025879,4158.461426,0.000000,4.000000,,,,0.000000,4.000000,4.000000,4.000000,4.000000,4.000000,4.000000,4.000000,4.000000,4.000000,4.000000,4.000000,4.000000,4.000000,4.000000,100.000000
1602006229.530132,52.000000,0.000000,4148.717773,4128.717773,4145.128418,4150.769043,4137.948730,4166.153809,4145.128418,4141.025879,4136.922852,4140.000000,4117.436035,4140.000000,4129.743652,4137.436035,0.000000,4.000000,,,,0.000000,4.000000,4.000000,4.000000,4.000000,4.000000,4.000000,4.000000,4.000000,4.000000,4.000000,4.000000,4.000000,4.000000,4.000000,100.000000
1602006229.538114,53.000000,0.000000,4139.487305,4124.102539,4133.333496,4140.000000,4132.307617,4170.256348,4141.538574,4137.948730,4140.512695,4140.512695,4122.563965,4133.333496,4124.615234,4138.974121,0.000000,4.000000,,,,0.000000,4.000000,4.000000,4.000000,4.000000,4.000000,4.000000,4.000000,4.000000,4.000000,4.000000,4.000000,4.000000,4.000000,4.000000,100.000000
1602006229.545996,54.000000,0.000000,4142.051270,4130.256348,4137.436035,4133.333496,4129.743652,4154.871582,4143.589844,4140.512695,4144.102539,4145.128418,4145.641113,4144.102539,4142.563965,4153.846191,0.000000,4.000000,,,,0.000000,4.000000,4.000000,4.000000,4.000000,4.000000,4.000000,4.000000,4.000000,4.000000,4.000000,4.000000,4.000000,4.000000,4.000000,100.000000
1602006229.553878,55.000000,0.000000,4161.025879,4141.538574,4154.358887,4146.153809,4140.000000,4147.179688,4152.307617,4150.769043,4144.102539,4164.102539,4164.615234,4167.179688,4166.153809,4173.846191,0.000000,4.000000,,,,0.000000,4.000000,4.000000,4.000000,4.000000,4.000000,4.000000,4.000000,4.000000,4.000000,4.000000,4.000000,4.000000,4.000000,4.000000,100.000000
1602006229.561760,56.000000,0.000000,4167.692383,4144.615234,4157.948730,4158.974121,4143.589844,4144.615234,4150.256348,4146.666504,4133.333496,4177.436035,4162.051270,4174.871582,4173.333496,4189.743652,0.000000,4.000000,,,,0.000000,4.000000,4.000000,4.000000,4.000000,4.000000,4.000000,4.000000,4.000000,4.000000,4.000000,4.000000,4.000000,4.000000,4.000000,100.000000
1602006229.569641,57.000000,0.000000,4156.410156,4141.025879,4154.358887,4150.769043,4132.307617,4130.256348,4138.974121,4126.666504,4107.692383,4162.563965,4154.358887,4164.615234,4166.666504,4186.666504,0.000000,4.000000,,,,0.000000,4.000000,4.000000,4.000000,4.000000,4.000000,4.000000,4.000000,4.000000,4.000000,4.000000,4.000000,4.000000,4.000000,4.000000,100.000000
1602006229.577523,58.000000,0.000000,4151.794922,4140.000000,4151.794922,4144.615234,4124.102539,4118.974121,4131.794922,4117.436035,4095.384521,4138.461426,4150.256348,4157.948730,4158.974121,4173.846191,0.000000,4.000000,,,,0.000000,4.000000,4.000000,4.000000,4.000000,4.000000,4.000000,4.000000,4.000000,4.000000,4.000000,4.000000,4.000000,4.000000,4.000000,100.000000
1602006229.585405,59.000000,0.000000,4156.410156,4142.051270,4147.692383,4152.307617,4127.179688,4122.563965,4130.256348,4125.641113,4111.794922,4137.436035,4143.589844,4160.000000,4154.358887,4170.256348,0.000000,4.000000,,,,0.000000,4.000000,4.000000,4.000000,4.000000,4.000000,4.000000,4.000000,4.000000,4.000000,4.000000,4.000000,4.000000,4.000000,4.000000,100.000000
1602006229.593287,60.000000,0.000000,4156.410156,4143.077148,4149.743652,4155.384766,4135.384766,4135.897461,4132.820313,4133.846191,4135.384766,4157.948730,4145.641113,4158.974121,4157.436035,4175.384766,0.000000,4.000000,,,,0.000000,4.000000,4.000000,4.000000,4.000000,4.000000,4.000000,4.000000,4.000000,4.000000,4.000000,4.000000,4.000000,4.000000,4.000000,100.000000
1602006229.601169,61.000000,0.000000,4152.307617,4143.077148,4150.769043,4151.794922,4137.948730,4156.410156,4138.461426,4140.000000,4148.717773,4161.538574,4146.153809,4147.179688,4157.436035,4169.743652,0.000000,4.000000,,,,0.000000,4.000000,4.000000,4.000000,4.000000,4.000000,4.000000,4.000000,4.000000,4.000000,4.000000,4.000000,4.000000,4.000000,4.000000,100.000000
1602006229.608950,62.000000,0.000000,4141.538574,4137.436035,4138.461426,4144.615234,4130.769043,4164.102539,4138.974121,4141.025879,4149.743652,4140.000000,4131.282227,4132.820313,4143.589844,4148.205078,0.000000,4.000000,,,,0.000000,4.000000,4.000000,4.000000,4.000000,4.000000,4.000000,4.000000,4.000000,4.000000,4.000000,4.000000,4.000000,4.000000,4.000000,100.000000
1602006229.616832,63.000000,0.000000,4134.358887,4133.846191,4131.794922,4138.461426,4124.615234,4158.461426,4141.538574,4136.922852,4141.538574,4126.153809,4126.666504,4130.769043,4131.794922,4135.384766,0.000000,4.000000,,,,0.000000,4.000000,4.000000,4.000000,4.000000,4.000000,4.000000,4.000000,4.000000,4.000000,4.000000,4.000000,4.000000,4.000000,4.000000,100.000000
1602006229.624713,64.000000,0.000000,4141.538574,4135.384766,4138.974121,4139.487305,4122.051270,4165.128418,4151.794922,4140.000000,4136.922852,4126.666504,4137.948730,4137.948730,4133.846191,4148.205078,801.000000,4.000000,,,,0.000000,4.000000,4.000000,4.000000,4.000000,4.000000,4.000000,4.000000,4.000000,4.000000,4.000000,4.000000,4.000000,4.000000,4.000000,100.000000
1602006229.632595,65.000000,0.000000,4143.589844,4132.307617,4137.948730,4138.461426,4120.512695,4169.230957,4156.410156,4149.743652,4139.487305,4127.179688,4139.487305,4138.974121,4134.871582,4156.410156,793.000000,4.000000,,,,0.000000,4.000000,4.000000,4.000000,4.000000,4.000000,4.000000,4.000000,4.000000,4.000000,4.000000,4.000000,4.000000,4.000000,4.000000,100.000000
1602006229.640476,66.000000,0.000000,4140.512695,4129.230957,4137.436035,4134.358887,4122.051270,4152.307617,4152.307617,4154.358887,4132.820313,4142.563965,4139.487305,4139.487305,4132.820313,4149.230957,852.000000,4.000000,,,,0.000000,4.000000,4.000000,4.000000,4.000000,4.000000,4.000000,4.000000,4.000000,4.000000,4.000000,4.000000,4.000000,4.000000,4.000000,100.000000
1602006229.648357,67.000000,0.000000,4150.769043,4135.384766,4152.307617,4140.000000,4126.666504,4133.333496,4145.128418,4147.692383,4114.871582,4163.589844,4137.436035,4149.743652,4144.102539,4153.846191,869.000000,4.000000,,,,0.000000,4.000000,4.000000,4.000000,4.000000,4.000000,4.000000,4.000000,4.000000,4.000000,4.000000,4.000000,4.000000,4.000000,4.000000,100.000000
1602006229.656239,68.000000,0.000000,4161.025879,4139.487305,4162.563965,4145.128418,4127.179688,4129.230957,4136.922852,4136.410156,4104.615234,4152.307617,4126.666504,4157.436035,4153.846191,4163.589844,813.000000,4.000000,,,,0.000000,4.000000,4.000000,4.000000,4.000000,4.000000,4.000000,4.000000,4.000000,4.000000,4.000000,4.000000,4.000000,4.000000,4.000000,100.000000
1602006229.664120,69.000000,0.000000,4152.307617,4135.897461,4152.307617,4141.538574,4120.000000,4122.563965,4126.153809,4126.153809,4099.487305,4130.769043,4129.230957,4149.743652,4142.051270,4152.820313,825.000000,4.000000,,,,0.000000,4.000000,4.000000,4.000000,4.000000,4.000000,4.000000,4.000000,4.000000,4.000000,4.000000,4.000000,4.000000,4.000000,4.000000,100.000000
1602006229.672002,70.000000,0.000000,4144.615234,4138.461426,4140.000000,4144.102539,4116.922852,4115.384766,4120.512695,4120.000000,4097.436035,4127.692383,4145.641113,4140.000000,4132.820313,4143.589844,765.000000,4.000000,,,,0.000000,4.000000,4.000000,4.000000,4.000000,4.000000,4.000000,4.000000,4.000000,4.000000,4.000000,4.000000,4.000000,4.000000,4.000000,100.000000
1602006229.679883,71.000000,0.000000,4153.333496,4144.615234,4138.461426,4152.307617,4120.000000,4123.077148,4125.641113,4120.000000,4108.205078,4125.128418,4148.205078,4136.922852,4139.487305,4152.307617,670.000000,4.000000,,,,0.000000,4.000000,4.000000,4.000000,4.000000,4.000000,4.000000,4.000000,4.000000,4.000000,4.000000,4.000000,4.000000,4.000000,4.000000,100.000000
1602006229.687764,72.000000,0.000000,4158.974121,4141.025879,4137.948730,4153.846191,4122.563965,4138.461426,4133.846191,4122.051270,4121.538574,4128.717773,4138.974121,4137.948730,4143.077148,4157.436035,787.000000,4.000000,,,,0.000000,4.000000,4.000000,4.000000,4.000000,4.000000,4.000000,4.000000,4.000000,4.000000,4.000000,4.000000,4.000000,4.000000,4.000000,100.000000
1602006229.695646,73.000000,0.000000,4151.794922,4137.436035,4136.410156,4148.205078,4124.615234,4149.743652,4134.871582,4127.179688,4125.641113,4145.128418,4138.461426,4144.615234,4139.487305,4151.282227,839.000000,4.000000,,,,0.000000,4.000000,4.000000,4.000000,4.000000,4.000000,4.000000,4.000000,4.000000,4.000000,4.000000,4.000000,4.000000,4.000000,4.000000,100.000000
1602006229.703427,74.000000,0.000000,4150.256348,4136.922852,4137.436035,4139.487305,4125.128418,4154.358887,4133.333496,4133.333496,4135.897461,4155.897461,4144.615234,4152.820313,4140.000000,4153.333496,871.000000,4.000000,,,,0.000000,4.000000,4.000000,4.000000,4.000000,4.000000,4.000000,4.000000,4.000000,4.000000,4.000000,4.000000,4.000000,4.000000,4.000000,100.000000
1602006229.711309,75.000000,0.000000,4152.820313,4134.871582,4139.487305,4137.436035,4120.512695,4154.358887,4134.871582,4134.358887,4147.179688,4153.333496,4141.025879,4152.820313,4140.000000,4158.461426,844.000000,4.000000,,,,0.000000,4.000000,4.000000,4.000000,4.000000,4.000000,4.000000,4.000000,4.000000,4.000000,4.000000,4.000000,4.000000,4.000000,4.000000,100.000000
1602006229.719190,76.000000,0.000000,4147.692383,4135.384766,4145.128418,4141.025879,4118.461426,4147.692383,4137.436035,4133.333496,4135.384766,4139.487305,4127.179688,4148.717773,4137.436035,4158.461426,767.000000,4.000000,,,,0.000000,4.000000,4.000000,4.000000,4.000000,4.000000,4.000000,4.000000,4.000000,4.000000,4.000000,4.000000,4.000000,4.000000,4.000000,100.000000
1602006229.727072,77.000000,0.000000,4146.666504,4136.410156,4153.333496,4140.512695,4125.128418,4142.563965,4147.179688,4142.563965,4126.153809,4122.563965,4125.128418,4151.794922,4135.384766,4163.077148,747.000000,4.000000,,,,0.000000,4.000000,4.000000,4.000000,4.000000,4.000000,4.000000,4.000000,4.000000,4.000000,4.000000,4.000000,4.000000,4.000000,4.000000,100.000000
1602006229.734953,78.000000,0.000000,4145.128418,4129.230957,4152.820313,4135.897461,4125.641113,4142.051270,4155.897461,4154.358887,4137.436035,4123.589844,4145.641113,4156.922852,4136.922852,4159.487305,871.000000,4.000000,,,,0.000000,4.000000,4.000000,4.000000,4.000000,4.000000,4.000000,4.000000,4.000000,4.000000,4.000000,4.000000,4.000000,4.000000,4.000000,100.000000
1602006229.742834,79.000000,0.000000,4137.436035,4122.051270,4148.717773,4135.897461,4118.461426,4137.948730,4155.384766,4158.461426,4140.000000,4140.000000,4153.846191,4157.948730,4141.538574,4151.282227,844.000000,4.000000,,,,0.000000,4.000000,4.000000,4.000000,4.000000,4.000000,4.000000,4.000000,4.000000,4.000000,4.000000,4.000000,4.000000,4.000000,4.000000,100.000000
1602006229.750816,80.000000,0.000000,4143.589844,4128.717773,4156.410156,4137.948730,4118.974121,4131.794922,4154.358887,4155.897461,4128.205078,4141.538574,4142.563965,4160.000000,4141.538574,4157.948730,767.000000,4.000000,,,,0.000000,4.000000,4.000000,4.000000,4.000000,4.000000,4.000000,4.000000,4.000000,4.000000,4.000000,4.000000,4.000000,4.000000,4.000000,100.000000
1602006229.758698,81.000000,0.000000,4157.436035,4137.436035,4162.563965,4141.025879,4123.589844,4133.846191,4148.205078,4148.717773,4124.615234,4133.333496,4139.487305,4160.512695,4136.410156,4159.487305,747.000000,4.000000,,,,0.000000,4.000000,4.000000,4.000000,4.000000,4.000000,4.000000,4.000000,4.000000,4.000000,4.000000,4.000000,4.000000,4.000000,4.000000,100.000000
1602006229.766579,82.000000,0.000000,4150.256348,4134.871582,4158.461426,4142.563965,4128.205078,4139.487305,4132.820313,4135.384766,4122.051270,4134.358887,4144.615234,4154.871582,4129.743652,4143.077148,871.000000,4.000000,,,,0.000000,4.000000,4.000000,4.000000,4.000000,4.000000,4.000000,4.000000,4.000000,4.000000,4.000000,4.000000,4.000000,4.000000,4.000000,100.000000
1602006229.774461,83.000000,0.000000,4136.410156,4127.692383,4154.358887,4138.974121,4126.666504,4136.410156,4124.102539,4125.641113,4113.846191,4136.410156,4136.410156,4145.128418,4123.077148,4133.846191,844.000000,4.000000,,,,0.000000,4.000000,4.000000,4.000000,4.000000,4.000000,4.000000,4.000000,4.000000,4.000000,4.000000,4.000000,4.000000,4.000000,4.000000,100.000000
