Timestamp,EEG.Counter,EEG.Interpolated,EEG.AF3,EEG.F7,EEG.F3,EEG.FC5,EEG.T7,EEG.P7,EEG.O1,EEG.O2,EEG.P8,EEG.T8,EEG.FC6,EEG.F4,EEG.F8,EEG.AF4,EEG.RawCq,EEG.Battery,MarkerIndex,MarkerType,MarkerValueInt,EEG.MarkerHardware,CQ.AF3,CQ.F7,CQ.F3,CQ.FC5,CQ.T7,CQ.P7,CQ.O1,CQ.O2,CQ.P8,CQ.T8,CQ.FC6,CQ.F4,CQ.F8,CQ.AF4,CQ.Overall
1602006239.656683,47.000000,0.000000,4117.948730,4125.128418,4120.512695,4128.205078,4118.461426,4127.692383,4114.358887,4112.820313,4110.769043,4117.948730,4118.974121,4135.384766,4116.410156,4121.025879,0.000000,4.000000,,,,0.000000,4.000000,4.000000,4.000000,4.000000,4.000000,4.000000,4.000000,4.000000,4.000000,4.000000,4.000000,4.000000,4.000000,4.000000,100.000000
1602006239.664465,48.000000,0.000000,4105.128418,4125.641113,4114.871582,4124.615234,4126.666504,4135.384766,4111.282227,4115.384766,4118.461426,4132.820313,4129.230957,4132.820313,4133.333496,4122.563965,0.000000,4.000000,,,,0.000000,4.000000,4.000000,4.000000,4.000000,4.000000,4.000000,4.000000,4.000000,4.000000,4.000000,4.000000,4.000000,4.000000,4.000000,100.000000
1602006239.672346,49.000000,0.000000,4085.128174,4120.000000,4109.230957,4121.538574,4129.230957,4141.538574,4120.000000,4121.538574,4125.128418,4132.820313,4140.000000,4136.922852,4139.487305,4122.563965,0.000000,4.000000,,,,0.000000,4.000000,4.000000,4.000000,4.000000,4.000000,4.000000,4.000000,4.000000,4.000000,4.000000,4.000000,4.000000,4.000000,4.000000,100.000000
1602006239.680228,50.000000,0.000000,4084.615479,4117.948730,4108.205078,4118.974121,4130.256348,4140.000000,4127.179688,4121.025879,4129.230957,4130.256348,4138.461426,4138.461426,4138.461426,4119.487305,0.000000,4.000000,,,,0.000000,4.000000,4.000000,4.000000,4.000000,4.000000,4.000000,4.000000,4.000000,4.000000,4.000000,4.000000,4.000000,4.000000,4.000000,100.000000
1602006239.688110,51.000000,0.000000,4090.256348,4119.487305,4114.871582,4119.487305,4134.358887,4144.102539,4128.717773,4125.128418,4138.974121,4130.256348,4141.025879,4135.384766,4146.666504,4122.563965,0.000000,4.000000,,,,0.000000,4.000000,4.000000,4.000000,4.000000,4.000000,4.000000,4.000000,4.000000,4.000000,4.000000,4.000000,4.000000,4.000000,4.000000,100.000000
1602006239.695991,52.000000,0.000000,4092.820557,4123.589844,4124.615234,4125.641113,4134.871582,4144.102539,4129.230957,4136.922852,4153.846191,4148.205078,4156.410156,4146.153809,4160.000000,4130.256348,0.000000,4.000000,,,,0.000000,4.000000,4.000000,4.000000,4.000000,4.000000,4.000000,4.000000,4.000000,4.000000,4.000000,4.000000,4.000000,4.000000,4.000000,100.000000
1602006239.703873,53.000000,0.000000,4093.846191,4128.205078,4130.769043,4126.153809,4128.205078,4131.794922,4125.641113,4138.974121,4154.871582,4163.077148,4156.410156,4160.512695,4160.512695,4126.153809,0.000000,4.000000,,,,0.000000,4.000000,4.000000,4.000000,4.000000,4.000000,4.000000,4.000000,4.000000,4.000000,4.000000,4.000000,4.000000,4.000000,4.000000,100.000000
1602006239.711755,54.000000,0.000000,4090.256348,4125.128418,4129.743652,4121.538574,4127.179688,4122.563965,4121.538574,4136.410156,4142.563965,4148.717773,4138.461426,4161.025879,4153.846191,4121.025879,0.000000,4.000000,,,,0.000000,4.000000,4.000000,4.000000,4.000000,4.000000,4.000000,4.000000,4.000000,4.000000,4.000000,4.000000,4.000000,4.000000,4.000000,100.000000
1602006239.719636,55.000000,0.000000,4085.128174,4122.051270,4125.641113,4129.743652,4136.922852,4120.000000,4120.000000,4133.846191,4139.487305,4132.820313,4140.000000,4157.436035,4153.846191,4126.153809,0.000000,4.000000,,,,0.000000,4.000000,4.000000,4.000000,4.000000,4.000000,4.000000,4.000000,4.000000,4.000000,4.000000,4.000000,4.000000,4.000000,4.000000,100.000000
1602006239.727417,56.000000,0.000000,4080.000000,4121.025879,4123.077148,4138.461426,4134.871582,4122.563965,4120.512695,4127.692383,4142.051270,4134.871582,4147.692383,4153.333496,4147.179688,4119.487305,0.000000,4.000000,,,,0.000000,4.000000,4.000000,4.000000,4.000000,4.000000,4.000000,4.000000,4.000000,4.000000,4.000000,4.000000,4.000000,4.000000,4.000000,100.000000
1602006239.735298,57.000000,0.000000,4083.076904,4117.948730,4123.589844,4131.794922,4124.615234,4134.358887,4123.077148,4122.051270,4137.948730,4140.512695,4137.436035,4144.102539,4136.410156,4110.256348,0.000000,4.000000,,,,0.000000,4.000000,4.000000,4.000000,4.000000,4.000000,4.000000,4.000000,4.000000,4.000000,4.000000,4.000000,4.000000,4.000000,4.000000,100.000000
1602006239.743179,58.000000,0.000000,4088.718018,4114.871582,4124.102539,4124.615234,4126.153809,4141.538574,4125.641113,4121.538574,4135.384766,4128.717773,4131.794922,4141.538574,4134.871582,4116.410156,0.000000,4.000000,,,,0.000000,4.000000,4.000000,4.000000,4.000000,4.000000,4.000000,4.000000,4.000000,4.000000,4.000000,4.000000,4.000000,4.000000,4.000000,100.000000
1602006239.750960,59.000000,0.000000,4082.051270,4110.769043,4122.563965,4124.102539,4127.692383,4141.025879,4130.256348,4121.538574,4133.333496,4109.743652,4134.358887,4143.589844,4134.358887,4116.410156,0.000000,4.000000,,,,0.000000,4.000000,4.000000,4.000000,4.000000,4.000000,4.000000,4.000000,4.000000,4.000000,4.000000,4.000000,4.000000,4.000000,4.000000,100.000000
1602006239.758742,60.000000,0.000000,4073.846191,4107.179688,4119.487305,4123.077148,4121.538574,4141.025879,4132.307617,4121.538574,4126.153809,4110.769043,4129.230957,4141.025879,4126.666504,4098.461426,0.000000,4.000000,,,,0.000000,4.000000,4.000000,4.000000,4.000000,4.000000,4.000000,4.000000,4.000000,4.000000,4.000000,4.000000,4.000000,4.000000,4.000000,100.000000
1602006239.766623,61.000000,0.000000,4080.512939,4111.794922,4118.974121,4121.025879,4124.102539,4135.384766,4126.666504,4123.589844,4123.077148,4124.615234,4120.512695,4143.589844,4123.589844,4085.641113,0.000000,4.000000,,,,0.000000,4.000000,4.000000,4.000000,4.000000,4.000000,4.000000,4.000000,4.000000,4.000000,4.000000,4.000000,4.000000,4.000000,4.000000,100.000000
1602006239.774505,62.000000,0.000000,4092.307617,4120.512695,4121.025879,4126.153809,4133.333496,4124.102539,4117.436035,4123.589844,4131.794922,4129.743652,4126.666504,4151.282227,4133.846191,4096.922852,0.000000,4.000000,,,,0.000000,4.000000,4.000000,4.000000,4.000000,4.000000,4.000000,4.000000,4.000000,4.000000,4.000000,4.000000,4.000000,4.000000,4.000000,100.000000
1602006239.782387,63.000000,0.000000,4098.461426,4131.794922,4122.563965,4134.871582,4133.846191,4122.051270,4112.820313,4127.179688,4141.538574,4138.974121,4148.205078,4156.922852,4150.256348,4119.487305,0.000000,4.000000,,,,0.000000,4.000000,4.000000,4.000000,4.000000,4.000000,4.000000,4.000000,4.000000,4.000000,4.000000,4.000000,4.000000,4.000000,4.000000,100.000000
1602006239.790268,64.000000,0.000000,4106.153809,4136.410156,4123.077148,4139.487305,4128.205078,4124.102539,4116.922852,4136.410156,4143.589844,4155.384766,4163.077148,4162.563965,4161.025879,4127.692383,797.000000,4.000000,,,,0.000000,4.000000,4.000000,4.000000,4.000000,4.000000,4.000000,4.000000,4.000000,4.000000,4.000000,4.000000,4.000000,4.000000,4.000000,100.000000
1602006239.798150,65.000000,0.000000,4108.717773,4125.641113,4125.128418,4133.333496,4126.666504,4122.563965,4123.077148,4136.922852,4141.538574,4142.563965,4154.871582,4162.563965,4160.512695,4125.128418,793.000000,4.000000,,,,0.000000,4.000000,4.000000,4.000000,4.000000,4.000000,4.000000,4.000000,4.000000,4.000000,4.000000,4.000000,4.000000,4.000000,4.000000,100.000000
1602006239.806032,66.000000,0.000000,4102.051270,4112.820313,4124.615234,4122.563965,4122.051270,4120.000000,4124.102539,4126.153809,4136.922852,4113.846191,4136.410156,4158.974121,4143.077148,4122.051270,852.000000,4.000000,,,,0.000000,4.000000,4.000000,4.000000,4.000000,4.000000,4.000000,4.000000,4.000000,4.000000,4.000000,4.000000,4.000000,4.000000,4.000000,100.000000
1602006239.814013,67.000000,0.000000,4089.743652,4107.179688,4117.436035,4118.461426,4117.948730,4122.051270,4124.102539,4122.563965,4127.692383,4121.025879,4128.205078,4152.820313,4123.589844,4104.615234,873.000000,4.000000,,,,0.000000,4.000000,4.000000,4.000000,4.000000,4.000000,4.000000,4.000000,4.000000,4.000000,4.000000,4.000000,4.000000,4.000000,4.000000,100.000000
1602006239.821895,68.000000,0.000000,4070.256348,4103.589844,4103.077148,4119.487305,4122.051270,4122.051270,4125.641113,4123.589844,4123.589844,4142.563965,4118.974121,4139.487305,4115.897461,4086.153809,810.000000,4.000000,,,,0.000000,4.000000,4.000000,4.000000,4.000000,4.000000,4.000000,4.000000,4.000000,4.000000,4.000000,4.000000,4.000000,4.000000,4.000000,100.000000
1602006239.829777,69.000000,0.000000,4065.641113,4109.230957,4099.487305,4118.974121,4123.077148,4120.000000,4123.589844,4121.538574,4137.436035,4135.897461,4116.410156,4134.358887,4120.000000,4094.358887,817.000000,4.000000,,,,0.000000,4.000000,4.000000,4.000000,4.000000,4.000000,4.000000,4.000000,4.000000,4.000000,4.000000,4.000000,4.000000,4.000000,4.000000,100.000000
1602006239.837659,70.000000,0.000000,4095.897461,4125.128418,4117.436035,4126.666504,4126.153809,4129.743652,4121.025879,4128.717773,4154.358887,4137.948730,4140.000000,4149.743652,4137.948730,4107.179688,761.000000,4.000000,,,,0.000000,4.000000,4.000000,4.000000,4.000000,4.000000,4.000000,4.000000,4.000000,4.000000,4.000000,4.000000,4.000000,4.000000,4.000000,100.000000
1602006239.845541,71.000000,0.000000,4114.871582,4132.307617,4132.307617,4138.974121,4137.436035,4141.025879,4122.051270,4134.358887,4152.307617,4157.436035,4155.384766,4153.333496,4150.256348,4106.153809,666.000000,4.000000,,,,0.000000,4.000000,4.000000,4.000000,4.000000,4.000000,4.000000,4.000000,4.000000,4.000000,4.000000,4.000000,4.000000,4.000000,4.000000,100.000000
1602006239.853423,72.000000,0.000000,4101.025879,4129.743652,4127.179688,4140.000000,4134.358887,4133.846191,4120.512695,4126.153809,4141.025879,4137.436035,4140.512695,4136.410156,4142.051270,4104.102539,786.000000,4.000000,,,,0.000000,4.000000,4.000000,4.000000,4.000000,4.000000,4.000000,4.000000,4.000000,4.000000,4.000000,4.000000,4.000000,4.000000,4.000000,100.000000
1602006239.861305,73.000000,0.000000,4097.436035,4127.692383,4120.512695,4132.307617,4125.641113,4121.025879,4118.461426,4126.153809,4137.948730,4105.641113,4129.743652,4131.794922,4135.897461,4105.128418,840.000000,4.000000,,,,0.000000,4.000000,4.000000,4.000000,4.000000,4.000000,4.000000,4.000000,4.000000,4.000000,4.000000,4.000000,4.000000,4.000000,4.000000,100.000000
1602006239.869186,74.000000,0.000000,4110.769043,4130.256348,4128.205078,4133.846191,4133.333496,4125.128418,4120.000000,4139.487305,4137.436035,4129.743652,4142.563965,4145.641113,4145.641113,4109.743652,873.000000,4.000000,,,,0.000000,4.000000,4.000000,4.000000,4.000000,4.000000,4.000000,4.000000,4.000000,4.000000,4.000000,4.000000,4.000000,4.000000,4.000000,100.000000
1602006239.877068,75.000000,0.000000,4114.871582,4136.410156,4139.487305,4139.487305,4143.077148,4135.897461,4123.077148,4144.102539,4141.025879,4161.538574,4147.692383,4154.871582,4150.769043,4121.025879,842.000000,4.000000,,,,0.000000,4.000000,4.000000,4.000000,4.000000,4.000000,4.000000,4.000000,4.000000,4.000000,4.000000,4.000000,4.000000,4.000000,4.000000,100.000000
1602006239.884950,76.000000,0.000000,4116.410156,4138.461426,4144.615234,4138.974121,4137.436035,4137.436035,4124.615234,4138.974121,4151.794922,4151.794922,4142.563965,4157.436035,4157.948730,4128.205078,763.000000,4.000000,,,,0.000000,4.000000,4.000000,4.000000,4.000000,4.000000,4.000000,4.000000,4.000000,4.000000,4.000000,4.000000,4.000000,4.000000,4.000000,100.000000
1602006239.892732,77.000000,0.000000,4120.000000,4135.897461,4145.128418,4136.922852,4133.333496,4137.436035,4125.641113,4131.794922,4154.358887,4149.230957,4149.743652,4160.000000,4172.307617,4126.153809,736.000000,4.000000,,,,0.000000,4.000000,4.000000,4.000000,4.000000,4.000000,4.000000,4.000000,4.000000,4.000000,4.000000,4.000000,4.000000,4.000000,4.000000,100.000000
1602006239.900614,78.000000,0.000000,4114.358887,4140.512695,4141.025879,4138.974121,4134.358887,4141.025879,4126.153809,4124.102539,4146.153809,4159.487305,4158.461426,4157.948730,4169.230957,4122.563965,873.000000,4.000000,,,,0.000000,4.000000,4.000000,4.000000,4.000000,4.000000,4.000000,4.000000,4.000000,4.000000,4.000000,4.000000,4.000000,4.000000,4.000000,100.000000
1602006239.908496,79.000000,0.000000,4109.743652,4143.077148,4135.897461,4141.025879,4130.256348,4138.461426,4121.538574,4121.538574,4135.897461,4138.461426,4149.743652,4160.000000,4153.333496,4125.128418,842.000000,4.000000,,,,0.000000,4.000000,4.000000,4.000000,4.000000,4.000000,4.000000,4.000000,4.000000,4.000000,4.000000,4.000000,4.000000,4.000000,4.000000,100.000000
1602006239.916378,80.000000,0.000000,4117.436035,4137.948730,4140.512695,4142.563965,4128.717773,4129.743652,4117.436035,4123.589844,4134.358887,4118.974121,4137.436035,4166.666504,4151.282227,4135.384766,763.000000,4.000000,,,,0.000000,4.000000,4.000000,4.000000,4.000000,4.000000,4.000000,4.000000,4.000000,4.000000,4.000000,4.000000,4.000000,4.000000,4.000000,100.000000
1602006239.924260,81.000000,0.000000,4125.641113,4143.589844,4154.358887,4145.128418,4135.897461,4136.410156,4125.641113,4130.769043,4148.205078,4146.666504,4144.102539,4171.282227,4161.025879,4144.102539,736.000000,4.000000,,,,0.000000,4.000000,4.000000,4.000000,4.000000,4.000000,4.000000,4.000000,4.000000,4.000000,4.000000,4.000000,4.000000,4.000000,4.000000,100.000000
1602006239.932142,82.000000,0.000000,4127.179688,4151.794922,4153.846191,4146.153809,4140.000000,4144.615234,4135.897461,4136.922852,4152.307617,4170.769043,4154.358887,4170.769043,4167.692383,4141.025879,873.000000,4.000000,,,,0.000000,4.000000,4.000000,4.000000,4.000000,4.000000,4.000000,4.000000,4.000000,4.000000,4.000000,4.000000,4.000000,4.000000,4.000000,100.000000
1602006239.940023,83.000000,0.000000,4124.102539,4146.153809,4140.512695,4141.538574,4138.461426,4140.512695,4136.410156,4137.436035,4143.589844,4162.563965,4154.358887,4168.205078,4172.820313,4140.512695,842.000000,4.000000,,,,0.000000,4.000000,4.000000,4.000000,4.000000,4.000000,4.000000,4.000000,4.000000,4.000000,4.000000,4.000000,4.000000,4.000000,4.000000,100.000000
1602006239.947905,84.000000,0.000000,4114.358887,4137.948730,4128.717773,4135.384766,4138.974121,4137.948730,4136.410156,4139.487305,4148.717773,4154.871582,4148.717773,4158.974121,4167.179688,4139.487305,763.000000,4.000000,,,,0.000000,4.000000,4.000000,4.000000,4.000000,4.000000,4.000000,4.000000,4.000000,4.000000,4.000000,4.000000,4.000000,4.000000,4.000000,100.000000
1602006239.955787,85.000000,0.000000,4105.641113,4137.948730,4121.538574,4133.333496,4131.794922,4129.743652,4135.897461,4142.563965,4142.051270,4141.025879,4137.948730,4147.692383,4150.769043,4132.307617,736.000000,4.000000,,,,0.000000,4.000000,4.000000,4.000000,4.000000,4.000000,4.000000,4.000000,4.000000,4.000000,4.000000,4.000000,4.000000,4.000000,4.000000,100.000000
1602006239.963769,86.000000,0.000000,4114.358887,4137.948730,4126.153809,4134.871582,4119.487305,4120.000000,4133.333496,4140.000000,4122.051270,4123.589844,4135.897461,4150.256348,4149.743652,4132.820313,873.000000,4.000000,,,,0.000000,4.000000,4.000000,4.000000,4.000000,4.000000,4.000000,4.000000,4.000000,4.000000,4.000000,4.000000,4.000000,4.000000,4.000000,100.000000
1602006239.971650,87.000000,0.000000,4127.179688,4137.948730,4136.922852,4135.384766,4121.538574,4128.717773,4133.846191,4138.461426,4129.230957,4133.333496,4150.256348,4157.436035,4159.487305,4134.358887,842.000000,4.000000,,,,0.000000,4.000000,4.000000,4.000000,4.000000,4.000000,4.000000,4.000000,4.000000,4.000000,4.000000,4.000000,4.000000,4.000000,4.000000,100.000000
1602006239.979532,88.000000,0.000000,4122.563965,4140.000000,4133.846191,4134.358887,4130.769043,4140.000000,4133.846191,4144.102539,4150.769043,4147.692383,4155.897461,4158.461426,4164.615234,4130.256348,763.000000,4.000000,,,,0.000000,4.000000,4.000000,4.000000,4.000000,4.000000,4.000000,4.000000,4.000000,4.000000,4.000000,4.000000,4.000000,4.000000,4.000000,100.000000
1602006239.987414,89.000000,0.000000,4117.948730,4140.512695,4126.153809,4138.461426,4130.256348,4137.436035,4129.230957,4145.641113,4152.820313,4155.897461,4150.769043,4157.436035,4165.641113,4134.358887,736.000000,4.000000,,,,0.000000,4.000000,4.000000,4.000000,4.000000,4.000000,4.000000,4.000000,4.000000,4.000000,4.000000,4.000000,4.000000,4.000000,4.000000,100.000000
1602006239.995295,90.000000,0.000000,4122.563965,4140.000000,4126.666504,4137.948730,4123.589844,4135.384766,4126.666504,4140.000000,4150.769043,4168.717773,4155.384766,4158.461426,4163.077148,4140.512695,873.000000,4.000000,,,,0.000000,4.000000,4.000000,4.000000,4.000000,4.000000,4.000000,4.000000,4.000000,4.000000,4.000000,4.000000,4.000000,4.000000,4.000000,100.000000
1602006240.003177,91.000000,0.000000,4124.615234,4137.436035,4126.666504,4129.230957,4121.538574,4141.025879,4123.077148,4134.871582,4153.846191,4160.000000,4154.358887,4157.436035,4157.948730,4131.794922,842.000000,4.000000,,,,0.000000,4.000000,4.000000,4.000000,4.000000,4.000000,4.000000,4.000000,4.000000,4.000000,4.000000,4.000000,4.000000,4.000000,4.000000,100.000000
1602006240.011059,92.000000,0.000000,4120.512695,4135.897461,4125.128418,4125.128418,4131.794922,4145.128418,4125.128418,4134.871582,4151.794922,4138.974121,4135.384766,4150.769043,4152.307617,4122.051270,763.000000,4.000000,,,,0.000000,4.000000,4.000000,4.000000,4.000000,4.000000,4.000000,4.000000,4.000000,4.000000,4.000000,4.000000,4.000000,4.000000,4.000000,100.000000
1602006240.018940,93.000000,0.000000,4109.230957,4129.230957,4124.615234,4124.102539,4139.487305,4141.538574,4133.846191,4135.384766,4135.384766,4131.282227,4125.128418,4146.666504,4140.512695,4120.512695,736.000000,4.000000,,,,0.000000,4.000000,4.000000,4.000000,4.000000,4.000000,4.000000,4.000000,4.000000,4.000000,4.000000,4.000000,4.000000,4.000000,4.000000,100.000000
1602006240.026722,94.000000,0.000000,4103.589844,4125.128418,4124.615234,4122.563965,4130.256348,4137.948730,4136.410156,4134.871582,4120.000000,4129.743652,4134.358887,4151.282227,4137.948730,4122.051270,873.000000,4.000000,,,,0.000000,4.000000,4.000000,4.000000,4.000000,4.000000,4.000000,4.000000,4.000000,4.000000,4.000000,4.000000,4.000000,4.000000,4.000000,100.000000
1602006240.034603,95.000000,0.000000,4107.179688,4121.538574,4135.384766,4124.615234,4121.538574,4140.512695,4136.922852,4136.410156,4131.794922,4133.846191,4134.358887,4152.307617,4145.128418,4125.641113,842.000000,4.000000,,,,0.000000,4.000000,4.000000,4.000000,4.000000,4.000000,4.000000,4.000000,4.000000,4.000000,4.000000,4.000000,4.000000,4.000000,4.000000,100.000000
1602006240.042485,96.000000,0.000000,4106.666504,4113.846191,4137.436035,4122.051270,4118.974121,4138.461426,4136.922852,4135.897461,4144.102539,4132.820313,4124.615234,4141.025879,4136.410156,4124.615234,763.000000,4.000000,,,,0.000000,4.000000,4.000000,4.000000,4.000000,4.000000,4.000000,4.000000,4.000000,4.000000,4.000000,4.000000,4.000000,4.000000,4.000000,100.000000
1602006240.050366,97.000000,0.000000,4110.256348,4120.000000,4124.615234,4118.974121,4116.922852,4133.846191,4129.743652,4136.922852,4129.743652,4128.205078,4126.666504,4132.820313,4128.205078,4122.051270,736.000000,4.000000,,,,0.000000,4.000000,4.000000,4.000000,4.000000,4.000000,4.000000,4.000000,4.000000,4.000000,4.000000,4.000000,4.000000,4.000000,4.000000,100.000000
1602006240.058247,98.000000,0.000000,4124.102539,4138.461426,4126.666504,4130.256348,4122.051270,4133.333496,4123.077148,4135.897461,4121.025879,4130.256348,4137.436035,4135.384766,4136.922852,4123.589844,873.000000,4.000000,,,,0.000000,4.000000,4.000000,4.000000,4.000000,4.000000,4.000000,4.000000,4.000000,4.000000,4.000000,4.000000,4.000000,4.000000,4.000000,100.000000
1602006240.066129,99.000000,0.000000,4132.820313,4143.589844,4140.000000,4135.897461,4122.563965,4131.794922,4122.563965,4128.205078,4129.743652,4131.282227,4137.436035,4137.948730,4134.358887,4127.179688,842.000000,4.000000,,,,0.000000,4.000000,4.000000,4.000000,4.000000,4.000000,4.000000,4.000000,4.000000,4.000000,4.000000,4.000000,4.000000,4.000000,4.000000,100.000000
1602006240.074010,100.000000,0.000000,4125.641113,4132.820313,4137.436035,4124.615234,4111.282227,4125.128418,4121.025879,4121.538574,4127.692383,4124.102539,4123.077148,4136.922852,4121.025879,4125.128418,763.000000,4.000000,,,,0.000000,4.000000,4.000000,4.000000,4.000000,4.000000,4.000000,4.000000,4.000000,4.000000,4.000000,4.000000,4.000000,4.000000,4.000000,100.000000
1602006240.081792,101.000000,0.000000,4118.461426,4127.692383,4131.282227,4119.487305,4103.589844,4121.538574,4121.538574,4123.589844,4120.512695,4114.871582,4114.358887,4136.410156,4119.487305,4120.512695,736.000000,4.000000,,,,0.000000,4.000000,4.000000,4.000000,4.000000,4.000000,4.000000,4.000000,4.000000,4.000000,4.000000,4.000000,4.000000,4.000000,4.000000,100.000000
1602006240.089674,102.000000,0.000000,4127.692383,4131.282227,4137.948730,4127.179688,4104.615234,4128.205078,4126.666504,4126.666504,4125.641113,4113.846191,4121.538574,4139.487305,4124.102539,4122.051270,873.000000,4.000000,,,,0.000000,4.000000,4.000000,4.000000,4.000000,4.000000,4.000000,4.000000,4.000000,4.000000,4.000000,4.000000,4.000000,4.000000,4.000000,100.000000
1602006240.097555,103.000000,0.000000,4138.974121,4136.922852,4136.922852,4128.717773,4110.256348,4136.922852,4126.153809,4126.666504,4131.282227,4125.641113,4126.666504,4142.563965,4123.077148,4124.102539,842.000000,4.000000,,,,0.000000,4.000000,4.000000,4.000000,4.000000,4.000000,4.000000,4.000000,4.000000,4.000000,4.000000,4.000000,4.000000,4.000000,4.000000,100.000000
1602006240.105437,104.000000,0.000000,4129.230957,4137.436035,4123.589844,4123.077148,4120.000000,4136.922852,4118.461426,4123.589844,4124.615234,4122.051270,4117.948730,4138.974121,4120.512695,4113.333496,763.000000,4.000000,,,,0.000000,4.000000,4.000000,4.000000,4.000000,4.000000,4.000000,4.000000,4.000000,4.000000,4.000000,4.000000,4.000000,4.000000,4.000000,100.000000
1602006240.113318,105.000000,0.000000,4119.487305,4135.384766,4123.077148,4127.179688,4124.615234,4135.897461,4116.410156,4122.051270,4120.512695,4098.461426,4120.512695,4139.487305,4127.692383,4113.846191,736.000000,4.000000,,,,0.000000,4.000000,4.000000,4.000000,4.000000,4.000000,4.000000,4.000000,4.000000,4.000000,4.000000,4.000000,4.000000,4.000000,4.000000,100.000000
1602006240.121200,106.000000,0.000000,4135.897461,4143.077148,4137.948730,4137.948730,4123.077148,4136.922852,4123.589844,4124.615234,4124.615234,4106.153809,4138.461426,4146.666504,4136.922852,4138.974121,873.000000,4.000000,,,,0.000000,4.000000,4.000000,4.000000,4.000000,4.000000,4.000000,4.000000,4.000000,4.000000,4.000000,4.000000,4.000000,4.000000,4.000000,100.000000
1602006240.129082,107.000000,0.000000,4144.615234,4146.153809,4139.487305,4141.025879,4121.025879,4126.153809,4120.512695,4122.563965,4117.436035,4128.205078,4139.487305,4143.077148,4129.230957,4142.051270,842.000000,4.000000,,,,0.000000,4.000000,4.000000,4.000000,4.000000,4.000000,4.000000,4.000000,4.000000,4.000000,4.000000,4.000000,4.000000,4.000000,4.000000,100.000000
1602006240.136963,108.000000,0.000000,4131.282227,4138.974121,4126.153809,4134.871582,4120.512695,4113.846191,4112.307617,4117.948730,4103.589844,4125.641113,4125.641113,4132.820313,4118.461426,4118.461426,763.000000,4.000000,,,,0.000000,4.000000,4.000000,4.000000,4.000000,4.000000,4.000000,4.000000,4.000000,4.000000,4.000000,4.000000,4.000000,4.000000,4.000000,100.000000
1602006240.144945,109.000000,0.000000,4123.589844,4137.948730,4122.563965,4135.384766,4124.102539,4120.512695,4117.948730,4120.000000,4107.692383,4122.563965,4121.025879,4135.384766,4123.077148,4117.948730,736.000000,4.000000,,,,0.000000,4.000000,4.000000,4.000000,4.000000,4.000000,4.000000,4.000000,4.000000,4.000000,4.000000,4.000000,4.000000,4.000000,4.000000,100.000000
1602006240.152827,110.000000,0.000000,4122.563965,4141.538574,4124.102539,4134.871582,4125.128418,4127.692383,4126.666504,4124.102539,4119.487305,4128.717773,4125.128418,4138.974121,4124.615234,4131.794922,873.000000,4.000000,,,,0.000000,4.000000,4.000000,4.000000,4.000000,4.000000,4.000000,4.000000,4.000000,4.000000,4.000000,4.000000,4.000000,4.000000,4.000000,100.000000
1602006240.160709,111.000000,0.000000,4118.974121,4140.000000,4121.538574,4129.230957,4120.000000,4126.153809,4126.153809,4131.794922,4125.128418,4127.179688,4125.128418,4137.436035,4119.487305,4117.948730,842.000000,4.000000,,,,0.000000,4.000000,4.000000,4.000000,4.000000,4.000000,4.000000,4.000000,4.000000,4.000000,4.000000,4.000000,4.000000,4.000000,4.000000,100.000000
1602006240.168591,112.000000,0.000000,4127.179688,4138.461426,4128.717773,4133.333496,4120.512695,4122.563965,4125.128418,4140.000000,4134.358887,4120.512695,4125.641113,4140.512695,4122.051270,4106.153809,763.000000,4.000000,,,,0.000000,4.000000,4.000000,4.000000,4.000000,4.000000,4.000000,4.000000,4.000000,4.000000,4.000000,4.000000,4.000000,4.000000,4.000000,100.000000
1602006240.176473,113.000000,0.000000,4141.538574,4142.051270,4138.461426,4141.538574,4124.102539,4120.512695,4124.102539,4135.384766,4140.000000,4120.512695,4127.179688,4145.128418,4125.641113,4128.205078,736.000000,4.000000,,,,0.000000,4.000000,4.000000,4.000000,4.000000,4.000000,4.000000,4.000000,4.000000,4.000000,4.000000,4.000000,4.000000,4.000000,4.000000,100.000000
1602006240.184355,114.000000,0.000000,4135.897461,4145.128418,4137.948730,4141.538574,4121.025879,4124.615234,4123.077148,4130.769043,4138.461426,4134.358887,4123.589844,4143.077148,4124.615234,4141.025879,873.000000,4.000000,,,,0.000000,4.000000,4.000000,4.000000,4.000000,4.000000,4.000000,4.000000,4.000000,4.000000,4.000000,4.000000,4.000000,4.000000,4.000000,100.000000
1602006240.192236,115.000000,0.000000,4125.128418,4148.205078,4134.358887,4137.948730,4120.000000,4136.410156,4124.102539,4135.384766,4141.025879,4143.077148,4122.563965,4137.436035,4125.128418,4119.487305,842.000000,4.000000,,,,0.000000,4.000000,4.000000,4.000000,4.000000,4.000000,4.000000,4.000000,4.000000,4.000000,4.000000,4.000000,4.000000,4.000000,4.000000,100.000000
1602006240.200118,116.000000,0.000000,4129.743652,4149.230957,4132.820313,4137.948730,4124.102539,4141.538574,4121.538574,4131.794922,4136.410156,4123.589844,4127.179688,4130.769043,4122.051270,4108.717773,763.000000,4.000000,,,,0.000000,4.000000,4.000000,4.000000,4.000000,4.000000,4.000000,4.000000,4.000000,4.000000,4.000000,4.000000,4.000000,4.000000,4.000000,100.000000
1602006240.208000,117.000000,0.000000,4130.256348,4145.128418,4127.179688,4138.461426,4124.102539,4130.256348,4120.000000,4120.512695,4122.563965,4107.179688,4125.128418,4124.102539,4114.871582,4121.538574,736.000000,4.000000,,,,0.000000,4.000000,4.000000,4.000000,4.000000,4.000000,4.000000,4.000000,4.000000,4.000000,4.000000,4.000000,4.000000,4.000000,4.000000,100.000000
1602006240.215981,118.000000,0.000000,4128.717773,4141.025879,4125.128418,4138.974121,4127.692383,4121.025879,4124.615234,4122.563965,4120.000000,4123.077148,4119.487305,4128.205078,4113.846191,4126.153809,873.000000,4.000000,,,,0.000000,4.000000,4.000000,4.000000,4.000000,4.000000,4.000000,4.000000,4.000000,4.000000,4.000000,4.000000,4.000000,4.000000,4.000000,100.000000
1602006240.223862,119.000000,0.000000,4133.333496,4144.102539,4128.205078,4136.922852,4131.282227,4125.128418,4126.153809,4126.666504,4118.974121,4133.333496,4121.538574,4135.384766,4116.922852,4120.000000,842.000000,4.000000,,,,0.000000,4.000000,4.000000,4.000000,4.000000,4.000000,4.000000,4.000000,4.000000,4.000000,4.000000,4.000000,4.000000,4.000000,4.000000,100.000000
1602006240.231743,120.000000,0.000000,4126.666504,4139.487305,4124.615234,4127.179688,4120.512695,4122.563965,4122.051270,4120.512695,4106.666504,4106.153809,4116.922852,4127.692383,4109.743652,4115.897461,763.000000,4.000000,,,,0.000000,4.000000,4.000000,4.000000,4.000000,4.000000,4.000000,4.000000,4.000000,4.000000,4.000000,4.000000,4.000000,4.000000,4.000000,100.000000
1602006240.239525,121.000000,0.000000,4120.000000,4127.692383,4118.974121,4120.000000,4113.333496,4112.820313,4118.974121,4118.461426,4101.538574,4091.281982,4106.666504,4117.948730,4098.974121,4109.230957,736.000000,4.000000,,,,0.000000,4.000000,4.000000,4.000000,4.000000,4.000000,4.000000,4.000000,4.000000,4.000000,4.000000,4.000000,4.000000,4.000000,4.000000,100.000000
1602006240.247406,122.000000,0.000000,4123.077148,4129.230957,4118.461426,4119.487305,4122.563965,4120.000000,4121.538574,4121.025879,4110.769043,4117.436035,4103.077148,4118.974121,4098.974121,4104.102539,873.000000,4.000000,,,,0.000000,4.000000,4.000000,4.000000,4.000000,4.000000,4.000000,4.000000,4.000000,4.000000,4.000000,4.000000,4.000000,4.000000,4.000000,100.000000
1602006240.255288,123.000000,0.000000,4121.538574,4137.436035,4121.025879,4124.615234,4125.128418,4128.205078,4121.538574,4121.538574,4119.487305,4128.205078,4103.589844,4123.077148,4107.692383,4111.282227,842.000000,4.000000,,,,0.000000,4.000000,4.000000,4.000000,4.000000,4.000000,4.000000,4.000000,4.000000,4.000000,4.000000,4.000000,4.000000,4.000000,4.000000,100.000000
1602006240.263170,124.000000,0.000000,4127.692383,4139.487305,4124.102539,4134.871582,4118.461426,4123.077148,4120.512695,4126.666504,4129.743652,4117.436035,4120.000000,4129.230957,4120.512695,4123.077148,763.000000,4.000000,,,,0.000000,4.000000,4.000000,4.000000,4.000000,4.000000,4.000000,4.000000,4.000000,4.000000,4.000000,4.000000,4.000000,4.000000,4.000000,100.000000
1602006240.271051,125.000000,0.000000,4140.000000,4139.487305,4128.205078,4140.000000,4122.051270,4130.256348,4127.179688,4140.000000,4142.051270,4132.307617,4138.461426,4138.974121,4130.256348,4126.666504,736.000000,4.000000,,,,0.000000,4.000000,4.000000,4.000000,4.000000,4.000000,4.000000,4.000000,4.000000,4.000000,4.000000,4.000000,4.000000,4.000000,4.000000,100.000000
1602006240.278933,126.000000,0.000000,4133.333496,4134.358887,4120.512695,4128.205078,4125.128418,4142.051270,4135.897461,4143.589844,4144.615234,4151.794922,4129.743652,4140.512695,4122.563965,4122.051270,873.000000,4.000000,,,,0.000000,4.000000,4.000000,4.000000,4.000000,4.000000,4.000000,4.000000,4.000000,4.000000,4.000000,4.000000,4.000000,4.000000,4.000000,100.000000
1602006240.286814,127.000000,0.000000,4115.897461,4122.051270,4111.794922,4113.846191,4114.871582,4134.358887,4137.948730,4139.487305,4140.512695,4134.871582,4118.974121,4130.256348,4110.256348,4121.538574,842.000000,4.000000,,,,0.000000,4.000000,4.000000,4.000000,4.000000,4.000000,4.000000,4.000000,4.000000,4.000000,4.000000,4.000000,4.000000,4.000000,4.000000,100.000000
1602006240.294796,128.000000,0.000000,4107.179688,4116.922852,4116.410156,4111.282227,4107.179688,4126.153809,4135.897461,4141.025879,4133.846191,4111.794922,4126.153809,4121.025879,4109.743652,4126.153809,763.000000,4.000000,,,,0.000000,4.000000,4.000000,4.000000,4.000000,4.000000,4.000000,4.000000,4.000000,4.000000,4.000000,4.000000,4.000000,4.000000,4.000000,100.000000
1602006240.302678,0.000000,0.000000,4109.230957,4120.512695,4118.461426,4114.358887,4112.307617,4127.179688,4130.769043,4137.436035,4120.000000,4105.128418,4119.487305,4118.461426,4103.589844,4119.487305,797.000000,4.000000,,,,0.000000,4.000000,4.000000,4.000000,4.000000,4.000000,4.000000,4.000000,4.000000,4.000000,4.000000,4.000000,4.000000,4.000000,4.000000,100.000000
1602006240.310560,1.000000,0.000000,4116.922852,4122.051270,4115.384766,4120.512695,4122.563965,4127.179688,4123.077148,4125.641113,4106.153809,4104.102539,4103.077148,4120.000000,4095.384521,4110.769043,793.000000,4.000000,,,,0.000000,4.000000,4.000000,4.000000,4.000000,4.000000,4.000000,4.000000,4.000000,4.000000,4.000000,4.000000,4.000000,4.000000,4.000000,100.000000
1602006240.318442,2.000000,0.000000,4113.846191,4122.051270,4117.948730,4115.897461,4125.128418,4127.179688,4119.487305,4119.487305,4104.102539,4110.769043,4100.512695,4120.000000,4101.538574,4111.794922,852.000000,4.000000,,,,0.000000,4.000000,4.000000,4.000000,4.000000,4.000000,4.000000,4.000000,4.000000,4.000000,4.000000,4.000000,4.000000,4.000000,4.000000,100.000000
1602006240.326324,3.000000,0.000000,4105.128418,4120.512695,4120.000000,4107.692383,4117.436035,4127.692383,4119.487305,4121.025879,4112.307617,4120.000000,4105.641113,4120.512695,4105.641113,4116.922852,873.000000,4.000000,,,,0.000000,4.000000,4.000000,4.000000,4.000000,4.000000,4.000000,4.000000,4.000000,4.000000,4.000000,4.000000,4.000000,4.000000,4.000000,100.000000
1602006240.334206,4.000000,0.000000,4116.922852,4121.025879,4121.538574,4117.436035,4112.820313,4128.717773,4120.000000,4123.077148,4121.025879,4127.179688,4112.820313,4130.769043,4104.615234,4122.051270,810.000000,4.000000,,,,0.000000,4.000000,4.000000,4.000000,4.000000,4.000000,4.000000,4.000000,4.000000,4.000000,4.000000,4.000000,4.000000,4.000000,4.000000,100.000000
1602006240.342088,5.000000,0.000000,4128.717773,4120.512695,4125.641113,4124.102539,4110.769043,4117.948730,4116.922852,4121.538574,4117.948730,4127.692383,4115.384766,4134.358887,4104.615234,4125.128418,818.000000,4.000000,,,,0.000000,4.000000,4.000000,4.000000,4.000000,4.000000,4.000000,4.000000,4.000000,4.000000,4.000000,4.000000,4.000000,4.000000,4.000000,100.000000
1602006240.349969,6.000000,0.000000,4116.922852,4115.384766,4122.051270,4114.871582,4105.641113,4097.436035,4111.282227,4120.000000,4106.666504,4106.666504,4115.384766,4127.692383,4098.974121,4117.948730,762.000000,4.000000,,,,0.000000,4.000000,4.000000,4.000000,4.000000,4.000000,4.000000,4.000000,4.000000,4.000000,4.000000,4.000000,4.000000,4.000000,4.000000,100.000000
1602006240.357851,7.000000,0.000000,4120.000000,4118.974121,4125.641113,4116.410156,4109.230957,4106.666504,4117.436035,4128.205078,4113.846191,4096.922852,4123.589844,4132.307617,4106.666504,4119.487305,670.000000,4.000000,,,,0.000000,4.000000,4.000000,4.000000,4.000000,4.000000,4.000000,4.000000,4.000000,4.000000,4.000000,4.000000,4.000000,4.000000,4.000000,100.000000
1602006240.365733,8.000000,0.000000,4141.025879,4125.641113,4143.077148,4129.230957,4120.000000,4134.871582,4127.692383,4140.512695,4137.436035,4126.153809,4131.794922,4143.077148,4123.589844,4137.948730,786.000000,4.000000,,,,0.000000,4.000000,4.000000,4.000000,4.000000,4.000000,4.000000,4.000000,4.000000,4.000000,4.000000,4.000000,4.000000,4.000000,4.000000,100.000000
1602006240.373515,9.000000,0.000000,4136.922852,4123.589844,4137.436035,4127.179688,4120.512695,4134.358887,4125.641113,4141.025879,4140.000000,4150.256348,4125.128418,4138.461426,4117.436035,4142.563965,840.000000,4.000000,,,,0.000000,4.000000,4.000000,4.000000,4.000000,4.000000,4.000000,4.000000,4.000000,4.000000,4.000000,4.000000,4.000000,4.000000,4.000000,100.000000
1602006240.381396,10.000000,0.000000,4118.461426,4121.025879,4123.589844,4117.948730,4116.922852,4125.641113,4125.128418,4135.897461,4123.077148,4143.077148,4113.846191,4135.384766,4106.153809,4128.205078,873.000000,4.000000,,,,0.000000,4.000000,4.000000,4.000000,4.000000,4.000000,4.000000,4.000000,4.000000,4.000000,4.000000,4.000000,4.000000,4.000000,4.000000,100.000000
1602006240.389278,11.000000,0.000000,4116.922852,4124.615234,4128.205078,4120.512695,4125.128418,4137.436035,4130.256348,4137.436035,4120.512695,4136.922852,4115.897461,4138.461426,4108.717773,4120.000000,842.000000,4.000000,,,,0.000000,4.000000,4.000000,4.000000,4.000000,4.000000,4.000000,4.000000,4.000000,4.000000,4.000000,4.000000,4.000000,4.000000,4.000000,100.000000
1602006240.397159,12.000000,0.000000,4127.179688,4127.692383,4131.282227,4132.820313,4131.794922,4140.512695,4128.717773,4135.897461,4123.077148,4131.282227,4123.077148,4129.743652,4113.333496,4124.615234,765.000000,4.000000,,,,0.000000,4.000000,4.000000,4.000000,4.000000,4.000000,4.000000,4.000000,4.000000,4.000000,4.000000,4.000000,4.000000,4.000000,4.000000,100.000000
1602006240.405040,13.000000,0.000000,4133.333496,4126.666504,4122.051270,4136.410156,4125.641113,4128.205078,4123.589844,4127.179688,4110.769043,4118.974121,4125.128418,4123.077148,4117.436035,4125.641113,738.000000,4.000000,,,,0.000000,4.000000,4.000000,4.000000,4.000000,4.000000,4.000000,4.000000,4.000000,4.000000,4.000000,4.000000,4.000000,4.000000,4.000000,100.000000
1602006240.412922,14.000000,0.000000,4125.641113,4121.538574,4117.948730,4126.666504,4121.025879,4126.153809,4121.025879,4121.025879,4104.102539,4118.461426,4123.077148,4126.666504,4115.897461,4122.563965,873.000000,4.000000,,,,0.000000,4.000000,4.000000,4.000000,4.000000,4.000000,4.000000,4.000000,4.000000,4.000000,4.000000,4.000000,4.000000,4.000000,4.000000,100.000000
1602006240.420803,15.000000,0.000000,4112.307617,4119.487305,4120.512695,4120.512695,4133.846191,4135.384766,4119.487305,4120.000000,4109.230957,4120.512695,4123.077148,4127.692383,4109.230957,4129.230957,842.000000,4.000000,,,,0.000000,4.000000,4.000000,4.000000,4.000000,4.000000,4.000000,4.000000,4.000000,4.000000,4.000000,4.000000,4.000000,4.000000,4.000000,100.000000
1602006240.428585,16.000000,0.000000,4116.922852,4124.102539,4123.077148,4123.589844,4140.000000,4135.897461,4118.974121,4120.512695,4108.205078,4121.025879,4124.102539,4125.128418,4110.256348,4141.025879,0.000000,4.000000,,,,0.000000,4.000000,4.000000,4.000000,4.000000,4.000000,4.000000,4.000000,4.000000,4.000000,4.000000,4.000000,4.000000,4.000000,4.000000,100.000000
1602006240.436467,17.000000,0.000000,4127.692383,4122.051270,4123.589844,4124.615234,4126.153809,4122.563965,4120.000000,4120.512695,4105.641113,4124.615234,4123.077148,4126.153809,4112.307617,4132.820313,0.000000,4.000000,,,,0.000000,4.000000,4.000000,4.000000,4.000000,4.000000,4.000000,4.000000,4.000000,4.000000,4.000000,4.000000,4.000000,4.000000,4.000000,100.000000
1602006240.444348,18.000000,0.000000,4117.948730,4116.922852,4121.538574,4123.589844,4123.077148,4121.025879,4120.512695,4120.512695,4113.846191,4119.487305,4120.512695,4128.205078,4109.743652,4112.820313,0.000000,4.000000,,,,0.000000,4.000000,4.000000,4.000000,4.000000,4.000000,4.000000,4.000000,4.000000,4.000000,4.000000,4.000000,4.000000,4.000000,4.000000,100.000000
1602006240.452230,19.000000,0.000000,4105.641113,4119.487305,4120.000000,4125.128418,4136.922852,4135.384766,4122.051270,4127.179688,4128.205078,4124.615234,4118.974121,4126.153809,4117.948730,4114.871582,0.000000,4.000000,,,,0.000000,4.000000,4.000000,4.000000,4.000000,4.000000,4.000000,4.000000,4.000000,4.000000,4.000000,4.000000,4.000000,4.000000,4.000000,100.000000
1602006240.460111,20.000000,0.000000,4106.666504,4124.102539,4116.922852,4124.615234,4143.589844,4144.102539,4123.589844,4134.871582,4136.922852,4138.974121,4121.025879,4122.563965,4122.563965,4119.487305,0.000000,4.000000,,,,0.000000,4.000000,4.000000,4.000000,4.000000,4.000000,4.000000,4.000000,4.000000,4.000000,4.000000,4.000000,4.000000,4.000000,4.000000,100.000000
1602006240.467993,21.000000,0.000000,4110.256348,4121.538574,4108.205078,4122.563965,4133.333496,4137.436035,4123.077148,4129.230957,4135.384766,4135.897461,4123.589844,4120.000000,4109.743652,4104.615234,0.000000,4.000000,,,,0.000000,4.000000,4.000000,4.000000,4.000000,4.000000,4.000000,4.000000,4.000000,4.000000,4.000000,4.000000,4.000000,4.000000,4.000000,100.000000
1602006240.475875,22.000000,0.000000,4108.717773,4116.922852,4104.102539,4120.512695,4125.128418,4123.589844,4122.051270,4126.153809,4132.820313,4126.153809,4122.563965,4123.077148,4105.128418,4106.153809,0.000000,4.000000,,,,0.000000,4.000000,4.000000,4.000000,4.000000,4.000000,4.000000,4.000000,4.000000,4.000000,4.000000,4.000000,4.000000,4.000000,4.000000,100.000000
1602006240.483856,23.000000,0.000000,4110.769043,4124.102539,4110.769043,4120.512695,4132.307617,4125.128418,4125.128418,4136.922852,4137.948730,4127.692383,4123.077148,4132.820313,4125.128418,4124.615234,0.000000,4.000000,,,,0.000000,4.000000,4.000000,4.000000,4.000000,4.000000,4.000000,4.000000,4.000000,4.000000,4.000000,4.000000,4.000000,4.000000,4.000000,100.000000
1602006240.491738,24.000000,0.000000,4117.948730,4138.461426,4115.384766,4125.641113,4143.077148,4140.000000,4131.282227,4142.051270,4144.102539,4123.077148,4131.794922,4143.589844,4142.563965,4124.615234,0.000000,4.000000,,,,0.000000,4.000000,4.000000,4.000000,4.000000,4.000000,4.000000,4.000000,4.000000,4.000000,4.000000,4.000000,4.000000,4.000000,4.000000,100.000000
1602006240.499620,25.000000,0.000000,4110.769043,4136.410156,4109.743652,4130.769043,4140.000000,4144.102539,4131.794922,4138.974121,4140.512695,4122.563965,4135.384766,4144.615234,4129.230957,4116.922852,0.000000,4.000000,,,,0.000000,4.000000,4.000000,4.000000,4.000000,4.000000,4.000000,4.000000,4.000000,4.000000,4.000000,4.000000,4.000000,4.000000,4.000000,100.000000
1602006240.507501,26.000000,0.000000,4096.922852,4121.025879,4105.128418,4124.102539,4129.230957,4137.436035,4128.205078,4133.846191,4130.256348,4140.000000,4127.179688,4138.974121,4108.205078,4117.436035,0.000000,4.000000,,,,0.000000,4.000000,4.000000,4.000000,4.000000,4.000000,4.000000,4.000000,4.000000,4.000000,4.000000,4.000000,4.000000,4.000000,4.000000,100.000000
1602006240.515383,27.000000,0.000000,4097.948730,4117.948730,4108.205078,4110.256348,4131.282227,4136.922852,4124.615234,4125.128418,4123.077148,4137.436035,4114.358887,4138.461426,4107.179688,4109.743652,0.000000,4.000000,,,,0.000000,4.000000,4.000000,4.000000,4.000000,4.000000,4.000000,4.000000,4.000000,4.000000,4.000000,4.000000,4.000000,4.000000,4.000000,100.000000
1602006240.523264,28.000000,0.000000,4105.128418,4121.025879,4108.717773,4109.743652,4136.410156,4138.974121,4123.077148,4119.487305,4120.512695,4116.410156,4107.179688,4137.436035,4113.846191,4098.974121,0.000000,4.000000,,,,0.000000,4.000000,4.000000,4.000000,4.000000,4.000000,4.000000,4.000000,4.000000,4.000000,4.000000,4.000000,4.000000,4.000000,4.000000,100.000000
1602006240.531146,29.000000,0.000000,4109.230957,4118.974121,4106.666504,4120.000000,4135.384766,4136.922852,4123.077148,4121.538574,4126.153809,4118.974121,4112.820313,4142.563965,4116.922852,4105.641113,0.000000,4.000000,,,,0.000000,4.000000,4.000000,4.000000,4.000000,4.000000,4.000000,4.000000,4.000000,4.000000,4.000000,4.000000,4.000000,4.000000,4.000000,100.000000
1602006240.539127,30.000000,0.000000,4120.000000,4127.179688,4115.897461,4129.230957,4135.897461,4134.871582,4123.077148,4126.666504,4142.051270,4138.974121,4127.179688,4155.384766,4127.692383,4123.077148,0.000000,4.000000,,,,0.000000,4.000000,4.000000,4.000000,4.000000,4.000000,4.000000,4.000000,4.000000,4.000000,4.000000,4.000000,4.000000,4.000000,4.000000,100.000000
1602006240.547009,31.000000,0.000000,4133.846191,4140.000000,4130.256348,4137.948730,4139.487305,4133.846191,4123.077148,4136.410156,4153.846191,4143.077148,4137.948730,4162.051270,4141.538574,4132.307617,0.000000,4.000000,,,,0.000000,4.000000,4.000000,4.000000,4.000000,4.000000,4.000000,4.000000,4.000000,4.000000,4.000000,4.000000,4.000000,4.000000,4.000000,100.000000
1602006240.554890,32.000000,0.000000,4139.487305,4141.538574,4136.922852,4142.051270,4143.077148,4136.922852,4126.153809,4141.025879,4149.743652,4143.077148,4148.717773,4164.615234,4148.717773,4137.948730,0.000000,4.000000,,,,0.000000,4.000000,4.000000,4.000000,4.000000,4.000000,4.000000,4.000000,4.000000,4.000000,4.000000,4.000000,4.000000,4.000000,4.000000,100.000000
1602006240.562772,33.000000,0.000000,4141.025879,4140.000000,4141.538574,4136.922852,4135.897461,4138.461426,4130.256348,4138.974121,4153.333496,4160.000000,4158.461426,4168.717773,4154.871582,4152.820313,0.000000,4.000000,,,,0.000000,4.000000,4.000000,4.000000,4.000000,4.000000,4.000000,4.000000,4.000000,4.000000,4.000000,4.000000,4.000000,4.000000,4.000000,100.000000
1602006240.570653,34.000000,0.000000,4140.512695,4140.512695,4144.615234,4135.897461,4127.179688,4134.871582,4131.282227,4143.589844,4164.615234,4166.666504,4152.307617,4168.717773,4153.846191,4154.358887,0.000000,4.000000,,,,0.000000,4.000000,4.000000,4.000000,4.000000,4.000000,4.000000,4.000000,4.000000,4.000000,4.000000,4.000000,4.000000,4.000000,4.000000,100.000000
1602006240.578534,35.000000,0.000000,4142.563965,4140.512695,4145.641113,4141.538574,4129.230957,4134.358887,4135.897461,4146.666504,4161.538574,4158.974121,4142.563965,4168.205078,4145.128418,4141.025879,0.000000,4.000000,,,,0.000000,4.000000,4.000000,4.000000,4.000000,4.000000,4.000000,4.000000,4.000000,4.000000,4.000000,4.000000,4.000000,4.000000,4.000000,100.000000
1602006240.586416,36.000000,0.000000,4145.641113,4140.000000,4140.000000,4143.077148,4134.358887,4135.384766,4141.025879,4143.077148,4148.717773,4149.743652,4141.538574,4165.128418,4139.487305,4137.948730,0.000000,4.000000,,,,0.000000,4.000000,4.000000,4.000000,4.000000,4.000000,4.000000,4.000000,4.000000,4.000000,4.000000,4.000000,4.000000,4.000000,4.000000,100.000000
1602006240.594198,37.000000,0.000000,4128.205078,4138.461426,4123.077148,4138.461426,4133.333496,4137.436035,4137.436035,4139.487305,4141.025879,4126.666504,4137.436035,4152.307617,4137.436035,4133.846191,0.000000,4.000000,,,,0.000000,4.000000,4.000000,4.000000,4.000000,4.000000,4.000000,4.000000,4.000000,4.000000,4.000000,4.000000,4.000000,4.000000,4.000000,100.000000
1602006240.602079,38.000000,0.000000,4115.897461,4135.897461,4114.358887,4133.846191,4134.871582,4140.000000,4128.717773,4137.436035,4136.922852,4116.922852,4135.384766,4148.717773,4136.410156,4128.717773,0.000000,4.000000,,,,0.000000,4.000000,4.000000,4.000000,4.000000,4.000000,4.000000,4.000000,4.000000,4.000000,4.000000,4.000000,4.000000,4.000000,4.000000,100.000000
1602006240.609961,39.000000,0.000000,4132.307617,4136.922852,4121.025879,4129.230957,4140.000000,4127.692383,4123.589844,4137.436035,4139.487305,4143.077148,4140.000000,4157.436035,4141.025879,4140.512695,0.000000,4.000000,,,,0.000000,4.000000,4.000000,4.000000,4.000000,4.000000,4.000000,4.000000,4.000000,4.000000,4.000000,4.000000,4.000000,4.000000,4.000000,100.000000
1602006240.617842,40.000000,0.000000,4144.102539,4134.358887,4125.128418,4122.563965,4137.436035,4109.743652,4121.538574,4134.871582,4141.538574,4151.282227,4137.948730,4157.948730,4141.538574,4141.538574,0.000000,4.000000,,,,0.000000,4.000000,4.000000,4.000000,4.000000,4.000000,4.000000,4.000000,4.000000,4.000000,4.000000,4.000000,4.000000,4.000000,4.000000,100.000000
1602006240.625724,41.000000,0.000000,4135.897461,4132.307617,4124.615234,4123.589844,4133.333496,4109.230957,4118.461426,4126.666504,4130.256348,4123.589844,4135.384766,4154.871582,4135.897461,4123.077148,0.000000,4.000000,,,,0.000000,4.000000,4.000000,4.000000,4.000000,4.000000,4.000000,4.000000,4.000000,4.000000,4.000000,4.000000,4.000000,4.000000,4.000000,100.000000
1602006240.633606,42.000000,0.000000,4134.358887,4135.897461,4124.615234,4135.384766,4134.871582,4122.051270,4117.436035,4123.077148,4120.000000,4117.948730,4141.538574,4156.410156,4135.897461,4120.512695,0.000000,4.000000,,,,0.000000,4.000000,4.000000,4.000000,4.000000,4.000000,4.000000,4.000000,4.000000,4.000000,4.000000,4.000000,4.000000,4.000000,4.000000,100.000000
1602006240.641487,43.000000,0.000000,4138.461426,4136.922852,4121.025879,4141.538574,4133.846191,4126.153809,4120.512695,4127.179688,4122.051270,4133.846191,4143.589844,4155.897461,4136.410156,4134.358887,0.000000,4.000000,,,,0.000000,4.000000,4.000000,4.000000,4.000000,4.000000,4.000000,4.000000,4.000000,4.000000,4.000000,4.000000,4.000000,4.000000,4.000000,100.000000
1602006240.649369,44.000000,0.000000,4131.794922,4133.333496,4117.948730,4132.307617,4127.179688,4123.589844,4120.512695,4127.692383,4126.666504,4137.436035,4132.820313,4153.333496,4135.897461,4129.743652,0.000000,4.000000,,,,0.000000,4.000000,4.000000,4.000000,4.000000,4.000000,4.000000,4.000000,4.000000,4.000000,4.000000,4.000000,4.000000,4.000000,4.000000,100.000000
1602006240.657351,45.000000,0.000000,4123.077148,4134.358887,4122.051270,4128.717773,4126.666504,4131.794922,4121.025879,4131.794922,4131.282227,4136.410156,4133.846191,4152.307617,4140.000000,4120.000000,0.000000,4.000000,,,,0.000000,4.000000,4.000000,4.000000,4.000000,4.000000,4.000000,4.000000,4.000000,4.000000,4.000000,4.000000,4.000000,4.000000,4.000000,100.000000
1602006240.665233,46.000000,0.000000,4120.512695,4136.410156,4125.128418,4136.922852,4133.333496,4140.512695,4124.615234,4141.538574,4137.436035,4138.974121,4150.769043,4154.358887,4139.487305,4130.769043,0.000000,4.000000,,,,0.000000,4.000000,4.000000,4.000000,4.000000,4.000000,4.000000,4.000000,4.000000,4.000000,4.000000,4.000000,4.000000,4.000000,4.000000,100.000000
1602006240.673115,47.000000,0.000000,4124.102539,4134.871582,4121.025879,4136.410156,4131.282227,4131.282227,4126.666504,4140.512695,4136.922852,4138.974121,4149.230957,4153.846191,4133.846191,4138.461426,0.000000,4.000000,,,,0.000000,4.000000,4.000000,4.000000,4.000000,4.000000,4.000000,4.000000,4.000000,4.000000,4.000000,4.000000,4.000000,4.000000,4.000000,100.000000
1602006240.680996,48.000000,0.000000,4129.230957,4135.384766,4111.282227,4131.794922,4128.205078,4123.589844,4131.282227,4134.358887,4133.846191,4129.230957,4134.358887,4143.077148,4134.871582,4127.692383,0.000000,4.000000,,,,0.000000,4.000000,4.000000,4.000000,4.000000,4.000000,4.000000,4.000000,4.000000,4.000000,4.000000,4.000000,4.000000,4.000000,4.000000,100.000000
1602006240.688878,49.000000,0.000000,4129.230957,4136.410156,4105.641113,4134.871582,4136.922852,4135.384766,4138.461426,4136.922852,4135.384766,4119.487305,4131.794922,4135.384766,4136.922852,4123.589844,0.000000,4.000000,,,,0.000000,4.000000,4.000000,4.000000,4.000000,4.000000,4.000000,4.000000,4.000000,4.000000,4.000000,4.000000,4.000000,4.000000,4.000000,100.000000
1602006240.696760,50.000000,0.000000,4130.256348,4135.384766,4109.230957,4139.487305,4142.051270,4143.589844,4141.538574,4138.974121,4128.205078,4122.051270,4138.974121,4141.025879,4135.384766,4130.256348,0.000000,4.000000,,,,0.000000,4.000000,4.000000,4.000000,4.000000,4.000000,4.000000,4.000000,4.000000,4.000000,4.000000,4.000000,4.000000,4.000000,4.000000,100.000000
1602006240.704642,51.000000,0.000000,4137.436035,4137.948730,4116.922852,4139.487305,4137.436035,4139.487305,4138.974121,4136.922852,4115.384766,4134.358887,4143.589844,4145.641113,4137.436035,4128.205078,0.000000,4.000000,,,,0.000000,4.000000,4.000000,4.000000,4.000000,4.000000,4.000000,4.000000,4.000000,4.000000,4.000000,4.000000,4.000000,4.000000,4.000000,100.000000
1602006240.712524,52.000000,0.000000,4137.948730,4138.461426,4117.948730,4136.922852,4141.025879,4138.974121,4132.307617,4140.000000,4126.153809,4147.692383,4142.563965,4143.077148,4141.025879,4123.589844,0.000000,4.000000,,,,0.000000,4.000000,4.000000,4.000000,4.000000,4.000000,4.000000,4.000000,4.000000,4.000000,4.000000,4.000000,4.000000,4.000000,4.000000,100.000000
1602006240.720406,53.000000,0.000000,4128.205078,4129.230957,4111.282227,4129.743652,4139.487305,4135.897461,4123.589844,4137.436035,4137.948730,4149.230957,4131.282227,4140.512695,4134.358887,4123.077148,0.000000,4.000000,,,,0.000000,4.000000,4.000000,4.000000,4.000000,4.000000,4.000000,4.000000,4.000000,4.000000,4.000000,4.000000,4.000000,4.000000,4.000000,100.000000
1602006240.728187,54.000000,0.000000,4122.051270,4125.641113,4109.230957,4122.563965,4128.717773,4123.077148,4115.384766,4126.666504,4124.102539,4133.333496,4126.666504,4137.948730,4128.205078,4118.974121,0.000000,4.000000,,,,0.000000,4.000000,4.000000,4.000000,4.000000,4.000000,4.000000,4.000000,4.000000,4.000000,4.000000,4.000000,4.000000,4.000000,4.000000,100.000000
1602006240.736068,55.000000,0.000000,4120.512695,4133.333496,4113.333496,4126.153809,4130.256348,4118.461426,4112.820313,4126.153809,4120.000000,4128.717773,4144.615234,4138.974121,4134.871582,4122.051270,0.000000,4.000000,,,,0.000000,4.000000,4.000000,4.000000,4.000000,4.000000,4.000000,4.000000,4.000000,4.000000,4.000000,4.000000,4.000000,4.000000,4.000000,100.000000
1602006240.743949,56.000000,0.000000,4117.948730,4136.922852,4111.282227,4128.205078,4140.000000,4130.256348,4116.410156,4135.384766,4140.512695,4142.563965,4153.333496,4141.025879,4141.025879,4127.692383,0.000000,4.000000,,,,0.000000,4.000000,4.000000,4.000000,4.000000,4.000000,4.000000,4.000000,4.000000,4.000000,4.000000,4.000000,4.000000,4.000000,4.000000,100.000000
1602006240.751831,57.000000,0.000000,4125.641113,4134.871582,4108.717773,4125.128418,4137.948730,4133.846191,4121.538574,4137.436035,4146.153809,4135.384766,4142.563965,4140.512695,4141.025879,4126.666504,0.000000,4.000000,,,,0.000000,4.000000,4.000000,4.000000,4.000000,4.000000,4.000000,4.000000,4.000000,4.000000,4.000000,4.000000,4.000000,4.000000,4.000000,100.000000
1602006240.759712,58.000000,0.000000,4139.487305,4136.410156,4120.000000,4129.743652,4129.743652,4123.077148,4127.179688,4136.922852,4137.948730,4126.153809,4134.358887,4147.179688,4145.128418,4128.205078,0.000000,4.000000,,,,0.000000,4.000000,4.000000,4.000000,4.000000,4.000000,4.000000,4.000000,4.000000,4.000000,4.000000,4.000000,4.000000,4.000000,4.000000,100.000000
1602006240.767694,59.000000,0.000000,4143.077148,4135.384766,4130.769043,4136.922852,4126.666504,4127.179688,4136.410156,4143.077148,4144.615234,4148.717773,4137.948730,4152.307617,4149.230957,4139.487305,0.000000,4.000000,,,,0.000000,4.000000,4.000000,4.000000,4.000000,4.000000,4.000000,4.000000,4.000000,4.000000,4.000000,4.000000,4.000000,4.000000,4.000000,100.000000
1602006240.775575,60.000000,0.000000,4134.871582,4128.717773,4127.179688,4132.820313,4122.563965,4137.948730,4140.512695,4137.948730,4143.589844,4155.384766,4140.000000,4143.077148,4137.436035,4141.025879,0.000000,4.000000,,,,0.000000,4.000000,4.000000,4.000000,4.000000,4.000000,4.000000,4.000000,4.000000,4.000000,4.000000,4.000000,4.000000,4.000000,4.000000,100.000000
1602006240.783457,61.000000,0.000000,4122.563965,4123.589844,4117.948730,4125.128418,4122.051270,4129.743652,4131.282227,4123.077148,4120.512695,4128.205078,4134.358887,4135.384766,4120.512695,4127.179688,0.000000,4.000000,,,,0.000000,4.000000,4.000000,4.000000,4.000000,4.000000,4.000000,4.000000,4.000000,4.000000,4.000000,4.000000,4.000000,4.000000,4.000000,100.000000
1602006240.791339,62.000000,0.000000,4118.974121,4121.538574,4119.487305,4126.666504,4125.641113,4123.077148,4125.128418,4118.974121,4108.717773,4113.846191,4124.615234,4140.000000,4119.487305,4119.487305,0.000000,4.000000,,,,0.000000,4.000000,4.000000,4.000000,4.000000,4.000000,4.000000,4.000000,4.000000,4.000000,4.000000,4.000000,4.000000,4.000000,4.000000,100.000000
1602006240.799221,63.000000,0.000000,4130.256348,4124.615234,4128.717773,4132.820313,4123.589844,4126.153809,4126.153809,4119.487305,4109.743652,4114.358887,4120.000000,4142.051270,4125.128418,4120.000000,0.000000,4.000000,,,,0.000000,4.000000,4.000000,4.000000,4.000000,4.000000,4.000000,4.000000,4.000000,4.000000,4.000000,4.000000,4.000000,4.000000,4.000000,100.000000
1602006240.807103,64.000000,0.000000,4137.436035,4132.307617,4137.436035,4136.922852,4124.102539,4113.333496,4121.538574,4109.230957,4099.487305,4103.589844,4126.666504,4143.589844,4122.563965,4123.589844,797.000000,4.000000,,,,0.000000,4.000000,4.000000,4.000000,4.000000,4.000000,4.000000,4.000000,4.000000,4.000000,4.000000,4.000000,4.000000,4.000000,4.000000,100.000000
1602006240.814985,65.000000,0.000000,4137.436035,4141.025879,4150.256348,4138.974121,4133.333496,4104.102539,4112.307617,4102.051270,4087.179443,4100.512695,4137.436035,4153.333496,4121.538574,4134.358887,793.000000,4.000000,,,,0.000000,4.000000,4.000000,4.000000,4.000000,4.000000,4.000000,4.000000,4.000000,4.000000,4.000000,4.000000,4.000000,4.000000,4.000000,100.000000
1602006240.822867,66.000000,0.000000,4149.743652,4147.179688,4161.538574,4142.051270,4143.077148,4118.461426,4106.153809,4111.282227,4096.410156,4121.025879,4141.538574,4161.538574,4128.717773,4144.615234,852.000000,4.000000,,,,0.000000,4.000000,4.000000,4.000000,4.000000,4.000000,4.000000,4.000000,4.000000,4.000000,4.000000,4.000000,4.000000,4.000000,4.000000,100.000000
1602006240.830749,67.000000,0.000000,4154.358887,4148.717773,4155.384766,4146.666504,4146.666504,4124.615234,4104.615234,4122.563965,4112.307617,4143.077148,4140.000000,4160.000000,4132.307617,4135.384766,870.000000,4.000000,,,,0.000000,4.000000,4.000000,4.000000,4.000000,4.000000,4.000000,4.000000,4.000000,4.000000,4.000000,4.000000,4.000000,4.000000,4.000000,100.000000
1602006240.838530,68.000000,0.000000,4134.871582,4141.025879,4141.538574,4141.025879,4145.641113,4120.000000,4103.589844,4125.641113,4122.051270,4134.871582,4132.820313,4150.769043,4125.641113,4120.000000,810.000000,4.000000,,,,0.000000,4.000000,4.000000,4.000000,4.000000,4.000000,4.000000,4.000000,4.000000,4.000000,4.000000,4.000000,4.000000,4.000000,4.000000,100.000000
1602006240.846412,69.000000,0.000000,4119.487305,4128.717773,4130.769043,4124.615234,4140.000000,4127.179688,4105.641113,4128.205078,4126.666504,4111.282227,4124.615234,4140.512695,4111.794922,4118.974121,818.000000,4.000000,,,,0.000000,4.000000,4.000000,4.000000,4.000000,4.000000,4.000000,4.000000,4.000000,4.000000,4.000000,4.000000,4.000000,4.000000,4.000000,100.000000
1602006240.854294,70.000000,0.000000,4115.897461,4120.512695,4121.025879,4114.358887,4127.179688,4138.974121,4117.436035,4132.820313,4126.153809,4113.333496,4123.589844,4136.922852,4105.641113,4122.051270,762.000000,4.000000,,,,0.000000,4.000000,4.000000,4.000000,4.000000,4.000000,4.000000,4.000000,4.000000,4.000000,4.000000,4.000000,4.000000,4.000000,4.000000,100.000000
1602006240.862175,71.000000,0.000000,4114.358887,4120.000000,4116.922852,4120.000000,4123.077148,4145.641113,4132.820313,4137.436035,4131.794922,4133.333496,4135.384766,4137.948730,4117.948730,4120.000000,670.000000,4.000000,,,,0.000000,4.000000,4.000000,4.000000,4.000000,4.000000,4.000000,4.000000,4.000000,4.000000,4.000000,4.000000,4.000000,4.000000,4.000000,100.000000
1602006240.870057,72.000000,0.000000,4118.461426,4124.615234,4121.025879,4131.794922,4131.282227,4154.358887,4141.025879,4141.025879,4143.077148,4143.589844,4139.487305,4137.436035,4125.641113,4121.025879,786.000000,4.000000,,,,0.000000,4.000000,4.000000,4.000000,4.000000,4.000000,4.000000,4.000000,4.000000,4.000000,4.000000,4.000000,4.000000,4.000000,4.000000,100.000000
1602006240.877939,73.000000,0.000000,4123.077148,4125.641113,4122.051270,4135.384766,4136.922852,4155.897461,4143.589844,4135.384766,4134.871582,4139.487305,4127.692383,4133.846191,4115.384766,4124.615234,840.000000,4.000000,,,,0.000000,4.000000,4.000000,4.000000,4.000000,4.000000,4.000000,4.000000,4.000000,4.000000,4.000000,4.000000,4.000000,4.000000,4.000000,100.000000
1602006240.885820,74.000000,0.000000,4120.000000,4127.692383,4121.538574,4135.384766,4133.333496,4137.948730,4138.461426,4123.077148,4107.692383,4121.538574,4120.512695,4136.410156,4112.820313,4121.538574,898.000000,4.000000,,,,0.000000,4.000000,4.000000,4.000000,4.000000,4.000000,4.000000,4.000000,4.000000,4.000000,4.000000,4.000000,4.000000,4.000000,4.000000,100.000000
1602006240.893702,75.000000,0.000000,4127.179688,4135.384766,4129.230957,4136.922852,4134.871582,4118.974121,4129.230957,4117.948730,4099.487305,4110.769043,4126.666504,4142.563965,4124.102539,4121.538574,842.000000,4.000000,,,,0.000000,4.000000,4.000000,4.000000,4.000000,4.000000,4.000000,4.000000,4.000000,4.000000,4.000000,4.000000,4.000000,4.000000,4.000000,100.000000
1602006240.901684,76.000000,0.000000,4141.538574,4140.512695,4137.436035,4135.897461,4140.000000,4112.820313,4120.512695,4115.384766,4104.615234,4118.974121,4135.384766,4143.589844,4127.692383,4131.282227,765.000000,4.000000,,,,0.000000,4.000000,4.000000,4.000000,4.000000,4.000000,4.000000,4.000000,4.000000,4.000000,4.000000,4.000000,4.000000,4.000000,4.000000,100.000000
1602006240.909565,77.000000,0.000000,4142.563965,4140.000000,4138.461426,4135.897461,4138.974121,4106.666504,4113.846191,4110.256348,4093.333252,4125.641113,4137.948730,4142.051270,4126.153809,4140.512695,738.000000,4.000000,,,,0.000000,4.000000,4.000000,4.000000,4.000000,4.000000,4.000000,4.000000,4.000000,4.000000,4.000000,4.000000,4.000000,4.000000,4.000000,100.000000
1602006240.917447,78.000000,0.000000,4141.538574,4142.051270,4140.512695,4141.538574,4138.461426,4104.615234,4117.436035,4115.384766,4083.589844,4124.102539,4131.794922,4143.589844,4130.256348,4142.051270,898.000000,4.000000,,,,0.000000,4.000000,4.000000,4.000000,4.000000,4.000000,4.000000,4.000000,4.000000,4.000000,4.000000,4.000000,4.000000,4.000000,4.000000,100.000000
1602006240.925329,79.000000,0.000000,4142.051270,4144.102539,4138.461426,4143.589844,4134.871582,4114.358887,4124.102539,4131.794922,4100.512695,4125.641113,4126.666504,4142.051270,4128.205078,4137.948730,842.000000,4.000000,,,,0.000000,4.000000,4.000000,4.000000,4.000000,4.000000,4.000000,4.000000,4.000000,4.000000,4.000000,4.000000,4.000000,4.000000,4.000000,100.000000
1602006240.933211,80.000000,0.000000,4132.820313,4134.871582,4126.153809,4135.897461,4124.102539,4128.205078,4124.615234,4140.512695,4122.051270,4126.153809,4132.820313,4132.820313,4121.538574,4134.358887,765.000000,4.000000,,,,0.000000,4.000000,4.000000,4.000000,4.000000,4.000000,4.000000,4.000000,4.000000,4.000000,4.000000,4.000000,4.000000,4.000000,4.000000,100.000000
1602006240.941093,81.000000,0.000000,4122.051270,4124.615234,4120.000000,4127.179688,4121.025879,4137.436035,4124.615234,4140.512695,4131.794922,4129.230957,4138.461426,4126.153809,4123.077148,4127.179688,738.000000,4.000000,,,,0.000000,4.000000,4.000000,4.000000,4.000000,4.000000,4.000000,4.000000,4.000000,4.000000,4.000000,4.000000,4.000000,4.000000,4.000000,100.000000
1602006240.948975,82.000000,0.000000,4121.025879,4128.205078,4122.563965,4125.128418,4130.769043,4142.051270,4126.153809,4135.384766,4136.410156,4131.794922,4135.897461,4124.615234,4124.102539,4115.897461,898.000000,4.000000,,,,0.000000,4.000000,4.000000,4.000000,4.000000,4.000000,4.000000,4.000000,4.000000,4.000000,4.000000,4.000000,4.000000,4.000000,4.000000,100.000000
1602006240.956857,83.000000,0.000000,4124.615234,4137.948730,4121.025879,4128.717773,4136.922852,4140.000000,4123.589844,4127.179688,4134.871582,4130.769043,4134.358887,4122.051270,4121.025879,4114.871582,842.000000,4.000000,,,,0.000000,4.000000,4.000000,4.000000,4.000000,4.000000,4.000000,4.000000,4.000000,4.000000,4.000000,4.000000,4.000000,4.000000,4.000000,100.000000
1602006240.964739,84.000000,0.000000,4126.153809,4141.025879,4129.743652,4135.897461,4135.384766,4132.307617,4124.102539,4124.615234,4129.230957,4138.461426,4137.436035,4126.666504,4130.769043,4127.179688,765.000000,4.000000,,,,0.000000,4.000000,4.000000,4.000000,4.000000,4.000000,4.000000,4.000000,4.000000,4.000000,4.000000,4.000000,4.000000,4.000000,4.000000,100.000000
1602006240.972621,85.000000,0.000000,4121.538574,4138.461426,4140.000000,4137.948730,4131.794922,4122.051270,4127.692383,4125.641113,4126.153809,4144.615234,4137.948730,4134.871582,4140.512695,4136.410156,738.000000,4.000000,,,,0.000000,4.000000,4.000000,4.000000,4.000000,4.000000,4.000000,4.000000,4.000000,4.000000,4.000000,4.000000,4.000000,4.000000,4.000000,100.000000
1602006240.980402,86.000000,0.000000,4126.153809,4137.948730,4133.846191,4130.769043,4130.769043,4114.871582,4123.589844,4125.641113,4123.077148,4138.974121,4135.384766,4132.820313,4135.897461,4136.922852,898.000000,4.000000,,,,0.000000,4.000000,4.000000,4.000000,4.000000,4.000000,4.000000,4.000000,4.000000,4.000000,4.000000,4.000000,4.000000,4.000000,4.000000,100.000000
1602006240.988284,87.000000,0.000000,4144.615234,4143.589844,4129.230957,4131.282227,4135.897461,4116.922852,4122.051270,4125.128418,4121.538574,4143.077148,4140.000000,4128.717773,4135.384766,4137.436035,842.000000,4.000000,,,,0.000000,4.000000,4.000000,4.000000,4.000000,4.000000,4.000000,4.000000,4.000000,4.000000,4.000000,4.000000,4.000000,4.000000,4.000000,100.000000
1602006240.996166,88.000000,0.000000,4142.563965,4145.128418,4129.743652,4142.051270,4138.974121,4125.128418,4121.538574,4126.666504,4126.153809,4153.333496,4144.615234,4129.230957,4142.051270,4137.436035,765.000000,4.000000,,,,0.000000,4.000000,4.000000,4.000000,4.000000,4.000000,4.000000,4.000000,4.000000,4.000000,4.000000,4.000000,4.000000,4.000000,4.000000,100.000000
1602006241.004047,89.000000,0.000000,4119.487305,4135.897461,4121.538574,4140.512695,4135.384766,4133.333496,4118.974121,4130.256348,4130.256348,4155.897461,4138.974121,4124.615234,4137.436035,4134.358887,738.000000,4.000000,,,,0.000000,4.000000,4.000000,4.000000,4.000000,4.000000,4.000000,4.000000,4.000000,4.000000,4.000000,4.000000,4.000000,4.000000,4.000000,100.000000
1602006241.011929,90.000000,0.000000,4119.487305,4131.282227,4118.974121,4132.820313,4133.846191,4141.538574,4128.717773,4135.384766,4127.692383,4151.794922,4136.410156,4127.692383,4133.333496,4137.436035,898.000000,4.000000,,,,0.000000,4.000000,4.000000,4.000000,4.000000,4.000000,4.000000,4.000000,4.000000,4.000000,4.000000,4.000000,4.000000,4.000000,4.000000,100.000000
1602006241.019810,91.000000,0.000000,4139.487305,4140.000000,4128.205078,4137.948730,4137.948730,4148.717773,4139.487305,4139.487305,4125.641113,4125.641113,4137.436035,4136.410156,4140.512695,4138.974121,842.000000,4.000000,,,,0.000000,4.000000,4.000000,4.000000,4.000000,4.000000,4.000000,4.000000,4.000000,4.000000,4.000000,4.000000,4.000000,4.000000,4.000000,100.000000
1602006241.027692,92.000000,0.000000,4136.410156,4138.974121,4125.641113,4133.333496,4137.948730,4140.512695,4130.256348,4133.333496,4124.615234,4103.589844,4123.077148,4127.179688,4133.333496,4124.615234,765.000000,4.000000,,,,0.000000,4.000000,4.000000,4.000000,4.000000,4.000000,4.000000,4.000000,4.000000,4.000000,4.000000,4.000000,4.000000,4.000000,4.000000,100.000000
1602006241.035574,93.000000,0.000000,4118.974121,4124.102539,4115.897461,4113.846191,4129.743652,4121.538574,4117.948730,4121.538574,4116.410156,4122.563965,4112.307617,4113.846191,4110.256348,4112.307617,738.000000,4.000000,,,,0.000000,4.000000,4.000000,4.000000,4.000000,4.000000,4.000000,4.000000,4.000000,4.000000,4.000000,4.000000,4.000000,4.000000,4.000000,100.000000
1602006241.043555,94.000000,0.000000,4122.051270,4124.102539,4116.922852,4119.487305,4127.179688,4121.538574,4117.948730,4115.897461,4106.153809,4143.589844,4123.589844,4119.487305,4106.666504,4124.102539,898.000000,4.000000,,,,0.000000,4.000000,4.000000,4.000000,4.000000,4.000000,4.000000,4.000000,4.000000,4.000000,4.000000,4.000000,4.000000,4.000000,4.000000,100.000000
1602006241.051436,95.000000,0.000000,4143.077148,4143.077148,4129.230957,4140.512695,4135.897461,4138.974121,4123.077148,4117.436035,4108.717773,4140.512695,4136.922852,4132.307617,4123.589844,4138.461426,842.000000,4.000000,,,,0.000000,4.000000,4.000000,4.000000,4.000000,4.000000,4.000000,4.000000,4.000000,4.000000,4.000000,4.000000,4.000000,4.000000,4.000000,100.000000
1602006241.059318,96.000000,0.000000,4161.025879,4156.922852,4144.102539,4145.128418,4142.051270,4138.974121,4130.769043,4124.615234,4119.487305,4147.179688,4146.153809,4146.153809,4140.000000,4142.563965,765.000000,4.000000,,,,0.000000,4.000000,4.000000,4.000000,4.000000,4.000000,4.000000,4.000000,4.000000,4.000000,4.000000,4.000000,4.000000,4.000000,4.000000,100.000000
1602006241.067199,97.000000,0.000000,4169.743652,4156.410156,4156.410156,4145.641113,4140.512695,4123.589844,4137.436035,4135.897461,4127.692383,4160.512695,4157.948730,4164.615234,4153.333496,4158.461426,738.000000,4.000000,,,,0.000000,4.000000,4.000000,4.000000,4.000000,4.000000,4.000000,4.000000,4.000000,4.000000,4.000000,4.000000,4.000000,4.000000,4.000000,100.000000
1602006241.075081,98.000000,0.000000,4171.282227,4156.922852,4162.051270,4152.820313,4141.538574,4117.436035,4136.922852,4141.538574,4125.128418,4145.128418,4161.538574,4169.743652,4155.384766,4168.717773,898.000000,4.000000,,,,0.000000,4.000000,4.000000,4.000000,4.000000,4.000000,4.000000,4.000000,4.000000,4.000000,4.000000,4.000000,4.000000,4.000000,4.000000,100.000000
1602006241.083062,99.000000,0.000000,4161.025879,4156.410156,4160.512695,4146.153809,4137.436035,4121.538574,4134.358887,4136.922852,4114.871582,4117.948730,4150.769043,4158.974121,4138.974121,4150.256348,842.000000,4.000000,,,,0.000000,4.000000,4.000000,4.000000,4.000000,4.000000,4.000000,4.000000,4.000000,4.000000,4.000000,4.000000,4.000000,4.000000,4.000000,100.000000
1602006241.090943,100.000000,0.000000,4147.179688,4145.128418,4156.922852,4128.205078,4126.666504,4129.230957,4137.436035,4134.358887,4111.794922,4122.563965,4137.948730,4147.179688,4129.743652,4135.384766,765.000000,4.000000,,,,0.000000,4.000000,4.000000,4.000000,4.000000,4.000000,4.000000,4.000000,4.000000,4.000000,4.000000,4.000000,4.000000,4.000000,4.000000,100.000000
1602006241.098825,101.000000,0.000000,4136.922852,4134.358887,4150.769043,4127.179688,4126.153809,4136.922852,4143.077148,4137.436035,4122.051270,4156.922852,4132.820313,4141.025879,4134.871582,4139.487305,738.000000,4.000000,,,,0.000000,4.000000,4.000000,4.000000,4.000000,4.000000,4.000000,4.000000,4.000000,4.000000,4.000000,4.000000,4.000000,4.000000,4.000000,100.000000
1602006241.106706,102.000000,0.000000,4134.358887,4136.410156,4143.077148,4136.922852,4137.436035,4146.153809,4142.563965,4139.487305,4133.333496,4174.871582,4134.871582,4141.025879,4133.333496,4134.358887,898.000000,4.000000,,,,0.000000,4.000000,4.000000,4.000000,4.000000,4.000000,4.000000,4.000000,4.000000,4.000000,4.000000,4.000000,4.000000,4.000000,4.000000,100.000000
1602006241.114588,103.000000,0.000000,4138.974121,4140.000000,4133.846191,4135.384766,4138.461426,4157.436035,4139.487305,4140.000000,4140.000000,4159.487305,4136.410156,4140.000000,4125.641113,4122.563965,842.000000,4.000000,,,,0.000000,4.000000,4.000000,4.000000,4.000000,4.000000,4.000000,4.000000,4.000000,4.000000,4.000000,4.000000,4.000000,4.000000,4.000000,100.000000
1602006241.122469,104.000000,0.000000,4130.256348,4128.205078,4116.410156,4123.077148,4128.717773,4156.410156,4136.922852,4137.436035,4137.436035,4132.820313,4133.846191,4126.666504,4121.025879,4120.000000,765.000000,4.000000,,,,0.000000,4.000000,4.000000,4.000000,4.000000,4.000000,4.000000,4.000000,4.000000,4.000000,4.000000,4.000000,4.000000,4.000000,4.000000,100.000000
1602006241.130350,105.000000,0.000000,4116.922852,4118.461426,4103.077148,4116.410156,4130.769043,4145.128418,4136.922852,4136.922852,4133.846191,4127.179688,4137.436035,4117.436035,4125.641113,4126.153809,738.000000,4.000000,,,,0.000000,4.000000,4.000000,4.000000,4.000000,4.000000,4.000000,4.000000,4.000000,4.000000,4.000000,4.000000,4.000000,4.000000,4.000000,100.000000
1602006241.138132,106.000000,0.000000,4133.846191,4130.769043,4115.384766,4125.641113,4142.051270,4140.512695,4136.922852,4140.000000,4142.051270,4152.307617,4141.538574,4131.794922,4139.487305,4142.051270,898.000000,4.000000,,,,0.000000,4.000000,4.000000,4.000000,4.000000,4.000000,4.000000,4.000000,4.000000,4.000000,4.000000,4.000000,4.000000,4.000000,4.000000,100.000000
1602006241.146014,107.000000,0.000000,4162.563965,4145.128418,4138.974121,4138.974121,4145.128418,4143.077148,4133.846191,4134.871582,4145.128418,4160.512695,4138.461426,4150.769043,4144.102539,4152.307617,842.000000,4.000000,,,,0.000000,4.000000,4.000000,4.000000,4.000000,4.000000,4.000000,4.000000,4.000000,4.000000,4.000000,4.000000,4.000000,4.000000,4.000000,100.000000
1602006241.153896,108.000000,0.000000,4158.461426,4141.538574,4142.563965,4140.000000,4143.077148,4135.897461,4124.615234,4123.077148,4134.358887,4146.666504,4147.179688,4152.307617,4136.922852,4148.717773,765.000000,4.000000,,,,0.000000,4.000000,4.000000,4.000000,4.000000,4.000000,4.000000,4.000000,4.000000,4.000000,4.000000,4.000000,4.000000,4.000000,4.000000,100.000000
1602006241.161778,109.000000,0.000000,4138.974121,4138.461426,4136.922852,4135.384766,4143.589844,4126.153809,4122.051270,4124.615234,4134.358887,4158.974121,4154.358887,4148.717773,4141.025879,4151.282227,738.000000,4.000000,,,,0.000000,4.000000,4.000000,4.000000,4.000000,4.000000,4.000000,4.000000,4.000000,4.000000,4.000000,4.000000,4.000000,4.000000,4.000000,100.000000
1602006241.169660,110.000000,0.000000,4143.589844,4142.563965,4137.948730,4141.025879,4144.102539,4124.615234,4131.794922,4133.333496,4138.461426,4173.333496,4143.077148,4150.256348,4151.282227,4157.436035,898.000000,4.000000,,,,0.000000,4.000000,4.000000,4.000000,4.000000,4.000000,4.000000,4.000000,4.000000,4.000000,4.000000,4.000000,4.000000,4.000000,4.000000,100.000000
1602006241.177542,111.000000,0.000000,4156.410156,4144.615234,4138.461426,4145.128418,4141.538574,4126.153809,4136.410156,4134.358887,4126.666504,4154.358887,4142.051270,4152.307617,4147.692383,4148.205078,842.000000,4.000000,,,,0.000000,4.000000,4.000000,4.000000,4.000000,4.000000,4.000000,4.000000,4.000000,4.000000,4.000000,4.000000,4.000000,4.000000,4.000000,100.000000
1602006241.185424,112.000000,0.000000,4158.974121,4150.769043,4139.487305,4141.025879,4140.512695,4131.282227,4135.897461,4139.487305,4121.538574,4147.179688,4153.846191,4152.820313,4141.538574,4147.692383,765.000000,4.000000,,,,0.000000,4.000000,4.000000,4.000000,4.000000,4.000000,4.000000,4.000000,4.000000,4.000000,4.000000,4.000000,4.000000,4.000000,4.000000,100.000000
1602006241.193306,113.000000,0.000000,4155.384766,4151.282227,4144.615234,4139.487305,4143.077148,4138.461426,4144.615234,4148.717773,4134.871582,4162.051270,4148.205078,4154.871582,4143.077148,4153.846191,738.000000,4.000000,,,,0.000000,4.000000,4.000000,4.000000,4.000000,4.000000,4.000000,4.000000,4.000000,4.000000,4.000000,4.000000,4.000000,4.000000,4.000000,100.000000
1602006241.201187,114.000000,0.000000,4148.205078,4138.974121,4144.102539,4135.384766,4142.563965,4144.102539,4154.871582,4146.153809,4138.974121,4156.410156,4138.461426,4156.922852,4142.051270,4144.615234,898.000000,4.000000,,,,0.000000,4.000000,4.000000,4.000000,4.000000,4.000000,4.000000,4.000000,4.000000,4.000000,4.000000,4.000000,4.000000,4.000000,4.000000,100.000000
1602006241.208969,115.000000,0.000000,4141.025879,4134.358887,4141.538574,4132.307617,4138.461426,4149.743652,4157.948730,4142.563965,4138.461426,4143.077148,4144.102539,4157.436035,4135.384766,4141.538574,842.000000,4.000000,,,,0.000000,4.000000,4.000000,4.000000,4.000000,4.000000,4.000000,4.000000,4.000000,4.000000,4.000000,4.000000,4.000000,4.000000,4.000000,100.000000
1602006241.216850,116.000000,0.000000,4138.461426,4136.922852,4144.615234,4132.307617,4138.461426,4150.769043,4153.846191,4143.077148,4142.051270,4138.461426,4148.717773,4153.333496,4129.743652,4146.666504,765.000000,4.000000,,,,0.000000,4.000000,4.000000,4.000000,4.000000,4.000000,4.000000,4.000000,4.000000,4.000000,4.000000,4.000000,4.000000,4.000000,4.000000,100.000000
1602006241.224731,117.000000,0.000000,4140.000000,4128.717773,4143.077148,4126.153809,4138.974121,4144.102539,4141.025879,4131.794922,4134.358887,4126.153809,4137.436035,4142.563965,4122.051270,4135.384766,738.000000,4.000000,,,,0.000000,4.000000,4.000000,4.000000,4.000000,4.000000,4.000000,4.000000,4.000000,4.000000,4.000000,4.000000,4.000000,4.000000,4.000000,100.000000
1602006241.232612,118.000000,0.000000,4137.436035,4121.025879,4135.384766,4120.512695,4134.358887,4136.922852,4124.102539,4116.922852,4119.487305,4124.615234,4124.102539,4135.897461,4111.794922,4117.948730,898.000000,4.000000,,,,0.000000,4.000000,4.000000,4.000000,4.000000,4.000000,4.000000,4.000000,4.000000,4.000000,4.000000,4.000000,4.000000,4.000000,4.000000,100.000000
1602006241.240493,119.000000,0.000000,4134.358887,4123.077148,4133.846191,4123.077148,4133.333496,4134.871582,4116.922852,4115.384766,4116.410156,4136.922852,4122.051270,4137.948730,4106.666504,4116.922852,842.000000,4.000000,,,,0.000000,4.000000,4.000000,4.000000,4.000000,4.000000,4.000000,4.000000,4.000000,4.000000,4.000000,4.000000,4.000000,4.000000,4.000000,100.000000
1602006241.248475,120.000000,0.000000,4134.871582,4124.615234,4134.871582,4125.641113,4136.410156,4136.922852,4120.000000,4118.974121,4120.000000,4137.948730,4117.436035,4137.948730,4104.615234,4120.512695,765.000000,4.000000,,,,0.000000,4.000000,4.000000,4.000000,4.000000,4.000000,4.000000,4.000000,4.000000,4.000000,4.000000,4.000000,4.000000,4.000000,4.000000,100.000000
1602006241.256357,121.000000,0.000000,4135.897461,4127.692383,4132.820313,4125.128418,4136.410156,4138.461426,4124.615234,4124.615234,4120.000000,4133.846191,4112.307617,4135.897461,4108.717773,4119.487305,738.000000,4.000000,,,,0.000000,4.000000,4.000000,4.000000,4.000000,4.000000,4.000000,4.000000,4.000000,4.000000,4.000000,4.000000,4.000000,4.000000,4.000000,100.000000
1602006241.264238,122.000000,0.000000,4137.436035,4128.717773,4133.846191,4128.205078,4134.871582,4136.922852,4132.307617,4135.384766,4124.615234,4138.974121,4121.538574,4141.538574,4121.025879,4123.589844,898.000000,4.000000,,,,0.000000,4.000000,4.000000,4.000000,4.000000,4.000000,4.000000,4.000000,4.000000,4.000000,4.000000,4.000000,4.000000,4.000000,4.000000,100.000000
1602006241.272120,123.000000,0.000000,4137.436035,4123.077148,4137.436035,4128.205078,4137.436035,4145.128418,4145.641113,4140.512695,4131.794922,4135.897461,4128.717773,4146.153809,4124.615234,4124.102539,842.000000,4.000000,,,,0.000000,4.000000,4.000000,4.000000,4.000000,4.000000,4.000000,4.000000,4.000000,4.000000,4.000000,4.000000,4.000000,4.000000,4.000000,100.000000
1602006241.280001,124.000000,0.000000,4134.358887,4120.000000,4131.794922,4122.563965,4140.512695,4153.846191,4152.307617,4139.487305,4136.410156,4125.641113,4124.102539,4142.563965,4113.846191,4114.871582,765.000000,4.000000,,,,0.000000,4.000000,4.000000,4.000000,4.000000,4.000000,4.000000,4.000000,4.000000,4.000000,4.000000,4.000000,4.000000,4.000000,4.000000,100.000000
1602006241.287883,125.000000,0.000000,4126.153809,4121.538574,4122.051270,4118.974121,4131.794922,4144.102539,4145.128418,4142.051270,4143.077148,4129.230957,4122.563965,4139.487305,4113.333496,4103.077148,738.000000,4.000000,,,,0.000000,4.000000,4.000000,4.000000,4.000000,4.000000,4.000000,4.000000,4.000000,4.000000,4.000000,4.000000,4.000000,4.000000,4.000000,100.000000
1602006241.295765,126.000000,0.000000,4121.025879,4120.000000,4122.563965,4122.051270,4123.589844,4127.179688,4133.846191,4144.615234,4150.769043,4138.461426,4118.974121,4143.077148,4117.436035,4105.641113,898.000000,4.000000,,,,0.000000,4.000000,4.000000,4.000000,4.000000,4.000000,4.000000,4.000000,4.000000,4.000000,4.000000,4.000000,4.000000,4.000000,4.000000,100.000000
1602006241.303746,127.000000,0.000000,4121.538574,4117.948730,4128.205078,4124.102539,4131.794922,4120.512695,4126.153809,4143.077148,4157.948730,4142.563965,4117.436035,4145.641113,4113.846191,4114.871582,842.000000,4.000000,,,,0.000000,4.000000,4.000000,4.000000,4.000000,4.000000,4.000000,4.000000,4.000000,4.000000,4.000000,4.000000,4.000000,4.000000,4.000000,100.000000
1602006241.311627,128.000000,0.000000,4123.077148,4121.538574,4126.666504,4122.051270,4140.000000,4122.051270,4123.077148,4140.512695,4151.794922,4142.051270,4120.512695,4141.025879,4116.410156,4110.256348,765.000000,4.000000,,,,0.000000,4.000000,4.000000,4.000000,4.000000,4.000000,4.000000,4.000000,4.000000,4.000000,4.000000,4.000000,4.000000,4.000000,4.000000,100.000000
1602006241.319509,0.000000,0.000000,4121.025879,4123.077148,4121.025879,4125.128418,4136.410156,4121.538574,4118.461426,4132.820313,4136.922852,4136.410156,4110.769043,4133.846191,4118.974121,4100.000000,797.000000,4.000000,,,,0.000000,4.000000,4.000000,4.000000,4.000000,4.000000,4.000000,4.000000,4.000000,4.000000,4.000000,4.000000,4.000000,4.000000,4.000000,100.000000
1602006241.327390,1.000000,0.000000,4122.051270,4123.077148,4122.563965,4127.179688,4135.897461,4120.000000,4111.794922,4125.641113,4139.487305,4126.153809,4115.897461,4137.948730,4115.384766,4112.307617,793.000000,4.000000,,,,0.000000,4.000000,4.000000,4.000000,4.000000,4.000000,4.000000,4.000000,4.000000,4.000000,4.000000,4.000000,4.000000,4.000000,4.000000,100.000000
1602006241.335272,2.000000,0.000000,4127.179688,4129.743652,4127.692383,4126.666504,4145.128418,4125.641113,4113.846191,4123.589844,4152.307617,4125.641113,4143.589844,4145.641113,4121.025879,4129.230957,852.000000,4.000000,,,,0.000000,4.000000,4.000000,4.000000,4.000000,4.000000,4.000000,4.000000,4.000000,4.000000,4.000000,4.000000,4.000000,4.000000,4.000000,100.000000
1602006241.343153,3.000000,0.000000,4127.692383,4137.948730,4127.179688,4131.794922,4148.717773,4137.436035,4123.077148,4124.615234,4147.692383,4134.358887,4140.000000,4140.512695,4128.205078,4115.384766,870.000000,4.000000,,,,0.000000,4.000000,4.000000,4.000000,4.000000,4.000000,4.000000,4.000000,4.000000,4.000000,4.000000,4.000000,4.000000,4.000000,4.000000,100.000000
1602006241.351135,4.000000,0.000000,4127.692383,4137.436035,4123.077148,4128.717773,4145.641113,4140.512695,4123.077148,4122.563965,4139.487305,4137.436035,4115.897461,4138.461426,4123.589844,4102.051270,810.000000,4.000000,,,,0.000000,4.000000,4.000000,4.000000,4.000000,4.000000,4.000000,4.000000,4.000000,4.000000,4.000000,4.000000,4.000000,4.000000,4.000000,100.000000
1602006241.359016,5.000000,0.000000,4133.846191,4135.384766,4122.051270,4123.077148,4142.051270,4136.922852,4123.077148,4122.563965,4149.230957,4140.000000,4126.666504,4150.769043,4121.538574,4119.487305,818.000000,4.000000,,,,0.000000,4.000000,4.000000,4.000000,4.000000,4.000000,4.000000,4.000000,4.000000,4.000000,4.000000,4.000000,4.000000,4.000000,4.000000,100.000000
1602006241.366898,6.000000,0.000000,4141.538574,4140.000000,4124.615234,4133.846191,4143.077148,4133.846191,4134.358887,4130.769043,4157.948730,4146.666504,4142.051270,4157.948730,4126.666504,4128.205078,764.000000,4.000000,,,,0.000000,4.000000,4.000000,4.000000,4.000000,4.000000,4.000000,4.000000,4.000000,4.000000,4.000000,4.000000,4.000000,4.000000,4.000000,100.000000
1602006241.374780,7.000000,0.000000,4132.307617,4141.025879,4122.563965,4144.102539,4141.538574,4128.205078,4139.487305,4139.487305,4149.230957,4143.589844,4128.717773,4152.820313,4124.102539,4112.820313,670.000000,4.000000,,,,0.000000,4.000000,4.000000,4.000000,4.000000,4.000000,4.000000,4.000000,4.000000,4.000000,4.000000,4.000000,4.000000,4.000000,4.000000,100.000000
1602006241.382661,8.000000,0.000000,4120.512695,4136.922852,4118.461426,4135.384766,4135.384766,4123.589844,4136.922852,4140.512695,4138.974121,4135.897461,4121.025879,4149.230957,4120.512695,4108.205078,786.000000,4.000000,,,,0.000000,4.000000,4.000000,4.000000,4.000000,4.000000,4.000000,4.000000,4.000000,4.000000,4.000000,4.000000,4.000000,4.000000,4.000000,100.000000
1602006241.390543,9.000000,0.000000,4137.948730,4139.487305,4125.641113,4134.358887,4141.025879,4122.563965,4137.948730,4138.461426,4145.641113,4145.128418,4127.692383,4151.794922,4128.717773,4119.487305,840.000000,4.000000,,,,0.000000,4.000000,4.000000,4.000000,4.000000,4.000000,4.000000,4.000000,4.000000,4.000000,4.000000,4.000000,4.000000,4.000000,4.000000,100.000000
1602006241.398424,10.000000,0.000000,4158.461426,4146.666504,4140.000000,4145.641113,4151.282227,4126.666504,4138.974121,4138.461426,4151.282227,4136.922852,4129.230957,4154.358887,4135.897461,4129.230957,889.000000,4.000000,,,,0.000000,4.000000,4.000000,4.000000,4.000000,4.000000,4.000000,4.000000,4.000000,4.000000,4.000000,4.000000,4.000000,4.000000,4.000000,100.000000
1602006241.406306,11.000000,0.000000,4146.666504,4144.615234,4142.563965,4144.615234,4148.205078,4133.846191,4137.948730,4136.922852,4141.025879,4108.205078,4124.102539,4154.871582,4126.666504,4125.128418,842.000000,4.000000,,,,0.000000,4.000000,4.000000,4.000000,4.000000,4.000000,4.000000,4.000000,4.000000,4.000000,4.000000,4.000000,4.000000,4.000000,4.000000,100.000000
1602006241.414087,12.000000,0.000000,4130.256348,4136.410156,4131.794922,4138.461426,4137.948730,4131.794922,4135.384766,4135.384766,4136.410156,4109.230957,4120.000000,4149.743652,4115.897461,4113.846191,765.000000,4.000000,,,,0.000000,4.000000,4.000000,4.000000,4.000000,4.000000,4.000000,4.000000,4.000000,4.000000,4.000000,4.000000,4.000000,4.000000,4.000000,100.000000
1602006241.421969,13.000000,0.000000,4142.051270,4136.922852,4129.743652,4136.922852,4136.922852,4123.589844,4129.743652,4133.846191,4148.205078,4132.820313,4122.563965,4150.256348,4122.563965,4114.871582,738.000000,4.000000,,,,0.000000,4.000000,4.000000,4.000000,4.000000,4.000000,4.000000,4.000000,4.000000,4.000000,4.000000,4.000000,4.000000,4.000000,4.000000,100.000000
1602006241.429850,14.000000,0.000000,4149.230957,4141.538574,4141.025879,4133.846191,4140.000000,4123.077148,4125.641113,4127.179688,4148.717773,4138.461426,4134.871582,4160.512695,4133.846191,4125.641113,889.000000,4.000000,,,,0.000000,4.000000,4.000000,4.000000,4.000000,4.000000,4.000000,4.000000,4.000000,4.000000,4.000000,4.000000,4.000000,4.000000,4.000000,100.000000
1602006241.437731,15.000000,0.000000,4133.333496,4140.000000,4143.589844,4131.794922,4136.410156,4121.025879,4123.589844,4122.051270,4137.436035,4136.410156,4139.487305,4162.051270,4132.820313,4125.128418,842.000000,4.000000,,,,0.000000,4.000000,4.000000,4.000000,4.000000,4.000000,4.000000,4.000000,4.000000,4.000000,4.000000,4.000000,4.000000,4.000000,4.000000,100.000000
1602006241.445612,16.000000,0.000000,4127.179688,4136.410156,4131.282227,4134.358887,4131.794922,4114.358887,4122.051270,4122.563965,4137.948730,4143.589844,4129.743652,4152.307617,4125.128418,4120.000000,0.000000,4.000000,,,,0.000000,4.000000,4.000000,4.000000,4.000000,4.000000,4.000000,4.000000,4.000000,4.000000,4.000000,4.000000,4.000000,4.000000,4.000000,100.000000
1602006241.453394,17.000000,0.000000,4144.615234,4137.948730,4125.128418,4136.922852,4136.410156,4117.436035,4125.128418,4125.128418,4149.743652,4147.179688,4124.615234,4149.230957,4122.051270,4123.589844,0.000000,4.000000,,,,0.000000,4.000000,4.000000,4.000000,4.000000,4.000000,4.000000,4.000000,4.000000,4.000000,4.000000,4.000000,4.000000,4.000000,4.000000,100.000000
1602006241.461275,18.000000,0.000000,4158.974121,4141.025879,4129.230957,4136.922852,4137.948730,4125.641113,4128.717773,4130.256348,4151.794922,4135.897461,4126.666504,4152.820313,4131.794922,4125.128418,0.000000,4.000000,,,,0.000000,4.000000,4.000000,4.000000,4.000000,4.000000,4.000000,4.000000,4.000000,4.000000,4.000000,4.000000,4.000000,4.000000,4.000000,100.000000
1602006241.469156,19.000000,0.000000,4147.692383,4140.000000,4125.641113,4137.436035,4125.641113,4120.000000,4127.692383,4131.282227,4140.000000,4118.461426,4127.692383,4149.230957,4140.000000,4123.077148,0.000000,4.000000,,,,0.000000,4.000000,4.000000,4.000000,4.000000,4.000000,4.000000,4.000000,4.000000,4.000000,4.000000,4.000000,4.000000,4.000000,4.000000,100.000000
1602006241.477038,20.000000,0.000000,4135.897461,4130.769043,4120.000000,4129.230957,4124.102539,4110.256348,4127.179688,4124.615234,4130.256348,4124.615234,4130.256348,4140.512695,4130.769043,4123.077148,0.000000,4.000000,,,,0.000000,4.000000,4.000000,4.000000,4.000000,4.000000,4.000000,4.000000,4.000000,4.000000,4.000000,4.000000,4.000000,4.000000,4.000000,100.000000
1602006241.484919,21.000000,0.000000,4135.384766,4120.512695,4126.666504,4124.102539,4136.410156,4115.384766,4127.692383,4127.179688,4127.692383,4142.563965,4126.153809,4138.461426,4120.512695,4121.538574,0.000000,4.000000,,,,0.000000,4.000000,4.000000,4.000000,4.000000,4.000000,4.000000,4.000000,4.000000,4.000000,4.000000,4.000000,4.000000,4.000000,4.000000,100.000000
1602006241.492801,22.000000,0.000000,4135.897461,4125.641113,4138.461426,4130.256348,4140.000000,4125.128418,4123.589844,4137.948730,4127.692383,4137.948730,4121.025879,4146.153809,4123.589844,4119.487305,0.000000,4.000000,,,,0.000000,4.000000,4.000000,4.000000,4.000000,4.000000,4.000000,4.000000,4.000000,4.000000,4.000000,4.000000,4.000000,4.000000,4.000000,100.000000
1602006241.500682,23.000000,0.000000,4141.025879,4136.922852,4141.025879,4136.922852,4135.384766,4117.948730,4116.410156,4136.410156,4129.230957,4133.333496,4135.384766,4151.282227,4127.179688,4117.436035,0.000000,4.000000,,,,0.000000,4.000000,4.000000,4.000000,4.000000,4.000000,4.000000,4.000000,4.000000,4.000000,4.000000,4.000000,4.000000,4.000000,4.000000,100.000000
1602006241.508464,24.000000,0.000000,4152.820313,4131.794922,4139.487305,4137.436035,4134.358887,4105.641113,4108.717773,4125.128418,4127.179688,4136.410156,4140.512695,4145.128418,4119.487305,4126.666504,0.000000,4.000000,,,,0.000000,4.000000,4.000000,4.000000,4.000000,4.000000,4.000000,4.000000,4.000000,4.000000,4.000000,4.000000,4.000000,4.000000,4.000000,100.000000
1602006241.516345,25.000000,0.000000,4152.820313,4121.025879,4140.000000,4140.000000,4134.358887,4113.333496,4105.128418,4121.025879,4120.512695,4117.948730,4126.153809,4142.563965,4117.948730,4136.922852,0.000000,4.000000,,,,0.000000,4.000000,4.000000,4.000000,4.000000,4.000000,4.000000,4.000000,4.000000,4.000000,4.000000,4.000000,4.000000,4.000000,4.000000,100.000000
1602006241.524227,26.000000,0.000000,4143.077148,4128.717773,4139.487305,4140.512695,4137.436035,4126.666504,4112.820313,4123.589844,4121.538574,4101.538574,4129.743652,4150.256348,4124.102539,4128.205078,0.000000,4.000000,,,,0.000000,4.000000,4.000000,4.000000,4.000000,4.000000,4.000000,4.000000,4.000000,4.000000,4.000000,4.000000,4.000000,4.000000,4.000000,100.000000
1602006241.532109,27.000000,0.000000,4145.128418,4142.563965,4143.077148,4138.974121,4143.077148,4127.179688,4122.051270,4125.128418,4129.230957,4124.615234,4140.000000,4156.922852,4127.179688,4121.538574,0.000000,4.000000,,,,0.000000,4.000000,4.000000,4.000000,4.000000,4.000000,4.000000,4.000000,4.000000,4.000000,4.000000,4.000000,4.000000,4.000000,4.000000,100.000000
1602006241.539990,28.000000,0.000000,4147.692383,4137.436035,4142.563965,4136.410156,4133.333496,4119.487305,4116.410156,4123.589844,4125.128418,4146.153809,4126.666504,4152.307617,4126.153809,4126.153809,0.000000,4.000000,,,,0.000000,4.000000,4.000000,4.000000,4.000000,4.000000,4.000000,4.000000,4.000000,4.000000,4.000000,4.000000,4.000000,4.000000,4.000000,100.000000
1602006241.547872,29.000000,0.000000,4132.820313,4122.051270,4130.769043,4125.641113,4119.487305,4110.769043,4109.230957,4118.461426,4110.256348,4134.358887,4120.000000,4144.615234,4124.615234,4124.615234,0.000000,4.000000,,,,0.000000,4.000000,4.000000,4.000000,4.000000,4.000000,4.000000,4.000000,4.000000,4.000000,4.000000,4.000000,4.000000,4.000000,4.000000,100.000000
1602006241.555754,30.000000,0.000000,4122.051270,4118.461426,4123.589844,4117.436035,4124.615234,4108.717773,4116.410156,4118.974121,4105.128418,4118.461426,4132.307617,4147.179688,4122.563965,4119.487305,0.000000,4.000000,,,,0.000000,4.000000,4.000000,4.000000,4.000000,4.000000,4.000000,4.000000,4.000000,4.000000,4.000000,4.000000,4.000000,4.000000,4.000000,100.000000
1602006241.563635,31.000000,0.000000,4128.205078,4122.563965,4124.615234,4125.128418,4137.436035,4109.743652,4125.641113,4125.128418,4110.256348,4116.410156,4130.256348,4150.769043,4117.948730,4120.000000,0.000000,4.000000,,,,0.000000,4.000000,4.000000,4.000000,4.000000,4.000000,4.000000,4.000000,4.000000,4.000000,4.000000,4.000000,4.000000,4.000000,4.000000,100.000000
1602006241.571616,32.000000,0.000000,4136.410156,4127.179688,4125.128418,4132.307617,4137.948730,4112.307617,4129.230957,4127.179688,4112.820313,4127.179688,4123.589844,4142.563965,4118.974121,4119.487305,0.000000,4.000000,,,,0.000000,4.000000,4.000000,4.000000,4.000000,4.000000,4.000000,4.000000,4.000000,4.000000,4.000000,4.000000,4.000000,4.000000,4.000000,100.000000
1602006241.579498,33.000000,0.000000,4141.025879,4131.794922,4129.230957,4127.179688,4135.384766,4121.025879,4131.794922,4124.615234,4110.769043,4135.897461,4127.692383,4136.410156,4122.563965,4122.563965,0.000000,4.000000,,,,0.000000,4.000000,4.000000,4.000000,4.000000,4.000000,4.000000,4.000000,4.000000,4.000000,4.000000,4.000000,4.000000,4.000000,4.000000,100.000000
1602006241.587379,34.000000,0.000000,4136.922852,4128.205078,4135.897461,4123.077148,4138.974121,4124.102539,4127.179688,4122.051270,4108.717773,4125.641113,4124.102539,4136.922852,4112.820313,4125.128418,0.000000,4.000000,,,,0.000000,4.000000,4.000000,4.000000,4.000000,4.000000,4.000000,4.000000,4.000000,4.000000,4.000000,4.000000,4.000000,4.000000,4.000000,100.000000
1602006241.595261,35.000000,0.000000,4129.743652,4123.077148,4136.922852,4127.692383,4131.794922,4109.230957,4119.487305,4120.000000,4110.256348,4114.871582,4122.051270,4136.922852,4109.230957,4116.410156,0.000000,4.000000,,,,0.000000,4.000000,4.000000,4.000000,4.000000,4.000000,4.000000,4.000000,4.000000,4.000000,4.000000,4.000000,4.000000,4.000000,4.000000,100.000000
1602006241.603142,36.000000,0.000000,4140.512695,4132.820313,4143.077148,4136.410156,4123.589844,4107.692383,4122.563965,4126.666504,4123.589844,4133.333496,4141.538574,4148.205078,4129.743652,4124.615234,0.000000,4.000000,,,,0.000000,4.000000,4.000000,4.000000,4.000000,4.000000,4.000000,4.000000,4.000000,4.000000,4.000000,4.000000,4.000000,4.000000,4.000000,100.000000
1602006241.611023,37.000000,0.000000,4155.384766,4143.077148,4154.871582,4148.717773,4129.230957,4123.077148,4125.128418,4137.948730,4137.948730,4162.563965,4157.948730,4168.717773,4146.153809,4154.871582,0.000000,4.000000,,,,0.000000,4.000000,4.000000,4.000000,4.000000,4.000000,4.000000,4.000000,4.000000,4.000000,4.000000,4.000000,4.000000,4.000000,4.000000,100.000000
1602006241.619005,38.000000,0.000000,4157.436035,4142.563965,4158.974121,4153.846191,4136.410156,4120.000000,4121.025879,4141.025879,4142.563965,4162.563965,4153.846191,4176.410156,4144.102539,4163.589844,0.000000,4.000000,,,,0.000000,4.000000,4.000000,4.000000,4.000000,4.000000,4.000000,4.000000,4.000000,4.000000,4.000000,4.000000,4.000000,4.000000,4.000000,100.000000
1602006241.626887,39.000000,0.000000,4156.410156,4141.538574,4154.871582,4143.589844,4137.436035,4113.333496,4126.153809,4139.487305,4143.077148,4142.563965,4152.820313,4170.769043,4138.461426,4143.077148,0.000000,4.000000,,,,0.000000,4.000000,4.000000,4.000000,4.000000,4.000000,4.000000,4.000000,4.000000,4.000000,4.000000,4.000000,4.000000,4.000000,4.000000,100.000000
1602006241.634768,40.000000,0.000000,4150.256348,4135.384766,4146.153809,4129.743652,4134.358887,4120.512695,4137.436035,4141.025879,4134.871582,4134.871582,4152.307617,4158.974121,4133.333496,4128.205078,0.000000,4.000000,,,,0.000000,4.000000,4.000000,4.000000,4.000000,4.000000,4.000000,4.000000,4.000000,4.000000,4.000000,4.000000,4.000000,4.000000,4.000000,100.000000
1602006241.642650,41.000000,0.000000,4128.717773,4123.589844,4131.794922,4123.077148,4126.666504,4117.948730,4143.077148,4137.436035,4120.000000,4143.077148,4130.769043,4144.102539,4121.538574,4127.179688,0.000000,4.000000,,,,0.000000,4.000000,4.000000,4.000000,4.000000,4.000000,4.000000,4.000000,4.000000,4.000000,4.000000,4.000000,4.000000,4.000000,4.000000,100.000000
1602006241.650532,42.000000,0.000000,4111.282227,4118.461426,4116.410156,4118.461426,4120.000000,4112.307617,4143.077148,4128.717773,4108.205078,4136.922852,4112.820313,4137.436035,4107.692383,4124.615234,0.000000,4.000000,,,,0.000000,4.000000,4.000000,4.000000,4.000000,4.000000,4.000000,4.000000,4.000000,4.000000,4.000000,4.000000,4.000000,4.000000,4.000000,100.000000
1602006241.658413,43.000000,0.000000,4114.871582,4121.025879,4108.717773,4118.461426,4127.692383,4121.025879,4141.025879,4123.077148,4104.102539,4109.230957,4120.000000,4140.512695,4105.641113,4122.051270,0.000000,4.000000,,,,0.000000,4.000000,4.000000,4.000000,4.000000,4.000000,4.000000,4.000000,4.000000,4.000000,4.000000,4.000000,4.000000,4.000000,4.000000,100.000000
1602006241.666295,44.000000,0.000000,4120.000000,4121.538574,4105.128418,4123.077148,4135.897461,4127.179688,4138.974121,4120.512695,4104.102539,4103.077148,4126.666504,4134.358887,4115.384766,4116.410156,0.000000,4.000000,,,,0.000000,4.000000,4.000000,4.000000,4.000000,4.000000,4.000000,4.000000,4.000000,4.000000,4.000000,4.000000,4.000000,4.000000,4.000000,100.000000
1602006241.674177,45.000000,0.000000,4116.922852,4120.000000,4104.102539,4118.461426,4134.871582,4121.025879,4131.794922,4120.512695,4107.692383,4124.615234,4126.666504,4121.538574,4120.512695,4109.743652,0.000000,4.000000,,,,0.000000,4.000000,4.000000,4.000000,4.000000,4.000000,4.000000,4.000000,4.000000,4.000000,4.000000,4.000000,4.000000,4.000000,4.000000,100.000000
1602006241.681958,46.000000,0.000000,4125.641113,4128.717773,4114.358887,4123.589844,4137.948730,4120.512695,4125.128418,4125.128418,4115.897461,4144.615234,4137.436035,4126.153809,4126.153809,4122.563965,0.000000,4.000000,,,,0.000000,4.000000,4.000000,4.000000,4.000000,4.000000,4.000000,4.000000,4.000000,4.000000,4.000000,4.000000,4.000000,4.000000,4.000000,100.000000
1602006241.689839,47.000000,0.000000,4143.589844,4141.538574,4124.102539,4140.512695,4135.384766,4118.461426,4120.000000,4126.153809,4122.051270,4150.769043,4149.230957,4138.461426,4136.922852,4140.000000,0.000000,4.000000,,,,0.000000,4.000000,4.000000,4.000000,4.000000,4.000000,4.000000,4.000000,4.000000,4.000000,4.000000,4.000000,4.000000,4.000000,4.000000,100.000000
1602006241.697721,48.000000,0.000000,4144.102539,4140.000000,4124.615234,4143.077148,4124.615234,4108.717773,4117.436035,4123.077148,4126.666504,4142.051270,4145.128418,4138.461426,4136.410156,4138.974121,0.000000,4.000000,,,,0.000000,4.000000,4.000000,4.000000,4.000000,4.000000,4.000000,4.000000,4.000000,4.000000,4.000000,4.000000,4.000000,4.000000,4.000000,100.000000
1602006241.705602,49.000000,0.000000,4135.384766,4128.717773,4125.641113,4134.871582,4121.025879,4106.153809,4116.410156,4121.538574,4123.077148,4128.205078,4132.307617,4135.384766,4126.666504,4132.307617,0.000000,4.000000,,,,0.000000,4.000000,4.000000,4.000000,4.000000,4.000000,4.000000,4.000000,4.000000,4.000000,4.000000,4.000000,4.000000,4.000000,4.000000,100.000000
1602006241.713484,50.000000,0.000000,4137.436035,4125.128418,4126.666504,4136.922852,4122.051270,4113.846191,4121.025879,4121.538574,4111.794922,4124.615234,4129.743652,4136.922852,4123.077148,4134.871582,0.000000,4.000000,,,,0.000000,4.000000,4.000000,4.000000,4.000000,4.000000,4.000000,4.000000,4.000000,4.000000,4.000000,4.000000,4.000000,4.000000,4.000000,100.000000
1602006241.721365,51.000000,0.000000,4133.333496,4129.230957,4128.205078,4136.922852,4117.436035,4122.051270,4131.282227,4124.615234,4106.153809,4126.666504,4137.436035,4138.461426,4124.615234,4140.000000,0.000000,4.000000,,,,0.000000,4.000000,4.000000,4.000000,4.000000,4.000000,4.000000,4.000000,4.000000,4.000000,4.000000,4.000000,4.000000,4.000000,4.000000,100.000000
1602006241.729346,52.000000,0.000000,4122.051270,4129.230957,4134.871582,4128.205078,4118.461426,4124.615234,4138.461426,4128.717773,4109.743652,4120.000000,4134.871582,4142.563965,4124.102539,4138.974121,0.000000,4.000000,,,,0.000000,4.000000,4.000000,4.000000,4.000000,4.000000,4.000000,4.000000,4.000000,4.000000,4.000000,4.000000,4.000000,4.000000,4.000000,100.000000
1602006241.737228,53.000000,0.000000,4117.948730,4123.077148,4134.358887,4124.102539,4123.077148,4124.102539,4138.461426,4124.615234,4100.512695,4112.820313,4120.512695,4137.436035,4113.333496,4128.717773,0.000000,4.000000,,,,0.000000,4.000000,4.000000,4.000000,4.000000,4.000000,4.000000,4.000000,4.000000,4.000000,4.000000,4.000000,4.000000,4.000000,4.000000,100.000000
1602006241.745109,54.000000,0.000000,4121.538574,4124.102539,4123.589844,4124.615234,4123.077148,4126.153809,4137.948730,4118.461426,4086.153809,4103.589844,4116.922852,4122.051270,4102.563965,4119.487305,0.000000,4.000000,,,,0.000000,4.000000,4.000000,4.000000,4.000000,4.000000,4.000000,4.000000,4.000000,4.000000,4.000000,4.000000,4.000000,4.000000,4.000000,100.000000
1602006241.752991,55.000000,0.000000,4122.563965,4133.333496,4119.487305,4128.205078,4129.743652,4125.128418,4138.461426,4120.512695,4093.333252,4107.179688,4123.589844,4118.461426,4111.794922,4120.000000,0.000000,4.000000,,,,0.000000,4.000000,4.000000,4.000000,4.000000,4.000000,4.000000,4.000000,4.000000,4.000000,4.000000,4.000000,4.000000,4.000000,4.000000,100.000000
1602006241.760872,56.000000,0.000000,4122.051270,4139.487305,4128.717773,4137.948730,4139.487305,4122.051270,4136.410156,4124.102539,4108.717773,4131.282227,4123.589844,4127.179688,4124.615234,4121.025879,0.000000,4.000000,,,,0.000000,4.000000,4.000000,4.000000,4.000000,4.000000,4.000000,4.000000,4.000000,4.000000,4.000000,4.000000,4.000000,4.000000,4.000000,100.000000
1602006241.768753,57.000000,0.000000,4129.743652,4143.589844,4137.948730,4143.077148,4136.922852,4125.641113,4136.922852,4123.589844,4109.743652,4143.077148,4125.641113,4129.743652,4123.589844,4126.153809,0.000000,4.000000,,,,0.000000,4.000000,4.000000,4.000000,4.000000,4.000000,4.000000,4.000000,4.000000,4.000000,4.000000,4.000000,4.000000,4.000000,4.000000,100.000000
1602006241.776635,58.000000,0.000000,4132.820313,4143.077148,4136.410156,4133.333496,4126.666504,4121.025879,4135.384766,4124.102539,4104.102539,4134.871582,4127.692383,4125.128418,4120.000000,4136.410156,0.000000,4.000000,,,,0.000000,4.000000,4.000000,4.000000,4.000000,4.000000,4.000000,4.000000,4.000000,4.000000,4.000000,4.000000,4.000000,4.000000,4.000000,100.000000
1602006241.784416,59.000000,0.000000,4125.128418,4132.307617,4132.820313,4127.179688,4127.179688,4104.615234,4127.179688,4126.666504,4111.794922,4131.794922,4126.666504,4125.641113,4120.512695,4139.487305,0.000000,4.000000,,,,0.000000,4.000000,4.000000,4.000000,4.000000,4.000000,4.000000,4.000000,4.000000,4.000000,4.000000,4.000000,4.000000,4.000000,4.000000,100.000000
1602006241.792298,60.000000,0.000000,4120.512695,4124.615234,4133.333496,4130.256348,4134.871582,4105.641113,4122.563965,4126.666504,4122.563965,4129.230957,4125.641113,4128.717773,4123.589844,4137.436035,0.000000,4.000000,,,,0.000000,4.000000,4.000000,4.000000,4.000000,4.000000,4.000000,4.000000,4.000000,4.000000,4.000000,4.000000,4.000000,4.000000,4.000000,100.000000
1602006241.800179,61.000000,0.000000,4123.589844,4127.179688,4128.205078,4126.153809,4131.794922,4122.051270,4124.615234,4130.256348,4119.487305,4122.051270,4126.153809,4126.666504,4125.641113,4136.410156,0.000000,4.000000,,,,0.000000,4.000000,4.000000,4.000000,4.000000,4.000000,4.000000,4.000000,4.000000,4.000000,4.000000,4.000000,4.000000,4.000000,4.000000,100.000000
1602006241.808060,62.000000,0.000000,4123.589844,4127.692383,4119.487305,4120.512695,4122.051270,4124.102539,4127.692383,4135.384766,4115.897461,4128.717773,4126.666504,4123.077148,4123.589844,4133.846191,0.000000,4.000000,,,,0.000000,4.000000,4.000000,4.000000,4.000000,4.000000,4.000000,4.000000,4.000000,4.000000,4.000000,4.000000,4.000000,4.000000,4.000000,100.000000
1602006241.815942,63.000000,0.000000,4123.077148,4122.563965,4118.974121,4123.589844,4118.974121,4119.487305,4127.179688,4130.769043,4120.512695,4143.077148,4124.102539,4128.717773,4123.077148,4135.384766,0.000000,4.000000,,,,0.000000,4.000000,4.000000,4.000000,4.000000,4.000000,4.000000,4.000000,4.000000,4.000000,4.000000,4.000000,4.000000,4.000000,4.000000,100.000000
1602006241.823923,64.000000,0.000000,4132.820313,4126.666504,4120.000000,4124.615234,4121.025879,4120.512695,4129.230957,4123.589844,4125.641113,4147.692383,4129.230957,4140.000000,4124.615234,4140.512695,797.000000,4.000000,,,,0.000000,4.000000,4.000000,4.000000,4.000000,4.000000,4.000000,4.000000,4.000000,4.000000,4.000000,4.000000,4.000000,4.000000,4.000000,100.000000
1602006241.831804,65.000000,0.000000,4138.974121,4136.410156,4122.563965,4122.051270,4124.615234,4124.615234,4136.922852,4127.692383,4121.025879,4132.307617,4137.948730,4144.102539,4125.128418,4141.025879,793.000000,4.000000,,,,0.000000,4.000000,4.000000,4.000000,4.000000,4.000000,4.000000,4.000000,4.000000,4.000000,4.000000,4.000000,4.000000,4.000000,4.000000,100.000000
1602006241.839685,66.000000,0.000000,4131.282227,4134.358887,4123.077148,4127.692383,4125.641113,4129.230957,4143.077148,4127.692383,4109.230957,4110.256348,4131.794922,4134.871582,4126.153809,4141.025879,852.000000,4.000000,,,,0.000000,4.000000,4.000000,4.000000,4.000000,4.000000,4.000000,4.000000,4.000000,4.000000,4.000000,4.000000,4.000000,4.000000,4.000000,100.000000
1602006241.847566,67.000000,0.000000,4122.051270,4123.589844,4117.436035,4126.666504,4121.538574,4127.179688,4140.512695,4114.358887,4102.051270,4114.871582,4114.871582,4121.025879,4118.461426,4133.333496,870.000000,4.000000,,,,0.000000,4.000000,4.000000,4.000000,4.000000,4.000000,4.000000,4.000000,4.000000,4.000000,4.000000,4.000000,4.000000,4.000000,4.000000,100.000000
1602006241.855347,68.000000,0.000000,4127.179688,4122.563965,4117.436035,4121.025879,4127.179688,4126.153809,4133.846191,4111.794922,4108.205078,4128.205078,4107.179688,4116.922852,4104.102539,4121.025879,810.000000,4.000000,,,,0.000000,4.000000,4.000000,4.000000,4.000000,4.000000,4.000000,4.000000,4.000000,4.000000,4.000000,4.000000,4.000000,4.000000,4.000000,100.000000
1602006241.863228,69.000000,0.000000,4130.769043,4126.153809,4122.563965,4127.692383,4140.000000,4131.794922,4128.205078,4121.538574,4109.230957,4115.384766,4112.820313,4120.000000,4102.563965,4120.000000,818.000000,4.000000,,,,0.000000,4.000000,4.000000,4.000000,4.000000,4.000000,4.000000,4.000000,4.000000,4.000000,4.000000,4.000000,4.000000,4.000000,4.000000,100.000000
1602006241.871109,70.000000,0.000000,4119.487305,4123.077148,4128.717773,4127.179688,4135.897461,4124.102539,4123.589844,4125.128418,4099.487305,4109.230957,4118.974121,4121.025879,4112.820313,4126.153809,764.000000,4.000000,,,,0.000000,4.000000,4.000000,4.000000,4.000000,4.000000,4.000000,4.000000,4.000000,4.000000,4.000000,4.000000,4.000000,4.000000,4.000000,100.000000
1602006241.878891,71.000000,0.000000,4127.692383,4122.051270,4137.436035,4121.025879,4122.563965,4106.153809,4124.102539,4124.615234,4101.538574,4125.641113,4122.563965,4127.692383,4111.282227,4127.179688,671.000000,4.000000,,,,0.000000,4.000000,4.000000,4.000000,4.000000,4.000000,4.000000,4.000000,4.000000,4.000000,4.000000,4.000000,4.000000,4.000000,4.000000,100.000000
1602006241.886772,72.000000,0.000000,4150.256348,4123.589844,4142.051270,4131.794922,4123.589844,4102.051270,4123.589844,4129.743652,4109.230957,4122.051270,4122.563965,4144.102539,4109.230957,4130.769043,786.000000,4.000000,,,,0.000000,4.000000,4.000000,4.000000,4.000000,4.000000,4.000000,4.000000,4.000000,4.000000,4.000000,4.000000,4.000000,4.000000,4.000000,100.000000
1602006241.894654,73.000000,0.000000,4152.307617,4126.666504,4145.641113,4145.641113,4130.769043,4112.820313,4121.025879,4136.922852,4108.717773,4106.153809,4124.102539,4154.871582,4118.461426,4144.102539,840.000000,4.000000,,,,0.000000,4.000000,4.000000,4.000000,4.000000,4.000000,4.000000,4.000000,4.000000,4.000000,4.000000,4.000000,4.000000,4.000000,4.000000,100.000000
1602006241.902535,74.000000,0.000000,4149.743652,4132.820313,4153.333496,4144.102539,4125.641113,4118.974121,4126.666504,4138.461426,4109.230957,4115.384766,4129.743652,4151.282227,4124.102539,4155.384766,882.000000,4.000000,,,,0.000000,4.000000,4.000000,4.000000,4.000000,4.000000,4.000000,4.000000,4.000000,4.000000,4.000000,4.000000,4.000000,4.000000,4.000000,100.000000
1602006241.910416,75.000000,0.000000,4155.384766,4137.436035,4160.000000,4142.051270,4122.563965,4115.897461,4135.897461,4135.384766,4107.692383,4134.871582,4126.666504,4145.128418,4120.512695,4156.410156,842.000000,4.000000,,,,0.000000,4.000000,4.000000,4.000000,4.000000,4.000000,4.000000,4.000000,4.000000,4.000000,4.000000,4.000000,4.000000,4.000000,4.000000,100.000000
1602006241.918298,76.000000,0.000000,4144.615234,4134.871582,4154.358887,4142.563965,4127.179688,4115.897461,4138.461426,4127.692383,4103.589844,4121.025879,4119.487305,4140.000000,4116.922852,4154.358887,765.000000,4.000000,,,,0.000000,4.000000,4.000000,4.000000,4.000000,4.000000,4.000000,4.000000,4.000000,4.000000,4.000000,4.000000,4.000000,4.000000,4.000000,100.000000
1602006241.926279,77.000000,0.000000,4134.358887,4134.358887,4143.077148,4138.461426,4126.666504,4130.769043,4136.410156,4121.538574,4109.230957,4103.077148,4130.769043,4138.974121,4121.025879,4152.820313,738.000000,4.000000,,,,0.000000,4.000000,4.000000,4.000000,4.000000,4.000000,4.000000,4.000000,4.000000,4.000000,4.000000,4.000000,4.000000,4.000000,4.000000,100.000000
1602006241.934161,78.000000,0.000000,4134.358887,4133.333496,4130.769043,4138.974121,4124.615234,4141.025879,4136.410156,4118.974121,4115.384766,4117.436035,4137.948730,4138.974121,4123.077148,4147.179688,882.000000,4.000000,,,,0.000000,4.000000,4.000000,4.000000,4.000000,4.000000,4.000000,4.000000,4.000000,4.000000,4.000000,4.000000,4.000000,4.000000,4.000000,100.000000
1602006241.942042,79.000000,0.000000,4118.461426,4125.641113,4120.000000,4136.922852,4128.717773,4131.282227,4139.487305,4117.436035,4111.282227,4127.692383,4118.461426,4133.846191,4114.871582,4135.897461,842.000000,4.000000,,,,0.000000,4.000000,4.000000,4.000000,4.000000,4.000000,4.000000,4.000000,4.000000,4.000000,4.000000,4.000000,4.000000,4.000000,4.000000,100.000000
1602006241.949923,80.000000,0.000000,4105.128418,4122.563965,4116.410156,4131.794922,4130.256348,4128.205078,4148.205078,4123.589844,4120.512695,4121.025879,4112.820313,4132.307617,4112.307617,4129.743652,765.000000,4.000000,,,,0.000000,4.000000,4.000000,4.000000,4.000000,4.000000,4.000000,4.000000,4.000000,4.000000,4.000000,4.000000,4.000000,4.000000,4.000000,100.000000
1602006241.957805,81.000000,0.000000,4118.461426,4129.230957,4122.051270,4134.871582,4126.153809,4136.410156,4153.333496,4136.410156,4136.410156,4135.384766,4131.282227,4138.461426,4123.589844,4131.282227,738.000000,4.000000,,,,0.000000,4.000000,4.000000,4.000000,4.000000,4.000000,4.000000,4.000000,4.000000,4.000000,4.000000,4.000000,4.000000,4.000000,4.000000,100.000000
1602006241.965686,82.000000,0.000000,4130.256348,4128.717773,4133.333496,4137.948730,4125.641113,4132.307617,4144.615234,4142.563965,4133.846191,4159.487305,4132.820313,4143.077148,4126.153809,4138.461426,882.000000,4.000000,,,,0.000000,4.000000,4.000000,4.000000,4.000000,4.000000,4.000000,4.000000,4.000000,4.000000,4.000000,4.000000,4.000000,4.000000,4.000000,100.000000
1602006241.973568,83.000000,0.000000,4117.436035,4113.846191,4137.436035,4127.179688,4123.077148,4120.512695,4135.384766,4138.974121,4124.102539,4146.153809,4123.589844,4138.974121,4111.794922,4138.461426,842.000000,4.000000,,,,0.000000,4.000000,4.000000,4.000000,4.000000,4.000000,4.000000,4.000000,4.000000,4.000000,4.000000,4.000000,4.000000,4.000000,4.000000,100.000000
1602006241.981349,84.000000,0.000000,4101.538574,4102.051270,4135.384766,4115.384766,4115.384766,4120.512695,4136.922852,4136.410156,4118.461426,4123.077148,4122.051270,4139.487305,4102.051270,4132.820313,765.000000,4.000000,,,,0.000000,4.000000,4.000000,4.000000,4.000000,4.000000,4.000000,4.000000,4.000000,4.000000,4.000000,4.000000,4.000000,4.000000,4.000000,100.000000
1602006241.989230,85.000000,0.000000,4108.205078,4103.077148,4137.436035,4121.025879,4114.871582,4125.128418,4140.000000,4138.461426,4109.230957,4121.538574,4124.102539,4153.333496,4106.666504,4142.051270,738.000000,4.000000,,,,0.000000,4.000000,4.000000,4.000000,4.000000,4.000000,4.000000,4.000000,4.000000,4.000000,4.000000,4.000000,4.000000,4.000000,4.000000,100.000000
1602006241.997112,86.000000,0.000000,4127.692383,4105.641113,4142.563965,4127.692383,4122.051270,4125.128418,4138.974121,4135.897461,4105.641113,4112.307617,4123.077148,4161.025879,4108.717773,4154.871582,882.000000,4.000000,,,,0.000000,4.000000,4.000000,4.000000,4.000000,4.000000,4.000000,4.000000,4.000000,4.000000,4.000000,4.000000,4.000000,4.000000,4.000000,100.000000
1602006242.004993,87.000000,0.000000,4125.128418,4107.692383,4140.000000,4125.641113,4123.077148,4122.051270,4131.282227,4125.641113,4104.615234,4090.256348,4111.794922,4146.666504,4103.589844,4144.102539,842.000000,4.000000,,,,0.000000,4.000000,4.000000,4.000000,4.000000,4.000000,4.000000,4.000000,4.000000,4.000000,4.000000,4.000000,4.000000,4.000000,4.000000,100.000000
1602006242.012875,88.000000,0.000000,4105.128418,4115.897461,4133.846191,4129.230957,4116.922852,4117.436035,4121.538574,4118.461426,4103.077148,4089.230713,4104.615234,4126.666504,4109.743652,4122.563965,765.000000,4.000000,,,,0.000000,4.000000,4.000000,4.000000,4.000000,4.000000,4.000000,4.000000,4.000000,4.000000,4.000000,4.000000,4.000000,4.000000,4.000000,100.000000
1602006242.020756,89.000000,0.000000,4112.307617,4124.102539,4134.358887,4135.384766,4117.948730,4125.128418,4124.615234,4122.563965,4121.025879,4114.871582,4121.538574,4128.205078,4124.102539,4126.153809,738.000000,4.000000,,,,0.000000,4.000000,4.000000,4.000000,4.000000,4.000000,4.000000,4.000000,4.000000,4.000000,4.000000,4.000000,4.000000,4.000000,4.000000,100.000000
1602006242.028737,90.000000,0.000000,4137.948730,4127.179688,4137.948730,4135.897461,4129.743652,4138.974121,4135.897461,4129.230957,4142.563965,4132.820313,4139.487305,4138.974121,4127.692383,4143.589844,882.000000,4.000000,,,,0.000000,4.000000,4.000000,4.000000,4.000000,4.000000,4.000000,4.000000,4.000000,4.000000,4.000000,4.000000,4.000000,4.000000,4.000000,100.000000
1602006242.036619,91.000000,0.000000,4140.512695,4130.769043,4136.410156,4141.025879,4137.436035,4141.025879,4142.051270,4134.358887,4144.102539,4140.512695,4136.922852,4135.384766,4122.051270,4145.128418,842.000000,4.000000,,,,0.000000,4.000000,4.000000,4.000000,4.000000,4.000000,4.000000,4.000000,4.000000,4.000000,4.000000,4.000000,4.000000,4.000000,4.000000,100.000000
1602006242.044500,92.000000,0.000000,4123.589844,4125.641113,4126.153809,4137.948730,4131.282227,4134.358887,4140.000000,4136.410156,4136.410156,4142.051270,4125.128418,4122.051270,4115.897461,4128.717773,765.000000,4.000000,,,,0.000000,4.000000,4.000000,4.000000,4.000000,4.000000,4.000000,4.000000,4.000000,4.000000,4.000000,4.000000,4.000000,4.000000,4.000000,100.000000
1602006242.052382,93.000000,0.000000,4116.410156,4115.384766,4118.974121,4122.563965,4121.538574,4134.871582,4138.974121,4137.436035,4134.871582,4123.589844,4114.871582,4122.051270,4109.743652,4121.538574,738.000000,4.000000,,,,0.000000,4.000000,4.000000,4.000000,4.000000,4.000000,4.000000,4.000000,4.000000,4.000000,4.000000,4.000000,4.000000,4.000000,4.000000,100.000000
1602006242.060263,94.000000,0.000000,4125.128418,4121.025879,4129.230957,4128.205078,4126.666504,4141.025879,4149.230957,4147.692383,4136.410156,4121.025879,4124.102539,4135.384766,4118.461426,4137.436035,882.000000,4.000000,,,,0.000000,4.000000,4.000000,4.000000,4.000000,4.000000,4.000000,4.000000,4.000000,4.000000,4.000000,4.000000,4.000000,4.000000,4.000000,100.000000
1602006242.068144,95.000000,0.000000,4123.589844,4124.615234,4137.948730,4139.487305,4132.820313,4133.846191,4151.794922,4153.333496,4133.333496,4140.512695,4137.948730,4142.563965,4130.769043,4147.179688,842.000000,4.000000,,,,0.000000,4.000000,4.000000,4.000000,4.000000,4.000000,4.000000,4.000000,4.000000,4.000000,4.000000,4.000000,4.000000,4.000000,4.000000,100.000000
1602006242.076026,96.000000,0.000000,4106.153809,4109.230957,4127.692383,4126.153809,4122.563965,4120.512695,4142.051270,4145.641113,4124.615234,4140.512695,4121.025879,4138.461426,4122.563965,4138.974121,765.000000,4.000000,,,,0.000000,4.000000,4.000000,4.000000,4.000000,4.000000,4.000000,4.000000,4.000000,4.000000,4.000000,4.000000,4.000000,4.000000,4.000000,100.000000
1602006242.083807,97.000000,0.000000,4098.461426,4102.051270,4117.436035,4115.384766,4114.871582,4121.025879,4137.436035,4139.487305,4115.897461,4122.563965,4103.589844,4134.871582,4107.692383,4132.820313,738.000000,4.000000,,,,0.000000,4.000000,4.000000,4.000000,4.000000,4.000000,4.000000,4.000000,4.000000,4.000000,4.000000,4.000000,4.000000,4.000000,4.000000,100.000000
1602006242.091689,98.000000,0.000000,4102.563965,4106.153809,4120.000000,4122.051270,4119.487305,4125.641113,4132.307617,4132.307617,4108.717773,4111.282227,4110.256348,4127.692383,4100.512695,4122.051270,882.000000,4.000000,,,,0.000000,4.000000,4.000000,4.000000,4.000000,4.000000,4.000000,4.000000,4.000000,4.000000,4.000000,4.000000,4.000000,4.000000,4.000000,100.000000
1602006242.099570,99.000000,0.000000,4105.641113,4106.666504,4125.128418,4122.563965,4121.538574,4122.051270,4119.487305,4121.538574,4105.641113,4099.487305,4111.282227,4120.000000,4096.410156,4105.128418,842.000000,4.000000,,,,0.000000,4.000000,4.000000,4.000000,4.000000,4.000000,4.000000,4.000000,4.000000,4.000000,4.000000,4.000000,4.000000,4.000000,4.000000,100.000000
1602006242.107451,100.000000,0.000000,4112.820313,4109.743652,4123.589844,4121.538574,4123.077148,4121.538574,4116.410156,4121.025879,4105.128418,4086.153809,4104.102539,4126.666504,4098.461426,4108.717773,765.000000,4.000000,,,,0.000000,4.000000,4.000000,4.000000,4.000000,4.000000,4.000000,4.000000,4.000000,4.000000,4.000000,4.000000,4.000000,4.000000,4.000000,100.000000
1602006242.115333,101.000000,0.000000,4124.102539,4121.538574,4121.025879,4131.794922,4127.692383,4122.051270,4121.538574,4129.230957,4106.153809,4093.846191,4114.871582,4139.487305,4112.307617,4132.307617,738.000000,4.000000,,,,0.000000,4.000000,4.000000,4.000000,4.000000,4.000000,4.000000,4.000000,4.000000,4.000000,4.000000,4.000000,4.000000,4.000000,4.000000,100.000000
1602006242.123214,102.000000,0.000000,4125.128418,4130.769043,4127.179688,4137.948730,4128.205078,4115.384766,4123.077148,4133.333496,4112.307617,4108.717773,4129.743652,4143.077148,4130.256348,4137.436035,882.000000,4.000000,,,,0.000000,4.000000,4.000000,4.000000,4.000000,4.000000,4.000000,4.000000,4.000000,4.000000,4.000000,4.000000,4.000000,4.000000,4.000000,100.000000
1602006242.131196,103.000000,0.000000,4120.512695,4136.922852,4135.897461,4137.948730,4129.230957,4122.051270,4129.743652,4134.358887,4120.512695,4117.948730,4130.256348,4142.563965,4136.410156,4128.205078,842.000000,4.000000,,,,0.000000,4.000000,4.000000,4.000000,4.000000,4.000000,4.000000,4.000000,4.000000,4.000000,4.000000,4.000000,4.000000,4.000000,4.000000,100.000000
1602006242.139077,104.000000,0.000000,4129.230957,4140.512695,4138.461426,4140.000000,4137.948730,4136.922852,4137.948730,4135.384766,4125.128418,4132.820313,4127.179688,4143.077148,4136.410156,4133.846191,765.000000,4.000000,,,,0.000000,4.000000,4.000000,4.000000,4.000000,4.000000,4.000000,4.000000,4.000000,4.000000,4.000000,4.000000,4.000000,4.000000,4.000000,100.000000
1602006242.146958,105.000000,0.000000,4138.461426,4140.000000,4137.948730,4142.563965,4142.051270,4140.000000,4138.461426,4140.512695,4139.487305,4156.922852,4131.282227,4138.461426,4142.563965,4141.538574,738.000000,4.000000,,,,0.000000,4.000000,4.000000,4.000000,4.000000,4.000000,4.000000,4.000000,4.000000,4.000000,4.000000,4.000000,4.000000,4.000000,4.000000,100.000000
1602006242.154840,106.000000,0.000000,4135.384766,4138.461426,4139.487305,4140.000000,4138.461426,4135.897461,4139.487305,4150.256348,4158.461426,4166.153809,4141.025879,4134.358887,4147.692383,4131.282227,882.000000,4.000000,,,,0.000000,4.000000,4.000000,4.000000,4.000000,4.000000,4.000000,4.000000,4.000000,4.000000,4.000000,4.000000,4.000000,4.000000,4.000000,100.000000
1602006242.162721,107.000000,0.000000,4132.820313,4132.820313,4142.051270,4135.897461,4136.410156,4132.307617,4140.000000,4155.897461,4160.000000,4143.589844,4140.512695,4144.102539,4143.077148,4118.461426,842.000000,4.000000,,,,0.000000,4.000000,4.000000,4.000000,4.000000,4.000000,4.000000,4.000000,4.000000,4.000000,4.000000,4.000000,4.000000,4.000000,4.000000,100.000000
1602006242.170603,108.000000,0.000000,4135.384766,4125.128418,4138.461426,4134.358887,4137.948730,4122.563965,4136.922852,4151.282227,4154.871582,4131.282227,4135.897461,4152.820313,4140.000000,4122.051270,765.000000,4.000000,,,,0.000000,4.000000,4.000000,4.000000,4.000000,4.000000,4.000000,4.000000,4.000000,4.000000,4.000000,4.000000,4.000000,4.000000,4.000000,100.000000
