Timestamp,EEG.Counter,EEG.Interpolated,EEG.AF3,EEG.F7,EEG.F3,EEG.FC5,EEG.T7,EEG.P7,EEG.O1,EEG.O2,EEG.P8,EEG.T8,EEG.FC6,EEG.F4,EEG.F8,EEG.AF4,EEG.RawCq,EEG.Battery,MarkerIndex,MarkerType,MarkerValueInt,EEG.MarkerHardware,CQ.AF3,CQ.F7,CQ.F3,CQ.FC5,CQ.T7,CQ.P7,CQ.O1,CQ.O2,CQ.P8,CQ.T8,CQ.FC6,CQ.F4,CQ.F8,CQ.AF4,CQ.Overall
1602006259.255984,83.000000,0.000000,4137.948730,4133.333496,4127.692383,4135.384766,4128.717773,4130.769043,4129.230957,4121.538574,4126.153809,4122.563965,4145.641113,4156.410156,4142.051270,4123.589844,844.000000,4.000000,,,,0.000000,4.000000,4.000000,4.000000,4.000000,4.000000,4.000000,4.000000,4.000000,4.000000,4.000000,4.000000,4.000000,4.000000,4.000000,100.000000
1602006259.263765,84.000000,0.000000,4144.102539,4136.922852,4126.666504,4142.051270,4136.922852,4135.897461,4126.153809,4125.641113,4135.384766,4126.153809,4153.846191,4159.487305,4144.102539,4130.769043,809.000000,4.000000,,,,0.000000,4.000000,4.000000,4.000000,4.000000,4.000000,4.000000,4.000000,4.000000,4.000000,4.000000,4.000000,4.000000,4.000000,4.000000,100.000000
1602006259.271646,85.000000,0.000000,4153.333496,4142.563965,4126.153809,4146.666504,4140.512695,4130.256348,4120.512695,4123.589844,4138.461426,4122.051270,4144.615234,4153.846191,4140.512695,4135.384766,798.000000,4.000000,,,,0.000000,4.000000,4.000000,4.000000,4.000000,4.000000,4.000000,4.000000,4.000000,4.000000,4.000000,4.000000,4.000000,4.000000,4.000000,100.000000
1602006259.279527,86.000000,0.000000,4147.179688,4139.487305,4124.615234,4140.512695,4136.410156,4128.205078,4120.000000,4125.128418,4140.000000,4112.820313,4135.897461,4150.256348,4143.589844,4135.897461,871.000000,4.000000,,,,0.000000,4.000000,4.000000,4.000000,4.000000,4.000000,4.000000,4.000000,4.000000,4.000000,4.000000,4.000000,4.000000,4.000000,4.000000,100.000000
1602006259.287408,87.000000,0.000000,4141.025879,4134.358887,4129.230957,4142.563965,4133.846191,4137.436035,4128.717773,4131.794922,4142.563965,4118.461426,4143.077148,4155.897461,4156.410156,4138.461426,844.000000,4.000000,,,,0.000000,4.000000,4.000000,4.000000,4.000000,4.000000,4.000000,4.000000,4.000000,4.000000,4.000000,4.000000,4.000000,4.000000,4.000000,100.000000
1602006259.295390,88.000000,0.000000,4151.282227,4140.512695,4138.974121,4153.333496,4131.282227,4136.922852,4136.922852,4129.230957,4134.358887,4135.384766,4147.179688,4158.974121,4161.025879,4141.025879,809.000000,4.000000,,,,0.000000,4.000000,4.000000,4.000000,4.000000,4.000000,4.000000,4.000000,4.000000,4.000000,4.000000,4.000000,4.000000,4.000000,4.000000,100.000000
1602006259.303272,89.000000,0.000000,4154.871582,4144.615234,4140.000000,4153.846191,4129.230957,4125.641113,4135.384766,4125.641113,4125.641113,4141.538574,4141.025879,4158.974121,4155.897461,4138.461426,798.000000,4.000000,,,,0.000000,4.000000,4.000000,4.000000,4.000000,4.000000,4.000000,4.000000,4.000000,4.000000,4.000000,4.000000,4.000000,4.000000,4.000000,100.000000
1602006259.311153,90.000000,0.000000,4151.282227,4139.487305,4137.436035,4152.307617,4134.358887,4123.077148,4135.384766,4133.846191,4134.871582,4149.230957,4142.051270,4166.153809,4163.589844,4142.051270,871.000000,4.000000,,,,0.000000,4.000000,4.000000,4.000000,4.000000,4.000000,4.000000,4.000000,4.000000,4.000000,4.000000,4.000000,4.000000,4.000000,4.000000,100.000000
1602006259.319035,91.000000,0.000000,4160.512695,4145.128418,4148.717773,4164.102539,4138.974121,4128.205078,4142.051270,4143.589844,4142.563965,4153.333496,4148.205078,4175.897461,4173.846191,4154.358887,844.000000,4.000000,,,,0.000000,4.000000,4.000000,4.000000,4.000000,4.000000,4.000000,4.000000,4.000000,4.000000,4.000000,4.000000,4.000000,4.000000,4.000000,100.000000
1602006259.326917,92.000000,0.000000,4163.077148,4149.743652,4152.307617,4170.769043,4137.436035,4125.128418,4135.384766,4135.384766,4124.615234,4136.410156,4138.461426,4168.205078,4159.487305,4149.230957,809.000000,4.000000,,,,0.000000,4.000000,4.000000,4.000000,4.000000,4.000000,4.000000,4.000000,4.000000,4.000000,4.000000,4.000000,4.000000,4.000000,4.000000,100.000000
1602006259.334798,93.000000,0.000000,4155.384766,4143.589844,4144.615234,4164.102539,4137.436035,4119.487305,4121.025879,4127.179688,4117.948730,4128.717773,4121.538574,4158.974121,4147.692383,4136.410156,798.000000,4.000000,,,,0.000000,4.000000,4.000000,4.000000,4.000000,4.000000,4.000000,4.000000,4.000000,4.000000,4.000000,4.000000,4.000000,4.000000,4.000000,100.000000
1602006259.342680,94.000000,0.000000,4162.051270,4146.666504,4148.717773,4164.102539,4141.025879,4123.077148,4123.077148,4135.384766,4142.051270,4142.051270,4127.179688,4167.179688,4164.615234,4145.128418,871.000000,4.000000,,,,0.000000,4.000000,4.000000,4.000000,4.000000,4.000000,4.000000,4.000000,4.000000,4.000000,4.000000,4.000000,4.000000,4.000000,4.000000,100.000000
1602006259.350561,95.000000,0.000000,4169.743652,4155.897461,4155.384766,4171.282227,4141.025879,4126.666504,4127.179688,4135.384766,4151.794922,4140.512695,4140.000000,4168.717773,4170.769043,4157.436035,844.000000,4.000000,,,,0.000000,4.000000,4.000000,4.000000,4.000000,4.000000,4.000000,4.000000,4.000000,4.000000,4.000000,4.000000,4.000000,4.000000,4.000000,100.000000
1602006259.358543,96.000000,0.000000,4160.000000,4157.436035,4152.820313,4172.307617,4140.000000,4121.538574,4118.974121,4123.077148,4135.897461,4133.846191,4135.897461,4161.538574,4157.436035,4153.333496,809.000000,4.000000,,,,0.000000,4.000000,4.000000,4.000000,4.000000,4.000000,4.000000,4.000000,4.000000,4.000000,4.000000,4.000000,4.000000,4.000000,4.000000,100.000000
1602006259.366425,97.000000,0.000000,4153.333496,4152.307617,4149.743652,4169.230957,4141.025879,4122.051270,4117.948730,4121.025879,4133.846191,4150.256348,4135.384766,4164.102539,4163.077148,4148.717773,798.000000,4.000000,,,,0.000000,4.000000,4.000000,4.000000,4.000000,4.000000,4.000000,4.000000,4.000000,4.000000,4.000000,4.000000,4.000000,4.000000,4.000000,100.000000
1602006259.374306,98.000000,0.000000,4154.358887,4145.128418,4143.077148,4170.256348,4136.410156,4125.641113,4123.589844,4128.205078,4143.077148,4154.871582,4136.922852,4165.641113,4173.333496,4147.179688,871.000000,4.000000,,,,0.000000,4.000000,4.000000,4.000000,4.000000,4.000000,4.000000,4.000000,4.000000,4.000000,4.000000,4.000000,4.000000,4.000000,4.000000,100.000000
1602006259.382188,99.000000,0.000000,4146.153809,4137.948730,4133.846191,4165.641113,4126.153809,4123.077148,4120.512695,4125.128418,4134.871582,4142.051270,4124.102539,4151.282227,4159.487305,4140.000000,844.000000,4.000000,,,,0.000000,4.000000,4.000000,4.000000,4.000000,4.000000,4.000000,4.000000,4.000000,4.000000,4.000000,4.000000,4.000000,4.000000,4.000000,100.000000
1602006259.390070,100.000000,0.000000,4143.077148,4137.436035,4135.384766,4159.487305,4126.666504,4124.102539,4122.051270,4122.051270,4121.538574,4144.102539,4117.436035,4140.512695,4149.743652,4136.922852,809.000000,4.000000,,,,0.000000,4.000000,4.000000,4.000000,4.000000,4.000000,4.000000,4.000000,4.000000,4.000000,4.000000,4.000000,4.000000,4.000000,4.000000,100.000000
1602006259.397951,101.000000,0.000000,4151.282227,4134.871582,4140.000000,4156.410156,4135.897461,4130.256348,4130.256348,4126.666504,4119.487305,4148.205078,4121.025879,4143.077148,4153.333496,4140.000000,798.000000,4.000000,,,,0.000000,4.000000,4.000000,4.000000,4.000000,4.000000,4.000000,4.000000,4.000000,4.000000,4.000000,4.000000,4.000000,4.000000,4.000000,100.000000
1602006259.405833,102.000000,0.000000,4152.820313,4126.666504,4135.897461,4155.384766,4136.922852,4128.205078,4127.692383,4125.128418,4121.025879,4136.410156,4113.846191,4142.563965,4147.179688,4138.974121,871.000000,4.000000,,,,0.000000,4.000000,4.000000,4.000000,4.000000,4.000000,4.000000,4.000000,4.000000,4.000000,4.000000,4.000000,4.000000,4.000000,4.000000,100.000000
1602006259.413714,103.000000,0.000000,4144.615234,4123.589844,4131.282227,4153.846191,4128.717773,4122.563965,4122.051270,4123.077148,4115.897461,4134.358887,4104.615234,4140.000000,4129.743652,4138.461426,844.000000,4.000000,,,,0.000000,4.000000,4.000000,4.000000,4.000000,4.000000,4.000000,4.000000,4.000000,4.000000,4.000000,4.000000,4.000000,4.000000,4.000000,100.000000
1602006259.421596,104.000000,0.000000,4137.436035,4121.538574,4127.692383,4146.666504,4122.051270,4122.563965,4122.051270,4119.487305,4106.153809,4140.512695,4103.589844,4138.461426,4121.538574,4134.871582,809.000000,4.000000,,,,0.000000,4.000000,4.000000,4.000000,4.000000,4.000000,4.000000,4.000000,4.000000,4.000000,4.000000,4.000000,4.000000,4.000000,4.000000,100.000000
1602006259.429378,105.000000,0.000000,4134.871582,4114.871582,4124.102539,4138.974121,4118.974121,4122.563965,4118.974121,4112.820313,4104.615234,4122.563965,4104.615234,4135.897461,4129.230957,4129.230957,798.000000,4.000000,,,,0.000000,4.000000,4.000000,4.000000,4.000000,4.000000,4.000000,4.000000,4.000000,4.000000,4.000000,4.000000,4.000000,4.000000,4.000000,100.000000
1602006259.437259,106.000000,0.000000,4136.922852,4108.717773,4123.589844,4137.436035,4115.384766,4120.512695,4112.820313,4113.846191,4114.871582,4119.487305,4108.205078,4135.897461,4138.461426,4133.333496,871.000000,4.000000,,,,0.000000,4.000000,4.000000,4.000000,4.000000,4.000000,4.000000,4.000000,4.000000,4.000000,4.000000,4.000000,4.000000,4.000000,4.000000,100.000000
1602006259.445141,107.000000,0.000000,4137.948730,4108.205078,4124.102539,4139.487305,4113.333496,4120.000000,4108.205078,4121.025879,4122.563965,4149.743652,4106.153809,4137.948730,4138.461426,4140.512695,844.000000,4.000000,,,,0.000000,4.000000,4.000000,4.000000,4.000000,4.000000,4.000000,4.000000,4.000000,4.000000,4.000000,4.000000,4.000000,4.000000,4.000000,100.000000
1602006259.453023,108.000000,0.000000,4137.948730,4112.820313,4125.128418,4141.538574,4116.922852,4120.000000,4107.179688,4121.538574,4128.205078,4161.538574,4103.589844,4137.948730,4143.077148,4139.487305,809.000000,4.000000,,,,0.000000,4.000000,4.000000,4.000000,4.000000,4.000000,4.000000,4.000000,4.000000,4.000000,4.000000,4.000000,4.000000,4.000000,4.000000,100.000000
1602006259.460904,109.000000,0.000000,4138.974121,4114.871582,4127.692383,4143.589844,4123.589844,4118.974121,4112.307617,4127.179688,4140.000000,4157.436035,4115.384766,4136.922852,4152.307617,4139.487305,798.000000,4.000000,,,,0.000000,4.000000,4.000000,4.000000,4.000000,4.000000,4.000000,4.000000,4.000000,4.000000,4.000000,4.000000,4.000000,4.000000,4.000000,100.000000
1602006259.468786,110.000000,0.000000,4138.461426,4110.256348,4128.717773,4142.051270,4122.051270,4118.461426,4120.000000,4137.436035,4145.641113,4169.743652,4120.000000,4137.436035,4148.717773,4143.077148,871.000000,4.000000,,,,0.000000,4.000000,4.000000,4.000000,4.000000,4.000000,4.000000,4.000000,4.000000,4.000000,4.000000,4.000000,4.000000,4.000000,4.000000,100.000000
1602006259.476668,111.000000,0.000000,4133.846191,4108.717773,4123.589844,4137.436035,4115.384766,4119.487305,4122.051270,4134.871582,4136.922852,4174.358887,4106.666504,4136.410156,4133.333496,4134.871582,844.000000,4.000000,,,,0.000000,4.000000,4.000000,4.000000,4.000000,4.000000,4.000000,4.000000,4.000000,4.000000,4.000000,4.000000,4.000000,4.000000,4.000000,100.000000
1602006259.484549,112.000000,0.000000,4136.410156,4119.487305,4123.589844,4138.461426,4116.410156,4121.538574,4123.077148,4127.179688,4128.205078,4153.333496,4103.589844,4138.461426,4129.230957,4137.948730,809.000000,4.000000,,,,0.000000,4.000000,4.000000,4.000000,4.000000,4.000000,4.000000,4.000000,4.000000,4.000000,4.000000,4.000000,4.000000,4.000000,4.000000,100.000000
1602006259.492431,113.000000,0.000000,4146.153809,4127.179688,4134.358887,4145.641113,4122.051270,4128.205078,4129.230957,4130.769043,4126.153809,4133.846191,4108.205078,4142.563965,4135.897461,4154.871582,798.000000,4.000000,,,,0.000000,4.000000,4.000000,4.000000,4.000000,4.000000,4.000000,4.000000,4.000000,4.000000,4.000000,4.000000,4.000000,4.000000,4.000000,100.000000
1602006259.500212,114.000000,0.000000,4143.589844,4126.153809,4138.461426,4149.743652,4123.589844,4138.974121,4133.846191,4136.922852,4126.666504,4132.307617,4102.563965,4140.000000,4132.820313,4147.179688,871.000000,4.000000,,,,0.000000,4.000000,4.000000,4.000000,4.000000,4.000000,4.000000,4.000000,4.000000,4.000000,4.000000,4.000000,4.000000,4.000000,4.000000,100.000000
1602006259.508094,115.000000,0.000000,4137.948730,4128.205078,4132.820313,4147.692383,4124.615234,4138.461426,4130.256348,4135.897461,4131.794922,4146.153809,4105.641113,4138.974121,4130.256348,4132.307617,844.000000,4.000000,,,,0.000000,4.000000,4.000000,4.000000,4.000000,4.000000,4.000000,4.000000,4.000000,4.000000,4.000000,4.000000,4.000000,4.000000,4.000000,100.000000
1602006259.515975,116.000000,0.000000,4140.512695,4128.717773,4127.179688,4141.025879,4125.128418,4126.666504,4123.589844,4129.743652,4131.282227,4154.871582,4109.230957,4137.436035,4133.333496,4141.025879,809.000000,4.000000,,,,0.000000,4.000000,4.000000,4.000000,4.000000,4.000000,4.000000,4.000000,4.000000,4.000000,4.000000,4.000000,4.000000,4.000000,4.000000,100.000000
1602006259.523857,117.000000,0.000000,4132.820313,4116.410156,4121.025879,4134.358887,4120.000000,4119.487305,4117.436035,4119.487305,4117.436035,4141.538574,4089.230713,4124.615234,4125.128418,4137.436035,798.000000,4.000000,,,,0.000000,4.000000,4.000000,4.000000,4.000000,4.000000,4.000000,4.000000,4.000000,4.000000,4.000000,4.000000,4.000000,4.000000,4.000000,100.000000
1602006259.531738,118.000000,0.000000,4118.461426,4110.769043,4118.461426,4134.358887,4118.461426,4121.538574,4110.256348,4110.769043,4104.615234,4131.794922,4082.564209,4117.436035,4116.922852,4117.948730,871.000000,4.000000,,,,0.000000,4.000000,4.000000,4.000000,4.000000,4.000000,4.000000,4.000000,4.000000,4.000000,4.000000,4.000000,4.000000,4.000000,4.000000,100.000000
1602006259.539619,119.000000,0.000000,4124.102539,4120.000000,4124.102539,4139.487305,4121.025879,4123.077148,4108.717773,4108.205078,4104.102539,4145.641113,4104.615234,4123.077148,4127.692383,4126.153809,844.000000,4.000000,,,,0.000000,4.000000,4.000000,4.000000,4.000000,4.000000,4.000000,4.000000,4.000000,4.000000,4.000000,4.000000,4.000000,4.000000,4.000000,100.000000
1602006259.547501,120.000000,0.000000,4138.974121,4124.615234,4128.205078,4141.025879,4121.538574,4120.512695,4118.461426,4108.205078,4113.846191,4161.538574,4115.384766,4130.769043,4140.000000,4144.102539,809.000000,4.000000,,,,0.000000,4.000000,4.000000,4.000000,4.000000,4.000000,4.000000,4.000000,4.000000,4.000000,4.000000,4.000000,4.000000,4.000000,4.000000,100.000000
1602006259.555482,121.000000,0.000000,4140.512695,4121.025879,4126.666504,4138.461426,4118.461426,4122.051270,4123.077148,4111.794922,4122.051270,4151.282227,4108.205078,4134.358887,4137.948730,4140.000000,798.000000,4.000000,,,,0.000000,4.000000,4.000000,4.000000,4.000000,4.000000,4.000000,4.000000,4.000000,4.000000,4.000000,4.000000,4.000000,4.000000,4.000000,100.000000
1602006259.563364,122.000000,0.000000,4137.948730,4120.000000,4127.692383,4136.922852,4113.333496,4127.179688,4122.563965,4116.922852,4116.922852,4132.307617,4103.077148,4134.358887,4132.820313,4133.333496,871.000000,4.000000,,,,0.000000,4.000000,4.000000,4.000000,4.000000,4.000000,4.000000,4.000000,4.000000,4.000000,4.000000,4.000000,4.000000,4.000000,4.000000,100.000000
1602006259.571245,123.000000,0.000000,4140.000000,4123.589844,4132.820313,4139.487305,4114.871582,4128.717773,4129.230957,4125.128418,4113.846191,4142.051270,4098.461426,4134.358887,4131.794922,4141.538574,844.000000,4.000000,,,,0.000000,4.000000,4.000000,4.000000,4.000000,4.000000,4.000000,4.000000,4.000000,4.000000,4.000000,4.000000,4.000000,4.000000,4.000000,100.000000
1602006259.579126,124.000000,0.000000,4144.102539,4123.589844,4139.487305,4147.179688,4121.025879,4125.128418,4133.333496,4131.794922,4130.256348,4155.897461,4100.512695,4138.974121,4136.410156,4155.897461,809.000000,4.000000,,,,0.000000,4.000000,4.000000,4.000000,4.000000,4.000000,4.000000,4.000000,4.000000,4.000000,4.000000,4.000000,4.000000,4.000000,4.000000,100.000000
1602006259.587008,125.000000,0.000000,4143.589844,4123.589844,4141.538574,4153.333496,4123.077148,4121.025879,4124.615234,4132.820313,4136.410156,4143.077148,4108.205078,4141.025879,4139.487305,4160.512695,798.000000,4.000000,,,,0.000000,4.000000,4.000000,4.000000,4.000000,4.000000,4.000000,4.000000,4.000000,4.000000,4.000000,4.000000,4.000000,4.000000,4.000000,100.000000
1602006259.594889,126.000000,0.000000,4140.512695,4128.717773,4136.922852,4150.256348,4126.153809,4127.692383,4118.461426,4127.179688,4126.153809,4146.153809,4105.641113,4136.922852,4138.461426,4151.282227,871.000000,4.000000,,,,0.000000,4.000000,4.000000,4.000000,4.000000,4.000000,4.000000,4.000000,4.000000,4.000000,4.000000,4.000000,4.000000,4.000000,4.000000,100.000000
1602006259.602871,127.000000,0.000000,4146.153809,4138.461426,4135.384766,4151.794922,4131.282227,4135.384766,4122.563965,4123.589844,4122.051270,4160.512695,4107.179688,4136.410156,4136.922852,4144.102539,844.000000,4.000000,,,,0.000000,4.000000,4.000000,4.000000,4.000000,4.000000,4.000000,4.000000,4.000000,4.000000,4.000000,4.000000,4.000000,4.000000,4.000000,100.000000
1602006259.610752,128.000000,0.000000,4152.307617,4142.563965,4140.000000,4158.461426,4128.717773,4128.205078,4125.641113,4124.102539,4117.948730,4147.179688,4116.410156,4137.436035,4140.000000,4141.538574,809.000000,4.000000,,,,0.000000,4.000000,4.000000,4.000000,4.000000,4.000000,4.000000,4.000000,4.000000,4.000000,4.000000,4.000000,4.000000,4.000000,4.000000,100.000000
1602006259.618633,0.000000,0.000000,4143.589844,4135.897461,4138.461426,4147.692383,4121.025879,4124.102539,4122.051270,4120.512695,4104.615234,4136.922852,4112.307617,4131.282227,4139.487305,4138.461426,795.000000,4.000000,,,,0.000000,4.000000,4.000000,4.000000,4.000000,4.000000,4.000000,4.000000,4.000000,4.000000,4.000000,4.000000,4.000000,4.000000,4.000000,100.000000
1602006259.626515,1.000000,0.000000,4135.897461,4132.307617,4134.358887,4138.974121,4122.051270,4134.358887,4117.948730,4118.974121,4103.589844,4143.589844,4105.128418,4129.743652,4134.871582,4152.820313,793.000000,4.000000,,,,0.000000,4.000000,4.000000,4.000000,4.000000,4.000000,4.000000,4.000000,4.000000,4.000000,4.000000,4.000000,4.000000,4.000000,4.000000,100.000000
1602006259.634396,2.000000,0.000000,4154.358887,4141.025879,4143.077148,4150.769043,4132.307617,4142.051270,4121.025879,4123.077148,4118.461426,4147.179688,4118.461426,4142.563965,4145.641113,4173.333496,858.000000,4.000000,,,,0.000000,4.000000,4.000000,4.000000,4.000000,4.000000,4.000000,4.000000,4.000000,4.000000,4.000000,4.000000,4.000000,4.000000,4.000000,100.000000
1602006259.642278,3.000000,0.000000,4170.769043,4146.666504,4154.871582,4155.897461,4134.871582,4136.922852,4123.589844,4125.641113,4129.230957,4164.615234,4127.179688,4153.846191,4160.512695,4171.794922,866.000000,4.000000,,,,0.000000,4.000000,4.000000,4.000000,4.000000,4.000000,4.000000,4.000000,4.000000,4.000000,4.000000,4.000000,4.000000,4.000000,4.000000,100.000000
1602006259.650159,4.000000,0.000000,4162.563965,4141.538574,4154.871582,4150.769043,4125.641113,4127.179688,4115.897461,4123.589844,4126.666504,4174.871582,4120.512695,4147.692383,4153.333496,4167.179688,815.000000,4.000000,,,,0.000000,4.000000,4.000000,4.000000,4.000000,4.000000,4.000000,4.000000,4.000000,4.000000,4.000000,4.000000,4.000000,4.000000,4.000000,100.000000
1602006259.657941,5.000000,0.000000,4154.871582,4136.922852,4149.743652,4152.820313,4122.051270,4118.974121,4108.205078,4120.512695,4117.436035,4145.641113,4120.512695,4140.512695,4140.512695,4175.384766,824.000000,4.000000,,,,0.000000,4.000000,4.000000,4.000000,4.000000,4.000000,4.000000,4.000000,4.000000,4.000000,4.000000,4.000000,4.000000,4.000000,4.000000,100.000000
1602006259.665822,6.000000,0.000000,4155.897461,4131.794922,4151.282227,4149.743652,4126.666504,4118.461426,4115.384766,4120.000000,4115.384766,4130.256348,4124.615234,4144.615234,4137.948730,4171.282227,763.000000,4.000000,,,,0.000000,4.000000,4.000000,4.000000,4.000000,4.000000,4.000000,4.000000,4.000000,4.000000,4.000000,4.000000,4.000000,4.000000,4.000000,100.000000
1602006259.673704,7.000000,0.000000,4155.897461,4125.128418,4151.794922,4143.077148,4125.641113,4121.538574,4124.615234,4120.000000,4120.000000,4150.256348,4123.077148,4143.589844,4137.436035,4160.000000,672.000000,4.000000,,,,0.000000,4.000000,4.000000,4.000000,4.000000,4.000000,4.000000,4.000000,4.000000,4.000000,4.000000,4.000000,4.000000,4.000000,4.000000,100.000000
1602006259.681586,8.000000,0.000000,4155.384766,4126.153809,4148.717773,4147.179688,4122.563965,4120.512695,4126.666504,4121.538574,4124.102539,4153.846191,4130.256348,4137.948730,4146.153809,4165.128418,801.000000,4.000000,,,,0.000000,4.000000,4.000000,4.000000,4.000000,4.000000,4.000000,4.000000,4.000000,4.000000,4.000000,4.000000,4.000000,4.000000,4.000000,100.000000
1602006259.689467,9.000000,0.000000,4151.282227,4125.128418,4144.615234,4147.179688,4123.077148,4122.563965,4127.692383,4123.589844,4121.025879,4134.871582,4138.974121,4145.128418,4156.410156,4173.333496,838.000000,4.000000,,,,0.000000,4.000000,4.000000,4.000000,4.000000,4.000000,4.000000,4.000000,4.000000,4.000000,4.000000,4.000000,4.000000,4.000000,4.000000,100.000000
1602006259.697349,10.000000,0.000000,4137.436035,4119.487305,4140.512695,4138.974121,4122.051270,4124.615234,4126.666504,4124.102539,4109.743652,4125.641113,4127.179688,4150.769043,4148.205078,4162.051270,871.000000,4.000000,,,,0.000000,4.000000,4.000000,4.000000,4.000000,4.000000,4.000000,4.000000,4.000000,4.000000,4.000000,4.000000,4.000000,4.000000,4.000000,100.000000
1602006259.705231,11.000000,0.000000,4132.307617,4119.487305,4135.897461,4137.436035,4122.051270,4121.538574,4123.589844,4123.589844,4104.615234,4137.948730,4118.974121,4144.615234,4145.641113,4157.948730,843.000000,4.000000,,,,0.000000,4.000000,4.000000,4.000000,4.000000,4.000000,4.000000,4.000000,4.000000,4.000000,4.000000,4.000000,4.000000,4.000000,4.000000,100.000000
1602006259.713112,12.000000,0.000000,4139.487305,4122.563965,4135.384766,4140.000000,4124.615234,4116.410156,4123.589844,4121.025879,4113.333496,4156.922852,4128.205078,4145.641113,4154.871582,4168.717773,779.000000,4.000000,,,,0.000000,4.000000,4.000000,4.000000,4.000000,4.000000,4.000000,4.000000,4.000000,4.000000,4.000000,4.000000,4.000000,4.000000,4.000000,100.000000
1602006259.721093,13.000000,0.000000,4143.589844,4123.077148,4147.692383,4143.077148,4125.641113,4117.436035,4126.666504,4125.128418,4127.692383,4159.487305,4126.153809,4154.358887,4158.461426,4173.333496,756.000000,4.000000,,,,0.000000,4.000000,4.000000,4.000000,4.000000,4.000000,4.000000,4.000000,4.000000,4.000000,4.000000,4.000000,4.000000,4.000000,4.000000,100.000000
1602006259.728974,14.000000,0.000000,4144.102539,4124.102539,4155.384766,4144.615234,4126.666504,4122.563965,4127.179688,4135.897461,4141.025879,4161.025879,4116.922852,4156.410156,4155.897461,4172.820313,871.000000,4.000000,,,,0.000000,4.000000,4.000000,4.000000,4.000000,4.000000,4.000000,4.000000,4.000000,4.000000,4.000000,4.000000,4.000000,4.000000,4.000000,100.000000
1602006259.736855,15.000000,0.000000,4140.000000,4120.512695,4143.077148,4140.512695,4124.615234,4116.410156,4124.102539,4133.333496,4141.538574,4175.384766,4120.000000,4147.692383,4148.717773,4166.153809,843.000000,4.000000,,,,0.000000,4.000000,4.000000,4.000000,4.000000,4.000000,4.000000,4.000000,4.000000,4.000000,4.000000,4.000000,4.000000,4.000000,4.000000,100.000000
1602006259.744836,16.000000,0.000000,4136.922852,4112.307617,4138.974121,4137.948730,4120.000000,4106.666504,4122.563965,4127.179688,4128.717773,4172.307617,4127.692383,4145.128418,4136.922852,4153.846191,0.000000,4.000000,,,,0.000000,4.000000,4.000000,4.000000,4.000000,4.000000,4.000000,4.000000,4.000000,4.000000,4.000000,4.000000,4.000000,4.000000,4.000000,100.000000
1602006259.752717,17.000000,0.000000,4140.000000,4107.179688,4152.820313,4138.461426,4117.948730,4107.692383,4125.128418,4130.256348,4118.974121,4135.897461,4125.128418,4152.307617,4134.358887,4152.307617,0.000000,4.000000,,,,0.000000,4.000000,4.000000,4.000000,4.000000,4.000000,4.000000,4.000000,4.000000,4.000000,4.000000,4.000000,4.000000,4.000000,4.000000,100.000000
1602006259.760697,18.000000,0.000000,4141.538574,4106.153809,4157.948730,4134.871582,4121.025879,4114.358887,4125.641113,4128.717773,4120.000000,4111.794922,4120.000000,4157.436035,4137.436035,4163.589844,0.000000,4.000000,,,,0.000000,4.000000,4.000000,4.000000,4.000000,4.000000,4.000000,4.000000,4.000000,4.000000,4.000000,4.000000,4.000000,4.000000,4.000000,100.000000
1602006259.768479,19.000000,0.000000,4140.000000,4112.820313,4147.179688,4133.846191,4122.563965,4122.051270,4126.153809,4125.641113,4129.230957,4129.230957,4121.538574,4155.384766,4135.897461,4161.538574,0.000000,4.000000,,,,0.000000,4.000000,4.000000,4.000000,4.000000,4.000000,4.000000,4.000000,4.000000,4.000000,4.000000,4.000000,4.000000,4.000000,4.000000,100.000000
1602006259.776360,20.000000,0.000000,4139.487305,4121.025879,4138.461426,4137.948730,4122.051270,4133.846191,4134.358887,4130.256348,4140.512695,4144.102539,4118.461426,4147.692383,4135.384766,4153.333496,0.000000,4.000000,,,,0.000000,4.000000,4.000000,4.000000,4.000000,4.000000,4.000000,4.000000,4.000000,4.000000,4.000000,4.000000,4.000000,4.000000,4.000000,100.000000
1602006259.784241,21.000000,0.000000,4134.871582,4121.025879,4130.256348,4137.948730,4129.230957,4139.487305,4141.025879,4130.769043,4136.410156,4135.384766,4107.179688,4139.487305,4136.922852,4154.871582,0.000000,4.000000,,,,0.000000,4.000000,4.000000,4.000000,4.000000,4.000000,4.000000,4.000000,4.000000,4.000000,4.000000,4.000000,4.000000,4.000000,4.000000,100.000000
1602006259.792123,22.000000,0.000000,4126.153809,4119.487305,4122.563965,4135.897461,4136.922852,4144.102539,4140.512695,4127.179688,4125.128418,4141.025879,4101.025879,4135.384766,4134.871582,4155.384766,0.000000,4.000000,,,,0.000000,4.000000,4.000000,4.000000,4.000000,4.000000,4.000000,4.000000,4.000000,4.000000,4.000000,4.000000,4.000000,4.000000,4.000000,100.000000
1602006259.800004,23.000000,0.000000,4125.128418,4125.128418,4122.563965,4141.025879,4134.871582,4153.333496,4140.000000,4128.717773,4128.717773,4160.000000,4111.794922,4134.871582,4135.897461,4154.871582,0.000000,4.000000,,,,0.000000,4.000000,4.000000,4.000000,4.000000,4.000000,4.000000,4.000000,4.000000,4.000000,4.000000,4.000000,4.000000,4.000000,4.000000,100.000000
1602006259.807886,24.000000,0.000000,4125.128418,4127.179688,4121.025879,4140.512695,4126.666504,4151.794922,4134.358887,4125.641113,4127.179688,4155.384766,4112.820313,4126.666504,4139.487305,4150.769043,0.000000,4.000000,,,,0.000000,4.000000,4.000000,4.000000,4.000000,4.000000,4.000000,4.000000,4.000000,4.000000,4.000000,4.000000,4.000000,4.000000,4.000000,100.000000
1602006259.815668,25.000000,0.000000,4121.538574,4119.487305,4120.000000,4128.205078,4122.563965,4142.563965,4124.615234,4120.512695,4120.512695,4148.205078,4102.051270,4123.077148,4136.922852,4140.000000,0.000000,4.000000,,,,0.000000,4.000000,4.000000,4.000000,4.000000,4.000000,4.000000,4.000000,4.000000,4.000000,4.000000,4.000000,4.000000,4.000000,4.000000,100.000000
1602006259.823550,26.000000,0.000000,4123.589844,4112.307617,4123.589844,4122.563965,4123.077148,4132.820313,4120.512695,4123.589844,4133.333496,4160.512695,4112.307617,4132.820313,4134.358887,4142.051270,0.000000,4.000000,,,,0.000000,4.000000,4.000000,4.000000,4.000000,4.000000,4.000000,4.000000,4.000000,4.000000,4.000000,4.000000,4.000000,4.000000,4.000000,100.000000
1602006259.831431,27.000000,0.000000,4129.743652,4111.282227,4127.179688,4125.641113,4121.538574,4121.538574,4121.538574,4125.128418,4141.538574,4157.948730,4123.077148,4139.487305,4138.974121,4158.461426,0.000000,4.000000,,,,0.000000,4.000000,4.000000,4.000000,4.000000,4.000000,4.000000,4.000000,4.000000,4.000000,4.000000,4.000000,4.000000,4.000000,4.000000,100.000000
1602006259.839313,28.000000,0.000000,4129.743652,4109.743652,4131.282227,4123.077148,4122.051270,4121.538574,4123.589844,4125.128418,4127.692383,4134.871582,4111.282227,4136.922852,4136.922852,4155.897461,0.000000,4.000000,,,,0.000000,4.000000,4.000000,4.000000,4.000000,4.000000,4.000000,4.000000,4.000000,4.000000,4.000000,4.000000,4.000000,4.000000,4.000000,100.000000
1602006259.847195,29.000000,0.000000,4133.846191,4108.717773,4137.436035,4123.589844,4124.102539,4135.384766,4125.128418,4130.769043,4119.487305,4130.769043,4108.717773,4136.410156,4131.794922,4152.307617,0.000000,4.000000,,,,0.000000,4.000000,4.000000,4.000000,4.000000,4.000000,4.000000,4.000000,4.000000,4.000000,4.000000,4.000000,4.000000,4.000000,4.000000,100.000000
1602006259.855077,30.000000,0.000000,4140.512695,4114.358887,4141.538574,4130.769043,4127.179688,4140.512695,4127.179688,4132.820313,4122.051270,4144.615234,4122.563965,4140.512695,4139.487305,4172.820313,0.000000,4.000000,,,,0.000000,4.000000,4.000000,4.000000,4.000000,4.000000,4.000000,4.000000,4.000000,4.000000,4.000000,4.000000,4.000000,4.000000,4.000000,100.000000
1602006259.862959,31.000000,0.000000,4143.077148,4120.000000,4139.487305,4130.769043,4134.358887,4136.922852,4132.820313,4128.205078,4121.025879,4143.589844,4126.666504,4141.538574,4143.077148,4183.589844,0.000000,4.000000,,,,0.000000,4.000000,4.000000,4.000000,4.000000,4.000000,4.000000,4.000000,4.000000,4.000000,4.000000,4.000000,4.000000,4.000000,4.000000,100.000000
1602006259.870841,32.000000,0.000000,4140.000000,4122.051270,4132.307617,4126.153809,4138.461426,4144.102539,4137.948730,4125.128418,4117.948730,4131.282227,4123.077148,4136.922852,4138.461426,4173.846191,0.000000,4.000000,,,,0.000000,4.000000,4.000000,4.000000,4.000000,4.000000,4.000000,4.000000,4.000000,4.000000,4.000000,4.000000,4.000000,4.000000,4.000000,100.000000
1602006259.878723,33.000000,0.000000,4123.589844,4122.563965,4123.589844,4124.102539,4138.461426,4154.358887,4135.897461,4125.128418,4125.641113,4137.436035,4117.948730,4136.410156,4147.692383,4166.666504,0.000000,4.000000,,,,0.000000,4.000000,4.000000,4.000000,4.000000,4.000000,4.000000,4.000000,4.000000,4.000000,4.000000,4.000000,4.000000,4.000000,4.000000,100.000000
1602006259.886704,34.000000,0.000000,4109.230957,4124.102539,4120.512695,4125.641113,4140.512695,4155.384766,4130.769043,4124.102539,4132.307617,4148.205078,4110.769043,4138.974121,4156.922852,4155.897461,0.000000,4.000000,,,,0.000000,4.000000,4.000000,4.000000,4.000000,4.000000,4.000000,4.000000,4.000000,4.000000,4.000000,4.000000,4.000000,4.000000,4.000000,100.000000
1602006259.894586,35.000000,0.000000,4116.922852,4122.051270,4121.538574,4128.717773,4136.410156,4143.589844,4126.666504,4122.563965,4117.436035,4137.948730,4111.282227,4134.871582,4142.563965,4137.948730,0.000000,4.000000,,,,0.000000,4.000000,4.000000,4.000000,4.000000,4.000000,4.000000,4.000000,4.000000,4.000000,4.000000,4.000000,4.000000,4.000000,4.000000,100.000000
1602006259.902468,36.000000,0.000000,4121.538574,4114.871582,4119.487305,4123.589844,4125.641113,4129.230957,4121.538574,4122.563965,4107.179688,4137.948730,4109.743652,4125.128418,4125.128418,4134.358887,0.000000,4.000000,,,,0.000000,4.000000,4.000000,4.000000,4.000000,4.000000,4.000000,4.000000,4.000000,4.000000,4.000000,4.000000,4.000000,4.000000,4.000000,100.000000
1602006259.910350,37.000000,0.000000,4109.230957,4106.666504,4118.461426,4115.384766,4125.641113,4126.153809,4120.512695,4122.563965,4120.000000,4154.871582,4102.563965,4117.948730,4123.077148,4134.871582,0.000000,4.000000,,,,0.000000,4.000000,4.000000,4.000000,4.000000,4.000000,4.000000,4.000000,4.000000,4.000000,4.000000,4.000000,4.000000,4.000000,4.000000,100.000000
1602006259.918232,38.000000,0.000000,4108.717773,4102.563965,4119.487305,4117.436035,4128.717773,4128.205078,4124.615234,4123.589844,4126.666504,4149.230957,4107.692383,4120.512695,4130.256348,4135.384766,0.000000,4.000000,,,,0.000000,4.000000,4.000000,4.000000,4.000000,4.000000,4.000000,4.000000,4.000000,4.000000,4.000000,4.000000,4.000000,4.000000,4.000000,100.000000
1602006259.926114,39.000000,0.000000,4120.000000,4108.717773,4120.000000,4124.615234,4123.077148,4122.051270,4126.153809,4128.717773,4116.922852,4132.820313,4121.025879,4134.358887,4141.538574,4147.692383,0.000000,4.000000,,,,0.000000,4.000000,4.000000,4.000000,4.000000,4.000000,4.000000,4.000000,4.000000,4.000000,4.000000,4.000000,4.000000,4.000000,4.000000,100.000000
1602006259.933996,40.000000,0.000000,4130.256348,4120.000000,4131.282227,4131.282227,4126.153809,4121.025879,4130.256348,4135.384766,4118.461426,4139.487305,4126.666504,4151.282227,4153.333496,4160.000000,0.000000,4.000000,,,,0.000000,4.000000,4.000000,4.000000,4.000000,4.000000,4.000000,4.000000,4.000000,4.000000,4.000000,4.000000,4.000000,4.000000,4.000000,100.000000
1602006259.941878,41.000000,0.000000,4137.948730,4126.666504,4139.487305,4136.410156,4134.358887,4135.384766,4138.461426,4137.436035,4131.794922,4147.179688,4131.282227,4159.487305,4156.922852,4162.051270,0.000000,4.000000,,,,0.000000,4.000000,4.000000,4.000000,4.000000,4.000000,4.000000,4.000000,4.000000,4.000000,4.000000,4.000000,4.000000,4.000000,4.000000,100.000000
1602006259.949760,42.000000,0.000000,4129.743652,4119.487305,4129.230957,4133.846191,4129.230957,4138.461426,4141.538574,4136.922852,4136.922852,4133.333496,4124.102539,4155.384766,4150.769043,4154.871582,0.000000,4.000000,,,,0.000000,4.000000,4.000000,4.000000,4.000000,4.000000,4.000000,4.000000,4.000000,4.000000,4.000000,4.000000,4.000000,4.000000,4.000000,100.000000
1602006259.957641,43.000000,0.000000,4116.410156,4108.717773,4118.974121,4120.512695,4120.000000,4125.128418,4136.410156,4138.974121,4137.436035,4125.128418,4107.692383,4152.307617,4140.512695,4144.102539,0.000000,4.000000,,,,0.000000,4.000000,4.000000,4.000000,4.000000,4.000000,4.000000,4.000000,4.000000,4.000000,4.000000,4.000000,4.000000,4.000000,4.000000,100.000000
1602006259.965422,44.000000,0.000000,4122.051270,4105.641113,4120.512695,4111.794922,4123.077148,4127.179688,4136.922852,4141.025879,4137.948730,4135.897461,4111.282227,4154.358887,4134.358887,4136.922852,0.000000,4.000000,,,,0.000000,4.000000,4.000000,4.000000,4.000000,4.000000,4.000000,4.000000,4.000000,4.000000,4.000000,4.000000,4.000000,4.000000,4.000000,100.000000
1602006259.973303,45.000000,0.000000,4130.769043,4108.205078,4122.563965,4115.384766,4133.333496,4141.025879,4142.051270,4138.974121,4137.948730,4147.179688,4124.102539,4149.230957,4136.922852,4140.512695,0.000000,4.000000,,,,0.000000,4.000000,4.000000,4.000000,4.000000,4.000000,4.000000,4.000000,4.000000,4.000000,4.000000,4.000000,4.000000,4.000000,4.000000,100.000000
1602006259.981085,46.000000,0.000000,4119.487305,4112.307617,4118.974121,4120.000000,4136.410156,4140.000000,4133.333496,4131.282227,4129.230957,4141.025879,4117.948730,4141.025879,4134.871582,4140.512695,0.000000,4.000000,,,,0.000000,4.000000,4.000000,4.000000,4.000000,4.000000,4.000000,4.000000,4.000000,4.000000,4.000000,4.000000,4.000000,4.000000,4.000000,100.000000
1602006259.988966,47.000000,0.000000,4116.410156,4118.461426,4119.487305,4120.512695,4135.897461,4132.307617,4127.179688,4130.256348,4128.205078,4137.948730,4115.384766,4147.692383,4137.436035,4136.922852,0.000000,4.000000,,,,0.000000,4.000000,4.000000,4.000000,4.000000,4.000000,4.000000,4.000000,4.000000,4.000000,4.000000,4.000000,4.000000,4.000000,4.000000,100.000000
1602006259.996847,48.000000,0.000000,4130.769043,4125.128418,4123.589844,4123.077148,4134.871582,4133.846191,4132.820313,4138.461426,4145.128418,4167.692383,4138.461426,4158.974121,4160.000000,4148.205078,0.000000,4.000000,,,,0.000000,4.000000,4.000000,4.000000,4.000000,4.000000,4.000000,4.000000,4.000000,4.000000,4.000000,4.000000,4.000000,4.000000,4.000000,100.000000
1602006260.004728,49.000000,0.000000,4134.871582,4120.000000,4125.641113,4125.128418,4129.743652,4130.256348,4129.743652,4132.820313,4147.179688,4178.461426,4142.051270,4153.846191,4170.769043,4161.538574,0.000000,4.000000,,,,0.000000,4.000000,4.000000,4.000000,4.000000,4.000000,4.000000,4.000000,4.000000,4.000000,4.000000,4.000000,4.000000,4.000000,4.000000,100.000000
1602006260.012710,50.000000,0.000000,4123.589844,4108.717773,4117.948730,4123.077148,4122.563965,4121.025879,4117.948730,4117.436035,4130.769043,4131.282227,4121.025879,4147.179688,4153.846191,4154.871582,0.000000,4.000000,,,,0.000000,4.000000,4.000000,4.000000,4.000000,4.000000,4.000000,4.000000,4.000000,4.000000,4.000000,4.000000,4.000000,4.000000,4.000000,100.000000
1602006260.020591,51.000000,0.000000,4118.974121,4105.128418,4114.871582,4121.538574,4120.000000,4117.948730,4118.461426,4116.922852,4128.717773,4116.410156,4125.128418,4151.794922,4145.128418,4144.102539,0.000000,4.000000,,,,0.000000,4.000000,4.000000,4.000000,4.000000,4.000000,4.000000,4.000000,4.000000,4.000000,4.000000,4.000000,4.000000,4.000000,4.000000,100.000000
1602006260.028473,52.000000,0.000000,4129.743652,4109.743652,4130.769043,4124.102539,4124.615234,4120.000000,4125.641113,4123.077148,4142.563965,4165.641113,4145.128418,4156.922852,4158.461426,4153.333496,0.000000,4.000000,,,,0.000000,4.000000,4.000000,4.000000,4.000000,4.000000,4.000000,4.000000,4.000000,4.000000,4.000000,4.000000,4.000000,4.000000,4.000000,100.000000
1602006260.036355,53.000000,0.000000,4139.487305,4116.410156,4138.461426,4127.179688,4126.666504,4125.128418,4125.128418,4121.538574,4141.025879,4184.102539,4145.128418,4155.897461,4162.563965,4162.051270,0.000000,4.000000,,,,0.000000,4.000000,4.000000,4.000000,4.000000,4.000000,4.000000,4.000000,4.000000,4.000000,4.000000,4.000000,4.000000,4.000000,4.000000,100.000000
1602006260.044236,54.000000,0.000000,4134.358887,4119.487305,4128.717773,4127.179688,4124.102539,4135.897461,4123.077148,4124.102539,4133.333496,4163.589844,4136.410156,4155.384766,4157.436035,4149.230957,0.000000,4.000000,,,,0.000000,4.000000,4.000000,4.000000,4.000000,4.000000,4.000000,4.000000,4.000000,4.000000,4.000000,4.000000,4.000000,4.000000,4.000000,100.000000
1602006260.052118,55.000000,0.000000,4127.179688,4118.974121,4120.000000,4122.051270,4124.102539,4138.461426,4125.641113,4126.153809,4143.077148,4165.641113,4135.384766,4156.410156,4159.487305,4141.025879,0.000000,4.000000,,,,0.000000,4.000000,4.000000,4.000000,4.000000,4.000000,4.000000,4.000000,4.000000,4.000000,4.000000,4.000000,4.000000,4.000000,4.000000,100.000000
1602006260.060000,56.000000,0.000000,4134.358887,4118.974121,4113.846191,4121.025879,4129.743652,4127.179688,4123.589844,4120.512695,4143.077148,4153.846191,4131.794922,4155.897461,4160.512695,4154.358887,0.000000,4.000000,,,,0.000000,4.000000,4.000000,4.000000,4.000000,4.000000,4.000000,4.000000,4.000000,4.000000,4.000000,4.000000,4.000000,4.000000,4.000000,100.000000
1602006260.067881,57.000000,0.000000,4142.051270,4120.000000,4112.307617,4125.128418,4131.794922,4126.666504,4121.025879,4119.487305,4124.615234,4115.897461,4124.615234,4149.230957,4155.897461,4157.948730,0.000000,4.000000,,,,0.000000,4.000000,4.000000,4.000000,4.000000,4.000000,4.000000,4.000000,4.000000,4.000000,4.000000,4.000000,4.000000,4.000000,4.000000,100.000000
1602006260.075663,58.000000,0.000000,4135.384766,4121.538574,4116.410156,4125.641113,4133.846191,4137.436035,4131.282227,4127.692383,4128.205078,4124.102539,4123.589844,4141.538574,4153.846191,4141.538574,0.000000,4.000000,,,,0.000000,4.000000,4.000000,4.000000,4.000000,4.000000,4.000000,4.000000,4.000000,4.000000,4.000000,4.000000,4.000000,4.000000,4.000000,100.000000
1602006260.083545,59.000000,0.000000,4125.641113,4123.589844,4115.897461,4122.563965,4142.563965,4138.461426,4137.948730,4129.743652,4150.769043,4159.487305,4126.153809,4138.461426,4150.769043,4134.871582,0.000000,4.000000,,,,0.000000,4.000000,4.000000,4.000000,4.000000,4.000000,4.000000,4.000000,4.000000,4.000000,4.000000,4.000000,4.000000,4.000000,4.000000,100.000000
1602006260.091426,60.000000,0.000000,4120.512695,4124.615234,4108.717773,4120.512695,4142.563965,4127.179688,4125.641113,4124.615234,4146.666504,4159.487305,4125.641113,4135.897461,4140.512695,4132.820313,0.000000,4.000000,,,,0.000000,4.000000,4.000000,4.000000,4.000000,4.000000,4.000000,4.000000,4.000000,4.000000,4.000000,4.000000,4.000000,4.000000,4.000000,100.000000
1602006260.099308,61.000000,0.000000,4120.000000,4122.051270,4106.153809,4122.563965,4134.871582,4120.000000,4115.897461,4122.563965,4132.820313,4149.230957,4120.000000,4133.333496,4137.436035,4128.205078,0.000000,4.000000,,,,0.000000,4.000000,4.000000,4.000000,4.000000,4.000000,4.000000,4.000000,4.000000,4.000000,4.000000,4.000000,4.000000,4.000000,4.000000,100.000000
1602006260.107189,62.000000,0.000000,4121.025879,4122.563965,4110.256348,4126.666504,4135.384766,4124.615234,4119.487305,4124.615234,4138.974121,4162.563965,4120.512695,4136.410156,4142.051270,4131.282227,0.000000,4.000000,,,,0.000000,4.000000,4.000000,4.000000,4.000000,4.000000,4.000000,4.000000,4.000000,4.000000,4.000000,4.000000,4.000000,4.000000,4.000000,100.000000
1602006260.115071,63.000000,0.000000,4121.538574,4124.615234,4118.461426,4124.615234,4137.948730,4128.205078,4122.563965,4124.102539,4136.922852,4157.948730,4128.717773,4141.025879,4142.563965,4131.794922,0.000000,4.000000,,,,0.000000,4.000000,4.000000,4.000000,4.000000,4.000000,4.000000,4.000000,4.000000,4.000000,4.000000,4.000000,4.000000,4.000000,4.000000,100.000000
1602006260.122953,64.000000,0.000000,4120.512695,4120.512695,4125.128418,4120.000000,4129.743652,4124.102539,4121.025879,4115.384766,4124.615234,4124.102539,4118.461426,4140.512695,4147.692383,4130.769043,795.000000,4.000000,,,,0.000000,4.000000,4.000000,4.000000,4.000000,4.000000,4.000000,4.000000,4.000000,4.000000,4.000000,4.000000,4.000000,4.000000,4.000000,100.000000
1602006260.130834,65.000000,0.000000,4121.025879,4112.820313,4121.538574,4120.512695,4120.000000,4122.051270,4121.025879,4108.205078,4127.179688,4121.538574,4105.128418,4141.025879,4150.256348,4133.333496,793.000000,4.000000,,,,0.000000,4.000000,4.000000,4.000000,4.000000,4.000000,4.000000,4.000000,4.000000,4.000000,4.000000,4.000000,4.000000,4.000000,4.000000,100.000000
1602006260.138716,66.000000,0.000000,4127.692383,4112.820313,4121.538574,4123.589844,4119.487305,4127.692383,4122.563965,4112.307617,4135.897461,4148.205078,4114.871582,4147.179688,4144.615234,4137.948730,857.000000,4.000000,,,,0.000000,4.000000,4.000000,4.000000,4.000000,4.000000,4.000000,4.000000,4.000000,4.000000,4.000000,4.000000,4.000000,4.000000,4.000000,100.000000
1602006260.146498,67.000000,0.000000,4136.922852,4118.974121,4126.666504,4122.563965,4121.538574,4131.282227,4125.641113,4121.025879,4133.333496,4146.153809,4129.743652,4150.769043,4147.179688,4148.717773,866.000000,4.000000,,,,0.000000,4.000000,4.000000,4.000000,4.000000,4.000000,4.000000,4.000000,4.000000,4.000000,4.000000,4.000000,4.000000,4.000000,4.000000,100.000000
1602006260.154379,68.000000,0.000000,4138.461426,4121.538574,4129.743652,4123.077148,4122.051270,4128.717773,4125.128418,4128.205078,4132.307617,4133.846191,4131.282227,4150.769043,4155.384766,4163.589844,815.000000,4.000000,,,,0.000000,4.000000,4.000000,4.000000,4.000000,4.000000,4.000000,4.000000,4.000000,4.000000,4.000000,4.000000,4.000000,4.000000,4.000000,100.000000
1602006260.162261,69.000000,0.000000,4130.769043,4120.512695,4128.205078,4124.615234,4123.589844,4125.641113,4123.589844,4135.897461,4146.153809,4160.512695,4132.307617,4154.358887,4154.358887,4161.538574,824.000000,4.000000,,,,0.000000,4.000000,4.000000,4.000000,4.000000,4.000000,4.000000,4.000000,4.000000,4.000000,4.000000,4.000000,4.000000,4.000000,4.000000,100.000000
1602006260.170143,70.000000,0.000000,4124.102539,4121.538574,4125.128418,4122.563965,4123.077148,4125.128418,4129.743652,4142.563965,4157.948730,4180.512695,4149.230957,4160.000000,4159.487305,4156.410156,763.000000,4.000000,,,,0.000000,4.000000,4.000000,4.000000,4.000000,4.000000,4.000000,4.000000,4.000000,4.000000,4.000000,4.000000,4.000000,4.000000,4.000000,100.000000
1602006260.178024,71.000000,0.000000,4123.589844,4121.025879,4123.077148,4121.538574,4122.563965,4132.307617,4137.948730,4142.051270,4153.333496,4157.948730,4153.333496,4159.487305,4171.282227,4161.538574,672.000000,4.000000,,,,0.000000,4.000000,4.000000,4.000000,4.000000,4.000000,4.000000,4.000000,4.000000,4.000000,4.000000,4.000000,4.000000,4.000000,4.000000,100.000000
1602006260.185906,72.000000,0.000000,4124.102539,4119.487305,4124.102539,4124.615234,4127.692383,4135.897461,4136.410156,4138.974121,4146.666504,4155.384766,4131.794922,4155.897461,4166.153809,4149.230957,795.000000,4.000000,,,,0.000000,4.000000,4.000000,4.000000,4.000000,4.000000,4.000000,4.000000,4.000000,4.000000,4.000000,4.000000,4.000000,4.000000,4.000000,100.000000
1602006260.193788,73.000000,0.000000,4123.077148,4121.025879,4123.077148,4120.512695,4135.897461,4134.871582,4129.743652,4137.948730,4153.333496,4183.589844,4121.025879,4155.897461,4155.384766,4137.436035,838.000000,4.000000,,,,0.000000,4.000000,4.000000,4.000000,4.000000,4.000000,4.000000,4.000000,4.000000,4.000000,4.000000,4.000000,4.000000,4.000000,4.000000,100.000000
1602006260.201669,74.000000,0.000000,4127.179688,4121.025879,4115.384766,4114.358887,4138.974121,4141.025879,4124.615234,4132.307617,4153.846191,4184.102539,4128.717773,4153.846191,4156.410156,4150.256348,871.000000,4.000000,,,,0.000000,4.000000,4.000000,4.000000,4.000000,4.000000,4.000000,4.000000,4.000000,4.000000,4.000000,4.000000,4.000000,4.000000,4.000000,100.000000
1602006260.209650,75.000000,0.000000,4132.820313,4118.974121,4112.820313,4118.461426,4132.307617,4137.436035,4120.000000,4123.589844,4141.025879,4162.051270,4124.102539,4150.256348,4149.743652,4161.538574,843.000000,4.000000,,,,0.000000,4.000000,4.000000,4.000000,4.000000,4.000000,4.000000,4.000000,4.000000,4.000000,4.000000,4.000000,4.000000,4.000000,4.000000,100.000000
1602006260.217531,76.000000,0.000000,4128.205078,4119.487305,4118.974121,4124.615234,4124.102539,4117.948730,4118.461426,4119.487305,4132.307617,4151.794922,4115.384766,4147.179688,4138.461426,4151.282227,775.000000,4.000000,,,,0.000000,4.000000,4.000000,4.000000,4.000000,4.000000,4.000000,4.000000,4.000000,4.000000,4.000000,4.000000,4.000000,4.000000,4.000000,100.000000
1602006260.225412,77.000000,0.000000,4127.179688,4124.102539,4125.641113,4126.666504,4125.128418,4113.846191,4121.025879,4122.051270,4128.717773,4144.615234,4132.820313,4152.820313,4148.205078,4148.205078,747.000000,4.000000,,,,0.000000,4.000000,4.000000,4.000000,4.000000,4.000000,4.000000,4.000000,4.000000,4.000000,4.000000,4.000000,4.000000,4.000000,4.000000,100.000000
1602006260.233193,78.000000,0.000000,4133.846191,4122.051270,4131.282227,4128.717773,4125.641113,4125.128418,4122.563965,4121.538574,4120.512695,4131.794922,4146.666504,4164.102539,4158.974121,4164.615234,871.000000,4.000000,,,,0.000000,4.000000,4.000000,4.000000,4.000000,4.000000,4.000000,4.000000,4.000000,4.000000,4.000000,4.000000,4.000000,4.000000,4.000000,100.000000
1602006260.241075,79.000000,0.000000,4135.897461,4117.948730,4136.410156,4128.717773,4118.461426,4121.025879,4122.563965,4120.512695,4117.948730,4131.282227,4137.436035,4165.128418,4152.307617,4168.205078,843.000000,4.000000,,,,0.000000,4.000000,4.000000,4.000000,4.000000,4.000000,4.000000,4.000000,4.000000,4.000000,4.000000,4.000000,4.000000,4.000000,4.000000,100.000000
1602006260.248956,80.000000,0.000000,4138.461426,4121.538574,4141.025879,4129.230957,4115.897461,4114.871582,4124.615234,4126.153809,4128.717773,4147.692383,4128.205078,4156.922852,4150.769043,4150.256348,775.000000,4.000000,,,,0.000000,4.000000,4.000000,4.000000,4.000000,4.000000,4.000000,4.000000,4.000000,4.000000,4.000000,4.000000,4.000000,4.000000,4.000000,100.000000
1602006260.256838,81.000000,0.000000,4134.871582,4120.512695,4138.461426,4125.128418,4120.000000,4122.051270,4125.128418,4129.743652,4137.436035,4161.538574,4125.641113,4151.282227,4154.358887,4137.948730,747.000000,4.000000,,,,0.000000,4.000000,4.000000,4.000000,4.000000,4.000000,4.000000,4.000000,4.000000,4.000000,4.000000,4.000000,4.000000,4.000000,4.000000,100.000000
1602006260.264719,82.000000,0.000000,4114.358887,4106.666504,4125.641113,4108.205078,4120.000000,4123.589844,4122.563965,4125.641113,4134.871582,4154.871582,4118.461426,4144.615234,4144.102539,4140.000000,871.000000,4.000000,,,,0.000000,4.000000,4.000000,4.000000,4.000000,4.000000,4.000000,4.000000,4.000000,4.000000,4.000000,4.000000,4.000000,4.000000,4.000000,100.000000
1602006260.272600,83.000000,0.000000,4105.641113,4102.051270,4117.948730,4103.077148,4119.487305,4121.025879,4126.666504,4127.692383,4135.897461,4151.282227,4121.538574,4138.974121,4136.410156,4141.025879,843.000000,4.000000,,,,0.000000,4.000000,4.000000,4.000000,4.000000,4.000000,4.000000,4.000000,4.000000,4.000000,4.000000,4.000000,4.000000,4.000000,4.000000,100.000000
1602006260.280382,84.000000,0.000000,4124.615234,4114.358887,4125.128418,4119.487305,4124.102539,4131.282227,4135.897461,4138.974121,4145.641113,4156.922852,4135.384766,4142.051270,4142.563965,4140.000000,775.000000,4.000000,,,,0.000000,4.000000,4.000000,4.000000,4.000000,4.000000,4.000000,4.000000,4.000000,4.000000,4.000000,4.000000,4.000000,4.000000,4.000000,100.000000
1602006260.288264,85.000000,0.000000,4131.794922,4118.461426,4126.153809,4126.153809,4125.128418,4141.025879,4137.948730,4140.512695,4146.666504,4147.692383,4134.871582,4145.128418,4143.077148,4137.948730,747.000000,4.000000,,,,0.000000,4.000000,4.000000,4.000000,4.000000,4.000000,4.000000,4.000000,4.000000,4.000000,4.000000,4.000000,4.000000,4.000000,4.000000,100.000000
1602006260.296146,86.000000,0.000000,4114.871582,4106.153809,4117.948730,4121.025879,4123.589844,4138.974121,4134.871582,4128.717773,4136.410156,4135.897461,4120.512695,4136.922852,4131.282227,4122.563965,871.000000,4.000000,,,,0.000000,4.000000,4.000000,4.000000,4.000000,4.000000,4.000000,4.000000,4.000000,4.000000,4.000000,4.000000,4.000000,4.000000,4.000000,100.000000
1602006260.304028,87.000000,0.000000,4110.256348,4102.051270,4117.948730,4120.512695,4124.615234,4136.410156,4136.410156,4122.051270,4136.410156,4136.922852,4110.769043,4132.307617,4123.589844,4116.410156,843.000000,4.000000,,,,0.000000,4.000000,4.000000,4.000000,4.000000,4.000000,4.000000,4.000000,4.000000,4.000000,4.000000,4.000000,4.000000,4.000000,4.000000,100.000000
1602006260.311910,88.000000,0.000000,4124.615234,4110.769043,4124.615234,4115.897461,4125.128418,4140.512695,4139.487305,4123.589844,4143.589844,4137.948730,4115.384766,4144.615234,4132.307617,4138.974121,775.000000,4.000000,,,,0.000000,4.000000,4.000000,4.000000,4.000000,4.000000,4.000000,4.000000,4.000000,4.000000,4.000000,4.000000,4.000000,4.000000,4.000000,100.000000
1602006260.319792,89.000000,0.000000,4129.743652,4113.333496,4127.179688,4110.256348,4123.589844,4138.974121,4136.922852,4121.538574,4135.897461,4137.436035,4129.230957,4155.384766,4141.025879,4157.948730,747.000000,4.000000,,,,0.000000,4.000000,4.000000,4.000000,4.000000,4.000000,4.000000,4.000000,4.000000,4.000000,4.000000,4.000000,4.000000,4.000000,4.000000,100.000000
1602006260.327674,90.000000,0.000000,4123.077148,4110.769043,4125.128418,4117.436035,4124.615234,4127.692383,4131.794922,4117.948730,4119.487305,4131.794922,4137.948730,4151.282227,4139.487305,4154.358887,871.000000,4.000000,,,,0.000000,4.000000,4.000000,4.000000,4.000000,4.000000,4.000000,4.000000,4.000000,4.000000,4.000000,4.000000,4.000000,4.000000,4.000000,100.000000
1602006260.335556,91.000000,0.000000,4127.692383,4112.307617,4130.256348,4125.641113,4127.179688,4118.974121,4132.307617,4117.436035,4113.333496,4123.077148,4131.282227,4148.717773,4138.974121,4147.179688,843.000000,4.000000,,,,0.000000,4.000000,4.000000,4.000000,4.000000,4.000000,4.000000,4.000000,4.000000,4.000000,4.000000,4.000000,4.000000,4.000000,4.000000,100.000000
1602006260.343437,92.000000,0.000000,4137.948730,4114.358887,4134.871582,4126.153809,4125.128418,4123.589844,4134.358887,4120.000000,4116.922852,4136.922852,4126.153809,4154.871582,4142.051270,4145.128418,775.000000,4.000000,,,,0.000000,4.000000,4.000000,4.000000,4.000000,4.000000,4.000000,4.000000,4.000000,4.000000,4.000000,4.000000,4.000000,4.000000,4.000000,100.000000
1602006260.351419,93.000000,0.000000,4135.384766,4111.282227,4129.230957,4125.641113,4119.487305,4124.102539,4135.384766,4128.205078,4126.153809,4153.846191,4135.384766,4156.922852,4138.974121,4149.743652,747.000000,4.000000,,,,0.000000,4.000000,4.000000,4.000000,4.000000,4.000000,4.000000,4.000000,4.000000,4.000000,4.000000,4.000000,4.000000,4.000000,4.000000,100.000000
1602006260.359300,94.000000,0.000000,4125.641113,4107.692383,4126.153809,4124.102539,4117.948730,4118.974121,4143.077148,4137.948730,4137.948730,4149.230957,4143.077148,4157.948730,4134.871582,4157.948730,871.000000,4.000000,,,,0.000000,4.000000,4.000000,4.000000,4.000000,4.000000,4.000000,4.000000,4.000000,4.000000,4.000000,4.000000,4.000000,4.000000,4.000000,100.000000
1602006260.367182,95.000000,0.000000,4122.563965,4107.179688,4127.692383,4122.051270,4121.025879,4136.410156,4153.846191,4141.025879,4144.102539,4154.358887,4140.512695,4153.846191,4139.487305,4157.948730,843.000000,4.000000,,,,0.000000,4.000000,4.000000,4.000000,4.000000,4.000000,4.000000,4.000000,4.000000,4.000000,4.000000,4.000000,4.000000,4.000000,4.000000,100.000000
1602006260.375063,96.000000,0.000000,4130.256348,4106.153809,4126.153809,4123.077148,4122.563965,4157.436035,4154.871582,4138.974121,4142.051270,4153.846191,4136.410156,4141.025879,4140.000000,4151.282227,775.000000,4.000000,,,,0.000000,4.000000,4.000000,4.000000,4.000000,4.000000,4.000000,4.000000,4.000000,4.000000,4.000000,4.000000,4.000000,4.000000,4.000000,100.000000
1602006260.382944,97.000000,0.000000,4137.436035,4105.641113,4130.769043,4120.512695,4122.051270,4147.692383,4146.666504,4136.922852,4137.948730,4125.128418,4135.897461,4141.025879,4136.922852,4150.256348,747.000000,4.000000,,,,0.000000,4.000000,4.000000,4.000000,4.000000,4.000000,4.000000,4.000000,4.000000,4.000000,4.000000,4.000000,4.000000,4.000000,4.000000,100.000000
1602006260.390826,98.000000,0.000000,4137.436035,4111.794922,4140.000000,4117.948730,4121.538574,4131.794922,4138.974121,4136.922852,4137.948730,4123.589844,4137.948730,4155.384766,4146.666504,4153.846191,871.000000,4.000000,,,,0.000000,4.000000,4.000000,4.000000,4.000000,4.000000,4.000000,4.000000,4.000000,4.000000,4.000000,4.000000,4.000000,4.000000,4.000000,100.000000
1602006260.398807,99.000000,0.000000,4137.436035,4121.538574,4140.512695,4129.743652,4122.563965,4135.384766,4129.743652,4137.436035,4141.538574,4154.871582,4148.205078,4161.025879,4156.410156,4161.025879,843.000000,4.000000,,,,0.000000,4.000000,4.000000,4.000000,4.000000,4.000000,4.000000,4.000000,4.000000,4.000000,4.000000,4.000000,4.000000,4.000000,4.000000,100.000000
1602006260.406688,100.000000,0.000000,4136.410156,4123.589844,4138.461426,4142.051270,4124.102539,4138.461426,4123.589844,4135.384766,4138.461426,4159.487305,4152.307617,4156.410156,4150.769043,4158.974121,775.000000,4.000000,,,,0.000000,4.000000,4.000000,4.000000,4.000000,4.000000,4.000000,4.000000,4.000000,4.000000,4.000000,4.000000,4.000000,4.000000,4.000000,100.000000
1602006260.414569,101.000000,0.000000,4137.436035,4123.589844,4135.384766,4137.948730,4124.615234,4132.307617,4124.615234,4135.897461,4129.230957,4147.692383,4142.563965,4154.871582,4150.769043,4146.666504,747.000000,4.000000,,,,0.000000,4.000000,4.000000,4.000000,4.000000,4.000000,4.000000,4.000000,4.000000,4.000000,4.000000,4.000000,4.000000,4.000000,4.000000,100.000000
1602006260.422450,102.000000,0.000000,4142.051270,4124.102539,4128.205078,4128.717773,4124.615234,4129.230957,4126.153809,4133.846191,4124.615234,4153.333496,4135.897461,4146.153809,4153.846191,4140.000000,871.000000,4.000000,,,,0.000000,4.000000,4.000000,4.000000,4.000000,4.000000,4.000000,4.000000,4.000000,4.000000,4.000000,4.000000,4.000000,4.000000,4.000000,100.000000
1602006260.430332,103.000000,0.000000,4140.000000,4120.512695,4124.102539,4124.615234,4125.641113,4132.307617,4129.230957,4125.128418,4121.025879,4147.179688,4136.410156,4130.769043,4140.000000,4140.512695,843.000000,4.000000,,,,0.000000,4.000000,4.000000,4.000000,4.000000,4.000000,4.000000,4.000000,4.000000,4.000000,4.000000,4.000000,4.000000,4.000000,4.000000,100.000000
1602006260.438113,104.000000,0.000000,4133.333496,4118.974121,4124.102539,4123.077148,4126.666504,4138.461426,4135.384766,4122.051270,4120.000000,4127.692383,4131.282227,4126.666504,4131.794922,4138.974121,775.000000,4.000000,,,,0.000000,4.000000,4.000000,4.000000,4.000000,4.000000,4.000000,4.000000,4.000000,4.000000,4.000000,4.000000,4.000000,4.000000,4.000000,100.000000
1602006260.445993,105.000000,0.000000,4138.974121,4119.487305,4123.077148,4123.589844,4127.692383,4138.461426,4139.487305,4125.641113,4124.102539,4128.717773,4122.563965,4127.179688,4141.025879,4137.948730,747.000000,4.000000,,,,0.000000,4.000000,4.000000,4.000000,4.000000,4.000000,4.000000,4.000000,4.000000,4.000000,4.000000,4.000000,4.000000,4.000000,4.000000,100.000000
1602006260.453975,106.000000,0.000000,4139.487305,4114.358887,4120.000000,4124.615234,4126.666504,4135.897461,4138.974121,4124.615234,4125.641113,4130.769043,4127.179688,4124.615234,4140.512695,4141.025879,871.000000,4.000000,,,,0.000000,4.000000,4.000000,4.000000,4.000000,4.000000,4.000000,4.000000,4.000000,4.000000,4.000000,4.000000,4.000000,4.000000,4.000000,100.000000
1602006260.461856,107.000000,0.000000,4124.102539,4108.205078,4117.436035,4122.051270,4123.589844,4135.897461,4138.974121,4122.563965,4116.922852,4123.077148,4133.846191,4124.615234,4132.820313,4142.051270,843.000000,4.000000,,,,0.000000,4.000000,4.000000,4.000000,4.000000,4.000000,4.000000,4.000000,4.000000,4.000000,4.000000,4.000000,4.000000,4.000000,4.000000,100.000000
1602006260.469737,108.000000,0.000000,4122.051270,4112.820313,4116.922852,4122.563965,4123.077148,4136.922852,4137.948730,4129.743652,4113.333496,4128.717773,4127.692383,4131.794922,4132.307617,4138.974121,775.000000,4.000000,,,,0.000000,4.000000,4.000000,4.000000,4.000000,4.000000,4.000000,4.000000,4.000000,4.000000,4.000000,4.000000,4.000000,4.000000,4.000000,100.000000
1602006260.477618,109.000000,0.000000,4138.461426,4121.025879,4123.077148,4123.589844,4130.769043,4140.000000,4137.436035,4141.025879,4128.717773,4151.794922,4126.153809,4136.922852,4136.410156,4139.487305,747.000000,4.000000,,,,0.000000,4.000000,4.000000,4.000000,4.000000,4.000000,4.000000,4.000000,4.000000,4.000000,4.000000,4.000000,4.000000,4.000000,4.000000,100.000000
1602006260.485400,110.000000,0.000000,4149.230957,4122.563965,4133.846191,4121.025879,4139.487305,4137.436035,4135.384766,4146.666504,4147.692383,4160.512695,4141.025879,4144.615234,4146.153809,4150.769043,871.000000,4.000000,,,,0.000000,4.000000,4.000000,4.000000,4.000000,4.000000,4.000000,4.000000,4.000000,4.000000,4.000000,4.000000,4.000000,4.000000,4.000000,100.000000
1602006260.493281,111.000000,0.000000,4149.743652,4121.538574,4138.974121,4125.128418,4134.358887,4123.589844,4124.102539,4141.025879,4144.102539,4146.666504,4144.615234,4149.230957,4157.436035,4161.538574,843.000000,4.000000,,,,0.000000,4.000000,4.000000,4.000000,4.000000,4.000000,4.000000,4.000000,4.000000,4.000000,4.000000,4.000000,4.000000,4.000000,4.000000,100.000000
1602006260.501163,112.000000,0.000000,4152.820313,4130.769043,4138.974121,4138.461426,4127.692383,4116.410156,4115.897461,4129.230957,4125.641113,4139.487305,4133.846191,4146.153809,4155.897461,4161.025879,775.000000,4.000000,,,,0.000000,4.000000,4.000000,4.000000,4.000000,4.000000,4.000000,4.000000,4.000000,4.000000,4.000000,4.000000,4.000000,4.000000,4.000000,100.000000
1602006260.509045,113.000000,0.000000,4153.333496,4137.436035,4136.410156,4142.563965,4133.333496,4127.692383,4121.025879,4123.077148,4120.000000,4135.897461,4139.487305,4141.538574,4143.589844,4152.307617,747.000000,4.000000,,,,0.000000,4.000000,4.000000,4.000000,4.000000,4.000000,4.000000,4.000000,4.000000,4.000000,4.000000,4.000000,4.000000,4.000000,4.000000,100.000000
1602006260.516926,114.000000,0.000000,4142.563965,4129.230957,4128.717773,4133.846191,4140.000000,4140.000000,4128.205078,4122.051270,4120.512695,4118.974121,4144.615234,4138.974121,4131.794922,4143.589844,871.000000,4.000000,,,,0.000000,4.000000,4.000000,4.000000,4.000000,4.000000,4.000000,4.000000,4.000000,4.000000,4.000000,4.000000,4.000000,4.000000,4.000000,100.000000
1602006260.524808,115.000000,0.000000,4135.897461,4120.512695,4124.102539,4132.307617,4132.820313,4140.000000,4127.179688,4120.000000,4115.384766,4118.461426,4134.358887,4137.436035,4123.589844,4137.436035,843.000000,4.000000,,,,0.000000,4.000000,4.000000,4.000000,4.000000,4.000000,4.000000,4.000000,4.000000,4.000000,4.000000,4.000000,4.000000,4.000000,4.000000,100.000000
1602006260.532690,116.000000,0.000000,4136.922852,4122.051270,4125.641113,4135.897461,4128.717773,4136.922852,4129.743652,4122.563965,4121.025879,4141.538574,4131.282227,4136.410156,4126.153809,4136.922852,775.000000,4.000000,,,,0.000000,4.000000,4.000000,4.000000,4.000000,4.000000,4.000000,4.000000,4.000000,4.000000,4.000000,4.000000,4.000000,4.000000,4.000000,100.000000
1602006260.540571,117.000000,0.000000,4134.871582,4123.589844,4123.077148,4130.256348,4133.846191,4137.436035,4140.512695,4134.358887,4135.897461,4150.769043,4135.897461,4135.384766,4135.897461,4141.538574,747.000000,4.000000,,,,0.000000,4.000000,4.000000,4.000000,4.000000,4.000000,4.000000,4.000000,4.000000,4.000000,4.000000,4.000000,4.000000,4.000000,4.000000,100.000000
1602006260.548553,118.000000,0.000000,4138.974121,4122.563965,4123.589844,4124.102539,4137.436035,4140.512695,4151.794922,4147.692383,4142.051270,4143.589844,4136.922852,4138.974121,4141.025879,4149.743652,871.000000,4.000000,,,,0.000000,4.000000,4.000000,4.000000,4.000000,4.000000,4.000000,4.000000,4.000000,4.000000,4.000000,4.000000,4.000000,4.000000,4.000000,100.000000
1602006260.556434,119.000000,0.000000,4153.333496,4125.128418,4135.897461,4125.641113,4138.461426,4141.025879,4152.820313,4154.871582,4146.666504,4145.128418,4136.922852,4150.769043,4144.615234,4160.000000,843.000000,4.000000,,,,0.000000,4.000000,4.000000,4.000000,4.000000,4.000000,4.000000,4.000000,4.000000,4.000000,4.000000,4.000000,4.000000,4.000000,4.000000,100.000000
1602006260.564316,120.000000,0.000000,4156.410156,4128.205078,4142.563965,4126.666504,4132.820313,4133.333496,4144.615234,4152.307617,4152.307617,4149.743652,4137.948730,4158.974121,4151.282227,4166.153809,775.000000,4.000000,,,,0.000000,4.000000,4.000000,4.000000,4.000000,4.000000,4.000000,4.000000,4.000000,4.000000,4.000000,4.000000,4.000000,4.000000,4.000000,100.000000
1602006260.572198,121.000000,0.000000,4153.333496,4128.717773,4140.512695,4125.128418,4125.641113,4123.589844,4135.897461,4144.102539,4145.128418,4149.743652,4138.974121,4152.307617,4153.846191,4165.128418,747.000000,4.000000,,,,0.000000,4.000000,4.000000,4.000000,4.000000,4.000000,4.000000,4.000000,4.000000,4.000000,4.000000,4.000000,4.000000,4.000000,4.000000,100.000000
1602006260.580079,122.000000,0.000000,4158.974121,4129.230957,4139.487305,4126.666504,4123.589844,4122.051270,4128.717773,4139.487305,4133.846191,4155.897461,4140.000000,4141.538574,4147.179688,4154.358887,871.000000,4.000000,,,,0.000000,4.000000,4.000000,4.000000,4.000000,4.000000,4.000000,4.000000,4.000000,4.000000,4.000000,4.000000,4.000000,4.000000,4.000000,100.000000
1602006260.587961,123.000000,0.000000,4150.769043,4124.102539,4133.846191,4124.102539,4122.051270,4124.615234,4122.051270,4133.333496,4129.230957,4156.410156,4132.307617,4138.461426,4135.384766,4135.897461,843.000000,4.000000,,,,0.000000,4.000000,4.000000,4.000000,4.000000,4.000000,4.000000,4.000000,4.000000,4.000000,4.000000,4.000000,4.000000,4.000000,4.000000,100.000000
1602006260.595843,124.000000,0.000000,4136.410156,4114.871582,4123.589844,4115.897461,4118.974121,4130.769043,4122.051270,4118.974121,4120.000000,4132.307617,4121.538574,4133.846191,4123.077148,4133.333496,775.000000,4.000000,,,,0.000000,4.000000,4.000000,4.000000,4.000000,4.000000,4.000000,4.000000,4.000000,4.000000,4.000000,4.000000,4.000000,4.000000,4.000000,100.000000
1602006260.603724,125.000000,0.000000,4137.436035,4107.692383,4117.436035,4106.666504,4118.461426,4138.974121,4126.666504,4114.358887,4104.615234,4108.205078,4120.000000,4124.615234,4118.974121,4146.153809,747.000000,4.000000,,,,0.000000,4.000000,4.000000,4.000000,4.000000,4.000000,4.000000,4.000000,4.000000,4.000000,4.000000,4.000000,4.000000,4.000000,4.000000,100.000000
1602006260.611506,126.000000,0.000000,4132.820313,4107.692383,4117.436035,4103.589844,4121.025879,4139.487305,4124.615234,4120.512695,4095.384521,4111.794922,4124.615234,4124.615234,4122.051270,4145.641113,871.000000,4.000000,,,,0.000000,4.000000,4.000000,4.000000,4.000000,4.000000,4.000000,4.000000,4.000000,4.000000,4.000000,4.000000,4.000000,4.000000,4.000000,100.000000
1602006260.619388,127.000000,0.000000,4126.153809,4115.897461,4120.512695,4114.871582,4129.230957,4136.410156,4122.563965,4122.563965,4100.000000,4123.077148,4128.717773,4140.000000,4124.615234,4135.897461,843.000000,4.000000,,,,0.000000,4.000000,4.000000,4.000000,4.000000,4.000000,4.000000,4.000000,4.000000,4.000000,4.000000,4.000000,4.000000,4.000000,4.000000,100.000000
1602006260.627269,128.000000,0.000000,4142.563965,4125.641113,4126.153809,4126.666504,4136.410156,4132.820313,4127.692383,4123.077148,4115.384766,4121.538574,4129.230957,4153.846191,4130.256348,4140.000000,775.000000,4.000000,,,,0.000000,4.000000,4.000000,4.000000,4.000000,4.000000,4.000000,4.000000,4.000000,4.000000,4.000000,4.000000,4.000000,4.000000,4.000000,100.000000
1602006260.635151,0.000000,0.000000,4157.948730,4127.692383,4123.589844,4125.128418,4136.410156,4129.743652,4133.846191,4128.717773,4124.615234,4120.000000,4124.615234,4152.820313,4135.897461,4146.153809,795.000000,4.000000,,,,0.000000,4.000000,4.000000,4.000000,4.000000,4.000000,4.000000,4.000000,4.000000,4.000000,4.000000,4.000000,4.000000,4.000000,4.000000,100.000000
1602006260.643033,1.000000,0.000000,4146.666504,4124.615234,4110.256348,4122.563965,4136.922852,4130.256348,4136.410156,4136.922852,4131.282227,4116.410156,4122.563965,4144.102539,4136.922852,4144.102539,793.000000,4.000000,,,,0.000000,4.000000,4.000000,4.000000,4.000000,4.000000,4.000000,4.000000,4.000000,4.000000,4.000000,4.000000,4.000000,4.000000,4.000000,100.000000
1602006260.650914,2.000000,0.000000,4133.333496,4121.538574,4103.077148,4125.128418,4136.410156,4135.897461,4135.897461,4141.025879,4135.897461,4110.256348,4127.692383,4137.948730,4135.384766,4140.512695,857.000000,4.000000,,,,0.000000,4.000000,4.000000,4.000000,4.000000,4.000000,4.000000,4.000000,4.000000,4.000000,4.000000,4.000000,4.000000,4.000000,4.000000,100.000000
1602006260.658796,3.000000,0.000000,4136.410156,4121.025879,4113.333496,4122.563965,4128.205078,4137.436035,4134.358887,4140.000000,4130.256348,4118.461426,4126.666504,4137.436035,4126.153809,4134.871582,866.000000,4.000000,,,,0.000000,4.000000,4.000000,4.000000,4.000000,4.000000,4.000000,4.000000,4.000000,4.000000,4.000000,4.000000,4.000000,4.000000,4.000000,100.000000
1602006260.666678,4.000000,0.000000,4142.563965,4122.051270,4124.615234,4119.487305,4122.563965,4131.794922,4136.410156,4136.922852,4125.128418,4135.897461,4121.538574,4143.589844,4115.384766,4136.410156,815.000000,4.000000,,,,0.000000,4.000000,4.000000,4.000000,4.000000,4.000000,4.000000,4.000000,4.000000,4.000000,4.000000,4.000000,4.000000,4.000000,4.000000,100.000000
1602006260.674559,5.000000,0.000000,4138.461426,4117.436035,4123.589844,4121.025879,4122.563965,4132.307617,4137.948730,4135.897461,4124.615234,4139.487305,4126.666504,4151.794922,4126.153809,4144.102539,824.000000,4.000000,,,,0.000000,4.000000,4.000000,4.000000,4.000000,4.000000,4.000000,4.000000,4.000000,4.000000,4.000000,4.000000,4.000000,4.000000,4.000000,100.000000
1602006260.682341,6.000000,0.000000,4127.692383,4107.179688,4120.000000,4116.922852,4123.077148,4135.897461,4131.282227,4134.871582,4129.743652,4128.717773,4136.410156,4155.384766,4139.487305,4140.000000,763.000000,4.000000,,,,0.000000,4.000000,4.000000,4.000000,4.000000,4.000000,4.000000,4.000000,4.000000,4.000000,4.000000,4.000000,4.000000,4.000000,4.000000,100.000000
1602006260.690222,7.000000,0.000000,4125.641113,4107.179688,4115.897461,4109.230957,4124.615234,4133.333496,4124.102539,4132.820313,4141.538574,4117.948730,4131.282227,4151.794922,4132.820313,4138.461426,672.000000,4.000000,,,,0.000000,4.000000,4.000000,4.000000,4.000000,4.000000,4.000000,4.000000,4.000000,4.000000,4.000000,4.000000,4.000000,4.000000,4.000000,100.000000
1602006260.698103,8.000000,0.000000,4124.102539,4107.179688,4108.205078,4103.589844,4125.128418,4125.641113,4118.974121,4127.692383,4141.538574,4118.974121,4118.461426,4145.641113,4128.717773,4138.461426,793.000000,4.000000,,,,0.000000,4.000000,4.000000,4.000000,4.000000,4.000000,4.000000,4.000000,4.000000,4.000000,4.000000,4.000000,4.000000,4.000000,4.000000,100.000000
1602006260.705985,9.000000,0.000000,4116.922852,4104.615234,4103.077148,4106.666504,4131.282227,4125.128418,4116.410156,4122.563965,4129.743652,4125.128418,4123.077148,4139.487305,4138.461426,4125.641113,838.000000,4.000000,,,,0.000000,4.000000,4.000000,4.000000,4.000000,4.000000,4.000000,4.000000,4.000000,4.000000,4.000000,4.000000,4.000000,4.000000,4.000000,100.000000
1602006260.713866,10.000000,0.000000,4123.589844,4114.358887,4108.717773,4117.436035,4134.358887,4123.589844,4117.948730,4122.563965,4133.333496,4117.436035,4137.436035,4141.538574,4141.025879,4123.589844,871.000000,4.000000,,,,0.000000,4.000000,4.000000,4.000000,4.000000,4.000000,4.000000,4.000000,4.000000,4.000000,4.000000,4.000000,4.000000,4.000000,4.000000,100.000000
1602006260.721848,11.000000,0.000000,4146.153809,4127.179688,4120.000000,4126.153809,4125.641113,4111.282227,4117.948730,4123.077148,4138.461426,4108.205078,4139.487305,4152.307617,4135.897461,4144.102539,843.000000,4.000000,,,,0.000000,4.000000,4.000000,4.000000,4.000000,4.000000,4.000000,4.000000,4.000000,4.000000,4.000000,4.000000,4.000000,4.000000,4.000000,100.000000
1602006260.729729,12.000000,0.000000,4156.410156,4128.205078,4126.666504,4135.897461,4123.589844,4104.615234,4113.333496,4118.974121,4125.641113,4115.384766,4135.384766,4159.487305,4137.948730,4157.948730,773.000000,4.000000,,,,0.000000,4.000000,4.000000,4.000000,4.000000,4.000000,4.000000,4.000000,4.000000,4.000000,4.000000,4.000000,4.000000,4.000000,4.000000,100.000000
1602006260.737611,13.000000,0.000000,4150.256348,4127.179688,4129.230957,4138.461426,4129.230957,4107.692383,4110.769043,4112.820313,4117.436035,4124.102539,4136.922852,4160.000000,4140.000000,4153.333496,746.000000,4.000000,,,,0.000000,4.000000,4.000000,4.000000,4.000000,4.000000,4.000000,4.000000,4.000000,4.000000,4.000000,4.000000,4.000000,4.000000,4.000000,100.000000
1602006260.745493,14.000000,0.000000,4144.615234,4127.692383,4126.666504,4128.205078,4129.743652,4112.307617,4110.256348,4111.282227,4118.974121,4119.487305,4137.436035,4156.922852,4136.922852,4143.589844,871.000000,4.000000,,,,0.000000,4.000000,4.000000,4.000000,4.000000,4.000000,4.000000,4.000000,4.000000,4.000000,4.000000,4.000000,4.000000,4.000000,4.000000,100.000000
1602006260.753374,15.000000,0.000000,4141.538574,4119.487305,4116.922852,4121.025879,4130.256348,4116.922852,4113.333496,4115.897461,4119.487305,4116.410156,4130.256348,4149.230957,4138.461426,4140.512695,843.000000,4.000000,,,,0.000000,4.000000,4.000000,4.000000,4.000000,4.000000,4.000000,4.000000,4.000000,4.000000,4.000000,4.000000,4.000000,4.000000,4.000000,100.000000
1602006260.761256,16.000000,0.000000,4131.282227,4110.769043,4114.358887,4120.000000,4129.230957,4124.615234,4126.666504,4128.205078,4124.615234,4120.000000,4121.025879,4144.102539,4137.436035,4140.000000,0.000000,4.000000,,,,0.000000,4.000000,4.000000,4.000000,4.000000,4.000000,4.000000,4.000000,4.000000,4.000000,4.000000,4.000000,4.000000,4.000000,4.000000,100.000000
1602006260.769138,17.000000,0.000000,4121.538574,4107.179688,4116.922852,4112.820313,4122.563965,4130.769043,4139.487305,4137.948730,4135.384766,4124.102539,4117.948730,4141.538574,4129.230957,4125.641113,0.000000,4.000000,,,,0.000000,4.000000,4.000000,4.000000,4.000000,4.000000,4.000000,4.000000,4.000000,4.000000,4.000000,4.000000,4.000000,4.000000,4.000000,100.000000
1602006260.777019,18.000000,0.000000,4123.589844,4106.666504,4113.846191,4110.769043,4122.051270,4133.333496,4136.922852,4135.384766,4140.000000,4124.102539,4121.538574,4138.974121,4120.512695,4115.384766,0.000000,4.000000,,,,0.000000,4.000000,4.000000,4.000000,4.000000,4.000000,4.000000,4.000000,4.000000,4.000000,4.000000,4.000000,4.000000,4.000000,4.000000,100.000000
1602006260.784901,19.000000,0.000000,4136.410156,4113.846191,4113.333496,4120.000000,4125.641113,4136.410156,4126.666504,4127.692383,4134.871582,4107.692383,4124.615234,4141.025879,4122.563965,4130.769043,0.000000,4.000000,,,,0.000000,4.000000,4.000000,4.000000,4.000000,4.000000,4.000000,4.000000,4.000000,4.000000,4.000000,4.000000,4.000000,4.000000,4.000000,100.000000
1602006260.792882,20.000000,0.000000,4148.205078,4123.077148,4122.051270,4129.743652,4124.102539,4138.461426,4124.615234,4122.563965,4132.307617,4102.563965,4131.282227,4149.743652,4134.358887,4144.102539,0.000000,4.000000,,,,0.000000,4.000000,4.000000,4.000000,4.000000,4.000000,4.000000,4.000000,4.000000,4.000000,4.000000,4.000000,4.000000,4.000000,4.000000,100.000000
1602006260.800763,21.000000,0.000000,4152.820313,4125.641113,4130.256348,4135.897461,4126.666504,4137.436035,4122.563965,4122.563965,4140.000000,4132.307617,4143.589844,4161.025879,4144.615234,4146.666504,0.000000,4.000000,,,,0.000000,4.000000,4.000000,4.000000,4.000000,4.000000,4.000000,4.000000,4.000000,4.000000,4.000000,4.000000,4.000000,4.000000,4.000000,100.000000
1602006260.808644,22.000000,0.000000,4155.897461,4124.615234,4134.358887,4132.307617,4135.384766,4135.384766,4113.846191,4131.282227,4147.179688,4152.307617,4144.615234,4171.282227,4152.307617,4155.384766,0.000000,4.000000,,,,0.000000,4.000000,4.000000,4.000000,4.000000,4.000000,4.000000,4.000000,4.000000,4.000000,4.000000,4.000000,4.000000,4.000000,4.000000,100.000000
1602006260.816526,23.000000,0.000000,4151.282227,4125.128418,4135.897461,4124.615234,4136.410156,4135.897461,4112.307617,4137.436035,4141.025879,4135.897461,4136.922852,4174.358887,4154.871582,4159.487305,0.000000,4.000000,,,,0.000000,4.000000,4.000000,4.000000,4.000000,4.000000,4.000000,4.000000,4.000000,4.000000,4.000000,4.000000,4.000000,4.000000,4.000000,100.000000
1602006260.824407,24.000000,0.000000,4144.615234,4124.102539,4140.000000,4123.077148,4136.410156,4139.487305,4122.563965,4132.820313,4133.846191,4122.563965,4141.025879,4173.846191,4147.692383,4152.307617,0.000000,4.000000,,,,0.000000,4.000000,4.000000,4.000000,4.000000,4.000000,4.000000,4.000000,4.000000,4.000000,4.000000,4.000000,4.000000,4.000000,4.000000,100.000000
1602006260.832388,25.000000,0.000000,4143.589844,4123.589844,4146.666504,4122.051270,4138.461426,4141.025879,4129.743652,4127.179688,4138.461426,4128.205078,4138.461426,4172.820313,4138.461426,4151.794922,0.000000,4.000000,,,,0.000000,4.000000,4.000000,4.000000,4.000000,4.000000,4.000000,4.000000,4.000000,4.000000,4.000000,4.000000,4.000000,4.000000,4.000000,100.000000
1602006260.840270,26.000000,0.000000,4144.615234,4123.077148,4142.051270,4120.512695,4134.358887,4133.846191,4126.153809,4126.666504,4144.102539,4123.589844,4123.077148,4163.077148,4133.333496,4157.436035,0.000000,4.000000,,,,0.000000,4.000000,4.000000,4.000000,4.000000,4.000000,4.000000,4.000000,4.000000,4.000000,4.000000,4.000000,4.000000,4.000000,4.000000,100.000000
1602006260.848151,27.000000,0.000000,4139.487305,4118.974121,4134.358887,4122.051270,4129.743652,4128.205078,4126.153809,4124.102539,4144.615234,4115.897461,4127.692383,4153.333496,4135.384766,4148.717773,0.000000,4.000000,,,,0.000000,4.000000,4.000000,4.000000,4.000000,4.000000,4.000000,4.000000,4.000000,4.000000,4.000000,4.000000,4.000000,4.000000,4.000000,100.000000
1602006260.856033,28.000000,0.000000,4133.846191,4118.461426,4135.384766,4120.000000,4133.333496,4131.794922,4132.307617,4123.077148,4145.128418,4131.282227,4140.512695,4153.846191,4138.974121,4135.897461,0.000000,4.000000,,,,0.000000,4.000000,4.000000,4.000000,4.000000,4.000000,4.000000,4.000000,4.000000,4.000000,4.000000,4.000000,4.000000,4.000000,4.000000,100.000000
1602006260.863915,29.000000,0.000000,4136.410156,4123.589844,4133.846191,4117.948730,4130.256348,4133.333496,4138.461426,4131.794922,4143.077148,4152.307617,4137.948730,4155.384766,4140.512695,4146.153809,0.000000,4.000000,,,,0.000000,4.000000,4.000000,4.000000,4.000000,4.000000,4.000000,4.000000,4.000000,4.000000,4.000000,4.000000,4.000000,4.000000,4.000000,100.000000
1602006260.871796,30.000000,0.000000,4139.487305,4122.563965,4127.692383,4121.538574,4122.051270,4125.641113,4136.410156,4134.358887,4133.846191,4147.692383,4135.897461,4152.820313,4137.948730,4155.384766,0.000000,4.000000,,,,0.000000,4.000000,4.000000,4.000000,4.000000,4.000000,4.000000,4.000000,4.000000,4.000000,4.000000,4.000000,4.000000,4.000000,4.000000,100.000000
1602006260.879678,31.000000,0.000000,4140.000000,4113.846191,4122.563965,4123.077148,4120.000000,4114.871582,4128.717773,4125.128418,4118.974121,4124.615234,4131.282227,4148.717773,4131.794922,4141.538574,0.000000,4.000000,,,,0.000000,4.000000,4.000000,4.000000,4.000000,4.000000,4.000000,4.000000,4.000000,4.000000,4.000000,4.000000,4.000000,4.000000,4.000000,100.000000
1602006260.887560,32.000000,0.000000,4131.794922,4111.282227,4118.461426,4122.563965,4121.538574,4113.846191,4122.563965,4122.563965,4107.692383,4108.205078,4123.589844,4143.589844,4126.153809,4137.436035,0.000000,4.000000,,,,0.000000,4.000000,4.000000,4.000000,4.000000,4.000000,4.000000,4.000000,4.000000,4.000000,4.000000,4.000000,4.000000,4.000000,4.000000,100.000000
1602006260.895341,33.000000,0.000000,4124.615234,4118.974121,4117.948730,4122.563965,4126.666504,4119.487305,4115.384766,4127.692383,4110.256348,4113.846191,4133.333496,4140.000000,4123.589844,4141.025879,0.000000,4.000000,,,,0.000000,4.000000,4.000000,4.000000,4.000000,4.000000,4.000000,4.000000,4.000000,4.000000,4.000000,4.000000,4.000000,4.000000,4.000000,100.000000
1602006260.903222,34.000000,0.000000,4132.307617,4122.563965,4120.512695,4123.589844,4135.897461,4122.563965,4106.153809,4125.641113,4120.000000,4128.205078,4138.974121,4140.512695,4127.179688,4126.153809,0.000000,4.000000,,,,0.000000,4.000000,4.000000,4.000000,4.000000,4.000000,4.000000,4.000000,4.000000,4.000000,4.000000,4.000000,4.000000,4.000000,4.000000,100.000000
1602006260.911103,35.000000,0.000000,4136.922852,4119.487305,4121.025879,4125.128418,4140.512695,4125.641113,4102.051270,4123.589844,4130.769043,4133.333496,4125.641113,4143.589844,4131.794922,4117.436035,0.000000,4.000000,,,,0.000000,4.000000,4.000000,4.000000,4.000000,4.000000,4.000000,4.000000,4.000000,4.000000,4.000000,4.000000,4.000000,4.000000,4.000000,100.000000
1602006260.918984,36.000000,0.000000,4134.871582,4122.563965,4125.128418,4124.102539,4140.000000,4134.871582,4111.282227,4133.846191,4145.641113,4141.025879,4132.307617,4152.820313,4136.410156,4136.410156,0.000000,4.000000,,,,0.000000,4.000000,4.000000,4.000000,4.000000,4.000000,4.000000,4.000000,4.000000,4.000000,4.000000,4.000000,4.000000,4.000000,4.000000,100.000000
1602006260.926866,37.000000,0.000000,4139.487305,4128.717773,4129.743652,4121.025879,4142.051270,4142.051270,4123.589844,4142.051270,4159.487305,4150.256348,4149.230957,4153.333496,4143.077148,4150.769043,0.000000,4.000000,,,,0.000000,4.000000,4.000000,4.000000,4.000000,4.000000,4.000000,4.000000,4.000000,4.000000,4.000000,4.000000,4.000000,4.000000,4.000000,100.000000
1602006260.934647,38.000000,0.000000,4144.102539,4126.666504,4126.153809,4120.512695,4140.512695,4140.000000,4129.743652,4135.384766,4156.410156,4145.128418,4138.461426,4139.487305,4144.615234,4142.051270,0.000000,4.000000,,,,0.000000,4.000000,4.000000,4.000000,4.000000,4.000000,4.000000,4.000000,4.000000,4.000000,4.000000,4.000000,4.000000,4.000000,4.000000,100.000000
1602006260.942529,39.000000,0.000000,4136.922852,4120.512695,4122.563965,4123.589844,4129.230957,4135.897461,4133.846191,4123.077148,4142.563965,4137.436035,4119.487305,4136.410156,4131.794922,4134.871582,0.000000,4.000000,,,,0.000000,4.000000,4.000000,4.000000,4.000000,4.000000,4.000000,4.000000,4.000000,4.000000,4.000000,4.000000,4.000000,4.000000,4.000000,100.000000
1602006260.950411,40.000000,0.000000,4129.743652,4118.974121,4122.563965,4122.563965,4126.153809,4136.922852,4140.512695,4124.615234,4141.538574,4147.179688,4121.025879,4147.692383,4124.615234,4136.922852,0.000000,4.000000,,,,0.000000,4.000000,4.000000,4.000000,4.000000,4.000000,4.000000,4.000000,4.000000,4.000000,4.000000,4.000000,4.000000,4.000000,4.000000,100.000000
1602006260.958292,41.000000,0.000000,4137.948730,4122.563965,4121.538574,4120.512695,4134.871582,4139.487305,4142.563965,4133.846191,4143.077148,4155.897461,4133.846191,4152.307617,4136.922852,4134.358887,0.000000,4.000000,,,,0.000000,4.000000,4.000000,4.000000,4.000000,4.000000,4.000000,4.000000,4.000000,4.000000,4.000000,4.000000,4.000000,4.000000,4.000000,100.000000
1602006260.966174,42.000000,0.000000,4150.769043,4124.615234,4126.153809,4127.692383,4136.922852,4130.256348,4134.871582,4132.307617,4134.358887,4149.743652,4140.512695,4150.769043,4144.615234,4139.487305,0.000000,4.000000,,,,0.000000,4.000000,4.000000,4.000000,4.000000,4.000000,4.000000,4.000000,4.000000,4.000000,4.000000,4.000000,4.000000,4.000000,4.000000,100.000000
1602006260.974056,43.000000,0.000000,4155.384766,4129.230957,4138.461426,4135.384766,4134.358887,4120.000000,4124.615234,4125.641113,4130.769043,4147.692383,4138.974121,4154.871582,4142.051270,4161.025879,0.000000,4.000000,,,,0.000000,4.000000,4.000000,4.000000,4.000000,4.000000,4.000000,4.000000,4.000000,4.000000,4.000000,4.000000,4.000000,4.000000,4.000000,100.000000
1602006260.981937,44.000000,0.000000,4154.358887,4137.436035,4144.615234,4137.948730,4137.436035,4122.563965,4115.897461,4126.666504,4135.384766,4147.692383,4134.871582,4157.436035,4145.128418,4163.589844,0.000000,4.000000,,,,0.000000,4.000000,4.000000,4.000000,4.000000,4.000000,4.000000,4.000000,4.000000,4.000000,4.000000,4.000000,4.000000,4.000000,4.000000,100.000000
1602006260.989819,45.000000,0.000000,4156.410156,4138.461426,4144.615234,4138.974121,4139.487305,4126.666504,4115.897461,4134.871582,4136.922852,4128.205078,4133.846191,4156.410156,4146.666504,4151.794922,0.000000,4.000000,,,,0.000000,4.000000,4.000000,4.000000,4.000000,4.000000,4.000000,4.000000,4.000000,4.000000,4.000000,4.000000,4.000000,4.000000,4.000000,100.000000
1602006260.997600,46.000000,0.000000,4160.512695,4136.922852,4144.615234,4132.307617,4136.410156,4126.666504,4120.000000,4137.436035,4142.051270,4119.487305,4136.922852,4155.897461,4142.563965,4160.512695,0.000000,4.000000,,,,0.000000,4.000000,4.000000,4.000000,4.000000,4.000000,4.000000,4.000000,4.000000,4.000000,4.000000,4.000000,4.000000,4.000000,4.000000,100.000000
1602006261.005482,47.000000,0.000000,4156.922852,4136.410156,4136.410156,4126.153809,4136.922852,4123.077148,4119.487305,4130.256348,4151.282227,4143.077148,4138.974121,4149.230957,4141.025879,4163.077148,0.000000,4.000000,,,,0.000000,4.000000,4.000000,4.000000,4.000000,4.000000,4.000000,4.000000,4.000000,4.000000,4.000000,4.000000,4.000000,4.000000,4.000000,100.000000
1602006261.013363,48.000000,0.000000,4151.794922,4136.922852,4124.102539,4134.871582,4134.871582,4125.128418,4122.563965,4128.717773,4148.205078,4157.436035,4138.461426,4145.128418,4138.461426,4150.256348,0.000000,4.000000,,,,0.000000,4.000000,4.000000,4.000000,4.000000,4.000000,4.000000,4.000000,4.000000,4.000000,4.000000,4.000000,4.000000,4.000000,4.000000,100.000000
1602006261.021245,49.000000,0.000000,4153.846191,4134.358887,4125.641113,4140.512695,4135.897461,4131.794922,4134.358887,4131.794922,4133.846191,4150.769043,4139.487305,4153.333496,4137.948730,4158.461426,0.000000,4.000000,,,,0.000000,4.000000,4.000000,4.000000,4.000000,4.000000,4.000000,4.000000,4.000000,4.000000,4.000000,4.000000,4.000000,4.000000,4.000000,100.000000
1602006261.029126,50.000000,0.000000,4151.794922,4127.692383,4130.256348,4128.205078,4136.410156,4127.692383,4140.000000,4127.179688,4121.538574,4136.410156,4137.948730,4157.436035,4142.051270,4160.512695,0.000000,4.000000,,,,0.000000,4.000000,4.000000,4.000000,4.000000,4.000000,4.000000,4.000000,4.000000,4.000000,4.000000,4.000000,4.000000,4.000000,4.000000,100.000000
1602006261.037007,51.000000,0.000000,4141.025879,4120.512695,4124.102539,4121.538574,4127.179688,4122.051270,4135.384766,4127.692383,4121.025879,4120.512695,4132.307617,4147.179688,4136.410156,4136.922852,0.000000,4.000000,,,,0.000000,4.000000,4.000000,4.000000,4.000000,4.000000,4.000000,4.000000,4.000000,4.000000,4.000000,4.000000,4.000000,4.000000,4.000000,100.000000
1602006261.044789,52.000000,0.000000,4134.871582,4120.000000,4120.000000,4126.666504,4126.666504,4131.794922,4137.436035,4138.461426,4133.846191,4127.692383,4132.307617,4140.000000,4130.769043,4137.948730,0.000000,4.000000,,,,0.000000,4.000000,4.000000,4.000000,4.000000,4.000000,4.000000,4.000000,4.000000,4.000000,4.000000,4.000000,4.000000,4.000000,4.000000,100.000000
1602006261.052671,53.000000,0.000000,4135.897461,4124.102539,4122.051270,4123.589844,4135.897461,4137.436035,4143.589844,4141.025879,4139.487305,4151.794922,4136.922852,4140.512695,4135.384766,4157.948730,0.000000,4.000000,,,,0.000000,4.000000,4.000000,4.000000,4.000000,4.000000,4.000000,4.000000,4.000000,4.000000,4.000000,4.000000,4.000000,4.000000,4.000000,100.000000
1602006261.060552,54.000000,0.000000,4137.436035,4123.589844,4120.512695,4117.948730,4134.358887,4131.794922,4135.897461,4136.922852,4130.769043,4153.333496,4140.000000,4140.512695,4138.461426,4156.922852,0.000000,4.000000,,,,0.000000,4.000000,4.000000,4.000000,4.000000,4.000000,4.000000,4.000000,4.000000,4.000000,4.000000,4.000000,4.000000,4.000000,4.000000,100.000000
1602006261.068434,55.000000,0.000000,4149.743652,4121.025879,4124.615234,4122.563965,4126.666504,4134.358887,4123.589844,4138.461426,4136.922852,4151.282227,4141.025879,4146.153809,4139.487305,4151.282227,0.000000,4.000000,,,,0.000000,4.000000,4.000000,4.000000,4.000000,4.000000,4.000000,4.000000,4.000000,4.000000,4.000000,4.000000,4.000000,4.000000,4.000000,100.000000
1602006261.076316,56.000000,0.000000,4167.179688,4126.666504,4138.461426,4126.153809,4127.179688,4136.922852,4121.538574,4135.897461,4142.563965,4156.410156,4141.025879,4155.384766,4144.102539,4158.461426,0.000000,4.000000,,,,0.000000,4.000000,4.000000,4.000000,4.000000,4.000000,4.000000,4.000000,4.000000,4.000000,4.000000,4.000000,4.000000,4.000000,4.000000,100.000000
1602006261.084197,57.000000,0.000000,4166.153809,4137.436035,4149.230957,4128.717773,4126.666504,4118.461426,4118.974121,4126.666504,4127.179688,4131.794922,4140.000000,4155.384766,4140.512695,4157.948730,0.000000,4.000000,,,,0.000000,4.000000,4.000000,4.000000,4.000000,4.000000,4.000000,4.000000,4.000000,4.000000,4.000000,4.000000,4.000000,4.000000,4.000000,100.000000
1602006261.092079,58.000000,0.000000,4161.025879,4138.974121,4153.846191,4135.384766,4117.948730,4101.025879,4105.641113,4124.615234,4122.051270,4116.922852,4139.487305,4151.282227,4139.487305,4155.897461,0.000000,4.000000,,,,0.000000,4.000000,4.000000,4.000000,4.000000,4.000000,4.000000,4.000000,4.000000,4.000000,4.000000,4.000000,4.000000,4.000000,4.000000,100.000000
1602006261.099961,59.000000,0.000000,4165.641113,4129.230957,4155.897461,4132.820313,4122.051270,4108.717773,4108.717773,4132.307617,4134.871582,4141.538574,4137.948730,4160.000000,4148.717773,4163.077148,0.000000,4.000000,,,,0.000000,4.000000,4.000000,4.000000,4.000000,4.000000,4.000000,4.000000,4.000000,4.000000,4.000000,4.000000,4.000000,4.000000,4.000000,100.000000
1602006261.107942,60.000000,0.000000,4162.563965,4124.615234,4150.256348,4122.051270,4136.922852,4123.077148,4131.794922,4141.025879,4138.461426,4150.256348,4137.948730,4162.051270,4149.743652,4162.563965,0.000000,4.000000,,,,0.000000,4.000000,4.000000,4.000000,4.000000,4.000000,4.000000,4.000000,4.000000,4.000000,4.000000,4.000000,4.000000,4.000000,4.000000,100.000000
1602006261.115823,61.000000,0.000000,4145.128418,4124.102539,4136.410156,4120.512695,4140.512695,4130.769043,4143.589844,4143.077148,4137.948730,4130.769043,4141.025879,4145.128418,4132.820313,4149.230957,0.000000,4.000000,,,,0.000000,4.000000,4.000000,4.000000,4.000000,4.000000,4.000000,4.000000,4.000000,4.000000,4.000000,4.000000,4.000000,4.000000,4.000000,100.000000
1602006261.123705,62.000000,0.000000,4131.794922,4113.846191,4121.538574,4119.487305,4134.358887,4134.871582,4141.025879,4142.051270,4134.358887,4123.589844,4129.230957,4130.769043,4115.897461,4132.820313,0.000000,4.000000,,,,0.000000,4.000000,4.000000,4.000000,4.000000,4.000000,4.000000,4.000000,4.000000,4.000000,4.000000,4.000000,4.000000,4.000000,4.000000,100.000000
1602006261.131586,63.000000,0.000000,4131.282227,4106.153809,4117.948730,4109.230957,4134.871582,4136.922852,4140.512695,4138.461426,4123.077148,4120.512695,4113.846191,4134.358887,4112.307617,4131.794922,0.000000,4.000000,,,,0.000000,4.000000,4.000000,4.000000,4.000000,4.000000,4.000000,4.000000,4.000000,4.000000,4.000000,4.000000,4.000000,4.000000,4.000000,100.000000
1602006261.139468,64.000000,0.000000,4139.487305,4113.333496,4128.717773,4112.307617,4137.948730,4139.487305,4142.563965,4139.487305,4132.820313,4120.512695,4124.615234,4146.666504,4122.563965,4149.230957,795.000000,4.000000,,,,0.000000,4.000000,4.000000,4.000000,4.000000,4.000000,4.000000,4.000000,4.000000,4.000000,4.000000,4.000000,4.000000,4.000000,4.000000,100.000000
1602006261.147449,65.000000,0.000000,4145.641113,4121.025879,4136.410156,4121.538574,4135.384766,4137.436035,4136.922852,4143.077148,4147.692383,4142.563965,4142.563965,4152.307617,4135.384766,4156.922852,793.000000,4.000000,,,,0.000000,4.000000,4.000000,4.000000,4.000000,4.000000,4.000000,4.000000,4.000000,4.000000,4.000000,4.000000,4.000000,4.000000,4.000000,100.000000
1602006261.155331,66.000000,0.000000,4149.743652,4125.641113,4142.563965,4124.102539,4135.384766,4126.666504,4124.102539,4135.384766,4128.717773,4159.487305,4141.025879,4157.436035,4142.051270,4151.794922,857.000000,4.000000,,,,0.000000,4.000000,4.000000,4.000000,4.000000,4.000000,4.000000,4.000000,4.000000,4.000000,4.000000,4.000000,4.000000,4.000000,4.000000,100.000000
1602006261.163212,67.000000,0.000000,4164.102539,4136.922852,4156.922852,4129.230957,4136.922852,4118.974121,4116.410156,4123.077148,4108.717773,4153.333496,4133.333496,4167.179688,4147.692383,4162.051270,866.000000,4.000000,,,,0.000000,4.000000,4.000000,4.000000,4.000000,4.000000,4.000000,4.000000,4.000000,4.000000,4.000000,4.000000,4.000000,4.000000,4.000000,100.000000
1602006261.171094,68.000000,0.000000,4177.948730,4143.589844,4169.743652,4138.461426,4137.436035,4121.538574,4119.487305,4122.563965,4117.436035,4146.153809,4137.948730,4172.820313,4154.358887,4177.436035,815.000000,4.000000,,,,0.000000,4.000000,4.000000,4.000000,4.000000,4.000000,4.000000,4.000000,4.000000,4.000000,4.000000,4.000000,4.000000,4.000000,4.000000,100.000000
1602006261.178976,69.000000,0.000000,4175.897461,4141.538574,4168.205078,4143.589844,4133.846191,4121.538574,4123.077148,4132.307617,4133.333496,4142.563965,4153.846191,4172.820313,4151.794922,4172.820313,824.000000,4.000000,,,,0.000000,4.000000,4.000000,4.000000,4.000000,4.000000,4.000000,4.000000,4.000000,4.000000,4.000000,4.000000,4.000000,4.000000,4.000000,100.000000
1602006261.186857,70.000000,0.000000,4165.128418,4141.025879,4157.948730,4140.000000,4125.128418,4121.538574,4121.538574,4137.436035,4133.333496,4126.666504,4156.922852,4168.205078,4146.153809,4163.077148,763.000000,4.000000,,,,0.000000,4.000000,4.000000,4.000000,4.000000,4.000000,4.000000,4.000000,4.000000,4.000000,4.000000,4.000000,4.000000,4.000000,4.000000,100.000000
1602006261.194739,71.000000,0.000000,4156.410156,4135.384766,4146.666504,4131.794922,4122.051270,4124.102539,4126.153809,4142.051270,4130.769043,4115.897461,4142.563965,4159.487305,4141.025879,4162.051270,672.000000,4.000000,,,,0.000000,4.000000,4.000000,4.000000,4.000000,4.000000,4.000000,4.000000,4.000000,4.000000,4.000000,4.000000,4.000000,4.000000,4.000000,100.000000
1602006261.202621,72.000000,0.000000,4152.307617,4124.102539,4137.436035,4126.153809,4124.615234,4124.102539,4134.871582,4149.743652,4133.333496,4130.256348,4135.384766,4152.820313,4132.820313,4158.974121,790.000000,4.000000,,,,0.000000,4.000000,4.000000,4.000000,4.000000,4.000000,4.000000,4.000000,4.000000,4.000000,4.000000,4.000000,4.000000,4.000000,4.000000,100.000000
1602006261.210502,73.000000,0.000000,4151.794922,4121.538574,4136.410156,4124.102539,4124.615234,4124.615234,4138.461426,4149.230957,4124.102539,4146.666504,4127.692383,4150.256348,4121.538574,4146.666504,838.000000,4.000000,,,,0.000000,4.000000,4.000000,4.000000,4.000000,4.000000,4.000000,4.000000,4.000000,4.000000,4.000000,4.000000,4.000000,4.000000,4.000000,100.000000
1602006261.218483,74.000000,0.000000,4140.000000,4118.974121,4134.358887,4123.589844,4123.077148,4125.128418,4136.922852,4136.922852,4099.487305,4140.512695,4108.717773,4138.974121,4114.871582,4137.436035,871.000000,4.000000,,,,0.000000,4.000000,4.000000,4.000000,4.000000,4.000000,4.000000,4.000000,4.000000,4.000000,4.000000,4.000000,4.000000,4.000000,4.000000,100.000000
1602006261.226364,75.000000,0.000000,4122.051270,4113.846191,4126.666504,4118.974121,4129.230957,4128.717773,4136.922852,4123.589844,4092.820557,4119.487305,4108.205078,4123.077148,4107.692383,4133.333496,843.000000,4.000000,,,,0.000000,4.000000,4.000000,4.000000,4.000000,4.000000,4.000000,4.000000,4.000000,4.000000,4.000000,4.000000,4.000000,4.000000,4.000000,100.000000
1602006261.234146,76.000000,0.000000,4127.179688,4116.410156,4119.487305,4116.410156,4134.871582,4137.436035,4138.461426,4122.051270,4108.205078,4113.333496,4127.692383,4122.563965,4106.666504,4127.179688,773.000000,4.000000,,,,0.000000,4.000000,4.000000,4.000000,4.000000,4.000000,4.000000,4.000000,4.000000,4.000000,4.000000,4.000000,4.000000,4.000000,4.000000,100.000000
1602006261.242027,77.000000,0.000000,4139.487305,4121.538574,4120.000000,4115.384766,4130.256348,4136.922852,4139.487305,4130.256348,4109.230957,4116.922852,4130.256348,4131.794922,4116.410156,4129.743652,745.000000,4.000000,,,,0.000000,4.000000,4.000000,4.000000,4.000000,4.000000,4.000000,4.000000,4.000000,4.000000,4.000000,4.000000,4.000000,4.000000,4.000000,100.000000
1602006261.249909,78.000000,0.000000,4135.897461,4118.974121,4128.205078,4116.922852,4127.179688,4128.205078,4139.487305,4138.974121,4107.179688,4106.666504,4121.025879,4136.410156,4122.563965,4147.179688,871.000000,4.000000,,,,0.000000,4.000000,4.000000,4.000000,4.000000,4.000000,4.000000,4.000000,4.000000,4.000000,4.000000,4.000000,4.000000,4.000000,4.000000,100.000000
1602006261.257791,79.000000,0.000000,4134.358887,4120.512695,4136.922852,4120.512695,4130.256348,4123.589844,4137.948730,4140.000000,4123.077148,4104.102539,4120.512695,4140.512695,4122.563965,4153.333496,843.000000,4.000000,,,,0.000000,4.000000,4.000000,4.000000,4.000000,4.000000,4.000000,4.000000,4.000000,4.000000,4.000000,4.000000,4.000000,4.000000,4.000000,100.000000
1602006261.265672,80.000000,0.000000,4141.538574,4123.589844,4139.487305,4125.128418,4126.666504,4116.410156,4135.897461,4138.461426,4130.769043,4131.282227,4127.179688,4143.589844,4125.641113,4148.717773,773.000000,4.000000,,,,0.000000,4.000000,4.000000,4.000000,4.000000,4.000000,4.000000,4.000000,4.000000,4.000000,4.000000,4.000000,4.000000,4.000000,4.000000,100.000000
1602006261.273554,81.000000,0.000000,4140.000000,4123.077148,4138.461426,4126.666504,4118.461426,4107.179688,4135.897461,4140.000000,4120.000000,4148.717773,4133.333496,4142.051270,4127.179688,4150.769043,745.000000,4.000000,,,,0.000000,4.000000,4.000000,4.000000,4.000000,4.000000,4.000000,4.000000,4.000000,4.000000,4.000000,4.000000,4.000000,4.000000,4.000000,100.000000
1602006261.281436,82.000000,0.000000,4135.897461,4125.128418,4140.512695,4123.077148,4120.512695,4112.820313,4136.410156,4140.000000,4117.948730,4138.461426,4140.000000,4138.974121,4123.077148,4152.307617,871.000000,4.000000,,,,0.000000,4.000000,4.000000,4.000000,4.000000,4.000000,4.000000,4.000000,4.000000,4.000000,4.000000,4.000000,4.000000,4.000000,4.000000,100.000000
1602006261.289317,83.000000,0.000000,4140.000000,4125.128418,4138.974121,4121.538574,4124.102539,4123.589844,4130.769043,4139.487305,4128.717773,4133.846191,4142.563965,4142.563965,4119.487305,4152.820313,843.000000,4.000000,,,,0.000000,4.000000,4.000000,4.000000,4.000000,4.000000,4.000000,4.000000,4.000000,4.000000,4.000000,4.000000,4.000000,4.000000,4.000000,100.000000
1602006261.297099,84.000000,0.000000,4141.025879,4121.538574,4130.256348,4121.538574,4123.077148,4123.077148,4125.641113,4140.000000,4127.692383,4136.410156,4132.307617,4136.922852,4121.025879,4147.179688,773.000000,4.000000,,,,0.000000,4.000000,4.000000,4.000000,4.000000,4.000000,4.000000,4.000000,4.000000,4.000000,4.000000,4.000000,4.000000,4.000000,4.000000,100.000000
1602006261.304981,85.000000,0.000000,4138.974121,4121.538574,4123.589844,4122.051270,4124.102539,4124.102539,4131.794922,4138.461426,4123.077148,4129.230957,4121.025879,4123.077148,4123.589844,4130.769043,745.000000,4.000000,,,,0.000000,4.000000,4.000000,4.000000,4.000000,4.000000,4.000000,4.000000,4.000000,4.000000,4.000000,4.000000,4.000000,4.000000,4.000000,100.000000
1602006261.312862,86.000000,0.000000,4137.948730,4116.922852,4115.897461,4119.487305,4128.205078,4135.384766,4138.461426,4139.487305,4125.128418,4115.384766,4111.794922,4120.512695,4117.436035,4126.153809,871.000000,4.000000,,,,0.000000,4.000000,4.000000,4.000000,4.000000,4.000000,4.000000,4.000000,4.000000,4.000000,4.000000,4.000000,4.000000,4.000000,4.000000,100.000000
1602006261.320744,87.000000,0.000000,4130.256348,4107.692383,4106.666504,4107.179688,4127.692383,4138.974121,4135.897461,4141.538574,4121.025879,4106.666504,4106.153809,4121.025879,4104.102539,4136.410156,843.000000,4.000000,,,,0.000000,4.000000,4.000000,4.000000,4.000000,4.000000,4.000000,4.000000,4.000000,4.000000,4.000000,4.000000,4.000000,4.000000,4.000000,100.000000
1602006261.328625,88.000000,0.000000,4117.948730,4107.179688,4108.717773,4104.615234,4122.051270,4126.666504,4135.384766,4134.358887,4114.871582,4115.897461,4112.307617,4119.487305,4101.538574,4135.897461,773.000000,4.000000,,,,0.000000,4.000000,4.000000,4.000000,4.000000,4.000000,4.000000,4.000000,4.000000,4.000000,4.000000,4.000000,4.000000,4.000000,4.000000,100.000000
1602006261.336507,89.000000,0.000000,4122.563965,4117.436035,4126.153809,4123.077148,4127.179688,4118.974121,4141.025879,4130.769043,4120.512695,4136.922852,4121.025879,4129.230957,4111.794922,4134.358887,745.000000,4.000000,,,,0.000000,4.000000,4.000000,4.000000,4.000000,4.000000,4.000000,4.000000,4.000000,4.000000,4.000000,4.000000,4.000000,4.000000,4.000000,100.000000
1602006261.344389,90.000000,0.000000,4148.205078,4124.615234,4140.512695,4133.846191,4138.974121,4128.205078,4144.102539,4140.512695,4128.205078,4143.077148,4127.692383,4143.077148,4120.512695,4143.589844,871.000000,4.000000,,,,0.000000,4.000000,4.000000,4.000000,4.000000,4.000000,4.000000,4.000000,4.000000,4.000000,4.000000,4.000000,4.000000,4.000000,4.000000,100.000000
1602006261.352270,91.000000,0.000000,4162.563965,4127.179688,4142.563965,4124.615234,4138.974121,4131.794922,4142.051270,4140.000000,4125.641113,4135.384766,4134.358887,4142.051270,4124.615234,4144.102539,843.000000,4.000000,,,,0.000000,4.000000,4.000000,4.000000,4.000000,4.000000,4.000000,4.000000,4.000000,4.000000,4.000000,4.000000,4.000000,4.000000,4.000000,100.000000
1602006261.360252,92.000000,0.000000,4156.410156,4129.743652,4138.974121,4123.077148,4133.846191,4125.128418,4138.461426,4128.717773,4121.025879,4126.153809,4127.179688,4136.410156,4125.641113,4139.487305,773.000000,4.000000,,,,0.000000,4.000000,4.000000,4.000000,4.000000,4.000000,4.000000,4.000000,4.000000,4.000000,4.000000,4.000000,4.000000,4.000000,4.000000,100.000000
1602006261.368134,93.000000,0.000000,4149.743652,4129.230957,4136.922852,4129.743652,4137.436035,4129.230957,4138.461426,4130.769043,4120.000000,4113.846191,4108.205078,4137.436035,4122.051270,4144.615234,745.000000,4.000000,,,,0.000000,4.000000,4.000000,4.000000,4.000000,4.000000,4.000000,4.000000,4.000000,4.000000,4.000000,4.000000,4.000000,4.000000,4.000000,100.000000
1602006261.376015,94.000000,0.000000,4152.307617,4125.641113,4136.410156,4125.641113,4139.487305,4135.897461,4140.000000,4138.461426,4121.538574,4121.538574,4112.307617,4137.436035,4120.000000,4145.641113,871.000000,4.000000,,,,0.000000,4.000000,4.000000,4.000000,4.000000,4.000000,4.000000,4.000000,4.000000,4.000000,4.000000,4.000000,4.000000,4.000000,4.000000,100.000000
1602006261.383897,95.000000,0.000000,4154.358887,4124.615234,4134.358887,4122.051270,4134.871582,4134.871582,4143.589844,4137.948730,4125.128418,4149.743652,4128.717773,4137.948730,4122.563965,4137.436035,843.000000,4.000000,,,,0.000000,4.000000,4.000000,4.000000,4.000000,4.000000,4.000000,4.000000,4.000000,4.000000,4.000000,4.000000,4.000000,4.000000,4.000000,100.000000
1602006261.391779,96.000000,0.000000,4153.333496,4126.153809,4136.922852,4127.179688,4135.384766,4135.897461,4143.589844,4138.461426,4130.256348,4153.846191,4129.230957,4137.436035,4126.153809,4137.436035,773.000000,4.000000,,,,0.000000,4.000000,4.000000,4.000000,4.000000,4.000000,4.000000,4.000000,4.000000,4.000000,4.000000,4.000000,4.000000,4.000000,4.000000,100.000000
1602006261.399660,97.000000,0.000000,4149.743652,4124.102539,4136.922852,4122.563965,4137.948730,4136.410156,4140.000000,4137.948730,4134.358887,4136.922852,4127.692383,4129.743652,4123.589844,4142.051270,745.000000,4.000000,,,,0.000000,4.000000,4.000000,4.000000,4.000000,4.000000,4.000000,4.000000,4.000000,4.000000,4.000000,4.000000,4.000000,4.000000,4.000000,100.000000
1602006261.407542,98.000000,0.000000,4151.282227,4123.589844,4128.205078,4116.922852,4138.461426,4136.922852,4144.615234,4135.384766,4136.410156,4134.358887,4118.974121,4123.077148,4115.384766,4137.436035,871.000000,4.000000,,,,0.000000,4.000000,4.000000,4.000000,4.000000,4.000000,4.000000,4.000000,4.000000,4.000000,4.000000,4.000000,4.000000,4.000000,4.000000,100.000000
1602006261.415423,99.000000,0.000000,4151.282227,4126.153809,4125.128418,4125.641113,4138.974121,4135.897461,4150.256348,4137.436035,4136.410156,4126.153809,4104.102539,4122.051270,4111.794922,4136.410156,843.000000,4.000000,,,,0.000000,4.000000,4.000000,4.000000,4.000000,4.000000,4.000000,4.000000,4.000000,4.000000,4.000000,4.000000,4.000000,4.000000,4.000000,100.000000
1602006261.423305,100.000000,0.000000,4143.589844,4124.102539,4127.692383,4129.230957,4135.897461,4128.205078,4144.102539,4138.974121,4129.230957,4101.025879,4108.717773,4120.000000,4110.256348,4139.487305,773.000000,4.000000,,,,0.000000,4.000000,4.000000,4.000000,4.000000,4.000000,4.000000,4.000000,4.000000,4.000000,4.000000,4.000000,4.000000,4.000000,4.000000,100.000000
1602006261.431086,101.000000,0.000000,4145.641113,4120.512695,4127.179688,4122.051270,4128.205078,4121.538574,4137.948730,4138.461426,4120.000000,4111.794922,4121.538574,4124.102539,4109.743652,4131.282227,745.000000,4.000000,,,,0.000000,4.000000,4.000000,4.000000,4.000000,4.000000,4.000000,4.000000,4.000000,4.000000,4.000000,4.000000,4.000000,4.000000,4.000000,100.000000
1602006261.438967,102.000000,0.000000,4153.333496,4122.563965,4132.307617,4117.436035,4125.641113,4121.025879,4136.922852,4141.538574,4123.589844,4144.102539,4122.563965,4137.948730,4116.410156,4127.179688,871.000000,4.000000,,,,0.000000,4.000000,4.000000,4.000000,4.000000,4.000000,4.000000,4.000000,4.000000,4.000000,4.000000,4.000000,4.000000,4.000000,4.000000,100.000000
1602006261.446848,103.000000,0.000000,4150.769043,4124.102539,4141.025879,4123.589844,4132.307617,4120.512695,4131.282227,4143.077148,4138.974121,4140.000000,4127.179688,4148.205078,4126.153809,4137.436035,843.000000,4.000000,,,,0.000000,4.000000,4.000000,4.000000,4.000000,4.000000,4.000000,4.000000,4.000000,4.000000,4.000000,4.000000,4.000000,4.000000,4.000000,100.000000
1602006261.454629,104.000000,0.000000,4156.922852,4125.128418,4143.077148,4134.358887,4137.436035,4120.000000,4130.256348,4141.025879,4146.153809,4132.820313,4144.615234,4150.769043,4127.179688,4142.051270,773.000000,4.000000,,,,0.000000,4.000000,4.000000,4.000000,4.000000,4.000000,4.000000,4.000000,4.000000,4.000000,4.000000,4.000000,4.000000,4.000000,4.000000,100.000000
1602006261.462510,105.000000,0.000000,4169.230957,4130.769043,4144.102539,4132.820313,4137.948730,4122.563965,4136.922852,4141.025879,4140.512695,4145.641113,4144.102539,4154.871582,4122.563965,4136.410156,745.000000,4.000000,,,,0.000000,4.000000,4.000000,4.000000,4.000000,4.000000,4.000000,4.000000,4.000000,4.000000,4.000000,4.000000,4.000000,4.000000,4.000000,100.000000
1602006261.470392,106.000000,0.000000,4161.025879,4131.794922,4141.025879,4124.102539,4137.436035,4126.666504,4138.461426,4140.512695,4138.461426,4132.820313,4120.512695,4153.333496,4123.589844,4136.410156,871.000000,4.000000,,,,0.000000,4.000000,4.000000,4.000000,4.000000,4.000000,4.000000,4.000000,4.000000,4.000000,4.000000,4.000000,4.000000,4.000000,4.000000,100.000000
1602006261.478273,107.000000,0.000000,4147.179688,4125.128418,4135.384766,4125.641113,4138.461426,4129.743652,4140.512695,4138.461426,4140.512695,4103.589844,4110.769043,4145.641113,4126.153809,4143.077148,843.000000,4.000000,,,,0.000000,4.000000,4.000000,4.000000,4.000000,4.000000,4.000000,4.000000,4.000000,4.000000,4.000000,4.000000,4.000000,4.000000,4.000000,100.000000
1602006261.486054,108.000000,0.000000,4151.794922,4123.077148,4136.922852,4128.205078,4138.974121,4126.666504,4143.589844,4137.436035,4131.282227,4116.922852,4121.538574,4143.077148,4123.077148,4141.025879,773.000000,4.000000,,,,0.000000,4.000000,4.000000,4.000000,4.000000,4.000000,4.000000,4.000000,4.000000,4.000000,4.000000,4.000000,4.000000,4.000000,4.000000,100.000000
1602006261.493936,109.000000,0.000000,4153.333496,4129.230957,4133.333496,4120.000000,4138.974121,4125.128418,4141.538574,4137.948730,4122.051270,4148.717773,4131.794922,4143.077148,4122.051270,4132.820313,745.000000,4.000000,,,,0.000000,4.000000,4.000000,4.000000,4.000000,4.000000,4.000000,4.000000,4.000000,4.000000,4.000000,4.000000,4.000000,4.000000,4.000000,100.000000
1602006261.501818,110.000000,0.000000,4150.256348,4138.461426,4130.256348,4126.153809,4139.487305,4132.820313,4137.948730,4138.974121,4133.846191,4156.410156,4133.333496,4147.179688,4134.871582,4141.538574,871.000000,4.000000,,,,0.000000,4.000000,4.000000,4.000000,4.000000,4.000000,4.000000,4.000000,4.000000,4.000000,4.000000,4.000000,4.000000,4.000000,4.000000,100.000000
1602006261.509699,111.000000,0.000000,4156.922852,4138.974121,4146.153809,4140.512695,4140.000000,4133.333496,4136.410156,4140.512695,4148.205078,4148.205078,4138.461426,4155.384766,4147.179688,4155.384766,843.000000,4.000000,,,,0.000000,4.000000,4.000000,4.000000,4.000000,4.000000,4.000000,4.000000,4.000000,4.000000,4.000000,4.000000,4.000000,4.000000,4.000000,100.000000
1602006261.517581,112.000000,0.000000,4156.922852,4129.230957,4156.410156,4130.256348,4135.384766,4122.051270,4127.692383,4138.461426,4141.025879,4134.871582,4135.897461,4154.871582,4135.384766,4144.615234,773.000000,4.000000,,,,0.000000,4.000000,4.000000,4.000000,4.000000,4.000000,4.000000,4.000000,4.000000,4.000000,4.000000,4.000000,4.000000,4.000000,4.000000,100.000000
1602006261.525463,113.000000,0.000000,4152.307617,4127.179688,4144.102539,4120.512695,4132.820313,4123.077148,4118.974121,4135.897461,4133.846191,4133.846191,4123.077148,4152.307617,4121.025879,4132.307617,745.000000,4.000000,,,,0.000000,4.000000,4.000000,4.000000,4.000000,4.000000,4.000000,4.000000,4.000000,4.000000,4.000000,4.000000,4.000000,4.000000,4.000000,100.000000
1602006261.533344,114.000000,0.000000,4161.538574,4137.948730,4138.461426,4134.871582,4140.512695,4138.461426,4126.153809,4136.922852,4140.512695,4142.051270,4122.563965,4153.333496,4128.717773,4142.563965,871.000000,4.000000,,,,0.000000,4.000000,4.000000,4.000000,4.000000,4.000000,4.000000,4.000000,4.000000,4.000000,4.000000,4.000000,4.000000,4.000000,4.000000,100.000000
1602006261.541226,115.000000,0.000000,4168.717773,4141.538574,4142.563965,4143.077148,4146.153809,4138.974121,4135.897461,4137.948730,4143.077148,4130.256348,4129.743652,4145.128418,4132.307617,4144.615234,843.000000,4.000000,,,,0.000000,4.000000,4.000000,4.000000,4.000000,4.000000,4.000000,4.000000,4.000000,4.000000,4.000000,4.000000,4.000000,4.000000,4.000000,100.000000
1602006261.549207,116.000000,0.000000,4157.436035,4135.384766,4135.897461,4134.358887,4141.538574,4125.641113,4134.358887,4134.358887,4133.846191,4120.000000,4129.230957,4138.974121,4122.051270,4134.871582,773.000000,4.000000,,,,0.000000,4.000000,4.000000,4.000000,4.000000,4.000000,4.000000,4.000000,4.000000,4.000000,4.000000,4.000000,4.000000,4.000000,4.000000,100.000000
1602006261.557089,117.000000,0.000000,4156.922852,4139.487305,4135.384766,4138.461426,4141.025879,4127.179688,4137.948730,4140.000000,4134.871582,4148.205078,4133.333496,4154.871582,4130.769043,4146.666504,745.000000,4.000000,,,,0.000000,4.000000,4.000000,4.000000,4.000000,4.000000,4.000000,4.000000,4.000000,4.000000,4.000000,4.000000,4.000000,4.000000,4.000000,100.000000
1602006261.564971,118.000000,0.000000,4171.794922,4149.230957,4150.256348,4148.205078,4149.230957,4139.487305,4152.820313,4153.846191,4153.333496,4170.256348,4150.256348,4172.820313,4157.948730,4163.589844,871.000000,4.000000,,,,0.000000,4.000000,4.000000,4.000000,4.000000,4.000000,4.000000,4.000000,4.000000,4.000000,4.000000,4.000000,4.000000,4.000000,4.000000,100.000000
1602006261.572852,119.000000,0.000000,4171.282227,4149.230957,4156.410156,4142.563965,4149.230957,4141.025879,4158.461426,4155.384766,4161.025879,4148.717773,4153.333496,4172.820313,4160.512695,4158.974121,843.000000,4.000000,,,,0.000000,4.000000,4.000000,4.000000,4.000000,4.000000,4.000000,4.000000,4.000000,4.000000,4.000000,4.000000,4.000000,4.000000,4.000000,100.000000
1602006261.580734,120.000000,0.000000,4167.179688,4144.615234,4151.794922,4139.487305,4141.538574,4137.948730,4147.692383,4145.128418,4147.692383,4136.922852,4137.948730,4166.666504,4141.538574,4153.846191,773.000000,4.000000,,,,0.000000,4.000000,4.000000,4.000000,4.000000,4.000000,4.000000,4.000000,4.000000,4.000000,4.000000,4.000000,4.000000,4.000000,4.000000,100.000000
1602006261.588616,121.000000,0.000000,4172.820313,4142.051270,4153.846191,4142.051270,4138.974121,4140.000000,4139.487305,4138.974121,4140.512695,4155.384766,4134.358887,4162.051270,4138.974121,4156.922852,745.000000,4.000000,,,,0.000000,4.000000,4.000000,4.000000,4.000000,4.000000,4.000000,4.000000,4.000000,4.000000,4.000000,4.000000,4.000000,4.000000,4.000000,100.000000
1602006261.596497,122.000000,0.000000,4167.179688,4133.846191,4154.871582,4134.871582,4138.974121,4139.487305,4138.461426,4139.487305,4143.589844,4148.205078,4141.538574,4160.000000,4144.102539,4150.256348,871.000000,4.000000,,,,0.000000,4.000000,4.000000,4.000000,4.000000,4.000000,4.000000,4.000000,4.000000,4.000000,4.000000,4.000000,4.000000,4.000000,4.000000,100.000000
1602006261.604379,123.000000,0.000000,4148.205078,4124.102539,4138.461426,4123.589844,4138.974121,4135.897461,4135.384766,4138.461426,4138.461426,4123.077148,4135.897461,4154.358887,4134.871582,4140.000000,843.000000,4.000000,,,,0.000000,4.000000,4.000000,4.000000,4.000000,4.000000,4.000000,4.000000,4.000000,4.000000,4.000000,4.000000,4.000000,4.000000,4.000000,100.000000
1602006261.612161,124.000000,0.000000,4135.897461,4121.538574,4120.512695,4121.025879,4138.461426,4134.871582,4132.820313,4136.922852,4132.820313,4133.846191,4121.538574,4142.563965,4126.666504,4138.461426,773.000000,4.000000,,,,0.000000,4.000000,4.000000,4.000000,4.000000,4.000000,4.000000,4.000000,4.000000,4.000000,4.000000,4.000000,4.000000,4.000000,4.000000,100.000000
1602006261.620042,125.000000,0.000000,4143.077148,4127.179688,4125.128418,4128.717773,4137.436035,4134.358887,4134.871582,4137.948730,4144.102539,4161.538574,4123.077148,4143.589844,4132.307617,4137.948730,745.000000,4.000000,,,,0.000000,4.000000,4.000000,4.000000,4.000000,4.000000,4.000000,4.000000,4.000000,4.000000,4.000000,4.000000,4.000000,4.000000,4.000000,100.000000
1602006261.627924,126.000000,0.000000,4157.948730,4135.384766,4138.461426,4136.922852,4137.436035,4136.922852,4136.410156,4139.487305,4154.358887,4158.461426,4128.205078,4150.769043,4137.436035,4136.922852,871.000000,4.000000,,,,0.000000,4.000000,4.000000,4.000000,4.000000,4.000000,4.000000,4.000000,4.000000,4.000000,4.000000,4.000000,4.000000,4.000000,4.000000,100.000000
1602006261.635806,127.000000,0.000000,4154.871582,4139.487305,4133.846191,4134.871582,4140.512695,4138.974121,4136.410156,4136.410156,4143.589844,4144.615234,4128.717773,4144.102539,4134.871582,4138.974121,843.000000,4.000000,,,,0.000000,4.000000,4.000000,4.000000,4.000000,4.000000,4.000000,4.000000,4.000000,4.000000,4.000000,4.000000,4.000000,4.000000,4.000000,100.000000
1602006261.643687,128.000000,0.000000,4138.461426,4136.410156,4120.512695,4128.205078,4140.512695,4135.897461,4138.461426,4134.358887,4132.820313,4140.000000,4128.717773,4136.410156,4130.769043,4140.000000,773.000000,4.000000,,,,0.000000,4.000000,4.000000,4.000000,4.000000,4.000000,4.000000,4.000000,4.000000,4.000000,4.000000,4.000000,4.000000,4.000000,4.000000,100.000000
1602006261.651569,0.000000,0.000000,4141.538574,4134.871582,4127.179688,4127.179688,4137.436035,4135.384766,4141.025879,4136.410156,4135.897461,4141.538574,4124.102539,4145.128418,4123.077148,4140.000000,795.000000,4.000000,,,,0.000000,4.000000,4.000000,4.000000,4.000000,4.000000,4.000000,4.000000,4.000000,4.000000,4.000000,4.000000,4.000000,4.000000,4.000000,100.000000
1602006261.659451,1.000000,0.000000,4156.922852,4136.922852,4146.666504,4123.077148,4138.974121,4140.512695,4146.153809,4137.948730,4134.871582,4138.461426,4123.077148,4161.538574,4122.563965,4141.025879,793.000000,4.000000,,,,0.000000,4.000000,4.000000,4.000000,4.000000,4.000000,4.000000,4.000000,4.000000,4.000000,4.000000,4.000000,4.000000,4.000000,4.000000,100.000000
1602006261.667332,2.000000,0.000000,4159.487305,4138.461426,4153.846191,4123.589844,4143.589844,4141.538574,4153.333496,4138.461426,4128.717773,4121.538574,4135.384766,4169.743652,4135.897461,4141.025879,827.000000,4.000000,,,,0.000000,4.000000,4.000000,4.000000,4.000000,4.000000,4.000000,4.000000,4.000000,4.000000,4.000000,4.000000,4.000000,4.000000,4.000000,100.000000
1602006261.675214,3.000000,0.000000,4151.282227,4137.436035,4147.692383,4136.410156,4145.128418,4138.974121,4150.769043,4141.025879,4136.410156,4123.077148,4144.102539,4160.512695,4140.512695,4143.589844,866.000000,4.000000,,,,0.000000,4.000000,4.000000,4.000000,4.000000,4.000000,4.000000,4.000000,4.000000,4.000000,4.000000,4.000000,4.000000,4.000000,4.000000,100.000000
1602006261.682995,4.000000,0.000000,4139.487305,4128.717773,4136.410156,4137.436035,4140.000000,4139.487305,4141.025879,4141.025879,4144.102539,4151.282227,4140.512695,4141.538574,4126.666504,4142.051270,815.000000,4.000000,,,,0.000000,4.000000,4.000000,4.000000,4.000000,4.000000,4.000000,4.000000,4.000000,4.000000,4.000000,4.000000,4.000000,4.000000,4.000000,100.000000
1602006261.690876,5.000000,0.000000,4131.794922,4122.051270,4123.589844,4122.563965,4135.384766,4142.051270,4135.897461,4137.948730,4136.410156,4161.025879,4136.922852,4135.897461,4118.974121,4135.897461,824.000000,4.000000,,,,0.000000,4.000000,4.000000,4.000000,4.000000,4.000000,4.000000,4.000000,4.000000,4.000000,4.000000,4.000000,4.000000,4.000000,4.000000,100.000000
1602006261.698757,6.000000,0.000000,4135.384766,4124.102539,4120.000000,4121.025879,4145.128418,4143.077148,4136.410156,4137.948730,4139.487305,4153.333496,4137.436035,4137.948730,4132.307617,4135.897461,763.000000,4.000000,,,,0.000000,4.000000,4.000000,4.000000,4.000000,4.000000,4.000000,4.000000,4.000000,4.000000,4.000000,4.000000,4.000000,4.000000,4.000000,100.000000
1602006261.706639,7.000000,0.000000,4140.000000,4123.589844,4126.153809,4129.743652,4149.743652,4140.512695,4136.410156,4140.512695,4153.846191,4157.948730,4136.922852,4136.410156,4138.461426,4137.436035,672.000000,4.000000,,,,0.000000,4.000000,4.000000,4.000000,4.000000,4.000000,4.000000,4.000000,4.000000,4.000000,4.000000,4.000000,4.000000,4.000000,4.000000,100.000000
1602006261.714420,8.000000,0.000000,4136.410156,4126.153809,4127.179688,4127.179688,4140.512695,4138.974121,4135.384766,4136.410156,4144.102539,4153.333496,4123.077148,4135.897461,4126.153809,4127.179688,790.000000,4.000000,,,,0.000000,4.000000,4.000000,4.000000,4.000000,4.000000,4.000000,4.000000,4.000000,4.000000,4.000000,4.000000,4.000000,4.000000,4.000000,100.000000
1602006261.722302,9.000000,0.000000,4134.871582,4134.871582,4122.051270,4121.025879,4142.563965,4141.538574,4134.358887,4127.692383,4121.538574,4133.333496,4106.666504,4135.897461,4118.974121,4116.922852,838.000000,4.000000,,,,0.000000,4.000000,4.000000,4.000000,4.000000,4.000000,4.000000,4.000000,4.000000,4.000000,4.000000,4.000000,4.000000,4.000000,4.000000,100.000000
1602006261.730184,10.000000,0.000000,4141.538574,4136.922852,4125.128418,4124.615234,4150.769043,4143.077148,4134.871582,4126.666504,4123.589844,4119.487305,4116.922852,4140.512695,4129.743652,4125.128418,871.000000,4.000000,,,,0.000000,4.000000,4.000000,4.000000,4.000000,4.000000,4.000000,4.000000,4.000000,4.000000,4.000000,4.000000,4.000000,4.000000,4.000000,100.000000
1602006261.738065,11.000000,0.000000,4152.820313,4141.538574,4138.461426,4135.897461,4150.256348,4140.512695,4137.948730,4134.358887,4138.974121,4122.051270,4142.563965,4151.282227,4141.538574,4142.563965,843.000000,4.000000,,,,0.000000,4.000000,4.000000,4.000000,4.000000,4.000000,4.000000,4.000000,4.000000,4.000000,4.000000,4.000000,4.000000,4.000000,4.000000,100.000000
1602006261.745947,12.000000,0.000000,4166.666504,4156.410156,4148.717773,4140.512695,4147.692383,4134.871582,4138.974121,4140.512695,4140.000000,4145.128418,4156.410156,4157.948730,4144.102539,4153.846191,770.000000,4.000000,,,,0.000000,4.000000,4.000000,4.000000,4.000000,4.000000,4.000000,4.000000,4.000000,4.000000,4.000000,4.000000,4.000000,4.000000,4.000000,100.000000
1602006261.753829,13.000000,0.000000,4168.717773,4156.410156,4146.153809,4140.512695,4144.615234,4126.153809,4134.871582,4141.538574,4138.461426,4154.871582,4150.769043,4152.820313,4141.538574,4158.461426,745.000000,4.000000,,,,0.000000,4.000000,4.000000,4.000000,4.000000,4.000000,4.000000,4.000000,4.000000,4.000000,4.000000,4.000000,4.000000,4.000000,4.000000,100.000000
1602006261.761710,14.000000,0.000000,4158.461426,4140.000000,4135.384766,4138.974121,4136.410156,4118.461426,4133.846191,4141.538574,4141.538574,4137.948730,4137.948730,4143.077148,4132.820313,4147.692383,871.000000,4.000000,,,,0.000000,4.000000,4.000000,4.000000,4.000000,4.000000,4.000000,4.000000,4.000000,4.000000,4.000000,4.000000,4.000000,4.000000,4.000000,100.000000
1602006261.769692,15.000000,0.000000,4152.307617,4134.358887,4127.179688,4134.871582,4133.846191,4122.051270,4136.410156,4141.538574,4143.589844,4138.974121,4140.000000,4140.000000,4131.282227,4134.871582,843.000000,4.000000,,,,0.000000,4.000000,4.000000,4.000000,4.000000,4.000000,4.000000,4.000000,4.000000,4.000000,4.000000,4.000000,4.000000,4.000000,4.000000,100.000000
