Timestamp,EEG.Counter,EEG.Interpolated,EEG.AF3,EEG.F7,EEG.F3,EEG.FC5,EEG.T7,EEG.P7,EEG.O1,EEG.O2,EEG.P8,EEG.T8,EEG.FC6,EEG.F4,EEG.F8,EEG.AF4,EEG.RawCq,EEG.Battery,MarkerIndex,MarkerType,MarkerValueInt,EEG.MarkerHardware,CQ.AF3,CQ.F7,CQ.F3,CQ.FC5,CQ.T7,CQ.P7,CQ.O1,CQ.O2,CQ.P8,CQ.T8,CQ.FC6,CQ.F4,CQ.F8,CQ.AF4,CQ.Overall
1602006294.497848,40.000000,0.000000,4133.846191,4139.487305,4135.384766,4142.563965,4124.102539,4135.384766,4125.128418,4123.589844,4089.230713,4098.974121,4085.641113,4139.487305,4106.153809,4129.743652,0.000000,4.000000,,,,0.000000,4.000000,4.000000,4.000000,4.000000,4.000000,4.000000,4.000000,4.000000,4.000000,4.000000,4.000000,4.000000,4.000000,4.000000,100.000000
1602006294.505629,41.000000,0.000000,4139.487305,4127.179688,4138.974121,4131.794922,4111.282227,4122.051270,4130.256348,4118.974121,4085.128174,4101.538574,4096.922852,4136.410156,4099.487305,4121.025879,0.000000,4.000000,,,,0.000000,4.000000,4.000000,4.000000,4.000000,4.000000,4.000000,4.000000,4.000000,4.000000,4.000000,4.000000,4.000000,4.000000,4.000000,100.000000
1602006294.513510,42.000000,0.000000,4135.384766,4118.461426,4140.512695,4131.794922,4114.871582,4128.205078,4145.128418,4129.230957,4103.589844,4120.512695,4128.205078,4142.563965,4104.102539,4121.025879,0.000000,4.000000,,,,0.000000,4.000000,4.000000,4.000000,4.000000,4.000000,4.000000,4.000000,4.000000,4.000000,4.000000,4.000000,4.000000,4.000000,4.000000,100.000000
1602006294.521391,43.000000,0.000000,4123.589844,4125.128418,4133.333496,4137.948730,4126.666504,4140.000000,4152.307617,4137.948730,4107.179688,4122.051270,4116.922852,4142.051270,4105.641113,4121.538574,0.000000,4.000000,,,,0.000000,4.000000,4.000000,4.000000,4.000000,4.000000,4.000000,4.000000,4.000000,4.000000,4.000000,4.000000,4.000000,4.000000,4.000000,100.000000
1602006294.529273,44.000000,0.000000,4128.717773,4133.846191,4131.794922,4138.461426,4124.102539,4135.897461,4146.153809,4135.384766,4107.692383,4122.563965,4096.410156,4135.897461,4104.102539,4128.717773,0.000000,4.000000,,,,0.000000,4.000000,4.000000,4.000000,4.000000,4.000000,4.000000,4.000000,4.000000,4.000000,4.000000,4.000000,4.000000,4.000000,4.000000,100.000000
1602006294.537154,45.000000,0.000000,4134.871582,4134.871582,4130.256348,4136.922852,4123.589844,4132.307617,4137.948730,4132.820313,4118.461426,4126.153809,4111.282227,4134.358887,4103.589844,4137.436035,0.000000,4.000000,,,,0.000000,4.000000,4.000000,4.000000,4.000000,4.000000,4.000000,4.000000,4.000000,4.000000,4.000000,4.000000,4.000000,4.000000,4.000000,100.000000
1602006294.545135,46.000000,0.000000,4126.666504,4135.384766,4126.666504,4140.000000,4136.410156,4135.384766,4138.461426,4137.436035,4124.102539,4123.077148,4132.820313,4137.436035,4109.230957,4133.333496,0.000000,4.000000,,,,0.000000,4.000000,4.000000,4.000000,4.000000,4.000000,4.000000,4.000000,4.000000,4.000000,4.000000,4.000000,4.000000,4.000000,4.000000,100.000000
1602006294.553016,47.000000,0.000000,4124.102539,4128.717773,4122.563965,4141.025879,4138.974121,4128.717773,4135.897461,4133.333496,4112.307617,4123.077148,4124.102539,4133.846191,4107.692383,4123.077148,0.000000,4.000000,,,,0.000000,4.000000,4.000000,4.000000,4.000000,4.000000,4.000000,4.000000,4.000000,4.000000,4.000000,4.000000,4.000000,4.000000,4.000000,100.000000
1602006294.560898,48.000000,0.000000,4128.717773,4118.974121,4116.410156,4137.436035,4127.179688,4112.820313,4125.128418,4120.512695,4100.000000,4126.153809,4102.563965,4127.179688,4097.436035,4122.051270,0.000000,4.000000,,,,0.000000,4.000000,4.000000,4.000000,4.000000,4.000000,4.000000,4.000000,4.000000,4.000000,4.000000,4.000000,4.000000,4.000000,4.000000,100.000000
1602006294.568779,49.000000,0.000000,4123.589844,4124.102539,4113.846191,4135.384766,4120.512695,4111.282227,4118.974121,4118.461426,4110.256348,4130.769043,4104.615234,4132.307617,4101.538574,4122.563965,0.000000,4.000000,,,,0.000000,4.000000,4.000000,4.000000,4.000000,4.000000,4.000000,4.000000,4.000000,4.000000,4.000000,4.000000,4.000000,4.000000,4.000000,100.000000
1602006294.576661,50.000000,0.000000,4119.487305,4138.974121,4119.487305,4137.436035,4126.666504,4128.205078,4122.051270,4129.230957,4129.230957,4133.333496,4127.179688,4147.692383,4114.871582,4120.512695,0.000000,4.000000,,,,0.000000,4.000000,4.000000,4.000000,4.000000,4.000000,4.000000,4.000000,4.000000,4.000000,4.000000,4.000000,4.000000,4.000000,4.000000,100.000000
1602006294.584542,51.000000,0.000000,4130.769043,4141.538574,4126.666504,4141.538574,4135.384766,4140.512695,4131.794922,4137.948730,4138.974121,4141.538574,4133.846191,4156.922852,4124.615234,4120.512695,0.000000,4.000000,,,,0.000000,4.000000,4.000000,4.000000,4.000000,4.000000,4.000000,4.000000,4.000000,4.000000,4.000000,4.000000,4.000000,4.000000,4.000000,100.000000
1602006294.592523,52.000000,0.000000,4142.051270,4136.410156,4125.641113,4144.102539,4137.436035,4137.436035,4138.974121,4138.974121,4147.692383,4154.358887,4122.563965,4156.410156,4133.846191,4123.077148,0.000000,4.000000,,,,0.000000,4.000000,4.000000,4.000000,4.000000,4.000000,4.000000,4.000000,4.000000,4.000000,4.000000,4.000000,4.000000,4.000000,4.000000,100.000000
1602006294.600404,53.000000,0.000000,4136.410156,4136.922852,4122.563965,4141.538574,4136.922852,4134.871582,4140.000000,4138.461426,4153.333496,4154.358887,4121.538574,4153.846191,4132.820313,4123.077148,0.000000,4.000000,,,,0.000000,4.000000,4.000000,4.000000,4.000000,4.000000,4.000000,4.000000,4.000000,4.000000,4.000000,4.000000,4.000000,4.000000,4.000000,100.000000
1602006294.608385,54.000000,0.000000,4121.538574,4134.358887,4122.563965,4135.897461,4135.897461,4141.025879,4140.512695,4140.512695,4153.846191,4144.615234,4127.179688,4150.256348,4122.563965,4118.974121,0.000000,4.000000,,,,0.000000,4.000000,4.000000,4.000000,4.000000,4.000000,4.000000,4.000000,4.000000,4.000000,4.000000,4.000000,4.000000,4.000000,4.000000,100.000000
1602006294.616266,55.000000,0.000000,4120.512695,4127.179688,4122.051270,4134.871582,4130.769043,4139.487305,4142.051270,4141.538574,4158.974121,4140.000000,4126.666504,4143.077148,4121.025879,4121.025879,0.000000,4.000000,,,,0.000000,4.000000,4.000000,4.000000,4.000000,4.000000,4.000000,4.000000,4.000000,4.000000,4.000000,4.000000,4.000000,4.000000,4.000000,100.000000
1602006294.624147,56.000000,0.000000,4125.128418,4124.102539,4120.512695,4136.410156,4125.128418,4126.666504,4138.974121,4139.487305,4154.871582,4137.948730,4120.000000,4136.410156,4124.615234,4121.025879,0.000000,4.000000,,,,0.000000,4.000000,4.000000,4.000000,4.000000,4.000000,4.000000,4.000000,4.000000,4.000000,4.000000,4.000000,4.000000,4.000000,4.000000,100.000000
1602006294.632028,57.000000,0.000000,4120.512695,4125.641113,4120.000000,4138.461426,4126.153809,4120.512695,4130.256348,4134.871582,4138.974121,4126.153809,4111.282227,4134.358887,4121.025879,4105.641113,0.000000,4.000000,,,,0.000000,4.000000,4.000000,4.000000,4.000000,4.000000,4.000000,4.000000,4.000000,4.000000,4.000000,4.000000,4.000000,4.000000,4.000000,100.000000
1602006294.639910,58.000000,0.000000,4122.563965,4126.153809,4126.153809,4136.922852,4126.666504,4123.077148,4119.487305,4130.256348,4133.846191,4114.871582,4111.794922,4135.897461,4120.000000,4093.846191,0.000000,4.000000,,,,0.000000,4.000000,4.000000,4.000000,4.000000,4.000000,4.000000,4.000000,4.000000,4.000000,4.000000,4.000000,4.000000,4.000000,4.000000,100.000000
1602006294.647691,59.000000,0.000000,4137.436035,4127.692383,4134.871582,4135.384766,4124.615234,4123.077148,4112.820313,4125.641113,4133.333496,4115.384766,4118.461426,4141.538574,4121.538574,4103.589844,0.000000,4.000000,,,,0.000000,4.000000,4.000000,4.000000,4.000000,4.000000,4.000000,4.000000,4.000000,4.000000,4.000000,4.000000,4.000000,4.000000,4.000000,100.000000
1602006294.655573,60.000000,0.000000,4144.102539,4128.717773,4138.461426,4137.948730,4126.153809,4118.974121,4114.871582,4123.589844,4124.102539,4127.179688,4127.692383,4150.769043,4123.589844,4126.153809,0.000000,4.000000,,,,0.000000,4.000000,4.000000,4.000000,4.000000,4.000000,4.000000,4.000000,4.000000,4.000000,4.000000,4.000000,4.000000,4.000000,4.000000,100.000000
1602006294.663455,61.000000,0.000000,4133.846191,4124.615234,4131.282227,4135.897461,4127.179688,4114.358887,4123.077148,4129.230957,4123.589844,4137.436035,4136.410156,4157.436035,4126.666504,4135.897461,0.000000,4.000000,,,,0.000000,4.000000,4.000000,4.000000,4.000000,4.000000,4.000000,4.000000,4.000000,4.000000,4.000000,4.000000,4.000000,4.000000,4.000000,100.000000
1602006294.671336,62.000000,0.000000,4123.077148,4118.974121,4123.077148,4126.153809,4121.025879,4110.256348,4132.307617,4141.538574,4132.307617,4140.000000,4135.384766,4154.871582,4120.512695,4125.128418,0.000000,4.000000,,,,0.000000,4.000000,4.000000,4.000000,4.000000,4.000000,4.000000,4.000000,4.000000,4.000000,4.000000,4.000000,4.000000,4.000000,4.000000,100.000000
1602006294.679218,63.000000,0.000000,4129.230957,4121.538574,4124.615234,4122.051270,4118.974121,4117.436035,4141.025879,4152.820313,4143.589844,4142.051270,4127.692383,4151.282227,4117.948730,4118.461426,0.000000,4.000000,,,,0.000000,4.000000,4.000000,4.000000,4.000000,4.000000,4.000000,4.000000,4.000000,4.000000,4.000000,4.000000,4.000000,4.000000,4.000000,100.000000
1602006294.687100,64.000000,0.000000,4140.000000,4128.205078,4126.666504,4130.769043,4126.666504,4126.666504,4145.128418,4156.922852,4152.307617,4138.974121,4124.615234,4153.333496,4129.230957,4122.563965,796.000000,4.000000,,,,0.000000,4.000000,4.000000,4.000000,4.000000,4.000000,4.000000,4.000000,4.000000,4.000000,4.000000,4.000000,4.000000,4.000000,4.000000,100.000000
1602006294.694981,65.000000,0.000000,4133.846191,4127.179688,4122.051270,4137.948730,4128.717773,4124.615234,4141.538574,4150.256348,4154.871582,4136.922852,4123.077148,4149.230957,4129.743652,4116.410156,788.000000,4.000000,,,,0.000000,4.000000,4.000000,4.000000,4.000000,4.000000,4.000000,4.000000,4.000000,4.000000,4.000000,4.000000,4.000000,4.000000,4.000000,100.000000
1602006294.702863,66.000000,0.000000,4127.179688,4124.615234,4119.487305,4131.794922,4125.128418,4129.230957,4137.436035,4140.000000,4155.384766,4143.077148,4119.487305,4142.051270,4117.948730,4112.820313,852.000000,4.000000,,,,0.000000,4.000000,4.000000,4.000000,4.000000,4.000000,4.000000,4.000000,4.000000,4.000000,4.000000,4.000000,4.000000,4.000000,4.000000,100.000000
1602006294.710744,67.000000,0.000000,4135.384766,4127.179688,4119.487305,4126.153809,4127.179688,4138.461426,4137.436035,4137.948730,4155.384766,4148.205078,4126.666504,4143.589844,4125.128418,4124.102539,866.000000,4.000000,,,,0.000000,4.000000,4.000000,4.000000,4.000000,4.000000,4.000000,4.000000,4.000000,4.000000,4.000000,4.000000,4.000000,4.000000,4.000000,100.000000
1602006294.718626,68.000000,0.000000,4138.461426,4132.820313,4119.487305,4131.794922,4129.230957,4138.974121,4137.436035,4138.974121,4153.846191,4146.153809,4137.436035,4152.820313,4144.102539,4124.615234,813.000000,4.000000,,,,0.000000,4.000000,4.000000,4.000000,4.000000,4.000000,4.000000,4.000000,4.000000,4.000000,4.000000,4.000000,4.000000,4.000000,4.000000,100.000000
1602006294.726508,69.000000,0.000000,4139.487305,4136.922852,4127.692383,4138.461426,4125.641113,4136.922852,4137.948730,4137.948730,4153.846191,4143.589844,4138.461426,4163.589844,4148.717773,4121.538574,818.000000,4.000000,,,,0.000000,4.000000,4.000000,4.000000,4.000000,4.000000,4.000000,4.000000,4.000000,4.000000,4.000000,4.000000,4.000000,4.000000,4.000000,100.000000
1602006294.734389,70.000000,0.000000,4142.563965,4135.897461,4136.922852,4137.948730,4124.615234,4130.769043,4134.358887,4137.436035,4152.307617,4141.538574,4137.436035,4164.102539,4138.974121,4132.820313,770.000000,4.000000,,,,0.000000,4.000000,4.000000,4.000000,4.000000,4.000000,4.000000,4.000000,4.000000,4.000000,4.000000,4.000000,4.000000,4.000000,4.000000,100.000000
1602006294.742271,71.000000,0.000000,4137.436035,4135.384766,4136.922852,4140.000000,4126.666504,4126.666504,4128.205078,4138.461426,4148.205078,4141.538574,4139.487305,4157.436035,4135.384766,4139.487305,674.000000,4.000000,,,,0.000000,4.000000,4.000000,4.000000,4.000000,4.000000,4.000000,4.000000,4.000000,4.000000,4.000000,4.000000,4.000000,4.000000,4.000000,100.000000
1602006294.750153,72.000000,0.000000,4131.282227,4135.897461,4135.897461,4141.538574,4129.743652,4136.410156,4131.282227,4137.948730,4145.128418,4136.922852,4135.384766,4156.410156,4136.922852,4137.436035,788.000000,4.000000,,,,0.000000,4.000000,4.000000,4.000000,4.000000,4.000000,4.000000,4.000000,4.000000,4.000000,4.000000,4.000000,4.000000,4.000000,4.000000,100.000000
1602006294.758034,73.000000,0.000000,4137.436035,4130.256348,4135.897461,4132.307617,4128.717773,4143.589844,4137.948730,4137.436035,4138.461426,4125.128418,4123.589844,4157.436035,4131.282227,4133.333496,838.000000,4.000000,,,,0.000000,4.000000,4.000000,4.000000,4.000000,4.000000,4.000000,4.000000,4.000000,4.000000,4.000000,4.000000,4.000000,4.000000,4.000000,100.000000
1602006294.765916,74.000000,0.000000,4140.000000,4122.051270,4134.358887,4126.666504,4124.102539,4135.384766,4137.436035,4137.436035,4141.538574,4128.205078,4114.358887,4153.333496,4121.025879,4121.025879,871.000000,4.000000,,,,0.000000,4.000000,4.000000,4.000000,4.000000,4.000000,4.000000,4.000000,4.000000,4.000000,4.000000,4.000000,4.000000,4.000000,4.000000,100.000000
1602006294.773798,75.000000,0.000000,4135.384766,4122.563965,4135.384766,4133.846191,4127.692383,4135.384766,4137.436035,4139.487305,4160.512695,4137.948730,4115.384766,4151.794922,4118.974121,4113.333496,840.000000,4.000000,,,,0.000000,4.000000,4.000000,4.000000,4.000000,4.000000,4.000000,4.000000,4.000000,4.000000,4.000000,4.000000,4.000000,4.000000,4.000000,100.000000
1602006294.781579,76.000000,0.000000,4138.974121,4130.769043,4140.512695,4137.436035,4133.846191,4140.512695,4138.974121,4140.000000,4166.666504,4141.538574,4124.102539,4154.871582,4126.153809,4120.512695,769.000000,4.000000,,,,0.000000,4.000000,4.000000,4.000000,4.000000,4.000000,4.000000,4.000000,4.000000,4.000000,4.000000,4.000000,4.000000,4.000000,4.000000,100.000000
1602006294.789460,77.000000,0.000000,4150.769043,4142.051270,4150.256348,4140.512695,4135.384766,4135.897461,4135.897461,4138.461426,4162.563965,4157.948730,4136.922852,4161.025879,4140.512695,4130.256348,742.000000,4.000000,,,,0.000000,4.000000,4.000000,4.000000,4.000000,4.000000,4.000000,4.000000,4.000000,4.000000,4.000000,4.000000,4.000000,4.000000,4.000000,100.000000
1602006294.797340,78.000000,0.000000,4163.589844,4152.820313,4163.077148,4152.307617,4134.871582,4134.871582,4136.410156,4143.077148,4169.230957,4175.384766,4151.282227,4172.307617,4164.615234,4144.102539,871.000000,4.000000,,,,0.000000,4.000000,4.000000,4.000000,4.000000,4.000000,4.000000,4.000000,4.000000,4.000000,4.000000,4.000000,4.000000,4.000000,4.000000,100.000000
1602006294.805221,79.000000,0.000000,4167.692383,4158.461426,4163.589844,4158.461426,4132.820313,4135.384766,4139.487305,4151.282227,4171.282227,4173.333496,4160.000000,4175.897461,4175.384766,4158.461426,840.000000,4.000000,,,,0.000000,4.000000,4.000000,4.000000,4.000000,4.000000,4.000000,4.000000,4.000000,4.000000,4.000000,4.000000,4.000000,4.000000,4.000000,100.000000
1602006294.813002,80.000000,0.000000,4162.563965,4155.384766,4149.230957,4150.769043,4130.769043,4130.769043,4138.974121,4152.820313,4159.487305,4169.230957,4152.820313,4168.717773,4161.538574,4155.897461,769.000000,4.000000,,,,0.000000,4.000000,4.000000,4.000000,4.000000,4.000000,4.000000,4.000000,4.000000,4.000000,4.000000,4.000000,4.000000,4.000000,4.000000,100.000000
1602006294.820783,81.000000,0.000000,4146.666504,4147.179688,4138.461426,4145.128418,4133.333496,4132.820313,4140.000000,4149.743652,4154.358887,4172.820313,4138.461426,4162.051270,4150.769043,4147.179688,742.000000,4.000000,,,,0.000000,4.000000,4.000000,4.000000,4.000000,4.000000,4.000000,4.000000,4.000000,4.000000,4.000000,4.000000,4.000000,4.000000,4.000000,100.000000
1602006294.828665,82.000000,0.000000,4127.179688,4134.871582,4133.333496,4135.897461,4135.384766,4138.974121,4140.512695,4145.128418,4155.897461,4164.615234,4130.769043,4155.384766,4148.205078,4143.589844,871.000000,4.000000,,,,0.000000,4.000000,4.000000,4.000000,4.000000,4.000000,4.000000,4.000000,4.000000,4.000000,4.000000,4.000000,4.000000,4.000000,4.000000,100.000000
1602006294.836546,83.000000,0.000000,4122.051270,4123.589844,4124.615234,4122.563965,4129.230957,4136.410156,4136.922852,4138.974121,4141.025879,4130.256348,4125.641113,4145.641113,4136.922852,4125.641113,840.000000,4.000000,,,,0.000000,4.000000,4.000000,4.000000,4.000000,4.000000,4.000000,4.000000,4.000000,4.000000,4.000000,4.000000,4.000000,4.000000,4.000000,100.000000
1602006294.844427,84.000000,0.000000,4123.077148,4118.461426,4117.948730,4119.487305,4124.615234,4135.384766,4135.384766,4133.333496,4123.077148,4091.281982,4122.051270,4138.974121,4124.615234,4110.769043,769.000000,4.000000,,,,0.000000,4.000000,4.000000,4.000000,4.000000,4.000000,4.000000,4.000000,4.000000,4.000000,4.000000,4.000000,4.000000,4.000000,4.000000,100.000000
1602006294.852308,85.000000,0.000000,4121.025879,4118.974121,4121.025879,4121.538574,4126.153809,4140.512695,4140.000000,4135.897461,4126.153809,4094.871826,4127.179688,4140.512695,4125.128418,4121.538574,742.000000,4.000000,,,,0.000000,4.000000,4.000000,4.000000,4.000000,4.000000,4.000000,4.000000,4.000000,4.000000,4.000000,4.000000,4.000000,4.000000,4.000000,100.000000
1602006294.860289,86.000000,0.000000,4117.436035,4115.897461,4122.051270,4119.487305,4128.205078,4133.333496,4137.948730,4140.000000,4138.974121,4135.897461,4127.179688,4144.102539,4122.051270,4116.410156,871.000000,4.000000,,,,0.000000,4.000000,4.000000,4.000000,4.000000,4.000000,4.000000,4.000000,4.000000,4.000000,4.000000,4.000000,4.000000,4.000000,4.000000,100.000000
1602006294.868171,87.000000,0.000000,4123.077148,4117.948730,4121.025879,4120.512695,4126.153809,4120.512695,4124.615234,4136.410156,4141.025879,4151.282227,4120.512695,4138.461426,4117.436035,4098.974121,840.000000,4.000000,,,,0.000000,4.000000,4.000000,4.000000,4.000000,4.000000,4.000000,4.000000,4.000000,4.000000,4.000000,4.000000,4.000000,4.000000,4.000000,100.000000
1602006294.876052,88.000000,0.000000,4128.205078,4124.615234,4130.769043,4130.769043,4125.128418,4126.153809,4118.974121,4131.282227,4137.948730,4142.563965,4121.025879,4136.922852,4122.051270,4118.461426,769.000000,4.000000,,,,0.000000,4.000000,4.000000,4.000000,4.000000,4.000000,4.000000,4.000000,4.000000,4.000000,4.000000,4.000000,4.000000,4.000000,4.000000,100.000000
1602006294.883934,89.000000,0.000000,4123.589844,4120.000000,4146.153809,4136.410156,4127.179688,4138.974121,4125.641113,4134.358887,4142.563965,4145.641113,4124.102539,4150.769043,4127.179688,4141.025879,742.000000,4.000000,,,,0.000000,4.000000,4.000000,4.000000,4.000000,4.000000,4.000000,4.000000,4.000000,4.000000,4.000000,4.000000,4.000000,4.000000,4.000000,100.000000
1602006294.891815,90.000000,0.000000,4128.717773,4122.051270,4154.358887,4133.333496,4125.641113,4132.820313,4126.153809,4137.436035,4147.692383,4146.666504,4128.205078,4162.563965,4133.333496,4134.358887,871.000000,4.000000,,,,0.000000,4.000000,4.000000,4.000000,4.000000,4.000000,4.000000,4.000000,4.000000,4.000000,4.000000,4.000000,4.000000,4.000000,4.000000,100.000000
1602006294.899696,91.000000,0.000000,4151.794922,4146.666504,4155.384766,4138.974121,4122.563965,4118.974121,4120.512695,4135.384766,4151.794922,4137.948730,4137.948730,4160.000000,4137.948730,4129.743652,840.000000,4.000000,,,,0.000000,4.000000,4.000000,4.000000,4.000000,4.000000,4.000000,4.000000,4.000000,4.000000,4.000000,4.000000,4.000000,4.000000,4.000000,100.000000
1602006294.907578,92.000000,0.000000,4173.846191,4165.128418,4157.436035,4155.384766,4126.153809,4120.512695,4122.051270,4136.922852,4154.871582,4135.384766,4139.487305,4156.410156,4130.256348,4133.333496,769.000000,4.000000,,,,0.000000,4.000000,4.000000,4.000000,4.000000,4.000000,4.000000,4.000000,4.000000,4.000000,4.000000,4.000000,4.000000,4.000000,4.000000,100.000000
1602006294.915360,93.000000,0.000000,4172.307617,4157.948730,4154.871582,4158.974121,4134.358887,4133.846191,4127.692383,4142.051270,4155.897461,4138.974121,4127.692383,4160.000000,4114.358887,4126.666504,742.000000,4.000000,,,,0.000000,4.000000,4.000000,4.000000,4.000000,4.000000,4.000000,4.000000,4.000000,4.000000,4.000000,4.000000,4.000000,4.000000,4.000000,100.000000
1602006294.923241,94.000000,0.000000,4157.948730,4145.128418,4141.025879,4143.589844,4138.974121,4141.538574,4127.692383,4142.563965,4154.871582,4143.077148,4117.436035,4154.358887,4106.153809,4118.974121,871.000000,4.000000,,,,0.000000,4.000000,4.000000,4.000000,4.000000,4.000000,4.000000,4.000000,4.000000,4.000000,4.000000,4.000000,4.000000,4.000000,4.000000,100.000000
1602006294.931123,95.000000,0.000000,4141.538574,4137.948730,4123.077148,4126.666504,4134.871582,4133.846191,4125.128418,4134.871582,4147.692383,4141.025879,4112.307617,4134.871582,4100.512695,4099.487305,840.000000,4.000000,,,,0.000000,4.000000,4.000000,4.000000,4.000000,4.000000,4.000000,4.000000,4.000000,4.000000,4.000000,4.000000,4.000000,4.000000,4.000000,100.000000
1602006294.939004,96.000000,0.000000,4131.282227,4134.358887,4113.846191,4123.589844,4128.717773,4126.666504,4123.077148,4125.641113,4137.948730,4134.358887,4101.025879,4120.512695,4091.794922,4073.333252,769.000000,4.000000,,,,0.000000,4.000000,4.000000,4.000000,4.000000,4.000000,4.000000,4.000000,4.000000,4.000000,4.000000,4.000000,4.000000,4.000000,4.000000,100.000000
1602006294.946886,97.000000,0.000000,4133.846191,4134.871582,4111.282227,4132.820313,4128.717773,4135.384766,4120.512695,4121.025879,4132.307617,4122.051270,4093.333252,4120.512695,4089.230713,4073.333252,742.000000,4.000000,,,,0.000000,4.000000,4.000000,4.000000,4.000000,4.000000,4.000000,4.000000,4.000000,4.000000,4.000000,4.000000,4.000000,4.000000,4.000000,100.000000
1602006294.954768,98.000000,0.000000,4134.871582,4134.871582,4112.307617,4132.307617,4130.256348,4137.436035,4117.436035,4119.487305,4130.256348,4112.820313,4098.974121,4125.641113,4084.615479,4094.871826,871.000000,4.000000,,,,0.000000,4.000000,4.000000,4.000000,4.000000,4.000000,4.000000,4.000000,4.000000,4.000000,4.000000,4.000000,4.000000,4.000000,4.000000,100.000000
1602006294.962649,99.000000,0.000000,4134.871582,4135.897461,4125.641113,4127.692383,4125.641113,4127.179688,4118.974121,4121.025879,4133.846191,4126.153809,4113.333496,4136.922852,4088.718018,4114.871582,840.000000,4.000000,,,,0.000000,4.000000,4.000000,4.000000,4.000000,4.000000,4.000000,4.000000,4.000000,4.000000,4.000000,4.000000,4.000000,4.000000,4.000000,100.000000
1602006294.970531,100.000000,0.000000,4135.897461,4137.436035,4138.974121,4132.820313,4115.897461,4123.077148,4122.563965,4127.692383,4140.000000,4140.000000,4125.641113,4147.692383,4104.615234,4116.922852,769.000000,4.000000,,,,0.000000,4.000000,4.000000,4.000000,4.000000,4.000000,4.000000,4.000000,4.000000,4.000000,4.000000,4.000000,4.000000,4.000000,4.000000,100.000000
1602006294.978512,101.000000,0.000000,4138.461426,4136.922852,4138.974121,4140.000000,4108.717773,4123.589844,4121.538574,4133.333496,4137.948730,4128.205078,4127.179688,4145.641113,4105.641113,4112.820313,742.000000,4.000000,,,,0.000000,4.000000,4.000000,4.000000,4.000000,4.000000,4.000000,4.000000,4.000000,4.000000,4.000000,4.000000,4.000000,4.000000,4.000000,100.000000
1602006294.986394,102.000000,0.000000,4138.974121,4132.820313,4134.871582,4136.922852,4106.666504,4117.436035,4121.538574,4136.922852,4135.897461,4122.051270,4113.333496,4138.974121,4094.358887,4109.230957,871.000000,4.000000,,,,0.000000,4.000000,4.000000,4.000000,4.000000,4.000000,4.000000,4.000000,4.000000,4.000000,4.000000,4.000000,4.000000,4.000000,4.000000,100.000000
1602006294.994275,103.000000,0.000000,4130.256348,4127.179688,4132.307617,4126.153809,4112.820313,4120.000000,4134.358887,4140.000000,4142.051270,4128.205078,4100.000000,4134.358887,4090.769287,4096.410156,840.000000,4.000000,,,,0.000000,4.000000,4.000000,4.000000,4.000000,4.000000,4.000000,4.000000,4.000000,4.000000,4.000000,4.000000,4.000000,4.000000,4.000000,100.000000
1602006295.002157,104.000000,0.000000,4119.487305,4121.538574,4124.615234,4118.461426,4119.487305,4132.820313,4147.692383,4138.461426,4136.922852,4115.897461,4102.563965,4124.615234,4085.128174,4083.589844,769.000000,4.000000,,,,0.000000,4.000000,4.000000,4.000000,4.000000,4.000000,4.000000,4.000000,4.000000,4.000000,4.000000,4.000000,4.000000,4.000000,4.000000,100.000000
1602006295.010038,105.000000,0.000000,4116.410156,4113.846191,4118.461426,4118.461426,4118.974121,4131.794922,4145.128418,4136.922852,4121.025879,4103.077148,4109.743652,4118.974121,4071.794922,4086.153809,742.000000,4.000000,,,,0.000000,4.000000,4.000000,4.000000,4.000000,4.000000,4.000000,4.000000,4.000000,4.000000,4.000000,4.000000,4.000000,4.000000,4.000000,100.000000
1602006295.017919,106.000000,0.000000,4121.025879,4115.384766,4121.538574,4123.077148,4120.512695,4128.717773,4138.974121,4138.461426,4120.512695,4119.487305,4104.102539,4125.128418,4077.948730,4094.358887,871.000000,4.000000,,,,0.000000,4.000000,4.000000,4.000000,4.000000,4.000000,4.000000,4.000000,4.000000,4.000000,4.000000,4.000000,4.000000,4.000000,4.000000,100.000000
1602006295.025801,107.000000,0.000000,4123.589844,4123.077148,4124.615234,4122.051270,4124.102539,4133.846191,4134.358887,4132.820313,4127.692383,4131.282227,4091.794922,4126.153809,4085.128174,4088.205078,840.000000,4.000000,,,,0.000000,4.000000,4.000000,4.000000,4.000000,4.000000,4.000000,4.000000,4.000000,4.000000,4.000000,4.000000,4.000000,4.000000,4.000000,100.000000
1602006295.033582,108.000000,0.000000,4122.563965,4122.563965,4120.512695,4120.512695,4123.077148,4130.256348,4128.205078,4124.102539,4120.512695,4122.051270,4089.743652,4116.922852,4076.410156,4083.076904,769.000000,4.000000,,,,0.000000,4.000000,4.000000,4.000000,4.000000,4.000000,4.000000,4.000000,4.000000,4.000000,4.000000,4.000000,4.000000,4.000000,4.000000,100.000000
1602006295.041463,109.000000,0.000000,4122.051270,4123.589844,4122.563965,4126.666504,4126.153809,4126.666504,4130.769043,4128.205078,4119.487305,4128.205078,4104.102539,4117.436035,4088.718018,4101.538574,742.000000,4.000000,,,,0.000000,4.000000,4.000000,4.000000,4.000000,4.000000,4.000000,4.000000,4.000000,4.000000,4.000000,4.000000,4.000000,4.000000,4.000000,100.000000
1602006295.049344,110.000000,0.000000,4126.666504,4131.794922,4131.282227,4127.692383,4131.282227,4136.410156,4137.948730,4133.846191,4133.333496,4135.897461,4118.461426,4131.282227,4111.282227,4120.512695,871.000000,4.000000,,,,0.000000,4.000000,4.000000,4.000000,4.000000,4.000000,4.000000,4.000000,4.000000,4.000000,4.000000,4.000000,4.000000,4.000000,4.000000,100.000000
1602006295.057226,111.000000,0.000000,4129.743652,4130.256348,4131.282227,4124.615234,4126.153809,4137.436035,4131.794922,4127.179688,4131.282227,4121.025879,4112.820313,4136.410156,4105.128418,4113.846191,840.000000,4.000000,,,,0.000000,4.000000,4.000000,4.000000,4.000000,4.000000,4.000000,4.000000,4.000000,4.000000,4.000000,4.000000,4.000000,4.000000,4.000000,100.000000
1602006295.065107,112.000000,0.000000,4125.128418,4121.538574,4125.128418,4123.077148,4117.436035,4122.051270,4121.538574,4120.512695,4119.487305,4113.333496,4104.102539,4131.794922,4088.205078,4104.102539,769.000000,4.000000,,,,0.000000,4.000000,4.000000,4.000000,4.000000,4.000000,4.000000,4.000000,4.000000,4.000000,4.000000,4.000000,4.000000,4.000000,4.000000,100.000000
1602006295.072988,113.000000,0.000000,4119.487305,4119.487305,4126.666504,4122.563965,4118.461426,4121.025879,4123.589844,4122.051270,4122.051270,4122.051270,4109.743652,4133.846191,4089.743652,4112.307617,742.000000,4.000000,,,,0.000000,4.000000,4.000000,4.000000,4.000000,4.000000,4.000000,4.000000,4.000000,4.000000,4.000000,4.000000,4.000000,4.000000,4.000000,100.000000
1602006295.080769,114.000000,0.000000,4120.000000,4124.102539,4133.333496,4128.205078,4120.512695,4125.641113,4122.563965,4124.615234,4125.128418,4127.179688,4111.794922,4138.461426,4098.974121,4111.282227,871.000000,4.000000,,,,0.000000,4.000000,4.000000,4.000000,4.000000,4.000000,4.000000,4.000000,4.000000,4.000000,4.000000,4.000000,4.000000,4.000000,4.000000,100.000000
1602006295.088651,115.000000,0.000000,4131.794922,4136.410156,4136.410156,4138.461426,4119.487305,4122.051270,4122.051270,4128.717773,4120.000000,4136.922852,4111.794922,4136.922852,4104.102539,4105.641113,840.000000,4.000000,,,,0.000000,4.000000,4.000000,4.000000,4.000000,4.000000,4.000000,4.000000,4.000000,4.000000,4.000000,4.000000,4.000000,4.000000,4.000000,100.000000
1602006295.096532,116.000000,0.000000,4144.615234,4145.641113,4140.512695,4140.000000,4122.563965,4122.051270,4132.307617,4136.922852,4120.000000,4137.948730,4118.974121,4138.974121,4106.666504,4113.333496,769.000000,4.000000,,,,0.000000,4.000000,4.000000,4.000000,4.000000,4.000000,4.000000,4.000000,4.000000,4.000000,4.000000,4.000000,4.000000,4.000000,4.000000,100.000000
1602006295.104414,117.000000,0.000000,4142.051270,4141.538574,4140.000000,4136.410156,4124.102539,4124.102539,4138.974121,4140.000000,4121.538574,4118.974121,4115.897461,4142.051270,4106.153809,4121.538574,742.000000,4.000000,,,,0.000000,4.000000,4.000000,4.000000,4.000000,4.000000,4.000000,4.000000,4.000000,4.000000,4.000000,4.000000,4.000000,4.000000,4.000000,100.000000
1602006295.112295,118.000000,0.000000,4135.384766,4138.461426,4133.333496,4135.384766,4121.538574,4120.512695,4135.384766,4136.922852,4119.487305,4128.205078,4103.077148,4132.820313,4106.666504,4125.641113,871.000000,4.000000,,,,0.000000,4.000000,4.000000,4.000000,4.000000,4.000000,4.000000,4.000000,4.000000,4.000000,4.000000,4.000000,4.000000,4.000000,4.000000,100.000000
1602006295.120176,119.000000,0.000000,4140.000000,4144.102539,4123.589844,4128.717773,4124.615234,4127.179688,4135.897461,4136.410156,4122.563965,4149.230957,4107.179688,4123.077148,4105.128418,4115.897461,840.000000,4.000000,,,,0.000000,4.000000,4.000000,4.000000,4.000000,4.000000,4.000000,4.000000,4.000000,4.000000,4.000000,4.000000,4.000000,4.000000,4.000000,100.000000
1602006295.128158,120.000000,0.000000,4136.410156,4139.487305,4113.333496,4121.538574,4127.692383,4137.948730,4140.512695,4133.333496,4124.615234,4132.820313,4109.230957,4121.538574,4100.000000,4092.820557,769.000000,4.000000,,,,0.000000,4.000000,4.000000,4.000000,4.000000,4.000000,4.000000,4.000000,4.000000,4.000000,4.000000,4.000000,4.000000,4.000000,4.000000,100.000000
1602006295.136040,121.000000,0.000000,4121.538574,4125.128418,4110.256348,4123.589844,4123.589844,4130.769043,4135.384766,4125.128418,4117.436035,4117.948730,4095.897461,4122.051270,4092.307617,4085.641113,742.000000,4.000000,,,,0.000000,4.000000,4.000000,4.000000,4.000000,4.000000,4.000000,4.000000,4.000000,4.000000,4.000000,4.000000,4.000000,4.000000,4.000000,100.000000
1602006295.143921,122.000000,0.000000,4119.487305,4127.179688,4118.461426,4126.153809,4123.589844,4123.589844,4129.230957,4126.153809,4114.358887,4118.461426,4099.487305,4123.589844,4086.666748,4103.589844,871.000000,4.000000,,,,0.000000,4.000000,4.000000,4.000000,4.000000,4.000000,4.000000,4.000000,4.000000,4.000000,4.000000,4.000000,4.000000,4.000000,4.000000,100.000000
1602006295.151803,123.000000,0.000000,4126.153809,4136.410156,4125.128418,4125.128418,4127.692383,4135.897461,4133.846191,4136.410156,4121.025879,4109.743652,4122.563965,4127.179688,4089.743652,4115.897461,840.000000,4.000000,,,,0.000000,4.000000,4.000000,4.000000,4.000000,4.000000,4.000000,4.000000,4.000000,4.000000,4.000000,4.000000,4.000000,4.000000,4.000000,100.000000
1602006295.159684,124.000000,0.000000,4124.102539,4127.179688,4122.051270,4120.512695,4121.025879,4138.461426,4138.461426,4135.897461,4124.102539,4107.179688,4122.051270,4126.153809,4091.794922,4105.641113,769.000000,4.000000,,,,0.000000,4.000000,4.000000,4.000000,4.000000,4.000000,4.000000,4.000000,4.000000,4.000000,4.000000,4.000000,4.000000,4.000000,4.000000,100.000000
1602006295.167566,125.000000,0.000000,4126.153809,4115.897461,4127.179688,4118.461426,4115.897461,4124.102539,4137.436035,4124.615234,4124.102539,4127.692383,4101.538574,4129.230957,4088.205078,4104.102539,742.000000,4.000000,,,,0.000000,4.000000,4.000000,4.000000,4.000000,4.000000,4.000000,4.000000,4.000000,4.000000,4.000000,4.000000,4.000000,4.000000,4.000000,100.000000
1602006295.175448,126.000000,0.000000,4134.358887,4121.025879,4145.641113,4122.563965,4117.436035,4122.563965,4137.436035,4123.589844,4128.205078,4141.025879,4104.615234,4141.025879,4097.436035,4121.025879,871.000000,4.000000,,,,0.000000,4.000000,4.000000,4.000000,4.000000,4.000000,4.000000,4.000000,4.000000,4.000000,4.000000,4.000000,4.000000,4.000000,4.000000,100.000000
1602006295.183329,127.000000,0.000000,4131.282227,4124.615234,4152.820313,4122.563965,4115.384766,4125.641113,4139.487305,4133.846191,4128.205078,4140.512695,4124.102539,4144.615234,4114.871582,4124.615234,840.000000,4.000000,,,,0.000000,4.000000,4.000000,4.000000,4.000000,4.000000,4.000000,4.000000,4.000000,4.000000,4.000000,4.000000,4.000000,4.000000,4.000000,100.000000
1602006295.191211,128.000000,0.000000,4120.512695,4118.461426,4140.000000,4119.487305,4112.307617,4119.487305,4142.051270,4136.410156,4121.025879,4134.871582,4122.563965,4137.948730,4107.179688,4108.205078,769.000000,4.000000,,,,0.000000,4.000000,4.000000,4.000000,4.000000,4.000000,4.000000,4.000000,4.000000,4.000000,4.000000,4.000000,4.000000,4.000000,4.000000,100.000000
1602006295.198993,0.000000,0.000000,4118.461426,4121.538574,4129.743652,4124.615234,4118.461426,4127.692383,4144.102539,4134.358887,4118.974121,4115.897461,4113.846191,4137.948730,4092.820557,4104.615234,757.000000,4.000000,,,,0.000000,4.000000,4.000000,4.000000,4.000000,4.000000,4.000000,4.000000,4.000000,4.000000,4.000000,4.000000,4.000000,4.000000,4.000000,100.000000
1602006295.206874,1.000000,0.000000,4120.512695,4131.794922,4129.230957,4129.743652,4124.615234,4142.051270,4144.102539,4138.974121,4123.077148,4107.692383,4121.538574,4138.461426,4100.000000,4109.743652,788.000000,4.000000,,,,0.000000,4.000000,4.000000,4.000000,4.000000,4.000000,4.000000,4.000000,4.000000,4.000000,4.000000,4.000000,4.000000,4.000000,4.000000,100.000000
1602006295.214755,2.000000,0.000000,4121.538574,4135.384766,4124.102539,4124.615234,4123.589844,4135.897461,4140.000000,4137.948730,4122.051270,4118.974121,4125.641113,4124.615234,4110.769043,4109.230957,852.000000,4.000000,,,,0.000000,4.000000,4.000000,4.000000,4.000000,4.000000,4.000000,4.000000,4.000000,4.000000,4.000000,4.000000,4.000000,4.000000,4.000000,100.000000
1602006295.222637,3.000000,0.000000,4130.769043,4134.358887,4125.128418,4129.743652,4127.179688,4125.641113,4132.307617,4126.666504,4117.948730,4127.179688,4116.410156,4119.487305,4109.230957,4117.948730,866.000000,4.000000,,,,0.000000,4.000000,4.000000,4.000000,4.000000,4.000000,4.000000,4.000000,4.000000,4.000000,4.000000,4.000000,4.000000,4.000000,4.000000,100.000000
1602006295.230518,4.000000,0.000000,4140.000000,4140.000000,4137.436035,4141.025879,4134.871582,4125.128418,4125.641113,4122.563965,4123.077148,4138.974121,4120.000000,4131.794922,4108.717773,4127.179688,813.000000,4.000000,,,,0.000000,4.000000,4.000000,4.000000,4.000000,4.000000,4.000000,4.000000,4.000000,4.000000,4.000000,4.000000,4.000000,4.000000,4.000000,100.000000
1602006295.238400,5.000000,0.000000,4136.410156,4143.077148,4134.871582,4131.794922,4132.820313,4124.102539,4125.128418,4123.077148,4131.282227,4156.410156,4126.153809,4136.922852,4112.820313,4120.512695,818.000000,4.000000,,,,0.000000,4.000000,4.000000,4.000000,4.000000,4.000000,4.000000,4.000000,4.000000,4.000000,4.000000,4.000000,4.000000,4.000000,4.000000,100.000000
1602006295.246281,6.000000,0.000000,4126.666504,4131.794922,4120.512695,4118.461426,4121.538574,4122.051270,4125.128418,4114.871582,4124.615234,4143.077148,4110.256348,4126.153809,4104.615234,4109.230957,770.000000,4.000000,,,,0.000000,4.000000,4.000000,4.000000,4.000000,4.000000,4.000000,4.000000,4.000000,4.000000,4.000000,4.000000,4.000000,4.000000,4.000000,100.000000
1602006295.254062,7.000000,0.000000,4123.589844,4121.538574,4121.538574,4122.051270,4118.974121,4124.102539,4123.077148,4108.717773,4105.641113,4107.179688,4096.922852,4120.512695,4092.307617,4104.615234,632.000000,4.000000,,,,0.000000,4.000000,4.000000,4.000000,4.000000,4.000000,4.000000,4.000000,4.000000,4.000000,4.000000,4.000000,4.000000,4.000000,4.000000,100.000000
1602006295.261943,8.000000,0.000000,4123.589844,4125.128418,4127.179688,4125.128418,4122.051270,4122.563965,4121.538574,4111.282227,4102.051270,4107.692383,4103.589844,4122.051270,4095.384521,4105.641113,788.000000,4.000000,,,,0.000000,4.000000,4.000000,4.000000,4.000000,4.000000,4.000000,4.000000,4.000000,4.000000,4.000000,4.000000,4.000000,4.000000,4.000000,100.000000
1602006295.269825,9.000000,0.000000,4129.230957,4134.358887,4122.051270,4122.563965,4123.589844,4121.025879,4120.512695,4111.282227,4111.794922,4129.230957,4115.384766,4119.487305,4106.153809,4113.846191,838.000000,4.000000,,,,0.000000,4.000000,4.000000,4.000000,4.000000,4.000000,4.000000,4.000000,4.000000,4.000000,4.000000,4.000000,4.000000,4.000000,4.000000,100.000000
1602006295.277706,10.000000,0.000000,4145.641113,4143.589844,4126.666504,4131.794922,4131.282227,4123.589844,4118.974121,4106.153809,4112.307617,4121.538574,4120.000000,4122.563965,4111.794922,4126.666504,871.000000,4.000000,,,,0.000000,4.000000,4.000000,4.000000,4.000000,4.000000,4.000000,4.000000,4.000000,4.000000,4.000000,4.000000,4.000000,4.000000,4.000000,100.000000
1602006295.285587,11.000000,0.000000,4161.025879,4152.307617,4139.487305,4143.077148,4140.000000,4125.641113,4121.025879,4106.666504,4109.743652,4110.769043,4122.051270,4136.922852,4120.000000,4138.461426,775.000000,4.000000,,,,0.000000,4.000000,4.000000,4.000000,4.000000,4.000000,4.000000,4.000000,4.000000,4.000000,4.000000,4.000000,4.000000,4.000000,4.000000,100.000000
1602006295.293568,12.000000,0.000000,4159.487305,4159.487305,4143.077148,4144.102539,4141.538574,4123.589844,4121.025879,4114.358887,4110.769043,4117.436035,4122.051270,4143.589844,4130.256348,4138.974121,769.000000,4.000000,,,,0.000000,4.000000,4.000000,4.000000,4.000000,4.000000,4.000000,4.000000,4.000000,4.000000,4.000000,4.000000,4.000000,4.000000,4.000000,100.000000
1602006295.301450,13.000000,0.000000,4135.384766,4153.846191,4136.410156,4140.512695,4136.922852,4122.563965,4125.128418,4121.538574,4110.256348,4115.897461,4108.717773,4133.333496,4111.282227,4117.948730,742.000000,4.000000,,,,0.000000,4.000000,4.000000,4.000000,4.000000,4.000000,4.000000,4.000000,4.000000,4.000000,4.000000,4.000000,4.000000,4.000000,4.000000,100.000000
1602006295.309332,14.000000,0.000000,4116.410156,4139.487305,4126.666504,4133.846191,4128.717773,4127.179688,4134.871582,4126.153809,4113.846191,4111.794922,4101.025879,4122.051270,4090.256348,4096.410156,871.000000,4.000000,,,,0.000000,4.000000,4.000000,4.000000,4.000000,4.000000,4.000000,4.000000,4.000000,4.000000,4.000000,4.000000,4.000000,4.000000,4.000000,100.000000
1602006295.317213,15.000000,0.000000,4125.128418,4133.846191,4118.974121,4126.666504,4123.589844,4126.153809,4134.871582,4127.179688,4125.641113,4129.743652,4119.487305,4118.974121,4112.307617,4105.641113,775.000000,4.000000,,,,0.000000,4.000000,4.000000,4.000000,4.000000,4.000000,4.000000,4.000000,4.000000,4.000000,4.000000,4.000000,4.000000,4.000000,4.000000,100.000000
1602006295.325095,16.000000,0.000000,4138.974121,4137.948730,4123.077148,4130.769043,4128.717773,4122.563965,4124.102539,4129.230957,4140.000000,4150.256348,4142.563965,4126.666504,4146.666504,4138.974121,0.000000,4.000000,,,,0.000000,4.000000,4.000000,4.000000,4.000000,4.000000,4.000000,4.000000,4.000000,4.000000,4.000000,4.000000,4.000000,4.000000,4.000000,100.000000
1602006295.332977,17.000000,0.000000,4140.000000,4142.563965,4142.563965,4142.051270,4140.512695,4132.307617,4119.487305,4131.794922,4152.820313,4158.974121,4148.717773,4146.153809,4165.641113,4156.922852,0.000000,4.000000,,,,0.000000,4.000000,4.000000,4.000000,4.000000,4.000000,4.000000,4.000000,4.000000,4.000000,4.000000,4.000000,4.000000,4.000000,4.000000,100.000000
1602006295.340858,18.000000,0.000000,4140.512695,4141.538574,4155.384766,4143.589844,4149.743652,4138.974121,4116.922852,4130.769043,4158.974121,4161.025879,4155.897461,4161.025879,4182.563965,4155.384766,0.000000,4.000000,,,,0.000000,4.000000,4.000000,4.000000,4.000000,4.000000,4.000000,4.000000,4.000000,4.000000,4.000000,4.000000,4.000000,4.000000,4.000000,100.000000
1602006295.348740,19.000000,0.000000,4145.128418,4134.871582,4150.256348,4136.410156,4148.717773,4129.230957,4106.153809,4125.641113,4149.230957,4145.128418,4163.589844,4157.436035,4195.384766,4160.000000,0.000000,4.000000,,,,0.000000,4.000000,4.000000,4.000000,4.000000,4.000000,4.000000,4.000000,4.000000,4.000000,4.000000,4.000000,4.000000,4.000000,4.000000,100.000000
1602006295.356622,20.000000,0.000000,4141.025879,4125.128418,4141.538574,4134.358887,4142.563965,4121.538574,4103.589844,4123.589844,4144.615234,4132.307617,4154.358887,4150.769043,4182.051270,4166.666504,0.000000,4.000000,,,,0.000000,4.000000,4.000000,4.000000,4.000000,4.000000,4.000000,4.000000,4.000000,4.000000,4.000000,4.000000,4.000000,4.000000,4.000000,100.000000
1602006295.364503,21.000000,0.000000,4130.769043,4123.077148,4142.563965,4135.897461,4142.563965,4128.205078,4116.922852,4130.769043,4155.384766,4146.666504,4142.051270,4151.794922,4168.717773,4163.589844,0.000000,4.000000,,,,0.000000,4.000000,4.000000,4.000000,4.000000,4.000000,4.000000,4.000000,4.000000,4.000000,4.000000,4.000000,4.000000,4.000000,4.000000,100.000000
1602006295.372285,22.000000,0.000000,4125.641113,4124.102539,4140.000000,4129.743652,4142.051270,4133.846191,4129.743652,4138.461426,4160.512695,4163.589844,4136.922852,4152.820313,4169.230957,4151.282227,0.000000,4.000000,,,,0.000000,4.000000,4.000000,4.000000,4.000000,4.000000,4.000000,4.000000,4.000000,4.000000,4.000000,4.000000,4.000000,4.000000,4.000000,100.000000
1602006295.380166,23.000000,0.000000,4122.563965,4115.897461,4130.256348,4120.000000,4135.897461,4126.666504,4138.461426,4141.025879,4155.384766,4160.000000,4134.358887,4149.230957,4163.077148,4145.641113,0.000000,4.000000,,,,0.000000,4.000000,4.000000,4.000000,4.000000,4.000000,4.000000,4.000000,4.000000,4.000000,4.000000,4.000000,4.000000,4.000000,4.000000,100.000000
1602006295.388048,24.000000,0.000000,4119.487305,4112.307617,4132.307617,4121.538574,4130.256348,4121.538574,4145.128418,4141.025879,4150.769043,4152.820313,4136.922852,4150.256348,4159.487305,4151.794922,0.000000,4.000000,,,,0.000000,4.000000,4.000000,4.000000,4.000000,4.000000,4.000000,4.000000,4.000000,4.000000,4.000000,4.000000,4.000000,4.000000,4.000000,100.000000
1602006295.395929,25.000000,0.000000,4118.974121,4117.436035,4138.974121,4125.641113,4126.153809,4128.717773,4144.102539,4141.025879,4147.179688,4151.794922,4142.051270,4150.769043,4161.538574,4150.256348,0.000000,4.000000,,,,0.000000,4.000000,4.000000,4.000000,4.000000,4.000000,4.000000,4.000000,4.000000,4.000000,4.000000,4.000000,4.000000,4.000000,4.000000,100.000000
1602006295.403810,26.000000,0.000000,4121.025879,4122.051270,4132.820313,4125.128418,4128.205078,4137.948730,4138.461426,4137.948730,4135.897461,4143.077148,4141.025879,4145.128418,4160.512695,4137.436035,0.000000,4.000000,,,,0.000000,4.000000,4.000000,4.000000,4.000000,4.000000,4.000000,4.000000,4.000000,4.000000,4.000000,4.000000,4.000000,4.000000,4.000000,100.000000
1602006295.411692,27.000000,0.000000,4126.666504,4119.487305,4125.641113,4121.538574,4133.333496,4136.410156,4140.000000,4127.692383,4121.538574,4122.563965,4136.410156,4141.025879,4156.410156,4131.282227,0.000000,4.000000,,,,0.000000,4.000000,4.000000,4.000000,4.000000,4.000000,4.000000,4.000000,4.000000,4.000000,4.000000,4.000000,4.000000,4.000000,4.000000,100.000000
1602006295.419573,28.000000,0.000000,4123.589844,4110.769043,4121.538574,4115.384766,4126.666504,4127.179688,4138.461426,4117.436035,4108.205078,4105.128418,4138.461426,4141.538574,4150.769043,4138.974121,0.000000,4.000000,,,,0.000000,4.000000,4.000000,4.000000,4.000000,4.000000,4.000000,4.000000,4.000000,4.000000,4.000000,4.000000,4.000000,4.000000,4.000000,100.000000
1602006295.427455,29.000000,0.000000,4108.205078,4103.589844,4108.205078,4113.333496,4118.461426,4120.000000,4126.666504,4114.358887,4106.153809,4110.769043,4136.410156,4138.461426,4145.128418,4138.974121,0.000000,4.000000,,,,0.000000,4.000000,4.000000,4.000000,4.000000,4.000000,4.000000,4.000000,4.000000,4.000000,4.000000,4.000000,4.000000,4.000000,4.000000,100.000000
1602006295.435236,30.000000,0.000000,4108.205078,4107.179688,4102.051270,4121.025879,4128.717773,4123.077148,4118.974121,4118.974121,4118.974121,4132.307617,4125.641113,4135.897461,4149.230957,4134.871582,0.000000,4.000000,,,,0.000000,4.000000,4.000000,4.000000,4.000000,4.000000,4.000000,4.000000,4.000000,4.000000,4.000000,4.000000,4.000000,4.000000,4.000000,100.000000
1602006295.443118,31.000000,0.000000,4125.641113,4117.948730,4116.410156,4128.717773,4138.461426,4130.769043,4120.512695,4125.641113,4139.487305,4148.717773,4121.025879,4144.615234,4156.922852,4144.102539,0.000000,4.000000,,,,0.000000,4.000000,4.000000,4.000000,4.000000,4.000000,4.000000,4.000000,4.000000,4.000000,4.000000,4.000000,4.000000,4.000000,4.000000,100.000000
1602006295.451000,32.000000,0.000000,4128.717773,4121.025879,4124.615234,4127.692383,4137.436035,4129.230957,4117.436035,4134.871582,4159.487305,4150.769043,4130.256348,4151.282227,4155.384766,4157.948730,0.000000,4.000000,,,,0.000000,4.000000,4.000000,4.000000,4.000000,4.000000,4.000000,4.000000,4.000000,4.000000,4.000000,4.000000,4.000000,4.000000,4.000000,100.000000
1602006295.458881,33.000000,0.000000,4121.025879,4116.922852,4124.102539,4129.230957,4140.000000,4131.282227,4118.461426,4147.179688,4172.307617,4149.743652,4146.153809,4153.333496,4157.436035,4156.410156,0.000000,4.000000,,,,0.000000,4.000000,4.000000,4.000000,4.000000,4.000000,4.000000,4.000000,4.000000,4.000000,4.000000,4.000000,4.000000,4.000000,4.000000,100.000000
1602006295.466763,34.000000,0.000000,4123.077148,4110.256348,4124.615234,4125.641113,4136.410156,4141.538574,4130.256348,4154.358887,4180.512695,4157.948730,4147.692383,4153.333496,4161.538574,4132.820313,0.000000,4.000000,,,,0.000000,4.000000,4.000000,4.000000,4.000000,4.000000,4.000000,4.000000,4.000000,4.000000,4.000000,4.000000,4.000000,4.000000,4.000000,100.000000
1602006295.474644,35.000000,0.000000,4123.077148,4105.128418,4122.563965,4113.846191,4127.692383,4141.538574,4140.512695,4156.410156,4187.692383,4165.128418,4136.922852,4150.769043,4155.897461,4119.487305,0.000000,4.000000,,,,0.000000,4.000000,4.000000,4.000000,4.000000,4.000000,4.000000,4.000000,4.000000,4.000000,4.000000,4.000000,4.000000,4.000000,4.000000,100.000000
1602006295.482526,36.000000,0.000000,4121.538574,4106.666504,4127.692383,4114.358887,4128.717773,4145.641113,4149.743652,4158.974121,4189.743652,4157.948730,4144.102539,4157.436035,4152.307617,4135.384766,0.000000,4.000000,,,,0.000000,4.000000,4.000000,4.000000,4.000000,4.000000,4.000000,4.000000,4.000000,4.000000,4.000000,4.000000,4.000000,4.000000,4.000000,100.000000
1602006295.490408,37.000000,0.000000,4126.666504,4108.717773,4140.000000,4124.102539,4131.794922,4157.948730,4160.000000,4162.051270,4184.102539,4154.358887,4159.487305,4170.769043,4158.461426,4145.641113,0.000000,4.000000,,,,0.000000,4.000000,4.000000,4.000000,4.000000,4.000000,4.000000,4.000000,4.000000,4.000000,4.000000,4.000000,4.000000,4.000000,4.000000,100.000000
1602006295.498289,38.000000,0.000000,4123.589844,4103.077148,4136.410156,4118.461426,4125.128418,4151.794922,4155.384766,4155.897461,4166.666504,4153.846191,4148.717773,4166.666504,4157.948730,4135.384766,0.000000,4.000000,,,,0.000000,4.000000,4.000000,4.000000,4.000000,4.000000,4.000000,4.000000,4.000000,4.000000,4.000000,4.000000,4.000000,4.000000,4.000000,100.000000
1602006295.506271,39.000000,0.000000,4114.358887,4095.384521,4123.589844,4104.102539,4120.000000,4134.871582,4142.051270,4144.102539,4146.153809,4140.000000,4129.743652,4154.358887,4143.589844,4132.820313,0.000000,4.000000,,,,0.000000,4.000000,4.000000,4.000000,4.000000,4.000000,4.000000,4.000000,4.000000,4.000000,4.000000,4.000000,4.000000,4.000000,4.000000,100.000000
1602006295.514153,40.000000,0.000000,4112.820313,4093.846191,4125.641113,4107.179688,4121.025879,4137.436035,4139.487305,4133.333496,4134.871582,4136.410156,4125.128418,4150.769043,4132.307617,4136.922852,0.000000,4.000000,,,,0.000000,4.000000,4.000000,4.000000,4.000000,4.000000,4.000000,4.000000,4.000000,4.000000,4.000000,4.000000,4.000000,4.000000,4.000000,100.000000
1602006295.522034,41.000000,0.000000,4110.256348,4091.281982,4126.666504,4108.205078,4124.102539,4134.871582,4136.922852,4121.538574,4120.512695,4133.333496,4123.077148,4143.589844,4131.794922,4125.641113,0.000000,4.000000,,,,0.000000,4.000000,4.000000,4.000000,4.000000,4.000000,4.000000,4.000000,4.000000,4.000000,4.000000,4.000000,4.000000,4.000000,4.000000,100.000000
1602006295.529916,42.000000,0.000000,4106.666504,4095.384521,4120.512695,4102.051270,4127.179688,4122.563965,4126.666504,4116.922852,4109.743652,4124.102539,4126.666504,4136.410156,4139.487305,4118.461426,0.000000,4.000000,,,,0.000000,4.000000,4.000000,4.000000,4.000000,4.000000,4.000000,4.000000,4.000000,4.000000,4.000000,4.000000,4.000000,4.000000,4.000000,100.000000
1602006295.537797,43.000000,0.000000,4109.743652,4106.153809,4121.025879,4110.769043,4126.153809,4124.102539,4125.128418,4122.563965,4126.153809,4137.436035,4136.922852,4139.487305,4148.717773,4128.717773,0.000000,4.000000,,,,0.000000,4.000000,4.000000,4.000000,4.000000,4.000000,4.000000,4.000000,4.000000,4.000000,4.000000,4.000000,4.000000,4.000000,4.000000,100.000000
1602006295.545679,44.000000,0.000000,4111.282227,4112.307617,4123.589844,4124.615234,4129.743652,4130.769043,4125.128418,4126.666504,4142.563965,4145.128418,4142.051270,4140.000000,4151.794922,4134.358887,0.000000,4.000000,,,,0.000000,4.000000,4.000000,4.000000,4.000000,4.000000,4.000000,4.000000,4.000000,4.000000,4.000000,4.000000,4.000000,4.000000,4.000000,100.000000
1602006295.553561,45.000000,0.000000,4114.871582,4116.922852,4122.051270,4124.102539,4133.846191,4129.230957,4121.025879,4127.692383,4142.563965,4117.436035,4147.179688,4136.922852,4149.743652,4135.384766,0.000000,4.000000,,,,0.000000,4.000000,4.000000,4.000000,4.000000,4.000000,4.000000,4.000000,4.000000,4.000000,4.000000,4.000000,4.000000,4.000000,4.000000,100.000000
1602006295.561442,46.000000,0.000000,4121.538574,4122.563965,4125.128418,4121.025879,4126.153809,4124.102539,4118.461426,4131.282227,4148.205078,4119.487305,4149.230957,4140.512695,4150.769043,4139.487305,0.000000,4.000000,,,,0.000000,4.000000,4.000000,4.000000,4.000000,4.000000,4.000000,4.000000,4.000000,4.000000,4.000000,4.000000,4.000000,4.000000,4.000000,100.000000
1602006295.569324,47.000000,0.000000,4122.051270,4121.538574,4131.282227,4125.641113,4120.512695,4121.025879,4121.538574,4136.410156,4157.436035,4162.563965,4143.589844,4147.179688,4158.974121,4138.974121,0.000000,4.000000,,,,0.000000,4.000000,4.000000,4.000000,4.000000,4.000000,4.000000,4.000000,4.000000,4.000000,4.000000,4.000000,4.000000,4.000000,4.000000,100.000000
1602006295.577206,48.000000,0.000000,4119.487305,4120.512695,4134.871582,4128.717773,4126.153809,4123.589844,4129.230957,4145.128418,4156.410156,4178.461426,4145.641113,4154.871582,4168.205078,4143.077148,0.000000,4.000000,,,,0.000000,4.000000,4.000000,4.000000,4.000000,4.000000,4.000000,4.000000,4.000000,4.000000,4.000000,4.000000,4.000000,4.000000,4.000000,100.000000
1602006295.584987,49.000000,0.000000,4129.230957,4125.128418,4139.487305,4129.743652,4128.205078,4125.641113,4140.512695,4156.922852,4159.487305,4170.256348,4154.871582,4165.128418,4170.769043,4157.948730,0.000000,4.000000,,,,0.000000,4.000000,4.000000,4.000000,4.000000,4.000000,4.000000,4.000000,4.000000,4.000000,4.000000,4.000000,4.000000,4.000000,4.000000,100.000000
1602006295.592868,50.000000,0.000000,4141.025879,4126.153809,4147.692383,4128.205078,4122.051270,4121.025879,4141.025879,4156.410156,4162.051270,4162.051270,4156.410156,4170.256348,4166.153809,4160.512695,0.000000,4.000000,,,,0.000000,4.000000,4.000000,4.000000,4.000000,4.000000,4.000000,4.000000,4.000000,4.000000,4.000000,4.000000,4.000000,4.000000,4.000000,100.000000
1602006295.600749,51.000000,0.000000,4142.051270,4125.641113,4149.230957,4129.230957,4121.025879,4120.000000,4135.897461,4144.615234,4152.820313,4148.205078,4154.871582,4170.769043,4167.179688,4150.769043,0.000000,4.000000,,,,0.000000,4.000000,4.000000,4.000000,4.000000,4.000000,4.000000,4.000000,4.000000,4.000000,4.000000,4.000000,4.000000,4.000000,4.000000,100.000000
1602006295.608630,52.000000,0.000000,4133.333496,4125.128418,4144.615234,4131.794922,4123.077148,4126.153809,4136.410156,4132.307617,4137.948730,4135.897461,4155.384766,4170.769043,4175.897461,4156.410156,0.000000,4.000000,,,,0.000000,4.000000,4.000000,4.000000,4.000000,4.000000,4.000000,4.000000,4.000000,4.000000,4.000000,4.000000,4.000000,4.000000,4.000000,100.000000
1602006295.616411,53.000000,0.000000,4122.563965,4124.102539,4142.563965,4127.179688,4126.153809,4128.717773,4131.794922,4123.077148,4122.051270,4134.358887,4154.871582,4172.307617,4169.230957,4163.589844,0.000000,4.000000,,,,0.000000,4.000000,4.000000,4.000000,4.000000,4.000000,4.000000,4.000000,4.000000,4.000000,4.000000,4.000000,4.000000,4.000000,4.000000,100.000000
1602006295.624293,54.000000,0.000000,4128.717773,4124.102539,4143.077148,4127.179688,4128.205078,4126.153809,4121.538574,4117.948730,4121.538574,4140.512695,4156.410156,4164.102539,4155.897461,4155.897461,0.000000,4.000000,,,,0.000000,4.000000,4.000000,4.000000,4.000000,4.000000,4.000000,4.000000,4.000000,4.000000,4.000000,4.000000,4.000000,4.000000,4.000000,100.000000
1602006295.632175,55.000000,0.000000,4133.333496,4125.128418,4142.563965,4131.794922,4128.205078,4122.563965,4119.487305,4126.666504,4142.563965,4155.897461,4154.871582,4154.871582,4159.487305,4150.769043,0.000000,4.000000,,,,0.000000,4.000000,4.000000,4.000000,4.000000,4.000000,4.000000,4.000000,4.000000,4.000000,4.000000,4.000000,4.000000,4.000000,4.000000,100.000000
1602006295.640056,56.000000,0.000000,4123.589844,4124.615234,4140.512695,4127.692383,4129.230957,4118.974121,4122.563965,4146.153809,4155.897461,4174.358887,4150.769043,4160.000000,4169.743652,4156.410156,0.000000,4.000000,,,,0.000000,4.000000,4.000000,4.000000,4.000000,4.000000,4.000000,4.000000,4.000000,4.000000,4.000000,4.000000,4.000000,4.000000,4.000000,100.000000
1602006295.647938,57.000000,0.000000,4120.000000,4123.077148,4137.948730,4126.666504,4126.666504,4122.051270,4125.641113,4154.358887,4153.333496,4169.743652,4156.922852,4164.615234,4167.692383,4161.025879,0.000000,4.000000,,,,0.000000,4.000000,4.000000,4.000000,4.000000,4.000000,4.000000,4.000000,4.000000,4.000000,4.000000,4.000000,4.000000,4.000000,4.000000,100.000000
1602006295.655819,58.000000,0.000000,4125.128418,4123.589844,4135.897461,4130.769043,4122.563965,4125.128418,4127.179688,4144.615234,4153.846191,4139.487305,4154.358887,4153.846191,4156.922852,4149.743652,0.000000,4.000000,,,,0.000000,4.000000,4.000000,4.000000,4.000000,4.000000,4.000000,4.000000,4.000000,4.000000,4.000000,4.000000,4.000000,4.000000,4.000000,100.000000
1602006295.663701,59.000000,0.000000,4126.153809,4121.025879,4135.384766,4124.102539,4122.051270,4120.512695,4128.717773,4135.384766,4150.769043,4122.051270,4137.436035,4144.615234,4149.743652,4132.820313,0.000000,4.000000,,,,0.000000,4.000000,4.000000,4.000000,4.000000,4.000000,4.000000,4.000000,4.000000,4.000000,4.000000,4.000000,4.000000,4.000000,4.000000,100.000000
1602006295.671583,60.000000,0.000000,4126.153809,4120.000000,4135.897461,4125.128418,4125.128418,4124.615234,4133.333496,4139.487305,4145.641113,4133.846191,4138.461426,4148.717773,4149.230957,4140.512695,0.000000,4.000000,,,,0.000000,4.000000,4.000000,4.000000,4.000000,4.000000,4.000000,4.000000,4.000000,4.000000,4.000000,4.000000,4.000000,4.000000,4.000000,100.000000
1602006295.679464,61.000000,0.000000,4136.410156,4130.769043,4146.153809,4140.000000,4126.153809,4138.974121,4140.512695,4150.769043,4152.307617,4148.205078,4161.025879,4154.871582,4158.974121,4164.615234,0.000000,4.000000,,,,0.000000,4.000000,4.000000,4.000000,4.000000,4.000000,4.000000,4.000000,4.000000,4.000000,4.000000,4.000000,4.000000,4.000000,4.000000,100.000000
1602006295.687246,62.000000,0.000000,4150.769043,4137.436035,4152.820313,4136.410156,4126.153809,4135.897461,4140.512695,4151.282227,4152.307617,4157.948730,4165.641113,4158.461426,4169.230957,4171.794922,0.000000,4.000000,,,,0.000000,4.000000,4.000000,4.000000,4.000000,4.000000,4.000000,4.000000,4.000000,4.000000,4.000000,4.000000,4.000000,4.000000,4.000000,100.000000
1602006295.695127,63.000000,0.000000,4157.948730,4129.743652,4145.128418,4124.102539,4126.153809,4121.025879,4131.282227,4140.512695,4135.384766,4176.922852,4152.820313,4158.974121,4174.871582,4169.230957,0.000000,4.000000,,,,0.000000,4.000000,4.000000,4.000000,4.000000,4.000000,4.000000,4.000000,4.000000,4.000000,4.000000,4.000000,4.000000,4.000000,4.000000,100.000000
1602006295.703008,64.000000,0.000000,4150.769043,4124.102539,4139.487305,4124.615234,4124.615234,4116.922852,4125.128418,4135.897461,4122.563965,4164.615234,4151.794922,4156.410156,4170.256348,4172.307617,787.000000,4.000000,,,,0.000000,4.000000,4.000000,4.000000,4.000000,4.000000,4.000000,4.000000,4.000000,4.000000,4.000000,4.000000,4.000000,4.000000,4.000000,100.000000
1602006295.710889,65.000000,0.000000,4138.974121,4127.692383,4136.922852,4131.282227,4129.230957,4118.974121,4121.025879,4138.461426,4122.051270,4121.538574,4152.820313,4155.897461,4154.871582,4162.051270,788.000000,4.000000,,,,0.000000,4.000000,4.000000,4.000000,4.000000,4.000000,4.000000,4.000000,4.000000,4.000000,4.000000,4.000000,4.000000,4.000000,4.000000,100.000000
1602006295.718770,66.000000,0.000000,4134.871582,4133.333496,4129.230957,4134.358887,4137.948730,4125.641113,4121.538574,4135.384766,4122.563965,4128.205078,4147.692383,4152.307617,4150.256348,4140.512695,852.000000,4.000000,,,,0.000000,4.000000,4.000000,4.000000,4.000000,4.000000,4.000000,4.000000,4.000000,4.000000,4.000000,4.000000,4.000000,4.000000,4.000000,100.000000
1602006295.726752,67.000000,0.000000,4137.436035,4140.000000,4127.692383,4137.436035,4141.025879,4138.461426,4129.743652,4129.230957,4124.102539,4158.974121,4146.153809,4143.589844,4158.974121,4139.487305,866.000000,4.000000,,,,0.000000,4.000000,4.000000,4.000000,4.000000,4.000000,4.000000,4.000000,4.000000,4.000000,4.000000,4.000000,4.000000,4.000000,4.000000,100.000000
1602006295.734633,68.000000,0.000000,4137.948730,4138.461426,4137.948730,4142.051270,4138.974121,4143.077148,4134.871582,4124.102539,4121.538574,4147.179688,4141.025879,4136.410156,4153.333496,4153.846191,813.000000,4.000000,,,,0.000000,4.000000,4.000000,4.000000,4.000000,4.000000,4.000000,4.000000,4.000000,4.000000,4.000000,4.000000,4.000000,4.000000,4.000000,100.000000
1602006295.742514,69.000000,0.000000,4132.820313,4126.153809,4136.410156,4138.461426,4135.384766,4137.436035,4127.692383,4120.000000,4116.410156,4123.077148,4135.897461,4137.436035,4137.436035,4154.871582,818.000000,4.000000,,,,0.000000,4.000000,4.000000,4.000000,4.000000,4.000000,4.000000,4.000000,4.000000,4.000000,4.000000,4.000000,4.000000,4.000000,4.000000,100.000000
1602006295.750396,70.000000,0.000000,4126.666504,4123.589844,4128.205078,4127.692383,4130.256348,4138.974121,4123.589844,4127.692383,4127.179688,4135.384766,4144.615234,4148.717773,4144.102539,4151.794922,770.000000,4.000000,,,,0.000000,4.000000,4.000000,4.000000,4.000000,4.000000,4.000000,4.000000,4.000000,4.000000,4.000000,4.000000,4.000000,4.000000,4.000000,100.000000
1602006295.758277,71.000000,0.000000,4126.153809,4124.615234,4127.179688,4123.589844,4123.589844,4141.025879,4131.282227,4136.922852,4137.436035,4150.769043,4155.384766,4152.820313,4156.410156,4154.871582,664.000000,4.000000,,,,0.000000,4.000000,4.000000,4.000000,4.000000,4.000000,4.000000,4.000000,4.000000,4.000000,4.000000,4.000000,4.000000,4.000000,4.000000,100.000000
1602006295.766159,72.000000,0.000000,4125.641113,4116.410156,4125.641113,4125.641113,4119.487305,4133.846191,4136.922852,4137.948730,4124.615234,4134.871582,4151.794922,4142.051270,4150.256348,4147.179688,788.000000,4.000000,,,,0.000000,4.000000,4.000000,4.000000,4.000000,4.000000,4.000000,4.000000,4.000000,4.000000,4.000000,4.000000,4.000000,4.000000,4.000000,100.000000
1602006295.774040,73.000000,0.000000,4120.000000,4115.384766,4123.077148,4125.128418,4120.512695,4131.794922,4137.948730,4140.000000,4116.410156,4120.000000,4148.717773,4134.358887,4141.025879,4136.410156,838.000000,4.000000,,,,0.000000,4.000000,4.000000,4.000000,4.000000,4.000000,4.000000,4.000000,4.000000,4.000000,4.000000,4.000000,4.000000,4.000000,4.000000,100.000000
1602006295.782021,74.000000,0.000000,4126.153809,4119.487305,4123.077148,4122.563965,4123.589844,4138.461426,4139.487305,4142.563965,4129.230957,4134.358887,4151.794922,4137.948730,4142.563965,4142.563965,871.000000,4.000000,,,,0.000000,4.000000,4.000000,4.000000,4.000000,4.000000,4.000000,4.000000,4.000000,4.000000,4.000000,4.000000,4.000000,4.000000,4.000000,100.000000
1602006295.789903,75.000000,0.000000,4135.384766,4115.897461,4124.615234,4122.051270,4122.563965,4142.051270,4138.461426,4142.051270,4138.974121,4154.358887,4150.769043,4142.563965,4151.282227,4155.384766,824.000000,4.000000,,,,0.000000,4.000000,4.000000,4.000000,4.000000,4.000000,4.000000,4.000000,4.000000,4.000000,4.000000,4.000000,4.000000,4.000000,4.000000,100.000000
1602006295.797784,76.000000,0.000000,4126.666504,4113.846191,4127.692383,4124.102539,4121.025879,4132.820313,4131.794922,4139.487305,4137.948730,4153.846191,4151.282227,4141.025879,4158.461426,4157.436035,769.000000,4.000000,,,,0.000000,4.000000,4.000000,4.000000,4.000000,4.000000,4.000000,4.000000,4.000000,4.000000,4.000000,4.000000,4.000000,4.000000,4.000000,100.000000
1602006295.805666,77.000000,0.000000,4121.538574,4122.051270,4135.897461,4126.666504,4122.563965,4122.563965,4122.051270,4131.794922,4130.769043,4153.846191,4155.897461,4141.538574,4151.282227,4152.820313,742.000000,4.000000,,,,0.000000,4.000000,4.000000,4.000000,4.000000,4.000000,4.000000,4.000000,4.000000,4.000000,4.000000,4.000000,4.000000,4.000000,4.000000,100.000000
1602006295.813547,78.000000,0.000000,4134.871582,4125.641113,4138.974121,4127.179688,4127.692383,4123.077148,4121.025879,4124.102539,4117.436035,4143.077148,4150.769043,4148.717773,4138.461426,4155.897461,871.000000,4.000000,,,,0.000000,4.000000,4.000000,4.000000,4.000000,4.000000,4.000000,4.000000,4.000000,4.000000,4.000000,4.000000,4.000000,4.000000,4.000000,100.000000
1602006295.821428,79.000000,0.000000,4135.384766,4121.538574,4131.282227,4125.641113,4130.769043,4126.153809,4123.077148,4122.563965,4112.820313,4107.692383,4137.436035,4150.769043,4139.487305,4155.384766,824.000000,4.000000,,,,0.000000,4.000000,4.000000,4.000000,4.000000,4.000000,4.000000,4.000000,4.000000,4.000000,4.000000,4.000000,4.000000,4.000000,4.000000,100.000000
1602006295.829310,80.000000,0.000000,4112.820313,4118.461426,4121.025879,4124.102539,4124.102539,4124.102539,4121.538574,4120.000000,4120.000000,4102.563965,4134.871582,4138.974121,4136.922852,4136.922852,769.000000,4.000000,,,,0.000000,4.000000,4.000000,4.000000,4.000000,4.000000,4.000000,4.000000,4.000000,4.000000,4.000000,4.000000,4.000000,4.000000,4.000000,100.000000
1602006295.837091,81.000000,0.000000,4100.000000,4123.077148,4115.897461,4126.666504,4123.589844,4128.717773,4127.179688,4122.563965,4122.563965,4134.358887,4138.974121,4130.769043,4126.666504,4122.051270,742.000000,4.000000,,,,0.000000,4.000000,4.000000,4.000000,4.000000,4.000000,4.000000,4.000000,4.000000,4.000000,4.000000,4.000000,4.000000,4.000000,4.000000,100.000000
1602006295.844973,82.000000,0.000000,4114.358887,4135.384766,4125.641113,4137.436035,4137.948730,4138.974121,4137.436035,4133.846191,4124.615234,4147.179688,4142.051270,4134.871582,4132.820313,4133.846191,871.000000,4.000000,,,,0.000000,4.000000,4.000000,4.000000,4.000000,4.000000,4.000000,4.000000,4.000000,4.000000,4.000000,4.000000,4.000000,4.000000,4.000000,100.000000
1602006295.852854,83.000000,0.000000,4137.436035,4143.589844,4136.922852,4145.128418,4139.487305,4132.820313,4133.333496,4140.000000,4125.128418,4133.333496,4142.051270,4138.974121,4141.538574,4144.615234,824.000000,4.000000,,,,0.000000,4.000000,4.000000,4.000000,4.000000,4.000000,4.000000,4.000000,4.000000,4.000000,4.000000,4.000000,4.000000,4.000000,4.000000,100.000000
1602006295.860735,84.000000,0.000000,4138.461426,4135.897461,4136.410156,4137.436035,4124.102539,4122.563965,4126.153809,4138.461426,4122.051270,4129.230957,4143.589844,4144.102539,4144.102539,4140.000000,769.000000,4.000000,,,,0.000000,4.000000,4.000000,4.000000,4.000000,4.000000,4.000000,4.000000,4.000000,4.000000,4.000000,4.000000,4.000000,4.000000,4.000000,100.000000
1602006295.868617,85.000000,0.000000,4124.102539,4125.641113,4135.897461,4124.102539,4120.000000,4131.282227,4132.820313,4140.512695,4126.153809,4145.128418,4148.205078,4152.820313,4151.794922,4148.205078,742.000000,4.000000,,,,0.000000,4.000000,4.000000,4.000000,4.000000,4.000000,4.000000,4.000000,4.000000,4.000000,4.000000,4.000000,4.000000,4.000000,4.000000,100.000000
1602006295.876498,86.000000,0.000000,4123.077148,4123.077148,4141.538574,4121.025879,4128.717773,4144.102539,4141.025879,4150.256348,4138.461426,4162.563965,4159.487305,4163.589844,4159.487305,4171.282227,871.000000,4.000000,,,,0.000000,4.000000,4.000000,4.000000,4.000000,4.000000,4.000000,4.000000,4.000000,4.000000,4.000000,4.000000,4.000000,4.000000,4.000000,100.000000
1602006295.884380,87.000000,0.000000,4131.794922,4124.615234,4143.589844,4125.128418,4129.230957,4142.051270,4140.512695,4155.384766,4142.051270,4152.820313,4172.307617,4169.230957,4159.487305,4180.000000,824.000000,4.000000,,,,0.000000,4.000000,4.000000,4.000000,4.000000,4.000000,4.000000,4.000000,4.000000,4.000000,4.000000,4.000000,4.000000,4.000000,4.000000,100.000000
1602006295.892161,88.000000,0.000000,4130.769043,4122.051270,4140.512695,4122.563965,4122.563965,4135.897461,4140.512695,4145.641113,4132.820313,4132.307617,4169.230957,4159.487305,4154.871582,4166.153809,769.000000,4.000000,,,,0.000000,4.000000,4.000000,4.000000,4.000000,4.000000,4.000000,4.000000,4.000000,4.000000,4.000000,4.000000,4.000000,4.000000,4.000000,100.000000
1602006295.900043,89.000000,0.000000,4122.563965,4120.000000,4134.871582,4118.461426,4119.487305,4135.384766,4143.077148,4130.769043,4125.128418,4142.563965,4149.230957,4143.077148,4147.692383,4150.769043,742.000000,4.000000,,,,0.000000,4.000000,4.000000,4.000000,4.000000,4.000000,4.000000,4.000000,4.000000,4.000000,4.000000,4.000000,4.000000,4.000000,4.000000,100.000000
1602006295.907925,90.000000,0.000000,4114.871582,4120.512695,4115.897461,4116.922852,4120.000000,4134.871582,4132.820313,4118.461426,4115.897461,4145.641113,4132.307617,4129.230957,4133.846191,4137.436035,871.000000,4.000000,,,,0.000000,4.000000,4.000000,4.000000,4.000000,4.000000,4.000000,4.000000,4.000000,4.000000,4.000000,4.000000,4.000000,4.000000,4.000000,100.000000
1602006295.915806,91.000000,0.000000,4107.692383,4119.487305,4095.897461,4114.871582,4123.589844,4127.179688,4114.358887,4105.641113,4106.153809,4118.461426,4137.436035,4115.384766,4123.077148,4121.025879,824.000000,4.000000,,,,0.000000,4.000000,4.000000,4.000000,4.000000,4.000000,4.000000,4.000000,4.000000,4.000000,4.000000,4.000000,4.000000,4.000000,4.000000,100.000000
1602006295.923688,92.000000,0.000000,4098.974121,4121.025879,4087.692383,4119.487305,4126.153809,4113.333496,4103.077148,4103.589844,4106.666504,4120.512695,4139.487305,4108.717773,4121.538574,4113.846191,769.000000,4.000000,,,,0.000000,4.000000,4.000000,4.000000,4.000000,4.000000,4.000000,4.000000,4.000000,4.000000,4.000000,4.000000,4.000000,4.000000,4.000000,100.000000
1602006295.931570,93.000000,0.000000,4092.820557,4123.589844,4086.666748,4124.102539,4125.128418,4107.179688,4101.538574,4113.846191,4105.641113,4140.000000,4122.051270,4115.384766,4121.025879,4116.410156,742.000000,4.000000,,,,0.000000,4.000000,4.000000,4.000000,4.000000,4.000000,4.000000,4.000000,4.000000,4.000000,4.000000,4.000000,4.000000,4.000000,4.000000,100.000000
1602006295.939451,94.000000,0.000000,4106.153809,4126.153809,4096.922852,4128.717773,4132.820313,4118.461426,4109.743652,4120.512695,4098.461426,4122.563965,4122.051270,4124.102539,4125.641113,4128.717773,871.000000,4.000000,,,,0.000000,4.000000,4.000000,4.000000,4.000000,4.000000,4.000000,4.000000,4.000000,4.000000,4.000000,4.000000,4.000000,4.000000,4.000000,100.000000
1602006295.947333,95.000000,0.000000,4124.102539,4130.256348,4110.769043,4133.333496,4141.025879,4130.256348,4122.051270,4122.563965,4102.051270,4104.615234,4140.512695,4126.666504,4137.948730,4145.641113,824.000000,4.000000,,,,0.000000,4.000000,4.000000,4.000000,4.000000,4.000000,4.000000,4.000000,4.000000,4.000000,4.000000,4.000000,4.000000,4.000000,4.000000,100.000000
1602006295.955314,96.000000,0.000000,4117.948730,4125.641113,4116.922852,4128.205078,4130.769043,4121.025879,4124.615234,4126.153809,4103.589844,4112.307617,4136.410156,4126.666504,4137.948730,4147.692383,769.000000,4.000000,,,,0.000000,4.000000,4.000000,4.000000,4.000000,4.000000,4.000000,4.000000,4.000000,4.000000,4.000000,4.000000,4.000000,4.000000,4.000000,100.000000
1602006295.963195,97.000000,0.000000,4109.230957,4120.000000,4120.512695,4122.051270,4116.410156,4110.256348,4125.128418,4126.666504,4088.718018,4110.256348,4121.538574,4126.666504,4122.563965,4132.820313,742.000000,4.000000,,,,0.000000,4.000000,4.000000,4.000000,4.000000,4.000000,4.000000,4.000000,4.000000,4.000000,4.000000,4.000000,4.000000,4.000000,4.000000,100.000000
1602006295.971076,98.000000,0.000000,4119.487305,4117.436035,4123.589844,4123.077148,4119.487305,4121.025879,4134.871582,4125.641113,4090.769287,4108.205078,4130.256348,4126.666504,4118.974121,4122.563965,871.000000,4.000000,,,,0.000000,4.000000,4.000000,4.000000,4.000000,4.000000,4.000000,4.000000,4.000000,4.000000,4.000000,4.000000,4.000000,4.000000,4.000000,100.000000
1602006295.978957,99.000000,0.000000,4121.538574,4111.794922,4122.563965,4122.563965,4127.179688,4136.410156,4141.538574,4131.282227,4107.179688,4129.230957,4139.487305,4130.769043,4124.102539,4122.563965,824.000000,4.000000,,,,0.000000,4.000000,4.000000,4.000000,4.000000,4.000000,4.000000,4.000000,4.000000,4.000000,4.000000,4.000000,4.000000,4.000000,4.000000,100.000000
1602006295.986839,100.000000,0.000000,4111.794922,4105.641113,4123.077148,4119.487305,4118.974121,4140.512695,4140.512695,4136.922852,4112.820313,4151.282227,4134.358887,4136.410156,4123.589844,4128.717773,769.000000,4.000000,,,,0.000000,4.000000,4.000000,4.000000,4.000000,4.000000,4.000000,4.000000,4.000000,4.000000,4.000000,4.000000,4.000000,4.000000,4.000000,100.000000
1602006295.994820,101.000000,0.000000,4108.205078,4103.589844,4121.538574,4116.922852,4106.153809,4133.333496,4133.846191,4136.410156,4116.922852,4158.461426,4140.512695,4136.410156,4128.205078,4138.461426,742.000000,4.000000,,,,0.000000,4.000000,4.000000,4.000000,4.000000,4.000000,4.000000,4.000000,4.000000,4.000000,4.000000,4.000000,4.000000,4.000000,4.000000,100.000000
1602006296.002702,102.000000,0.000000,4107.179688,4102.563965,4122.563965,4110.256348,4111.794922,4127.692383,4126.666504,4135.897461,4128.205078,4145.641113,4149.230957,4138.461426,4137.436035,4140.000000,871.000000,4.000000,,,,0.000000,4.000000,4.000000,4.000000,4.000000,4.000000,4.000000,4.000000,4.000000,4.000000,4.000000,4.000000,4.000000,4.000000,4.000000,100.000000
1602006296.010583,103.000000,0.000000,4116.410156,4105.641113,4136.922852,4111.282227,4121.538574,4132.307617,4131.282227,4141.538574,4140.000000,4125.128418,4147.692383,4152.307617,4142.563965,4138.974121,824.000000,4.000000,,,,0.000000,4.000000,4.000000,4.000000,4.000000,4.000000,4.000000,4.000000,4.000000,4.000000,4.000000,4.000000,4.000000,4.000000,4.000000,100.000000
1602006296.018465,104.000000,0.000000,4126.666504,4109.743652,4144.102539,4119.487305,4113.333496,4142.051270,4135.897461,4142.563965,4141.025879,4121.538574,4144.615234,4159.487305,4138.461426,4142.051270,769.000000,4.000000,,,,0.000000,4.000000,4.000000,4.000000,4.000000,4.000000,4.000000,4.000000,4.000000,4.000000,4.000000,4.000000,4.000000,4.000000,4.000000,100.000000
1602006296.026347,105.000000,0.000000,4115.897461,4108.205078,4128.717773,4122.051270,4108.205078,4138.974121,4125.641113,4132.307617,4128.717773,4128.717773,4135.897461,4144.102539,4123.077148,4136.410156,742.000000,4.000000,,,,0.000000,4.000000,4.000000,4.000000,4.000000,4.000000,4.000000,4.000000,4.000000,4.000000,4.000000,4.000000,4.000000,4.000000,4.000000,100.000000
1602006296.034228,106.000000,0.000000,4098.461426,4104.102539,4111.794922,4116.922852,4116.410156,4127.179688,4114.358887,4116.922852,4109.743652,4120.000000,4121.025879,4126.153809,4104.102539,4117.948730,871.000000,4.000000,,,,0.000000,4.000000,4.000000,4.000000,4.000000,4.000000,4.000000,4.000000,4.000000,4.000000,4.000000,4.000000,4.000000,4.000000,4.000000,100.000000
1602006296.042110,107.000000,0.000000,4086.666748,4097.436035,4105.128418,4106.666504,4115.384766,4121.538574,4116.410156,4108.717773,4097.436035,4106.153809,4112.307617,4120.000000,4090.769287,4101.538574,824.000000,4.000000,,,,0.000000,4.000000,4.000000,4.000000,4.000000,4.000000,4.000000,4.000000,4.000000,4.000000,4.000000,4.000000,4.000000,4.000000,4.000000,100.000000
1602006296.049992,108.000000,0.000000,4082.051270,4094.358887,4106.153809,4106.153809,4114.358887,4124.102539,4121.538574,4113.333496,4094.871826,4104.615234,4107.692383,4120.512695,4086.153809,4099.487305,769.000000,4.000000,,,,0.000000,4.000000,4.000000,4.000000,4.000000,4.000000,4.000000,4.000000,4.000000,4.000000,4.000000,4.000000,4.000000,4.000000,4.000000,100.000000
1602006296.057873,109.000000,0.000000,4092.820557,4103.589844,4115.897461,4120.512695,4121.025879,4126.153809,4125.128418,4121.538574,4100.512695,4108.205078,4110.256348,4121.538574,4088.205078,4106.666504,742.000000,4.000000,,,,0.000000,4.000000,4.000000,4.000000,4.000000,4.000000,4.000000,4.000000,4.000000,4.000000,4.000000,4.000000,4.000000,4.000000,4.000000,100.000000
1602006296.065754,110.000000,0.000000,4105.128418,4110.769043,4123.589844,4126.666504,4121.538574,4123.077148,4132.820313,4131.282227,4112.820313,4102.051270,4119.487305,4128.717773,4098.461426,4115.897461,871.000000,4.000000,,,,0.000000,4.000000,4.000000,4.000000,4.000000,4.000000,4.000000,4.000000,4.000000,4.000000,4.000000,4.000000,4.000000,4.000000,4.000000,100.000000
1602006296.073636,111.000000,0.000000,4110.256348,4114.871582,4123.077148,4121.025879,4127.692383,4127.179688,4138.974121,4141.025879,4128.717773,4105.128418,4125.641113,4138.461426,4114.871582,4125.641113,824.000000,4.000000,,,,0.000000,4.000000,4.000000,4.000000,4.000000,4.000000,4.000000,4.000000,4.000000,4.000000,4.000000,4.000000,4.000000,4.000000,4.000000,100.000000
1602006296.081517,112.000000,0.000000,4122.051270,4119.487305,4122.563965,4123.589844,4134.358887,4136.922852,4132.820313,4142.563965,4144.615234,4129.743652,4130.256348,4139.487305,4126.153809,4128.205078,769.000000,4.000000,,,,0.000000,4.000000,4.000000,4.000000,4.000000,4.000000,4.000000,4.000000,4.000000,4.000000,4.000000,4.000000,4.000000,4.000000,4.000000,100.000000
1602006296.089399,113.000000,0.000000,4124.102539,4117.948730,4124.102539,4123.589844,4129.230957,4132.820313,4121.025879,4137.436035,4142.563965,4137.948730,4140.512695,4138.461426,4127.179688,4124.615234,742.000000,4.000000,,,,0.000000,4.000000,4.000000,4.000000,4.000000,4.000000,4.000000,4.000000,4.000000,4.000000,4.000000,4.000000,4.000000,4.000000,4.000000,100.000000
1602006296.097280,114.000000,0.000000,4108.717773,4108.205078,4117.436035,4110.256348,4121.025879,4120.000000,4115.897461,4128.717773,4124.102539,4119.487305,4143.077148,4138.461426,4123.589844,4121.025879,871.000000,4.000000,,,,0.000000,4.000000,4.000000,4.000000,4.000000,4.000000,4.000000,4.000000,4.000000,4.000000,4.000000,4.000000,4.000000,4.000000,4.000000,100.000000
1602006296.105261,115.000000,0.000000,4104.102539,4097.948730,4108.205078,4102.051270,4114.871582,4118.461426,4109.230957,4122.563965,4124.102539,4115.384766,4131.794922,4128.717773,4121.538574,4117.948730,824.000000,4.000000,,,,0.000000,4.000000,4.000000,4.000000,4.000000,4.000000,4.000000,4.000000,4.000000,4.000000,4.000000,4.000000,4.000000,4.000000,4.000000,100.000000
1602006296.113143,116.000000,0.000000,4103.589844,4092.307617,4108.205078,4104.615234,4110.256348,4124.102539,4111.282227,4122.563965,4136.922852,4124.615234,4129.743652,4124.102539,4122.563965,4109.230957,769.000000,4.000000,,,,0.000000,4.000000,4.000000,4.000000,4.000000,4.000000,4.000000,4.000000,4.000000,4.000000,4.000000,4.000000,4.000000,4.000000,4.000000,100.000000
1602006296.121024,117.000000,0.000000,4092.307617,4091.281982,4112.820313,4105.128418,4111.794922,4124.615234,4117.948730,4125.641113,4134.358887,4117.948730,4138.461426,4134.358887,4123.077148,4104.615234,742.000000,4.000000,,,,0.000000,4.000000,4.000000,4.000000,4.000000,4.000000,4.000000,4.000000,4.000000,4.000000,4.000000,4.000000,4.000000,4.000000,4.000000,100.000000
1602006296.128906,118.000000,0.000000,4088.205078,4097.948730,4113.846191,4108.205078,4114.871582,4121.025879,4114.358887,4123.077148,4130.769043,4120.000000,4136.922852,4136.922852,4123.077148,4111.282227,871.000000,4.000000,,,,0.000000,4.000000,4.000000,4.000000,4.000000,4.000000,4.000000,4.000000,4.000000,4.000000,4.000000,4.000000,4.000000,4.000000,4.000000,100.000000
1602006296.136787,119.000000,0.000000,4096.922852,4104.102539,4109.230957,4111.282227,4116.410156,4119.487305,4112.307617,4121.025879,4140.000000,4137.948730,4124.615234,4126.666504,4123.077148,4116.410156,824.000000,4.000000,,,,0.000000,4.000000,4.000000,4.000000,4.000000,4.000000,4.000000,4.000000,4.000000,4.000000,4.000000,4.000000,4.000000,4.000000,4.000000,100.000000
1602006296.144668,120.000000,0.000000,4102.563965,4106.666504,4098.461426,4106.666504,4121.538574,4130.256348,4118.974121,4121.025879,4141.538574,4137.948730,4120.000000,4122.563965,4121.025879,4114.358887,769.000000,4.000000,,,,0.000000,4.000000,4.000000,4.000000,4.000000,4.000000,4.000000,4.000000,4.000000,4.000000,4.000000,4.000000,4.000000,4.000000,4.000000,100.000000
1602006296.152450,121.000000,0.000000,4104.102539,4111.282227,4093.333252,4109.743652,4123.077148,4138.974121,4122.563965,4122.563965,4136.922852,4128.717773,4129.230957,4122.563965,4124.102539,4116.922852,742.000000,4.000000,,,,0.000000,4.000000,4.000000,4.000000,4.000000,4.000000,4.000000,4.000000,4.000000,4.000000,4.000000,4.000000,4.000000,4.000000,4.000000,100.000000
1602006296.160331,122.000000,0.000000,4111.282227,4118.974121,4104.615234,4122.051270,4125.128418,4128.717773,4121.538574,4130.256348,4140.512695,4135.897461,4134.871582,4123.077148,4133.333496,4121.025879,871.000000,4.000000,,,,0.000000,4.000000,4.000000,4.000000,4.000000,4.000000,4.000000,4.000000,4.000000,4.000000,4.000000,4.000000,4.000000,4.000000,4.000000,100.000000
1602006296.168213,123.000000,0.000000,4124.102539,4130.769043,4121.538574,4132.307617,4136.410156,4125.128418,4123.589844,4138.974121,4148.717773,4142.051270,4137.436035,4131.282227,4139.487305,4122.563965,824.000000,4.000000,,,,0.000000,4.000000,4.000000,4.000000,4.000000,4.000000,4.000000,4.000000,4.000000,4.000000,4.000000,4.000000,4.000000,4.000000,4.000000,100.000000
1602006296.176094,124.000000,0.000000,4132.820313,4141.025879,4131.282227,4141.025879,4143.077148,4137.948730,4123.589844,4138.461426,4148.205078,4123.077148,4141.025879,4137.948730,4137.948730,4121.538574,769.000000,4.000000,,,,0.000000,4.000000,4.000000,4.000000,4.000000,4.000000,4.000000,4.000000,4.000000,4.000000,4.000000,4.000000,4.000000,4.000000,4.000000,100.000000
1602006296.183976,125.000000,0.000000,4130.256348,4144.102539,4132.307617,4144.102539,4141.025879,4134.871582,4123.589844,4136.410156,4139.487305,4116.922852,4143.077148,4136.410156,4136.922852,4123.077148,742.000000,4.000000,,,,0.000000,4.000000,4.000000,4.000000,4.000000,4.000000,4.000000,4.000000,4.000000,4.000000,4.000000,4.000000,4.000000,4.000000,4.000000,100.000000
1602006296.191857,126.000000,0.000000,4125.128418,4133.333496,4125.641113,4132.820313,4138.461426,4124.102539,4124.102539,4138.974121,4140.000000,4143.589844,4141.025879,4139.487305,4141.538574,4123.589844,871.000000,4.000000,,,,0.000000,4.000000,4.000000,4.000000,4.000000,4.000000,4.000000,4.000000,4.000000,4.000000,4.000000,4.000000,4.000000,4.000000,4.000000,100.000000
1602006296.199738,127.000000,0.000000,4125.641113,4123.077148,4119.487305,4122.051270,4135.384766,4130.769043,4126.666504,4140.000000,4154.358887,4157.948730,4138.461426,4150.256348,4145.641113,4122.563965,824.000000,4.000000,,,,0.000000,4.000000,4.000000,4.000000,4.000000,4.000000,4.000000,4.000000,4.000000,4.000000,4.000000,4.000000,4.000000,4.000000,4.000000,100.000000
1602006296.207719,128.000000,0.000000,4128.205078,4123.077148,4128.717773,4122.563965,4130.769043,4140.000000,4138.461426,4144.102539,4165.641113,4152.307617,4140.512695,4158.461426,4142.563965,4128.205078,769.000000,4.000000,,,,0.000000,4.000000,4.000000,4.000000,4.000000,4.000000,4.000000,4.000000,4.000000,4.000000,4.000000,4.000000,4.000000,4.000000,4.000000,100.000000
1602006296.215600,0.000000,0.000000,4127.692383,4118.974121,4140.000000,4124.615234,4126.153809,4141.538574,4146.666504,4150.256348,4170.256348,4158.974121,4144.102539,4156.922852,4139.487305,4144.102539,789.000000,4.000000,,,,0.000000,4.000000,4.000000,4.000000,4.000000,4.000000,4.000000,4.000000,4.000000,4.000000,4.000000,4.000000,4.000000,4.000000,4.000000,100.000000
1602006296.223581,1.000000,0.000000,4119.487305,4108.205078,4132.820313,4122.563965,4116.922852,4136.922852,4137.948730,4143.077148,4170.256348,4149.743652,4137.436035,4148.205078,4140.512695,4136.922852,788.000000,4.000000,,,,0.000000,4.000000,4.000000,4.000000,4.000000,4.000000,4.000000,4.000000,4.000000,4.000000,4.000000,4.000000,4.000000,4.000000,4.000000,100.000000
1602006296.231463,2.000000,0.000000,4105.641113,4099.487305,4123.077148,4114.871582,4107.692383,4126.153809,4122.051270,4129.743652,4158.461426,4113.846191,4123.077148,4140.000000,4131.794922,4104.615234,852.000000,4.000000,,,,0.000000,4.000000,4.000000,4.000000,4.000000,4.000000,4.000000,4.000000,4.000000,4.000000,4.000000,4.000000,4.000000,4.000000,4.000000,100.000000
1602006296.239344,3.000000,0.000000,4101.538574,4100.000000,4121.538574,4106.666504,4109.743652,4118.461426,4112.307617,4125.641113,4147.692383,4115.384766,4120.000000,4133.846191,4115.384766,4095.384521,866.000000,4.000000,,,,0.000000,4.000000,4.000000,4.000000,4.000000,4.000000,4.000000,4.000000,4.000000,4.000000,4.000000,4.000000,4.000000,4.000000,4.000000,100.000000
1602006296.247226,4.000000,0.000000,4107.692383,4105.128418,4112.820313,4103.589844,4121.538574,4122.563965,4107.179688,4116.922852,4141.025879,4140.000000,4124.615234,4121.538574,4105.128418,4104.615234,813.000000,4.000000,,,,0.000000,4.000000,4.000000,4.000000,4.000000,4.000000,4.000000,4.000000,4.000000,4.000000,4.000000,4.000000,4.000000,4.000000,4.000000,100.000000
1602006296.255107,5.000000,0.000000,4102.563965,4111.794922,4098.974121,4109.230957,4131.794922,4121.025879,4101.538574,4107.179688,4128.205078,4126.153809,4116.922852,4113.333496,4103.077148,4100.000000,818.000000,4.000000,,,,0.000000,4.000000,4.000000,4.000000,4.000000,4.000000,4.000000,4.000000,4.000000,4.000000,4.000000,4.000000,4.000000,4.000000,4.000000,100.000000
1602006296.262988,6.000000,0.000000,4098.461426,4122.563965,4108.717773,4126.153809,4139.487305,4120.512695,4104.615234,4115.384766,4128.717773,4114.358887,4109.230957,4126.666504,4106.666504,4102.563965,770.000000,4.000000,,,,0.000000,4.000000,4.000000,4.000000,4.000000,4.000000,4.000000,4.000000,4.000000,4.000000,4.000000,4.000000,4.000000,4.000000,4.000000,100.000000
1602006296.270870,7.000000,0.000000,4110.256348,4131.282227,4124.615234,4134.871582,4144.615234,4130.769043,4118.461426,4127.692383,4137.436035,4134.358887,4109.743652,4143.077148,4108.205078,4108.205078,667.000000,4.000000,,,,0.000000,4.000000,4.000000,4.000000,4.000000,4.000000,4.000000,4.000000,4.000000,4.000000,4.000000,4.000000,4.000000,4.000000,4.000000,100.000000
1602006296.278652,8.000000,0.000000,4111.794922,4128.717773,4122.051270,4126.666504,4137.436035,4134.871582,4125.641113,4127.179688,4130.256348,4119.487305,4108.717773,4137.436035,4106.153809,4097.436035,788.000000,4.000000,,,,0.000000,4.000000,4.000000,4.000000,4.000000,4.000000,4.000000,4.000000,4.000000,4.000000,4.000000,4.000000,4.000000,4.000000,4.000000,100.000000
1602006296.286533,9.000000,0.000000,4102.563965,4121.538574,4122.563965,4128.205078,4126.153809,4133.333496,4128.717773,4126.153809,4122.563965,4087.692383,4115.897461,4131.282227,4114.358887,4102.563965,838.000000,4.000000,,,,0.000000,4.000000,4.000000,4.000000,4.000000,4.000000,4.000000,4.000000,4.000000,4.000000,4.000000,4.000000,4.000000,4.000000,4.000000,100.000000
1602006296.294415,10.000000,0.000000,4110.769043,4126.666504,4135.897461,4140.512695,4121.538574,4135.384766,4136.410156,4129.743652,4131.794922,4104.102539,4127.692383,4142.051270,4123.077148,4125.128418,871.000000,4.000000,,,,0.000000,4.000000,4.000000,4.000000,4.000000,4.000000,4.000000,4.000000,4.000000,4.000000,4.000000,4.000000,4.000000,4.000000,4.000000,100.000000
1602006296.302296,11.000000,0.000000,4128.205078,4135.384766,4143.077148,4137.948730,4121.538574,4134.871582,4137.948730,4128.205078,4143.077148,4127.179688,4125.128418,4152.820313,4124.102539,4129.743652,835.000000,4.000000,,,,0.000000,4.000000,4.000000,4.000000,4.000000,4.000000,4.000000,4.000000,4.000000,4.000000,4.000000,4.000000,4.000000,4.000000,4.000000,100.000000
1602006296.310178,12.000000,0.000000,4137.948730,4136.922852,4141.538574,4134.871582,4121.025879,4130.769043,4129.743652,4128.205078,4150.769043,4126.153809,4130.769043,4153.846191,4131.282227,4132.820313,769.000000,4.000000,,,,0.000000,4.000000,4.000000,4.000000,4.000000,4.000000,4.000000,4.000000,4.000000,4.000000,4.000000,4.000000,4.000000,4.000000,4.000000,100.000000
1602006296.318060,13.000000,0.000000,4145.641113,4138.461426,4146.666504,4142.051270,4120.512695,4127.692383,4125.641113,4128.205078,4146.153809,4136.922852,4147.179688,4158.461426,4141.538574,4145.641113,742.000000,4.000000,,,,0.000000,4.000000,4.000000,4.000000,4.000000,4.000000,4.000000,4.000000,4.000000,4.000000,4.000000,4.000000,4.000000,4.000000,4.000000,100.000000
1602006296.325941,14.000000,0.000000,4142.563965,4138.974121,4148.205078,4141.025879,4126.153809,4122.563965,4116.410156,4122.563965,4129.743652,4138.461426,4139.487305,4159.487305,4138.974121,4148.205078,871.000000,4.000000,,,,0.000000,4.000000,4.000000,4.000000,4.000000,4.000000,4.000000,4.000000,4.000000,4.000000,4.000000,4.000000,4.000000,4.000000,4.000000,100.000000
1602006296.333823,15.000000,0.000000,4133.333496,4135.384766,4141.025879,4133.333496,4134.871582,4125.128418,4106.153809,4125.641113,4133.846191,4123.589844,4122.051270,4153.333496,4135.384766,4141.025879,835.000000,4.000000,,,,0.000000,4.000000,4.000000,4.000000,4.000000,4.000000,4.000000,4.000000,4.000000,4.000000,4.000000,4.000000,4.000000,4.000000,4.000000,100.000000
1602006296.341705,16.000000,0.000000,4139.487305,4137.948730,4142.051270,4136.410156,4141.538574,4139.487305,4114.358887,4136.410156,4155.897461,4142.563965,4132.820313,4155.897461,4142.563965,4140.512695,0.000000,4.000000,,,,0.000000,4.000000,4.000000,4.000000,4.000000,4.000000,4.000000,4.000000,4.000000,4.000000,4.000000,4.000000,4.000000,4.000000,4.000000,100.000000
1602006296.349486,17.000000,0.000000,4146.666504,4141.538574,4144.615234,4142.051270,4138.461426,4144.615234,4130.256348,4141.538574,4162.563965,4162.563965,4148.205078,4161.538574,4141.538574,4140.512695,0.000000,4.000000,,,,0.000000,4.000000,4.000000,4.000000,4.000000,4.000000,4.000000,4.000000,4.000000,4.000000,4.000000,4.000000,4.000000,4.000000,4.000000,100.000000
1602006296.357368,18.000000,0.000000,4126.153809,4130.256348,4131.794922,4133.333496,4132.307617,4137.436035,4136.922852,4139.487305,4152.820313,4128.205078,4131.282227,4148.717773,4122.563965,4128.717773,0.000000,4.000000,,,,0.000000,4.000000,4.000000,4.000000,4.000000,4.000000,4.000000,4.000000,4.000000,4.000000,4.000000,4.000000,4.000000,4.000000,4.000000,100.000000
1602006296.365250,19.000000,0.000000,4104.615234,4118.461426,4116.922852,4122.051270,4135.897461,4138.461426,4139.487305,4133.333496,4135.384766,4098.461426,4105.641113,4127.179688,4104.615234,4104.102539,0.000000,4.000000,,,,0.000000,4.000000,4.000000,4.000000,4.000000,4.000000,4.000000,4.000000,4.000000,4.000000,4.000000,4.000000,4.000000,4.000000,4.000000,100.000000
1602006296.373131,20.000000,0.000000,4106.666504,4120.512695,4109.743652,4123.077148,4135.897461,4145.128418,4143.077148,4126.153809,4123.077148,4111.794922,4103.589844,4118.974121,4104.102539,4088.205078,0.000000,4.000000,,,,0.000000,4.000000,4.000000,4.000000,4.000000,4.000000,4.000000,4.000000,4.000000,4.000000,4.000000,4.000000,4.000000,4.000000,4.000000,100.000000
1602006296.381013,21.000000,0.000000,4103.077148,4122.563965,4102.563965,4124.615234,4127.692383,4134.358887,4139.487305,4124.102539,4128.717773,4115.384766,4104.615234,4118.461426,4105.128418,4086.666748,0.000000,4.000000,,,,0.000000,4.000000,4.000000,4.000000,4.000000,4.000000,4.000000,4.000000,4.000000,4.000000,4.000000,4.000000,4.000000,4.000000,4.000000,100.000000
1602006296.388895,22.000000,0.000000,4095.384521,4120.000000,4105.641113,4123.589844,4129.230957,4120.512695,4129.230957,4124.615234,4135.897461,4102.051270,4103.077148,4123.077148,4100.512695,4095.897461,0.000000,4.000000,,,,0.000000,4.000000,4.000000,4.000000,4.000000,4.000000,4.000000,4.000000,4.000000,4.000000,4.000000,4.000000,4.000000,4.000000,4.000000,100.000000
1602006296.396776,23.000000,0.000000,4107.179688,4126.666504,4127.179688,4133.846191,4138.461426,4124.615234,4117.948730,4128.717773,4134.358887,4113.846191,4120.000000,4136.922852,4110.769043,4113.846191,0.000000,4.000000,,,,0.000000,4.000000,4.000000,4.000000,4.000000,4.000000,4.000000,4.000000,4.000000,4.000000,4.000000,4.000000,4.000000,4.000000,4.000000,100.000000
1602006296.404658,24.000000,0.000000,4125.641113,4138.974121,4145.128418,4145.128418,4137.948730,4122.563965,4108.717773,4136.410156,4133.333496,4136.410156,4143.077148,4153.333496,4132.820313,4133.333496,0.000000,4.000000,,,,0.000000,4.000000,4.000000,4.000000,4.000000,4.000000,4.000000,4.000000,4.000000,4.000000,4.000000,4.000000,4.000000,4.000000,4.000000,100.000000
1602006296.412639,25.000000,0.000000,4133.333496,4143.589844,4151.282227,4142.051270,4135.897461,4108.205078,4105.128418,4139.487305,4138.461426,4147.179688,4152.307617,4166.153809,4151.282227,4149.743652,0.000000,4.000000,,,,0.000000,4.000000,4.000000,4.000000,4.000000,4.000000,4.000000,4.000000,4.000000,4.000000,4.000000,4.000000,4.000000,4.000000,4.000000,100.000000
1602006296.420521,26.000000,0.000000,4141.025879,4144.102539,4158.461426,4140.000000,4135.897461,4112.307617,4110.256348,4142.563965,4149.743652,4141.538574,4158.461426,4177.436035,4158.974121,4161.025879,0.000000,4.000000,,,,0.000000,4.000000,4.000000,4.000000,4.000000,4.000000,4.000000,4.000000,4.000000,4.000000,4.000000,4.000000,4.000000,4.000000,4.000000,100.000000
1602006296.428402,27.000000,0.000000,4142.563965,4135.897461,4154.871582,4139.487305,4130.769043,4124.615234,4118.461426,4144.102539,4152.820313,4121.538574,4153.846191,4176.922852,4148.205078,4155.384766,0.000000,4.000000,,,,0.000000,4.000000,4.000000,4.000000,4.000000,4.000000,4.000000,4.000000,4.000000,4.000000,4.000000,4.000000,4.000000,4.000000,4.000000,100.000000
1602006296.436283,28.000000,0.000000,4124.615234,4114.871582,4132.820313,4122.563965,4121.538574,4128.205078,4121.538574,4131.794922,4138.974121,4109.743652,4126.153809,4157.948730,4126.666504,4134.871582,0.000000,4.000000,,,,0.000000,4.000000,4.000000,4.000000,4.000000,4.000000,4.000000,4.000000,4.000000,4.000000,4.000000,4.000000,4.000000,4.000000,4.000000,100.000000
1602006296.444165,29.000000,0.000000,4106.666504,4101.538574,4116.410156,4103.077148,4112.820313,4137.948730,4127.692383,4121.025879,4123.589844,4122.563965,4108.205078,4140.512695,4110.256348,4121.025879,0.000000,4.000000,,,,0.000000,4.000000,4.000000,4.000000,4.000000,4.000000,4.000000,4.000000,4.000000,4.000000,4.000000,4.000000,4.000000,4.000000,4.000000,100.000000
1602006296.452046,30.000000,0.000000,4109.230957,4105.128418,4120.512695,4107.692383,4111.282227,4144.615234,4136.922852,4130.256348,4120.512695,4130.769043,4116.410156,4139.487305,4110.769043,4119.487305,0.000000,4.000000,,,,0.000000,4.000000,4.000000,4.000000,4.000000,4.000000,4.000000,4.000000,4.000000,4.000000,4.000000,4.000000,4.000000,4.000000,4.000000,100.000000
1602006296.459928,31.000000,0.000000,4114.358887,4107.179688,4132.307617,4122.051270,4118.461426,4141.025879,4140.512695,4138.461426,4127.179688,4128.205078,4126.153809,4146.153809,4120.512695,4122.051270,0.000000,4.000000,,,,0.000000,4.000000,4.000000,4.000000,4.000000,4.000000,4.000000,4.000000,4.000000,4.000000,4.000000,4.000000,4.000000,4.000000,4.000000,100.000000
1602006296.467709,32.000000,0.000000,4110.256348,4108.717773,4137.436035,4122.051270,4121.025879,4144.615234,4140.512695,4138.461426,4133.846191,4133.846191,4123.589844,4148.717773,4118.974121,4122.051270,0.000000,4.000000,,,,0.000000,4.000000,4.000000,4.000000,4.000000,4.000000,4.000000,4.000000,4.000000,4.000000,4.000000,4.000000,4.000000,4.000000,4.000000,100.000000
1602006296.475591,33.000000,0.000000,4115.897461,4121.025879,4136.410156,4121.025879,4121.025879,4146.153809,4144.102539,4141.025879,4132.307617,4128.717773,4124.615234,4151.282227,4111.794922,4123.077148,0.000000,4.000000,,,,0.000000,4.000000,4.000000,4.000000,4.000000,4.000000,4.000000,4.000000,4.000000,4.000000,4.000000,4.000000,4.000000,4.000000,4.000000,100.000000
1602006296.483473,34.000000,0.000000,4126.153809,4128.205078,4135.897461,4131.282227,4123.589844,4130.256348,4137.436035,4136.922852,4117.436035,4105.641113,4134.871582,4155.897461,4117.436035,4126.153809,0.000000,4.000000,,,,0.000000,4.000000,4.000000,4.000000,4.000000,4.000000,4.000000,4.000000,4.000000,4.000000,4.000000,4.000000,4.000000,4.000000,4.000000,100.000000
1602006296.491354,35.000000,0.000000,4122.051270,4123.589844,4137.948730,4139.487305,4124.102539,4115.897461,4117.948730,4124.102539,4105.128418,4096.922852,4135.384766,4151.794922,4122.563965,4125.128418,0.000000,4.000000,,,,0.000000,4.000000,4.000000,4.000000,4.000000,4.000000,4.000000,4.000000,4.000000,4.000000,4.000000,4.000000,4.000000,4.000000,4.000000,100.000000
1602006296.499236,36.000000,0.000000,4127.692383,4130.256348,4139.487305,4137.948730,4125.128418,4112.820313,4107.692383,4121.025879,4113.333496,4114.358887,4123.589844,4143.589844,4120.512695,4126.666504,0.000000,4.000000,,,,0.000000,4.000000,4.000000,4.000000,4.000000,4.000000,4.000000,4.000000,4.000000,4.000000,4.000000,4.000000,4.000000,4.000000,4.000000,100.000000
1602006296.507118,37.000000,0.000000,4145.128418,4138.974121,4140.512695,4136.922852,4124.615234,4109.230957,4106.153809,4123.589844,4131.794922,4133.333496,4115.897461,4141.538574,4122.563965,4127.179688,0.000000,4.000000,,,,0.000000,4.000000,4.000000,4.000000,4.000000,4.000000,4.000000,4.000000,4.000000,4.000000,4.000000,4.000000,4.000000,4.000000,4.000000,100.000000
1602006296.514999,38.000000,0.000000,4145.128418,4133.333496,4141.538574,4135.897461,4125.641113,4109.230957,4105.641113,4122.051270,4139.487305,4141.538574,4120.512695,4142.563965,4122.563965,4123.589844,0.000000,4.000000,,,,0.000000,4.000000,4.000000,4.000000,4.000000,4.000000,4.000000,4.000000,4.000000,4.000000,4.000000,4.000000,4.000000,4.000000,4.000000,100.000000
1602006296.522881,39.000000,0.000000,4132.307617,4128.205078,4135.384766,4131.282227,4133.846191,4128.717773,4112.307617,4125.641113,4137.436035,4141.025879,4131.282227,4140.000000,4122.051270,4125.128418,0.000000,4.000000,,,,0.000000,4.000000,4.000000,4.000000,4.000000,4.000000,4.000000,4.000000,4.000000,4.000000,4.000000,4.000000,4.000000,4.000000,4.000000,100.000000
1602006296.530762,40.000000,0.000000,4123.589844,4128.717773,4125.641113,4124.102539,4133.846191,4146.666504,4118.461426,4129.230957,4140.000000,4122.563965,4125.128418,4132.307617,4121.025879,4122.563965,0.000000,4.000000,,,,0.000000,4.000000,4.000000,4.000000,4.000000,4.000000,4.000000,4.000000,4.000000,4.000000,4.000000,4.000000,4.000000,4.000000,4.000000,100.000000
1602006296.538744,41.000000,0.000000,4120.512695,4123.589844,4118.974121,4118.461426,4123.077148,4144.615234,4114.871582,4118.461426,4133.333496,4098.461426,4105.641113,4118.461426,4109.743652,4106.153809,0.000000,4.000000,,,,0.000000,4.000000,4.000000,4.000000,4.000000,4.000000,4.000000,4.000000,4.000000,4.000000,4.000000,4.000000,4.000000,4.000000,4.000000,100.000000
1602006296.546626,42.000000,0.000000,4120.512695,4118.461426,4116.922852,4118.974121,4121.538574,4140.512695,4116.410156,4108.205078,4117.948730,4095.897461,4109.230957,4106.666504,4104.102539,4100.512695,0.000000,4.000000,,,,0.000000,4.000000,4.000000,4.000000,4.000000,4.000000,4.000000,4.000000,4.000000,4.000000,4.000000,4.000000,4.000000,4.000000,4.000000,100.000000
1602006296.554507,43.000000,0.000000,4117.948730,4121.538574,4118.461426,4123.589844,4124.615234,4138.461426,4127.179688,4111.282227,4109.230957,4109.230957,4123.077148,4110.769043,4106.666504,4108.717773,0.000000,4.000000,,,,0.000000,4.000000,4.000000,4.000000,4.000000,4.000000,4.000000,4.000000,4.000000,4.000000,4.000000,4.000000,4.000000,4.000000,4.000000,100.000000
1602006296.562389,44.000000,0.000000,4117.436035,4122.563965,4122.051270,4123.077148,4121.538574,4127.179688,4130.769043,4112.820313,4096.410156,4109.743652,4111.794922,4119.487305,4101.025879,4109.230957,0.000000,4.000000,,,,0.000000,4.000000,4.000000,4.000000,4.000000,4.000000,4.000000,4.000000,4.000000,4.000000,4.000000,4.000000,4.000000,4.000000,4.000000,100.000000
1602006296.570271,45.000000,0.000000,4122.051270,4121.025879,4121.538574,4117.948730,4120.512695,4113.333496,4126.153809,4110.769043,4078.461426,4101.025879,4098.461426,4120.512695,4090.769287,4110.769043,0.000000,4.000000,,,,0.000000,4.000000,4.000000,4.000000,4.000000,4.000000,4.000000,4.000000,4.000000,4.000000,4.000000,4.000000,4.000000,4.000000,4.000000,100.000000
1602006296.578152,46.000000,0.000000,4118.974121,4126.666504,4121.538574,4126.666504,4122.051270,4104.615234,4123.077148,4117.948730,4085.641113,4111.282227,4106.153809,4125.128418,4093.333252,4121.538574,0.000000,4.000000,,,,0.000000,4.000000,4.000000,4.000000,4.000000,4.000000,4.000000,4.000000,4.000000,4.000000,4.000000,4.000000,4.000000,4.000000,4.000000,100.000000
1602006296.586034,47.000000,0.000000,4120.512695,4135.897461,4131.794922,4140.000000,4120.000000,4102.563965,4123.589844,4123.077148,4107.179688,4121.538574,4119.487305,4137.436035,4107.179688,4132.820313,0.000000,4.000000,,,,0.000000,4.000000,4.000000,4.000000,4.000000,4.000000,4.000000,4.000000,4.000000,4.000000,4.000000,4.000000,4.000000,4.000000,4.000000,100.000000
1602006296.593916,48.000000,0.000000,4136.410156,4146.153809,4140.512695,4140.512695,4126.666504,4110.769043,4121.025879,4118.461426,4111.794922,4118.974121,4129.743652,4147.692383,4121.538574,4141.538574,0.000000,4.000000,,,,0.000000,4.000000,4.000000,4.000000,4.000000,4.000000,4.000000,4.000000,4.000000,4.000000,4.000000,4.000000,4.000000,4.000000,4.000000,100.000000
1602006296.601797,49.000000,0.000000,4144.615234,4153.846191,4140.000000,4144.102539,4137.948730,4120.000000,4114.358887,4118.461426,4113.846191,4127.179688,4135.897461,4156.922852,4132.820313,4142.563965,0.000000,4.000000,,,,0.000000,4.000000,4.000000,4.000000,4.000000,4.000000,4.000000,4.000000,4.000000,4.000000,4.000000,4.000000,4.000000,4.000000,4.000000,100.000000
1602006296.609778,50.000000,0.000000,4138.974121,4153.333496,4140.000000,4152.307617,4135.897461,4128.717773,4114.358887,4123.589844,4131.794922,4137.436035,4143.077148,4165.641113,4140.512695,4146.666504,0.000000,4.000000,,,,0.000000,4.000000,4.000000,4.000000,4.000000,4.000000,4.000000,4.000000,4.000000,4.000000,4.000000,4.000000,4.000000,4.000000,4.000000,100.000000
1602006296.617660,51.000000,0.000000,4137.436035,4142.563965,4138.974121,4146.666504,4129.743652,4138.974121,4120.512695,4131.282227,4144.102539,4134.358887,4149.230957,4162.563965,4143.077148,4158.974121,0.000000,4.000000,,,,0.000000,4.000000,4.000000,4.000000,4.000000,4.000000,4.000000,4.000000,4.000000,4.000000,4.000000,4.000000,4.000000,4.000000,4.000000,100.000000
1602006296.625541,52.000000,0.000000,4138.974121,4131.282227,4128.717773,4134.358887,4129.230957,4142.051270,4122.563965,4135.384766,4136.922852,4132.307617,4138.461426,4149.230957,4134.358887,4154.358887,0.000000,4.000000,,,,0.000000,4.000000,4.000000,4.000000,4.000000,4.000000,4.000000,4.000000,4.000000,4.000000,4.000000,4.000000,4.000000,4.000000,4.000000,100.000000
1602006296.633423,53.000000,0.000000,4130.256348,4126.153809,4120.000000,4130.769043,4126.153809,4137.436035,4123.589844,4131.282227,4126.153809,4134.358887,4125.641113,4141.538574,4120.000000,4130.769043,0.000000,4.000000,,,,0.000000,4.000000,4.000000,4.000000,4.000000,4.000000,4.000000,4.000000,4.000000,4.000000,4.000000,4.000000,4.000000,4.000000,4.000000,100.000000
1602006296.641304,54.000000,0.000000,4121.538574,4124.102539,4123.077148,4125.128418,4122.051270,4130.769043,4125.128418,4124.615234,4116.922852,4125.128418,4122.051270,4137.436035,4106.666504,4118.974121,0.000000,4.000000,,,,0.000000,4.000000,4.000000,4.000000,4.000000,4.000000,4.000000,4.000000,4.000000,4.000000,4.000000,4.000000,4.000000,4.000000,4.000000,100.000000
1602006296.649185,55.000000,0.000000,4121.025879,4122.563965,4123.589844,4118.974121,4120.512695,4124.615234,4127.692383,4117.948730,4098.461426,4110.769043,4109.743652,4127.692383,4093.333252,4122.563965,0.000000,4.000000,,,,0.000000,4.000000,4.000000,4.000000,4.000000,4.000000,4.000000,4.000000,4.000000,4.000000,4.000000,4.000000,4.000000,4.000000,4.000000,100.000000
1602006296.657167,56.000000,0.000000,4117.948730,4121.025879,4120.512695,4126.153809,4117.948730,4117.436035,4132.307617,4110.256348,4077.948730,4095.384521,4097.436035,4123.077148,4088.718018,4120.000000,0.000000,4.000000,,,,0.000000,4.000000,4.000000,4.000000,4.000000,4.000000,4.000000,4.000000,4.000000,4.000000,4.000000,4.000000,4.000000,4.000000,4.000000,100.000000
1602006296.665049,57.000000,0.000000,4123.589844,4129.743652,4127.692383,4136.922852,4117.948730,4116.410156,4138.974121,4113.846191,4078.461426,4095.384521,4115.897461,4137.948730,4108.717773,4124.615234,0.000000,4.000000,,,,0.000000,4.000000,4.000000,4.000000,4.000000,4.000000,4.000000,4.000000,4.000000,4.000000,4.000000,4.000000,4.000000,4.000000,4.000000,100.000000
1602006296.672930,58.000000,0.000000,4147.179688,4142.563965,4146.153809,4143.077148,4128.717773,4124.615234,4142.563965,4125.128418,4093.846191,4106.666504,4145.641113,4155.897461,4133.333496,4150.769043,0.000000,4.000000,,,,0.000000,4.000000,4.000000,4.000000,4.000000,4.000000,4.000000,4.000000,4.000000,4.000000,4.000000,4.000000,4.000000,4.000000,4.000000,100.000000
1602006296.680812,59.000000,0.000000,4155.897461,4143.077148,4152.307617,4143.077148,4130.769043,4127.692383,4131.794922,4118.461426,4101.025879,4104.102539,4134.871582,4152.307617,4129.230957,4158.974121,0.000000,4.000000,,,,0.000000,4.000000,4.000000,4.000000,4.000000,4.000000,4.000000,4.000000,4.000000,4.000000,4.000000,4.000000,4.000000,4.000000,4.000000,100.000000
1602006296.688694,60.000000,0.000000,4142.051270,4139.487305,4145.128418,4143.077148,4124.102539,4121.538574,4113.846191,4105.641113,4107.692383,4114.871582,4110.769043,4138.974121,4121.025879,4144.615234,0.000000,4.000000,,,,0.000000,4.000000,4.000000,4.000000,4.000000,4.000000,4.000000,4.000000,4.000000,4.000000,4.000000,4.000000,4.000000,4.000000,4.000000,100.000000
1602006296.696575,61.000000,0.000000,4137.436035,4140.000000,4141.538574,4141.025879,4125.641113,4122.563965,4104.615234,4104.615234,4121.538574,4140.512695,4127.692383,4137.436035,4125.641113,4141.025879,0.000000,4.000000,,,,0.000000,4.000000,4.000000,4.000000,4.000000,4.000000,4.000000,4.000000,4.000000,4.000000,4.000000,4.000000,4.000000,4.000000,4.000000,100.000000
1602006296.704457,62.000000,0.000000,4141.538574,4138.974121,4141.538574,4134.871582,4129.230957,4125.641113,4104.615234,4111.794922,4134.871582,4141.538574,4145.128418,4144.615234,4124.615234,4141.538574,0.000000,4.000000,,,,0.000000,4.000000,4.000000,4.000000,4.000000,4.000000,4.000000,4.000000,4.000000,4.000000,4.000000,4.000000,4.000000,4.000000,4.000000,100.000000
1602006296.712338,63.000000,0.000000,4138.974121,4137.436035,4137.436035,4134.871582,4124.615234,4120.000000,4112.307617,4128.205078,4144.615234,4138.461426,4130.769043,4153.333496,4128.717773,4143.589844,0.000000,4.000000,,,,0.000000,4.000000,4.000000,4.000000,4.000000,4.000000,4.000000,4.000000,4.000000,4.000000,4.000000,4.000000,4.000000,4.000000,4.000000,100.000000
1602006296.720220,64.000000,0.000000,4138.974121,4140.000000,4130.769043,4139.487305,4122.051270,4121.025879,4122.563965,4144.102539,4140.000000,4137.948730,4129.743652,4155.897461,4138.974121,4155.384766,790.000000,4.000000,,,,0.000000,4.000000,4.000000,4.000000,4.000000,4.000000,4.000000,4.000000,4.000000,4.000000,4.000000,4.000000,4.000000,4.000000,4.000000,100.000000
1602006296.728202,65.000000,0.000000,4135.384766,4137.948730,4125.641113,4133.333496,4125.128418,4129.743652,4125.641113,4141.538574,4118.974121,4116.922852,4138.461426,4148.717773,4130.769043,4155.897461,788.000000,4.000000,,,,0.000000,4.000000,4.000000,4.000000,4.000000,4.000000,4.000000,4.000000,4.000000,4.000000,4.000000,4.000000,4.000000,4.000000,4.000000,100.000000
1602006296.736083,66.000000,0.000000,4119.487305,4126.666504,4120.000000,4124.615234,4117.436035,4123.077148,4123.589844,4126.153809,4094.871826,4107.692383,4124.615234,4136.410156,4110.256348,4136.922852,852.000000,4.000000,,,,0.000000,4.000000,4.000000,4.000000,4.000000,4.000000,4.000000,4.000000,4.000000,4.000000,4.000000,4.000000,4.000000,4.000000,4.000000,100.000000
1602006296.743965,67.000000,0.000000,4108.717773,4122.051270,4117.948730,4129.230957,4109.743652,4101.025879,4124.615234,4115.897461,4068.718018,4105.128418,4117.948730,4132.820313,4105.641113,4127.692383,866.000000,4.000000,,,,0.000000,4.000000,4.000000,4.000000,4.000000,4.000000,4.000000,4.000000,4.000000,4.000000,4.000000,4.000000,4.000000,4.000000,4.000000,100.000000
1602006296.751847,68.000000,0.000000,4116.410156,4133.846191,4129.230957,4136.410156,4116.410156,4094.871826,4123.077148,4111.794922,4053.846191,4087.179443,4125.641113,4142.051270,4120.512695,4143.589844,813.000000,4.000000,,,,0.000000,4.000000,4.000000,4.000000,4.000000,4.000000,4.000000,4.000000,4.000000,4.000000,4.000000,4.000000,4.000000,4.000000,4.000000,100.000000
1602006296.759728,69.000000,0.000000,4142.051270,4144.615234,4145.641113,4138.461426,4129.743652,4113.846191,4120.512695,4108.717773,4066.153809,4102.051270,4125.128418,4154.871582,4140.512695,4164.102539,818.000000,4.000000,,,,0.000000,4.000000,4.000000,4.000000,4.000000,4.000000,4.000000,4.000000,4.000000,4.000000,4.000000,4.000000,4.000000,4.000000,4.000000,100.000000
1602006296.767610,70.000000,0.000000,4156.922852,4142.563965,4143.077148,4142.051270,4134.871582,4122.051270,4119.487305,4104.615234,4080.512939,4129.743652,4124.615234,4154.871582,4138.461426,4161.025879,770.000000,4.000000,,,,0.000000,4.000000,4.000000,4.000000,4.000000,4.000000,4.000000,4.000000,4.000000,4.000000,4.000000,4.000000,4.000000,4.000000,4.000000,100.000000
1602006296.775492,71.000000,0.000000,4146.153809,4136.410156,4125.128418,4134.871582,4126.666504,4109.743652,4118.974121,4094.871826,4075.384521,4109.230957,4124.615234,4141.538574,4120.512695,4141.538574,667.000000,4.000000,,,,0.000000,4.000000,4.000000,4.000000,4.000000,4.000000,4.000000,4.000000,4.000000,4.000000,4.000000,4.000000,4.000000,4.000000,4.000000,100.000000
1602006296.783373,72.000000,0.000000,4135.897461,4135.384766,4123.077148,4123.077148,4119.487305,4112.820313,4122.051270,4088.205078,4080.000000,4094.358887,4112.307617,4136.410156,4117.948730,4137.948730,788.000000,4.000000,,,,0.000000,4.000000,4.000000,4.000000,4.000000,4.000000,4.000000,4.000000,4.000000,4.000000,4.000000,4.000000,4.000000,4.000000,4.000000,100.000000
1602006296.791354,73.000000,0.000000,4138.974121,4136.410156,4134.358887,4129.230957,4119.487305,4129.230957,4124.102539,4092.307617,4107.179688,4128.717773,4111.794922,4141.025879,4123.077148,4141.538574,838.000000,4.000000,,,,0.000000,4.000000,4.000000,4.000000,4.000000,4.000000,4.000000,4.000000,4.000000,4.000000,4.000000,4.000000,4.000000,4.000000,4.000000,100.000000
1602006296.799235,74.000000,0.000000,4138.461426,4134.358887,4137.436035,4138.974121,4120.000000,4132.307617,4122.051270,4103.077148,4130.256348,4155.384766,4129.743652,4139.487305,4128.205078,4141.025879,871.000000,4.000000,,,,0.000000,4.000000,4.000000,4.000000,4.000000,4.000000,4.000000,4.000000,4.000000,4.000000,4.000000,4.000000,4.000000,4.000000,4.000000,100.000000
1602006296.807117,75.000000,0.000000,4141.538574,4139.487305,4138.974121,4140.000000,4124.615234,4132.820313,4123.077148,4122.051270,4141.538574,4154.871582,4147.179688,4142.051270,4145.641113,4153.846191,835.000000,4.000000,,,,0.000000,4.000000,4.000000,4.000000,4.000000,4.000000,4.000000,4.000000,4.000000,4.000000,4.000000,4.000000,4.000000,4.000000,4.000000,100.000000
1602006296.814998,76.000000,0.000000,4156.410156,4154.358887,4144.615234,4141.538574,4136.410156,4142.051270,4126.153809,4142.051270,4152.307617,4152.307617,4151.794922,4152.307617,4161.538574,4174.358887,769.000000,4.000000,,,,0.000000,4.000000,4.000000,4.000000,4.000000,4.000000,4.000000,4.000000,4.000000,4.000000,4.000000,4.000000,4.000000,4.000000,4.000000,100.000000
1602006296.822879,77.000000,0.000000,4155.897461,4155.384766,4136.410156,4141.538574,4140.512695,4140.000000,4126.153809,4148.205078,4150.769043,4145.128418,4149.230957,4155.897461,4154.871582,4176.410156,742.000000,4.000000,,,,0.000000,4.000000,4.000000,4.000000,4.000000,4.000000,4.000000,4.000000,4.000000,4.000000,4.000000,4.000000,4.000000,4.000000,4.000000,100.000000
1602006296.830860,78.000000,0.000000,4142.563965,4142.051270,4120.000000,4140.000000,4136.922852,4124.102539,4122.563965,4140.512695,4126.666504,4123.589844,4141.025879,4151.794922,4141.025879,4158.974121,871.000000,4.000000,,,,0.000000,4.000000,4.000000,4.000000,4.000000,4.000000,4.000000,4.000000,4.000000,4.000000,4.000000,4.000000,4.000000,4.000000,4.000000,100.000000
1602006296.838742,79.000000,0.000000,4141.538574,4137.948730,4122.563965,4140.512695,4133.846191,4107.179688,4113.846191,4130.256348,4095.384521,4105.128418,4131.794922,4152.820313,4136.922852,4142.051270,835.000000,4.000000,,,,0.000000,4.000000,4.000000,4.000000,4.000000,4.000000,4.000000,4.000000,4.000000,4.000000,4.000000,4.000000,4.000000,4.000000,4.000000,100.000000
1602006296.846623,80.000000,0.000000,4144.615234,4141.025879,4133.333496,4137.948730,4126.666504,4098.974121,4110.769043,4121.538574,4077.948730,4111.794922,4125.641113,4152.820313,4137.436035,4135.897461,769.000000,4.000000,,,,0.000000,4.000000,4.000000,4.000000,4.000000,4.000000,4.000000,4.000000,4.000000,4.000000,4.000000,4.000000,4.000000,4.000000,4.000000,100.000000
1602006296.854504,81.000000,0.000000,4138.974121,4138.974121,4129.743652,4135.384766,4118.974121,4099.487305,4118.974121,4117.948730,4075.897461,4133.846191,4126.666504,4150.256348,4137.948730,4143.077148,742.000000,4.000000,,,,0.000000,4.000000,4.000000,4.000000,4.000000,4.000000,4.000000,4.000000,4.000000,4.000000,4.000000,4.000000,4.000000,4.000000,4.000000,100.000000
1602006296.862386,82.000000,0.000000,4136.410156,4136.410156,4120.512695,4138.461426,4122.563965,4112.820313,4131.282227,4122.563965,4082.051270,4146.666504,4130.256348,4150.769043,4137.436035,4156.410156,871.000000,4.000000,,,,0.000000,4.000000,4.000000,4.000000,4.000000,4.000000,4.000000,4.000000,4.000000,4.000000,4.000000,4.000000,4.000000,4.000000,4.000000,100.000000
1602006296.870267,83.000000,0.000000,4139.487305,4133.333496,4121.538574,4137.436035,4128.717773,4134.358887,4146.666504,4122.051270,4088.205078,4136.410156,4123.077148,4148.717773,4129.743652,4154.871582,835.000000,4.000000,,,,0.000000,4.000000,4.000000,4.000000,4.000000,4.000000,4.000000,4.000000,4.000000,4.000000,4.000000,4.000000,4.000000,4.000000,4.000000,100.000000
1602006296.878149,84.000000,0.000000,4131.282227,4122.563965,4123.077148,4124.615234,4126.153809,4145.128418,4155.384766,4111.282227,4087.179443,4103.589844,4113.846191,4141.538574,4113.333496,4139.487305,769.000000,4.000000,,,,0.000000,4.000000,4.000000,4.000000,4.000000,4.000000,4.000000,4.000000,4.000000,4.000000,4.000000,4.000000,4.000000,4.000000,4.000000,100.000000
1602006296.886130,85.000000,0.000000,4113.333496,4108.205078,4115.897461,4106.666504,4118.461426,4137.436035,4142.563965,4101.025879,4087.692383,4089.230713,4113.333496,4131.794922,4099.487305,4130.769043,742.000000,4.000000,,,,0.000000,4.000000,4.000000,4.000000,4.000000,4.000000,4.000000,4.000000,4.000000,4.000000,4.000000,4.000000,4.000000,4.000000,4.000000,100.000000
1602006296.894011,86.000000,0.000000,4106.666504,4106.153809,4112.307617,4105.128418,4117.948730,4134.358887,4123.077148,4105.128418,4103.589844,4114.358887,4110.256348,4122.563965,4098.461426,4124.102539,871.000000,4.000000,,,,0.000000,4.000000,4.000000,4.000000,4.000000,4.000000,4.000000,4.000000,4.000000,4.000000,4.000000,4.000000,4.000000,4.000000,4.000000,100.000000
1602006296.901893,87.000000,0.000000,4116.922852,4120.000000,4118.974121,4119.487305,4129.743652,4149.743652,4122.563965,4125.641113,4131.794922,4137.948730,4111.282227,4126.666504,4115.384766,4114.871582,835.000000,4.000000,,,,0.000000,4.000000,4.000000,4.000000,4.000000,4.000000,4.000000,4.000000,4.000000,4.000000,4.000000,4.000000,4.000000,4.000000,4.000000,100.000000
1602006296.909774,88.000000,0.000000,4129.230957,4133.846191,4124.615234,4124.615234,4142.563965,4158.974121,4127.179688,4147.692383,4158.974121,4148.205078,4130.256348,4139.487305,4134.871582,4125.641113,769.000000,4.000000,,,,0.000000,4.000000,4.000000,4.000000,4.000000,4.000000,4.000000,4.000000,4.000000,4.000000,4.000000,4.000000,4.000000,4.000000,4.000000,100.000000
1602006296.917656,89.000000,0.000000,4128.205078,4136.410156,4122.051270,4123.589844,4141.025879,4145.641113,4117.948730,4148.205078,4164.615234,4152.820313,4141.025879,4141.025879,4133.333496,4147.692383,742.000000,4.000000,,,,0.000000,4.000000,4.000000,4.000000,4.000000,4.000000,4.000000,4.000000,4.000000,4.000000,4.000000,4.000000,4.000000,4.000000,4.000000,100.000000
1602006296.925537,90.000000,0.000000,4124.102539,4136.410156,4119.487305,4132.307617,4129.743652,4122.563965,4105.128418,4132.307617,4137.948730,4132.820313,4126.666504,4134.871582,4121.025879,4147.179688,871.000000,4.000000,,,,0.000000,4.000000,4.000000,4.000000,4.000000,4.000000,4.000000,4.000000,4.000000,4.000000,4.000000,4.000000,4.000000,4.000000,4.000000,100.000000
1602006296.933418,91.000000,0.000000,4127.692383,4138.974121,4122.051270,4138.461426,4125.128418,4108.205078,4103.077148,4120.000000,4103.589844,4110.769043,4117.948730,4136.410156,4118.974121,4135.897461,835.000000,4.000000,,,,0.000000,4.000000,4.000000,4.000000,4.000000,4.000000,4.000000,4.000000,4.000000,4.000000,4.000000,4.000000,4.000000,4.000000,4.000000,100.000000
1602006296.941400,92.000000,0.000000,4127.179688,4134.871582,4123.077148,4134.871582,4124.615234,4103.589844,4106.153809,4111.794922,4085.128174,4108.205078,4119.487305,4137.948730,4120.512695,4132.820313,769.000000,4.000000,,,,0.000000,4.000000,4.000000,4.000000,4.000000,4.000000,4.000000,4.000000,4.000000,4.000000,4.000000,4.000000,4.000000,4.000000,4.000000,100.000000
1602006296.949282,93.000000,0.000000,4126.666504,4130.769043,4127.692383,4133.333496,4121.538574,4103.589844,4109.743652,4104.102539,4080.000000,4093.333252,4115.384766,4133.846191,4116.410156,4131.794922,742.000000,4.000000,,,,0.000000,4.000000,4.000000,4.000000,4.000000,4.000000,4.000000,4.000000,4.000000,4.000000,4.000000,4.000000,4.000000,4.000000,4.000000,100.000000
1602006296.957163,94.000000,0.000000,4136.922852,4136.410156,4137.948730,4135.897461,4118.461426,4103.077148,4116.410156,4102.563965,4084.615479,4079.487061,4113.846191,4144.615234,4117.948730,4133.333496,871.000000,4.000000,,,,0.000000,4.000000,4.000000,4.000000,4.000000,4.000000,4.000000,4.000000,4.000000,4.000000,4.000000,4.000000,4.000000,4.000000,4.000000,100.000000
1602006296.965045,95.000000,0.000000,4144.102539,4144.102539,4145.128418,4140.512695,4120.512695,4110.256348,4123.077148,4112.307617,4103.589844,4107.179688,4128.205078,4169.230957,4130.769043,4149.230957,835.000000,4.000000,,,,0.000000,4.000000,4.000000,4.000000,4.000000,4.000000,4.000000,4.000000,4.000000,4.000000,4.000000,4.000000,4.000000,4.000000,4.000000,100.000000
1602006296.972926,96.000000,0.000000,4140.512695,4135.897461,4143.589844,4137.436035,4123.077148,4123.589844,4124.615234,4119.487305,4123.589844,4131.794922,4140.000000,4173.333496,4142.051270,4156.922852,769.000000,4.000000,,,,0.000000,4.000000,4.000000,4.000000,4.000000,4.000000,4.000000,4.000000,4.000000,4.000000,4.000000,4.000000,4.000000,4.000000,4.000000,100.000000
1602006296.980808,97.000000,0.000000,4139.487305,4122.563965,4136.410156,4124.615234,4116.922852,4126.666504,4125.128418,4123.589844,4136.410156,4127.179688,4132.820313,4154.358887,4138.974121,4144.615234,742.000000,4.000000,,,,0.000000,4.000000,4.000000,4.000000,4.000000,4.000000,4.000000,4.000000,4.000000,4.000000,4.000000,4.000000,4.000000,4.000000,4.000000,100.000000
1602006296.988690,98.000000,0.000000,4136.922852,4121.538574,4123.077148,4120.512695,4114.358887,4125.128418,4128.205078,4134.871582,4150.256348,4139.487305,4126.153809,4141.538574,4128.205078,4135.384766,871.000000,4.000000,,,,0.000000,4.000000,4.000000,4.000000,4.000000,4.000000,4.000000,4.000000,4.000000,4.000000,4.000000,4.000000,4.000000,4.000000,4.000000,100.000000
1602006296.996571,99.000000,0.000000,4127.692383,4122.051270,4109.230957,4122.563965,4117.436035,4126.666504,4128.717773,4147.692383,4165.128418,4157.436035,4127.692383,4141.025879,4125.641113,4128.205078,835.000000,4.000000,,,,0.000000,4.000000,4.000000,4.000000,4.000000,4.000000,4.000000,4.000000,4.000000,4.000000,4.000000,4.000000,4.000000,4.000000,4.000000,100.000000
1602006297.004453,100.000000,0.000000,4114.358887,4109.743652,4103.589844,4115.384766,4115.384766,4118.974121,4125.641113,4147.179688,4166.666504,4143.077148,4117.948730,4140.000000,4122.051270,4112.307617,769.000000,4.000000,,,,0.000000,4.000000,4.000000,4.000000,4.000000,4.000000,4.000000,4.000000,4.000000,4.000000,4.000000,4.000000,4.000000,4.000000,4.000000,100.000000
1602006297.012234,101.000000,0.000000,4103.589844,4100.000000,4101.538574,4107.179688,4113.846191,4112.307617,4122.563965,4135.897461,4140.000000,4111.282227,4102.563965,4137.436035,4109.230957,4100.512695,742.000000,4.000000,,,,0.000000,4.000000,4.000000,4.000000,4.000000,4.000000,4.000000,4.000000,4.000000,4.000000,4.000000,4.000000,4.000000,4.000000,4.000000,100.000000
