Timestamp,EEG.Counter,EEG.Interpolated,EEG.AF3,EEG.F7,EEG.F3,EEG.FC5,EEG.T7,EEG.P7,EEG.O1,EEG.O2,EEG.P8,EEG.T8,EEG.FC6,EEG.F4,EEG.F8,EEG.AF4,EEG.RawCq,EEG.Battery,MarkerIndex,MarkerType,MarkerValueInt,EEG.MarkerHardware,CQ.AF3,CQ.F7,CQ.F3,CQ.FC5,CQ.T7,CQ.P7,CQ.O1,CQ.O2,CQ.P8,CQ.T8,CQ.FC6,CQ.F4,CQ.F8,CQ.AF4,CQ.Overall
1602006306.106111,94.000000,0.000000,4134.358887,4120.512695,4132.820313,4122.563965,4136.922852,4141.025879,4128.205078,4124.615234,4146.666504,4130.769043,4135.384766,4157.436035,4136.410156,4122.563965,871.000000,4.000000,,,,0.000000,4.000000,4.000000,4.000000,4.000000,4.000000,4.000000,4.000000,4.000000,4.000000,4.000000,4.000000,4.000000,4.000000,4.000000,100.000000
1602006306.113892,95.000000,0.000000,4120.512695,4121.538574,4122.563965,4120.512695,4136.922852,4147.179688,4128.717773,4124.102539,4148.205078,4118.974121,4139.487305,4153.333496,4140.000000,4127.179688,839.000000,4.000000,,,,0.000000,4.000000,4.000000,4.000000,4.000000,4.000000,4.000000,4.000000,4.000000,4.000000,4.000000,4.000000,4.000000,4.000000,4.000000,100.000000
1602006306.121774,96.000000,0.000000,4121.025879,4127.692383,4123.589844,4124.102539,4138.974121,4156.410156,4139.487305,4127.179688,4152.307617,4140.000000,4154.358887,4153.846191,4140.000000,4124.615234,769.000000,4.000000,,,,0.000000,4.000000,4.000000,4.000000,4.000000,4.000000,4.000000,4.000000,4.000000,4.000000,4.000000,4.000000,4.000000,4.000000,4.000000,100.000000
1602006306.129655,97.000000,0.000000,4128.205078,4130.256348,4128.205078,4126.153809,4141.025879,4150.256348,4137.436035,4127.179688,4155.897461,4155.897461,4154.358887,4157.436035,4139.487305,4123.589844,743.000000,4.000000,,,,0.000000,4.000000,4.000000,4.000000,4.000000,4.000000,4.000000,4.000000,4.000000,4.000000,4.000000,4.000000,4.000000,4.000000,4.000000,100.000000
1602006306.137537,98.000000,0.000000,4122.051270,4126.153809,4125.128418,4121.538574,4137.436035,4131.282227,4124.102539,4117.436035,4149.743652,4141.025879,4143.077148,4150.769043,4134.871582,4122.051270,871.000000,4.000000,,,,0.000000,4.000000,4.000000,4.000000,4.000000,4.000000,4.000000,4.000000,4.000000,4.000000,4.000000,4.000000,4.000000,4.000000,4.000000,100.000000
1602006306.145418,99.000000,0.000000,4110.769043,4122.563965,4120.000000,4118.974121,4127.179688,4118.461426,4119.487305,4108.205078,4131.282227,4121.025879,4135.384766,4138.974121,4122.563965,4111.794922,839.000000,4.000000,,,,0.000000,4.000000,4.000000,4.000000,4.000000,4.000000,4.000000,4.000000,4.000000,4.000000,4.000000,4.000000,4.000000,4.000000,4.000000,100.000000
1602006306.153299,100.000000,0.000000,4113.846191,4125.641113,4126.666504,4128.205078,4121.538574,4115.384766,4121.538574,4112.307617,4125.641113,4118.974121,4142.051270,4141.025879,4120.512695,4102.051270,769.000000,4.000000,,,,0.000000,4.000000,4.000000,4.000000,4.000000,4.000000,4.000000,4.000000,4.000000,4.000000,4.000000,4.000000,4.000000,4.000000,4.000000,100.000000
1602006306.161181,101.000000,0.000000,4133.333496,4135.897461,4140.512695,4140.512695,4127.692383,4123.077148,4122.563965,4122.563965,4132.820313,4123.077148,4150.256348,4152.307617,4136.922852,4109.230957,743.000000,4.000000,,,,0.000000,4.000000,4.000000,4.000000,4.000000,4.000000,4.000000,4.000000,4.000000,4.000000,4.000000,4.000000,4.000000,4.000000,4.000000,100.000000
1602006306.169162,102.000000,0.000000,4144.615234,4140.000000,4146.666504,4140.000000,4136.922852,4131.282227,4122.051270,4125.128418,4126.153809,4121.538574,4144.102539,4156.410156,4142.051270,4122.563965,871.000000,4.000000,,,,0.000000,4.000000,4.000000,4.000000,4.000000,4.000000,4.000000,4.000000,4.000000,4.000000,4.000000,4.000000,4.000000,4.000000,4.000000,100.000000
1602006306.177044,103.000000,0.000000,4136.410156,4135.384766,4141.538574,4134.358887,4133.846191,4127.179688,4121.538574,4119.487305,4116.410156,4119.487305,4136.922852,4152.307617,4126.666504,4124.615234,839.000000,4.000000,,,,0.000000,4.000000,4.000000,4.000000,4.000000,4.000000,4.000000,4.000000,4.000000,4.000000,4.000000,4.000000,4.000000,4.000000,4.000000,100.000000
1602006306.184926,104.000000,0.000000,4134.871582,4133.846191,4140.000000,4134.358887,4125.641113,4122.563965,4121.538574,4119.487305,4116.922852,4125.641113,4136.410156,4151.282227,4121.538574,4123.589844,769.000000,4.000000,,,,0.000000,4.000000,4.000000,4.000000,4.000000,4.000000,4.000000,4.000000,4.000000,4.000000,4.000000,4.000000,4.000000,4.000000,4.000000,100.000000
1602006306.192807,105.000000,0.000000,4140.000000,4136.410156,4143.589844,4137.948730,4127.179688,4121.538574,4122.051270,4122.563965,4113.846191,4126.153809,4133.333496,4150.769043,4124.102539,4125.641113,743.000000,4.000000,,,,0.000000,4.000000,4.000000,4.000000,4.000000,4.000000,4.000000,4.000000,4.000000,4.000000,4.000000,4.000000,4.000000,4.000000,4.000000,100.000000
1602006306.200689,106.000000,0.000000,4135.897461,4137.948730,4145.641113,4140.000000,4136.922852,4127.179688,4122.563965,4124.615234,4114.871582,4113.846191,4137.948730,4150.256348,4122.051270,4124.102539,871.000000,4.000000,,,,0.000000,4.000000,4.000000,4.000000,4.000000,4.000000,4.000000,4.000000,4.000000,4.000000,4.000000,4.000000,4.000000,4.000000,4.000000,100.000000
1602006306.208571,107.000000,0.000000,4133.333496,4138.974121,4144.102539,4139.487305,4137.948730,4133.333496,4123.589844,4125.128418,4124.615234,4103.077148,4146.666504,4152.307617,4127.179688,4121.538574,839.000000,4.000000,,,,0.000000,4.000000,4.000000,4.000000,4.000000,4.000000,4.000000,4.000000,4.000000,4.000000,4.000000,4.000000,4.000000,4.000000,4.000000,100.000000
1602006306.216452,108.000000,0.000000,4136.922852,4137.436035,4140.000000,4139.487305,4129.743652,4129.743652,4127.692383,4124.102539,4125.641113,4109.230957,4140.512695,4150.256348,4136.922852,4118.461426,769.000000,4.000000,,,,0.000000,4.000000,4.000000,4.000000,4.000000,4.000000,4.000000,4.000000,4.000000,4.000000,4.000000,4.000000,4.000000,4.000000,4.000000,100.000000
1602006306.224334,109.000000,0.000000,4133.333496,4133.846191,4138.461426,4137.948730,4130.769043,4129.230957,4134.871582,4124.615234,4124.615234,4131.794922,4135.897461,4143.077148,4132.307617,4112.820313,743.000000,4.000000,,,,0.000000,4.000000,4.000000,4.000000,4.000000,4.000000,4.000000,4.000000,4.000000,4.000000,4.000000,4.000000,4.000000,4.000000,4.000000,100.000000
1602006306.232215,110.000000,0.000000,4122.051270,4129.230957,4139.487305,4128.717773,4138.461426,4136.410156,4136.922852,4122.051270,4124.615234,4140.000000,4141.025879,4138.461426,4115.384766,4101.538574,871.000000,4.000000,,,,0.000000,4.000000,4.000000,4.000000,4.000000,4.000000,4.000000,4.000000,4.000000,4.000000,4.000000,4.000000,4.000000,4.000000,4.000000,100.000000
1602006306.240196,111.000000,0.000000,4113.333496,4122.563965,4135.897461,4118.461426,4138.461426,4136.410156,4134.358887,4117.948730,4120.000000,4133.846191,4137.948730,4134.871582,4109.743652,4097.948730,839.000000,4.000000,,,,0.000000,4.000000,4.000000,4.000000,4.000000,4.000000,4.000000,4.000000,4.000000,4.000000,4.000000,4.000000,4.000000,4.000000,4.000000,100.000000
1602006306.248077,112.000000,0.000000,4113.846191,4121.538574,4132.307617,4123.077148,4134.358887,4134.358887,4137.436035,4122.563965,4126.153809,4136.922852,4135.384766,4134.871582,4121.538574,4110.256348,769.000000,4.000000,,,,0.000000,4.000000,4.000000,4.000000,4.000000,4.000000,4.000000,4.000000,4.000000,4.000000,4.000000,4.000000,4.000000,4.000000,4.000000,100.000000
1602006306.255958,113.000000,0.000000,4127.692383,4131.282227,4141.025879,4136.410156,4135.384766,4141.538574,4142.563965,4133.333496,4138.461426,4143.589844,4143.077148,4147.179688,4135.897461,4123.589844,743.000000,4.000000,,,,0.000000,4.000000,4.000000,4.000000,4.000000,4.000000,4.000000,4.000000,4.000000,4.000000,4.000000,4.000000,4.000000,4.000000,4.000000,100.000000
1602006306.263939,114.000000,0.000000,4137.436035,4138.461426,4153.846191,4142.563965,4138.461426,4145.128418,4139.487305,4132.307617,4138.461426,4135.897461,4155.384766,4158.461426,4140.000000,4124.102539,871.000000,4.000000,,,,0.000000,4.000000,4.000000,4.000000,4.000000,4.000000,4.000000,4.000000,4.000000,4.000000,4.000000,4.000000,4.000000,4.000000,4.000000,100.000000
1602006306.271820,115.000000,0.000000,4129.230957,4136.410156,4154.871582,4138.974121,4137.948730,4137.436035,4138.461426,4125.128418,4135.897461,4116.410156,4158.974121,4155.897461,4138.461426,4123.589844,839.000000,4.000000,,,,0.000000,4.000000,4.000000,4.000000,4.000000,4.000000,4.000000,4.000000,4.000000,4.000000,4.000000,4.000000,4.000000,4.000000,4.000000,100.000000
1602006306.279702,116.000000,0.000000,4126.153809,4136.410156,4152.820313,4138.461426,4135.897461,4135.384766,4142.563965,4130.769043,4134.871582,4117.948730,4153.846191,4154.871582,4139.487305,4130.769043,769.000000,4.000000,,,,0.000000,4.000000,4.000000,4.000000,4.000000,4.000000,4.000000,4.000000,4.000000,4.000000,4.000000,4.000000,4.000000,4.000000,4.000000,100.000000
1602006306.287583,117.000000,0.000000,4138.974121,4140.000000,4156.922852,4140.000000,4136.922852,4139.487305,4141.538574,4140.512695,4136.922852,4148.717773,4150.769043,4158.974121,4139.487305,4127.179688,743.000000,4.000000,,,,0.000000,4.000000,4.000000,4.000000,4.000000,4.000000,4.000000,4.000000,4.000000,4.000000,4.000000,4.000000,4.000000,4.000000,4.000000,100.000000
1602006306.295464,118.000000,0.000000,4136.410156,4140.000000,4152.820313,4132.820313,4140.000000,4142.563965,4139.487305,4142.563965,4148.717773,4169.743652,4155.384766,4156.922852,4138.974121,4117.948730,871.000000,4.000000,,,,0.000000,4.000000,4.000000,4.000000,4.000000,4.000000,4.000000,4.000000,4.000000,4.000000,4.000000,4.000000,4.000000,4.000000,4.000000,100.000000
1602006306.303445,119.000000,0.000000,4119.487305,4136.922852,4140.512695,4129.743652,4141.538574,4139.487305,4135.384766,4135.384766,4152.307617,4152.820313,4150.256348,4153.333496,4137.436035,4123.589844,839.000000,4.000000,,,,0.000000,4.000000,4.000000,4.000000,4.000000,4.000000,4.000000,4.000000,4.000000,4.000000,4.000000,4.000000,4.000000,4.000000,4.000000,100.000000
1602006306.311327,120.000000,0.000000,4124.615234,4136.922852,4137.436035,4136.410156,4141.538574,4132.820313,4125.128418,4123.077148,4136.410156,4133.333496,4134.871582,4149.743652,4132.820313,4129.743652,769.000000,4.000000,,,,0.000000,4.000000,4.000000,4.000000,4.000000,4.000000,4.000000,4.000000,4.000000,4.000000,4.000000,4.000000,4.000000,4.000000,4.000000,100.000000
1602006306.319208,121.000000,0.000000,4141.025879,4146.153809,4141.025879,4142.051270,4146.153809,4136.410156,4121.025879,4120.512695,4128.205078,4141.025879,4135.384766,4143.589844,4135.897461,4125.641113,743.000000,4.000000,,,,0.000000,4.000000,4.000000,4.000000,4.000000,4.000000,4.000000,4.000000,4.000000,4.000000,4.000000,4.000000,4.000000,4.000000,4.000000,100.000000
1602006306.327089,122.000000,0.000000,4139.487305,4151.794922,4138.974121,4147.692383,4151.794922,4142.051270,4130.256348,4126.153809,4129.230957,4141.025879,4138.461426,4139.487305,4139.487305,4120.000000,871.000000,4.000000,,,,0.000000,4.000000,4.000000,4.000000,4.000000,4.000000,4.000000,4.000000,4.000000,4.000000,4.000000,4.000000,4.000000,4.000000,4.000000,100.000000
1602006306.334971,123.000000,0.000000,4132.820313,4144.615234,4137.948730,4149.743652,4153.333496,4139.487305,4137.436035,4124.615234,4123.077148,4127.179688,4129.230957,4136.922852,4130.256348,4118.974121,839.000000,4.000000,,,,0.000000,4.000000,4.000000,4.000000,4.000000,4.000000,4.000000,4.000000,4.000000,4.000000,4.000000,4.000000,4.000000,4.000000,4.000000,100.000000
1602006306.342852,124.000000,0.000000,4136.410156,4139.487305,4140.512695,4141.538574,4151.282227,4145.641113,4142.051270,4123.077148,4126.666504,4133.333496,4131.794922,4135.897461,4126.153809,4121.025879,769.000000,4.000000,,,,0.000000,4.000000,4.000000,4.000000,4.000000,4.000000,4.000000,4.000000,4.000000,4.000000,4.000000,4.000000,4.000000,4.000000,4.000000,100.000000
1602006306.350634,125.000000,0.000000,4133.846191,4140.512695,4143.589844,4135.384766,4144.102539,4150.769043,4145.128418,4127.692383,4142.051270,4155.384766,4144.615234,4141.538574,4134.358887,4122.563965,743.000000,4.000000,,,,0.000000,4.000000,4.000000,4.000000,4.000000,4.000000,4.000000,4.000000,4.000000,4.000000,4.000000,4.000000,4.000000,4.000000,4.000000,100.000000
1602006306.358516,126.000000,0.000000,4128.205078,4138.974121,4149.230957,4137.948730,4134.871582,4141.025879,4142.051270,4131.794922,4142.563965,4156.922852,4148.717773,4151.282227,4142.563965,4128.205078,871.000000,4.000000,,,,0.000000,4.000000,4.000000,4.000000,4.000000,4.000000,4.000000,4.000000,4.000000,4.000000,4.000000,4.000000,4.000000,4.000000,4.000000,100.000000
1602006306.366397,127.000000,0.000000,4136.410156,4137.948730,4156.410156,4138.974121,4133.333496,4135.384766,4140.512695,4134.871582,4132.820313,4146.153809,4152.307617,4160.000000,4146.153809,4137.436035,839.000000,4.000000,,,,0.000000,4.000000,4.000000,4.000000,4.000000,4.000000,4.000000,4.000000,4.000000,4.000000,4.000000,4.000000,4.000000,4.000000,4.000000,100.000000
1602006306.374279,128.000000,0.000000,4144.615234,4139.487305,4157.948730,4140.000000,4138.461426,4141.538574,4143.077148,4138.974121,4135.897461,4155.384766,4152.820313,4169.743652,4147.179688,4146.153809,769.000000,4.000000,,,,0.000000,4.000000,4.000000,4.000000,4.000000,4.000000,4.000000,4.000000,4.000000,4.000000,4.000000,4.000000,4.000000,4.000000,4.000000,100.000000
1602006306.382160,0.000000,0.000000,4140.512695,4136.922852,4155.384766,4138.974121,4132.307617,4138.974121,4141.538574,4139.487305,4148.717773,4163.077148,4144.102539,4171.794922,4142.563965,4142.563965,795.000000,4.000000,,,,0.000000,4.000000,4.000000,4.000000,4.000000,4.000000,4.000000,4.000000,4.000000,4.000000,4.000000,4.000000,4.000000,4.000000,4.000000,100.000000
1602006306.390042,1.000000,0.000000,4132.820313,4133.846191,4150.769043,4135.384766,4122.563965,4129.743652,4137.948730,4141.025879,4150.256348,4147.692383,4141.025879,4161.538574,4134.871582,4131.282227,789.000000,4.000000,,,,0.000000,4.000000,4.000000,4.000000,4.000000,4.000000,4.000000,4.000000,4.000000,4.000000,4.000000,4.000000,4.000000,4.000000,4.000000,100.000000
1602006306.397924,2.000000,0.000000,4130.256348,4135.897461,4146.153809,4138.461426,4130.769043,4130.769043,4139.487305,4142.563965,4139.487305,4143.589844,4140.000000,4153.846191,4133.846191,4128.717773,847.000000,4.000000,,,,0.000000,4.000000,4.000000,4.000000,4.000000,4.000000,4.000000,4.000000,4.000000,4.000000,4.000000,4.000000,4.000000,4.000000,4.000000,100.000000
1602006306.405805,3.000000,0.000000,4127.692383,4135.897461,4143.589844,4133.846191,4138.461426,4137.436035,4135.384766,4136.922852,4136.410156,4156.922852,4136.922852,4153.333496,4133.846191,4130.256348,868.000000,4.000000,,,,0.000000,4.000000,4.000000,4.000000,4.000000,4.000000,4.000000,4.000000,4.000000,4.000000,4.000000,4.000000,4.000000,4.000000,4.000000,100.000000
1602006306.413687,4.000000,0.000000,4121.538574,4127.179688,4139.487305,4124.615234,4130.256348,4139.487305,4127.692383,4127.692383,4137.436035,4148.717773,4139.487305,4147.692383,4129.743652,4124.615234,812.000000,4.000000,,,,0.000000,4.000000,4.000000,4.000000,4.000000,4.000000,4.000000,4.000000,4.000000,4.000000,4.000000,4.000000,4.000000,4.000000,4.000000,100.000000
1602006306.421469,5.000000,0.000000,4121.025879,4122.563965,4134.358887,4131.794922,4128.717773,4134.358887,4129.743652,4121.025879,4126.153809,4127.692383,4132.307617,4137.948730,4122.563965,4116.922852,820.000000,4.000000,,,,0.000000,4.000000,4.000000,4.000000,4.000000,4.000000,4.000000,4.000000,4.000000,4.000000,4.000000,4.000000,4.000000,4.000000,4.000000,100.000000
1602006306.429350,6.000000,0.000000,4129.743652,4128.205078,4135.384766,4138.974121,4138.461426,4140.000000,4137.436035,4123.077148,4120.000000,4132.307617,4123.077148,4138.461426,4122.563965,4120.000000,775.000000,4.000000,,,,0.000000,4.000000,4.000000,4.000000,4.000000,4.000000,4.000000,4.000000,4.000000,4.000000,4.000000,4.000000,4.000000,4.000000,4.000000,100.000000
1602006306.437231,7.000000,0.000000,4122.051270,4118.974121,4137.948730,4127.179688,4134.358887,4155.384766,4142.051270,4135.384766,4131.794922,4140.000000,4130.256348,4142.051270,4127.692383,4123.077148,676.000000,4.000000,,,,0.000000,4.000000,4.000000,4.000000,4.000000,4.000000,4.000000,4.000000,4.000000,4.000000,4.000000,4.000000,4.000000,4.000000,4.000000,100.000000
1602006306.445113,8.000000,0.000000,4108.717773,4109.743652,4136.410156,4122.563965,4123.589844,4152.820313,4142.051270,4139.487305,4138.974121,4126.153809,4131.282227,4141.025879,4127.692383,4121.025879,783.000000,4.000000,,,,0.000000,4.000000,4.000000,4.000000,4.000000,4.000000,4.000000,4.000000,4.000000,4.000000,4.000000,4.000000,4.000000,4.000000,4.000000,100.000000
1602006306.452994,9.000000,0.000000,4129.230957,4131.282227,4141.025879,4137.948730,4127.179688,4137.436035,4138.461426,4130.256348,4136.922852,4121.538574,4121.538574,4140.512695,4125.128418,4129.230957,838.000000,4.000000,,,,0.000000,4.000000,4.000000,4.000000,4.000000,4.000000,4.000000,4.000000,4.000000,4.000000,4.000000,4.000000,4.000000,4.000000,4.000000,100.000000
1602006306.460876,10.000000,0.000000,4164.102539,4154.871582,4152.307617,4148.717773,4137.436035,4138.461426,4135.897461,4131.282227,4144.102539,4147.692383,4133.846191,4144.615234,4124.102539,4137.436035,871.000000,4.000000,,,,0.000000,4.000000,4.000000,4.000000,4.000000,4.000000,4.000000,4.000000,4.000000,4.000000,4.000000,4.000000,4.000000,4.000000,4.000000,100.000000
1602006306.468757,11.000000,0.000000,4170.769043,4162.563965,4156.410156,4149.230957,4141.025879,4149.743652,4137.436035,4140.512695,4158.461426,4175.384766,4147.692383,4147.179688,4122.051270,4127.692383,839.000000,4.000000,,,,0.000000,4.000000,4.000000,4.000000,4.000000,4.000000,4.000000,4.000000,4.000000,4.000000,4.000000,4.000000,4.000000,4.000000,4.000000,100.000000
1602006306.476638,12.000000,0.000000,4156.410156,4165.641113,4145.128418,4145.641113,4135.897461,4147.692383,4132.820313,4134.358887,4157.436035,4166.153809,4129.743652,4139.487305,4108.717773,4105.128418,769.000000,4.000000,,,,0.000000,4.000000,4.000000,4.000000,4.000000,4.000000,4.000000,4.000000,4.000000,4.000000,4.000000,4.000000,4.000000,4.000000,4.000000,100.000000
1602006306.484420,13.000000,0.000000,4142.563965,4160.512695,4127.692383,4138.974121,4130.256348,4132.820313,4121.538574,4123.589844,4142.563965,4146.666504,4107.692383,4125.641113,4086.666748,4091.281982,743.000000,4.000000,,,,0.000000,4.000000,4.000000,4.000000,4.000000,4.000000,4.000000,4.000000,4.000000,4.000000,4.000000,4.000000,4.000000,4.000000,4.000000,100.000000
1602006306.492302,14.000000,0.000000,4134.871582,4150.769043,4119.487305,4133.846191,4128.717773,4122.563965,4119.487305,4125.641113,4129.230957,4138.461426,4103.589844,4118.461426,4074.871826,4089.743652,871.000000,4.000000,,,,0.000000,4.000000,4.000000,4.000000,4.000000,4.000000,4.000000,4.000000,4.000000,4.000000,4.000000,4.000000,4.000000,4.000000,4.000000,100.000000
1602006306.500183,15.000000,0.000000,4136.410156,4154.358887,4122.051270,4137.436035,4125.128418,4130.256348,4125.641113,4127.179688,4121.025879,4113.333496,4103.589844,4122.051270,4073.846191,4087.179443,839.000000,4.000000,,,,0.000000,4.000000,4.000000,4.000000,4.000000,4.000000,4.000000,4.000000,4.000000,4.000000,4.000000,4.000000,4.000000,4.000000,4.000000,100.000000
1602006306.508065,16.000000,0.000000,4140.000000,4157.948730,4121.025879,4140.512695,4122.563965,4141.538574,4127.692383,4124.615234,4117.436035,4087.692383,4105.128418,4120.512695,4071.281982,4079.487061,0.000000,4.000000,,,,0.000000,4.000000,4.000000,4.000000,4.000000,4.000000,4.000000,4.000000,4.000000,4.000000,4.000000,4.000000,4.000000,4.000000,4.000000,100.000000
1602006306.515947,17.000000,0.000000,4138.461426,4151.794922,4121.538574,4136.922852,4130.256348,4135.897461,4128.717773,4129.743652,4118.974121,4102.563965,4103.077148,4117.436035,4074.358887,4079.487061,0.000000,4.000000,,,,0.000000,4.000000,4.000000,4.000000,4.000000,4.000000,4.000000,4.000000,4.000000,4.000000,4.000000,4.000000,4.000000,4.000000,4.000000,100.000000
1602006306.523828,18.000000,0.000000,4140.000000,4151.794922,4133.333496,4140.512695,4137.948730,4124.615234,4134.358887,4136.922852,4120.000000,4133.333496,4102.051270,4127.692383,4086.153809,4094.871826,0.000000,4.000000,,,,0.000000,4.000000,4.000000,4.000000,4.000000,4.000000,4.000000,4.000000,4.000000,4.000000,4.000000,4.000000,4.000000,4.000000,4.000000,100.000000
1602006306.531710,19.000000,0.000000,4149.230957,4158.974121,4143.589844,4153.846191,4133.846191,4125.641113,4138.974121,4138.974121,4121.538574,4138.461426,4118.974121,4143.077148,4095.897461,4110.256348,0.000000,4.000000,,,,0.000000,4.000000,4.000000,4.000000,4.000000,4.000000,4.000000,4.000000,4.000000,4.000000,4.000000,4.000000,4.000000,4.000000,4.000000,100.000000
1602006306.539592,20.000000,0.000000,4158.461426,4161.538574,4141.025879,4154.358887,4126.666504,4125.128418,4135.897461,4132.820313,4120.512695,4134.358887,4130.256348,4145.128418,4092.820557,4111.282227,0.000000,4.000000,,,,0.000000,4.000000,4.000000,4.000000,4.000000,4.000000,4.000000,4.000000,4.000000,4.000000,4.000000,4.000000,4.000000,4.000000,4.000000,100.000000
1602006306.547573,21.000000,0.000000,4160.000000,4154.871582,4135.897461,4145.641113,4126.666504,4113.846191,4132.307617,4121.538574,4109.230957,4138.974121,4115.897461,4138.461426,4087.179443,4106.153809,0.000000,4.000000,,,,0.000000,4.000000,4.000000,4.000000,4.000000,4.000000,4.000000,4.000000,4.000000,4.000000,4.000000,4.000000,4.000000,4.000000,4.000000,100.000000
1602006306.555455,22.000000,0.000000,4167.179688,4155.897461,4142.051270,4151.282227,4133.846191,4113.846191,4143.589844,4126.153809,4111.794922,4141.538574,4113.846191,4144.102539,4094.358887,4112.307617,0.000000,4.000000,,,,0.000000,4.000000,4.000000,4.000000,4.000000,4.000000,4.000000,4.000000,4.000000,4.000000,4.000000,4.000000,4.000000,4.000000,4.000000,100.000000
1602006306.563336,23.000000,0.000000,4175.897461,4165.641113,4151.282227,4153.846191,4134.871582,4125.128418,4152.820313,4144.102539,4137.436035,4142.563965,4133.846191,4157.948730,4109.743652,4126.153809,0.000000,4.000000,,,,0.000000,4.000000,4.000000,4.000000,4.000000,4.000000,4.000000,4.000000,4.000000,4.000000,4.000000,4.000000,4.000000,4.000000,4.000000,100.000000
1602006306.571218,24.000000,0.000000,4163.077148,4158.974121,4145.128418,4136.922852,4125.128418,4122.051270,4142.563965,4147.692383,4151.282227,4143.589844,4134.358887,4156.410156,4109.230957,4125.128418,0.000000,4.000000,,,,0.000000,4.000000,4.000000,4.000000,4.000000,4.000000,4.000000,4.000000,4.000000,4.000000,4.000000,4.000000,4.000000,4.000000,4.000000,100.000000
1602006306.579100,25.000000,0.000000,4138.461426,4139.487305,4129.743652,4125.641113,4118.461426,4103.589844,4131.282227,4138.974121,4141.538574,4137.948730,4112.307617,4140.000000,4094.358887,4106.666504,0.000000,4.000000,,,,0.000000,4.000000,4.000000,4.000000,4.000000,4.000000,4.000000,4.000000,4.000000,4.000000,4.000000,4.000000,4.000000,4.000000,4.000000,100.000000
1602006306.586981,26.000000,0.000000,4129.743652,4134.358887,4124.615234,4132.307617,4119.487305,4101.538574,4134.871582,4138.974121,4136.410156,4139.487305,4105.641113,4132.307617,4088.718018,4098.461426,0.000000,4.000000,,,,0.000000,4.000000,4.000000,4.000000,4.000000,4.000000,4.000000,4.000000,4.000000,4.000000,4.000000,4.000000,4.000000,4.000000,4.000000,100.000000
1602006306.594863,27.000000,0.000000,4140.000000,4148.717773,4125.641113,4140.000000,4127.692383,4118.461426,4136.410156,4141.538574,4139.487305,4148.205078,4115.384766,4136.410156,4092.820557,4105.128418,0.000000,4.000000,,,,0.000000,4.000000,4.000000,4.000000,4.000000,4.000000,4.000000,4.000000,4.000000,4.000000,4.000000,4.000000,4.000000,4.000000,4.000000,100.000000
1602006306.602745,28.000000,0.000000,4144.615234,4157.436035,4123.589844,4146.666504,4134.871582,4133.333496,4133.333496,4141.025879,4138.461426,4145.641113,4116.922852,4135.384766,4094.871826,4109.230957,0.000000,4.000000,,,,0.000000,4.000000,4.000000,4.000000,4.000000,4.000000,4.000000,4.000000,4.000000,4.000000,4.000000,4.000000,4.000000,4.000000,4.000000,100.000000
1602006306.610626,29.000000,0.000000,4134.871582,4152.820313,4122.563965,4148.205078,4133.846191,4137.948730,4136.410156,4140.000000,4132.820313,4136.922852,4110.769043,4128.717773,4093.846191,4104.615234,0.000000,4.000000,,,,0.000000,4.000000,4.000000,4.000000,4.000000,4.000000,4.000000,4.000000,4.000000,4.000000,4.000000,4.000000,4.000000,4.000000,4.000000,100.000000
1602006306.618508,30.000000,0.000000,4134.871582,4150.769043,4121.025879,4137.436035,4131.794922,4137.948730,4137.948730,4133.846191,4123.589844,4124.615234,4102.563965,4122.051270,4081.538574,4090.256348,0.000000,4.000000,,,,0.000000,4.000000,4.000000,4.000000,4.000000,4.000000,4.000000,4.000000,4.000000,4.000000,4.000000,4.000000,4.000000,4.000000,4.000000,100.000000
1602006306.626289,31.000000,0.000000,4147.179688,4157.436035,4121.025879,4138.461426,4137.948730,4141.025879,4139.487305,4130.769043,4116.922852,4108.717773,4101.025879,4122.051270,4069.743652,4081.025635,0.000000,4.000000,,,,0.000000,4.000000,4.000000,4.000000,4.000000,4.000000,4.000000,4.000000,4.000000,4.000000,4.000000,4.000000,4.000000,4.000000,4.000000,100.000000
1602006306.634171,32.000000,0.000000,4156.922852,4160.000000,4126.666504,4151.282227,4141.025879,4143.077148,4139.487305,4130.769043,4120.512695,4107.692383,4107.692383,4125.128418,4075.384521,4094.358887,0.000000,4.000000,,,,0.000000,4.000000,4.000000,4.000000,4.000000,4.000000,4.000000,4.000000,4.000000,4.000000,4.000000,4.000000,4.000000,4.000000,4.000000,100.000000
1602006306.642052,33.000000,0.000000,4151.794922,4155.384766,4128.205078,4149.230957,4136.922852,4138.461426,4135.897461,4127.179688,4130.256348,4123.077148,4112.307617,4128.717773,4087.692383,4110.769043,0.000000,4.000000,,,,0.000000,4.000000,4.000000,4.000000,4.000000,4.000000,4.000000,4.000000,4.000000,4.000000,4.000000,4.000000,4.000000,4.000000,4.000000,100.000000
1602006306.649934,34.000000,0.000000,4141.025879,4153.846191,4126.666504,4140.000000,4137.436035,4136.410156,4134.871582,4127.692383,4137.436035,4140.512695,4115.384766,4133.333496,4096.922852,4107.692383,0.000000,4.000000,,,,0.000000,4.000000,4.000000,4.000000,4.000000,4.000000,4.000000,4.000000,4.000000,4.000000,4.000000,4.000000,4.000000,4.000000,4.000000,100.000000
1602006306.657815,35.000000,0.000000,4145.128418,4154.358887,4130.769043,4141.025879,4137.948730,4136.922852,4132.820313,4134.871582,4141.025879,4160.512695,4121.025879,4137.436035,4105.641113,4102.051270,0.000000,4.000000,,,,0.000000,4.000000,4.000000,4.000000,4.000000,4.000000,4.000000,4.000000,4.000000,4.000000,4.000000,4.000000,4.000000,4.000000,4.000000,100.000000
1602006306.665696,36.000000,0.000000,4161.538574,4155.897461,4138.461426,4140.512695,4137.436035,4128.717773,4126.666504,4135.384766,4148.205078,4170.769043,4123.077148,4144.102539,4105.128418,4108.205078,0.000000,4.000000,,,,0.000000,4.000000,4.000000,4.000000,4.000000,4.000000,4.000000,4.000000,4.000000,4.000000,4.000000,4.000000,4.000000,4.000000,4.000000,100.000000
1602006306.673578,37.000000,0.000000,4162.563965,4158.974121,4144.102539,4137.436035,4138.974121,4123.077148,4127.692383,4133.846191,4153.846191,4154.871582,4123.589844,4154.871582,4104.102539,4110.256348,0.000000,4.000000,,,,0.000000,4.000000,4.000000,4.000000,4.000000,4.000000,4.000000,4.000000,4.000000,4.000000,4.000000,4.000000,4.000000,4.000000,4.000000,100.000000
1602006306.681559,38.000000,0.000000,4153.846191,4157.948730,4143.589844,4138.974121,4135.897461,4119.487305,4132.307617,4137.948730,4146.153809,4132.307617,4127.179688,4154.358887,4110.256348,4107.692383,0.000000,4.000000,,,,0.000000,4.000000,4.000000,4.000000,4.000000,4.000000,4.000000,4.000000,4.000000,4.000000,4.000000,4.000000,4.000000,4.000000,4.000000,100.000000
1602006306.689440,39.000000,0.000000,4150.769043,4152.307617,4132.820313,4138.461426,4127.179688,4107.179688,4129.230957,4134.871582,4127.179688,4120.000000,4112.307617,4141.025879,4098.461426,4105.641113,0.000000,4.000000,,,,0.000000,4.000000,4.000000,4.000000,4.000000,4.000000,4.000000,4.000000,4.000000,4.000000,4.000000,4.000000,4.000000,4.000000,4.000000,100.000000
1602006306.697321,40.000000,0.000000,4144.102539,4149.230957,4127.179688,4135.384766,4126.153809,4103.077148,4129.230957,4131.282227,4117.948730,4109.230957,4096.922852,4137.436035,4077.948730,4100.512695,0.000000,4.000000,,,,0.000000,4.000000,4.000000,4.000000,4.000000,4.000000,4.000000,4.000000,4.000000,4.000000,4.000000,4.000000,4.000000,4.000000,4.000000,100.000000
1602006306.705202,41.000000,0.000000,4144.102539,4154.358887,4134.358887,4140.000000,4137.436035,4120.000000,4138.974121,4138.461426,4126.153809,4101.025879,4103.077148,4150.256348,4085.128174,4095.897461,0.000000,4.000000,,,,0.000000,4.000000,4.000000,4.000000,4.000000,4.000000,4.000000,4.000000,4.000000,4.000000,4.000000,4.000000,4.000000,4.000000,4.000000,100.000000
1602006306.713084,42.000000,0.000000,4155.897461,4159.487305,4141.025879,4153.333496,4145.641113,4136.922852,4149.230957,4142.563965,4137.948730,4111.282227,4108.717773,4158.461426,4097.948730,4101.538574,0.000000,4.000000,,,,0.000000,4.000000,4.000000,4.000000,4.000000,4.000000,4.000000,4.000000,4.000000,4.000000,4.000000,4.000000,4.000000,4.000000,4.000000,100.000000
1602006306.720864,43.000000,0.000000,4156.410156,4157.436035,4135.897461,4156.410156,4143.077148,4141.538574,4150.256348,4139.487305,4137.436035,4124.615234,4112.820313,4150.256348,4093.846191,4107.692383,0.000000,4.000000,,,,0.000000,4.000000,4.000000,4.000000,4.000000,4.000000,4.000000,4.000000,4.000000,4.000000,4.000000,4.000000,4.000000,4.000000,4.000000,100.000000
1602006306.728745,44.000000,0.000000,4149.230957,4153.846191,4126.153809,4141.538574,4138.974121,4139.487305,4142.563965,4137.948730,4134.358887,4123.589844,4121.025879,4136.922852,4088.718018,4097.948730,0.000000,4.000000,,,,0.000000,4.000000,4.000000,4.000000,4.000000,4.000000,4.000000,4.000000,4.000000,4.000000,4.000000,4.000000,4.000000,4.000000,4.000000,100.000000
1602006306.736527,45.000000,0.000000,4151.282227,4154.358887,4122.563965,4135.384766,4140.512695,4135.384766,4137.436035,4140.512695,4142.563965,4129.743652,4121.538574,4134.871582,4091.281982,4091.281982,0.000000,4.000000,,,,0.000000,4.000000,4.000000,4.000000,4.000000,4.000000,4.000000,4.000000,4.000000,4.000000,4.000000,4.000000,4.000000,4.000000,4.000000,100.000000
1602006306.744408,46.000000,0.000000,4156.410156,4154.871582,4124.102539,4142.051270,4143.077148,4132.820313,4137.948730,4142.563965,4153.846191,4148.205078,4120.000000,4137.948730,4097.436035,4096.922852,0.000000,4.000000,,,,0.000000,4.000000,4.000000,4.000000,4.000000,4.000000,4.000000,4.000000,4.000000,4.000000,4.000000,4.000000,4.000000,4.000000,4.000000,100.000000
1602006306.752290,47.000000,0.000000,4149.743652,4152.307617,4117.948730,4140.000000,4140.000000,4134.871582,4137.436035,4142.563965,4157.436035,4146.666504,4121.025879,4135.897461,4098.974121,4097.436035,0.000000,4.000000,,,,0.000000,4.000000,4.000000,4.000000,4.000000,4.000000,4.000000,4.000000,4.000000,4.000000,4.000000,4.000000,4.000000,4.000000,4.000000,100.000000
1602006306.760172,48.000000,0.000000,4138.461426,4150.769043,4111.794922,4132.820313,4137.436035,4136.922852,4136.410156,4140.000000,4153.333496,4127.692383,4117.436035,4136.410156,4093.333252,4095.384521,0.000000,4.000000,,,,0.000000,4.000000,4.000000,4.000000,4.000000,4.000000,4.000000,4.000000,4.000000,4.000000,4.000000,4.000000,4.000000,4.000000,4.000000,100.000000
1602006306.768053,49.000000,0.000000,4144.102539,4153.333496,4117.436035,4137.436035,4137.948730,4133.846191,4144.102539,4140.512695,4152.307617,4128.717773,4116.922852,4146.666504,4101.538574,4103.077148,0.000000,4.000000,,,,0.000000,4.000000,4.000000,4.000000,4.000000,4.000000,4.000000,4.000000,4.000000,4.000000,4.000000,4.000000,4.000000,4.000000,4.000000,100.000000
1602006306.775935,50.000000,0.000000,4155.384766,4155.384766,4123.077148,4142.051270,4138.461426,4134.358887,4151.794922,4143.077148,4154.871582,4142.051270,4121.025879,4155.897461,4119.487305,4111.282227,0.000000,4.000000,,,,0.000000,4.000000,4.000000,4.000000,4.000000,4.000000,4.000000,4.000000,4.000000,4.000000,4.000000,4.000000,4.000000,4.000000,4.000000,100.000000
1602006306.783817,51.000000,0.000000,4145.641113,4154.358887,4124.102539,4136.410156,4135.897461,4142.563965,4151.282227,4140.512695,4145.641113,4142.563965,4124.615234,4155.384766,4116.410156,4107.179688,0.000000,4.000000,,,,0.000000,4.000000,4.000000,4.000000,4.000000,4.000000,4.000000,4.000000,4.000000,4.000000,4.000000,4.000000,4.000000,4.000000,4.000000,100.000000
1602006306.791698,52.000000,0.000000,4132.820313,4148.717773,4126.153809,4134.358887,4127.692383,4134.871582,4145.641113,4135.384766,4134.358887,4132.307617,4123.589844,4146.666504,4101.538574,4094.358887,0.000000,4.000000,,,,0.000000,4.000000,4.000000,4.000000,4.000000,4.000000,4.000000,4.000000,4.000000,4.000000,4.000000,4.000000,4.000000,4.000000,4.000000,100.000000
1602006306.799679,53.000000,0.000000,4141.025879,4142.563965,4125.128418,4138.461426,4122.563965,4116.922852,4138.461426,4134.871582,4134.358887,4126.666504,4112.307617,4137.948730,4101.538574,4088.718018,0.000000,4.000000,,,,0.000000,4.000000,4.000000,4.000000,4.000000,4.000000,4.000000,4.000000,4.000000,4.000000,4.000000,4.000000,4.000000,4.000000,4.000000,100.000000
1602006306.807560,54.000000,0.000000,4153.333496,4141.538574,4122.051270,4138.461426,4133.333496,4123.077148,4134.358887,4137.436035,4135.384766,4122.563965,4103.589844,4135.384766,4106.153809,4092.820557,0.000000,4.000000,,,,0.000000,4.000000,4.000000,4.000000,4.000000,4.000000,4.000000,4.000000,4.000000,4.000000,4.000000,4.000000,4.000000,4.000000,4.000000,100.000000
1602006306.815442,55.000000,0.000000,4154.358887,4143.589844,4124.102539,4134.358887,4142.563965,4139.487305,4133.846191,4137.436035,4130.769043,4114.358887,4107.692383,4136.410156,4102.051270,4091.794922,0.000000,4.000000,,,,0.000000,4.000000,4.000000,4.000000,4.000000,4.000000,4.000000,4.000000,4.000000,4.000000,4.000000,4.000000,4.000000,4.000000,4.000000,100.000000
1602006306.823323,56.000000,0.000000,4148.717773,4140.512695,4126.153809,4136.410156,4140.000000,4138.461426,4129.743652,4136.922852,4126.666504,4109.743652,4111.282227,4138.461426,4098.974121,4094.358887,0.000000,4.000000,,,,0.000000,4.000000,4.000000,4.000000,4.000000,4.000000,4.000000,4.000000,4.000000,4.000000,4.000000,4.000000,4.000000,4.000000,4.000000,100.000000
1602006306.831204,57.000000,0.000000,4147.179688,4138.461426,4126.153809,4140.000000,4135.384766,4132.820313,4120.000000,4134.358887,4123.077148,4107.179688,4104.615234,4139.487305,4102.563965,4103.589844,0.000000,4.000000,,,,0.000000,4.000000,4.000000,4.000000,4.000000,4.000000,4.000000,4.000000,4.000000,4.000000,4.000000,4.000000,4.000000,4.000000,4.000000,100.000000
1602006306.838985,58.000000,0.000000,4152.307617,4146.666504,4131.282227,4137.948730,4135.384766,4135.384766,4122.563965,4130.769043,4120.000000,4112.307617,4106.153809,4138.974121,4105.641113,4100.000000,0.000000,4.000000,,,,0.000000,4.000000,4.000000,4.000000,4.000000,4.000000,4.000000,4.000000,4.000000,4.000000,4.000000,4.000000,4.000000,4.000000,4.000000,100.000000
1602006306.846867,59.000000,0.000000,4153.333496,4150.256348,4133.333496,4136.922852,4138.974121,4141.538574,4136.410156,4134.871582,4123.077148,4122.051270,4118.974121,4137.436035,4106.153809,4095.897461,0.000000,4.000000,,,,0.000000,4.000000,4.000000,4.000000,4.000000,4.000000,4.000000,4.000000,4.000000,4.000000,4.000000,4.000000,4.000000,4.000000,4.000000,100.000000
1602006306.854748,60.000000,0.000000,4143.077148,4140.512695,4125.128418,4137.948730,4135.897461,4142.051270,4141.538574,4137.436035,4123.589844,4124.615234,4125.128418,4137.948730,4105.128418,4104.615234,0.000000,4.000000,,,,0.000000,4.000000,4.000000,4.000000,4.000000,4.000000,4.000000,4.000000,4.000000,4.000000,4.000000,4.000000,4.000000,4.000000,4.000000,100.000000
1602006306.862630,61.000000,0.000000,4134.358887,4135.384766,4120.512695,4136.410156,4123.077148,4133.846191,4139.487305,4132.307617,4120.512695,4123.589844,4116.922852,4135.384766,4105.128418,4103.589844,0.000000,4.000000,,,,0.000000,4.000000,4.000000,4.000000,4.000000,4.000000,4.000000,4.000000,4.000000,4.000000,4.000000,4.000000,4.000000,4.000000,4.000000,100.000000
1602006306.870511,62.000000,0.000000,4143.589844,4137.948730,4123.589844,4130.256348,4124.102539,4131.282227,4141.538574,4131.794922,4127.179688,4133.846191,4118.461426,4133.333496,4109.230957,4098.461426,0.000000,4.000000,,,,0.000000,4.000000,4.000000,4.000000,4.000000,4.000000,4.000000,4.000000,4.000000,4.000000,4.000000,4.000000,4.000000,4.000000,4.000000,100.000000
1602006306.878393,63.000000,0.000000,4153.333496,4139.487305,4125.641113,4129.230957,4138.461426,4138.974121,4143.077148,4142.051270,4149.230957,4157.948730,4135.384766,4145.641113,4121.025879,4107.179688,0.000000,4.000000,,,,0.000000,4.000000,4.000000,4.000000,4.000000,4.000000,4.000000,4.000000,4.000000,4.000000,4.000000,4.000000,4.000000,4.000000,4.000000,100.000000
1602006306.886274,64.000000,0.000000,4154.871582,4144.615234,4130.769043,4134.871582,4141.538574,4138.461426,4140.512695,4148.717773,4162.563965,4155.897461,4143.589844,4153.333496,4129.230957,4118.974121,795.000000,4.000000,,,,0.000000,4.000000,4.000000,4.000000,4.000000,4.000000,4.000000,4.000000,4.000000,4.000000,4.000000,4.000000,4.000000,4.000000,4.000000,100.000000
1602006306.894155,65.000000,0.000000,4164.615234,4157.436035,4135.897461,4140.512695,4140.512695,4135.897461,4140.000000,4147.179688,4153.333496,4128.717773,4137.436035,4145.641113,4128.205078,4127.179688,789.000000,4.000000,,,,0.000000,4.000000,4.000000,4.000000,4.000000,4.000000,4.000000,4.000000,4.000000,4.000000,4.000000,4.000000,4.000000,4.000000,4.000000,100.000000
1602006306.901936,66.000000,0.000000,4171.282227,4156.922852,4130.256348,4141.538574,4142.563965,4133.333496,4134.358887,4139.487305,4138.974121,4121.538574,4119.487305,4139.487305,4124.102539,4123.077148,848.000000,4.000000,,,,0.000000,4.000000,4.000000,4.000000,4.000000,4.000000,4.000000,4.000000,4.000000,4.000000,4.000000,4.000000,4.000000,4.000000,4.000000,100.000000
1602006306.909817,67.000000,0.000000,4158.461426,4142.051270,4123.077148,4138.461426,4137.948730,4120.512695,4121.025879,4128.205078,4128.717773,4123.589844,4110.256348,4136.922852,4121.025879,4107.179688,868.000000,4.000000,,,,0.000000,4.000000,4.000000,4.000000,4.000000,4.000000,4.000000,4.000000,4.000000,4.000000,4.000000,4.000000,4.000000,4.000000,4.000000,100.000000
1602006306.917599,68.000000,0.000000,4148.205078,4142.563965,4122.051270,4138.461426,4135.384766,4120.512695,4117.948730,4128.717773,4123.077148,4119.487305,4125.641113,4138.461426,4120.000000,4110.256348,812.000000,4.000000,,,,0.000000,4.000000,4.000000,4.000000,4.000000,4.000000,4.000000,4.000000,4.000000,4.000000,4.000000,4.000000,4.000000,4.000000,4.000000,100.000000
1602006306.925480,69.000000,0.000000,4154.358887,4157.948730,4124.102539,4144.102539,4142.563965,4135.897461,4132.307617,4141.025879,4134.871582,4139.487305,4143.077148,4148.717773,4123.077148,4127.179688,820.000000,4.000000,,,,0.000000,4.000000,4.000000,4.000000,4.000000,4.000000,4.000000,4.000000,4.000000,4.000000,4.000000,4.000000,4.000000,4.000000,4.000000,100.000000
1602006306.933362,70.000000,0.000000,4152.307617,4156.922852,4125.641113,4142.051270,4143.589844,4132.820313,4136.922852,4142.051270,4149.743652,4162.563965,4138.461426,4152.307617,4124.615234,4122.563965,771.000000,4.000000,,,,0.000000,4.000000,4.000000,4.000000,4.000000,4.000000,4.000000,4.000000,4.000000,4.000000,4.000000,4.000000,4.000000,4.000000,4.000000,100.000000
1602006306.941243,71.000000,0.000000,4140.512695,4137.436035,4114.358887,4124.615234,4135.384766,4115.897461,4123.589844,4125.641113,4135.897461,4134.871582,4124.102539,4135.384766,4116.410156,4105.641113,676.000000,4.000000,,,,0.000000,4.000000,4.000000,4.000000,4.000000,4.000000,4.000000,4.000000,4.000000,4.000000,4.000000,4.000000,4.000000,4.000000,4.000000,100.000000
1602006306.949125,72.000000,0.000000,4138.461426,4133.333496,4105.128418,4120.000000,4133.333496,4117.436035,4119.487305,4118.974121,4119.487305,4107.179688,4120.000000,4123.077148,4106.666504,4103.589844,783.000000,4.000000,,,,0.000000,4.000000,4.000000,4.000000,4.000000,4.000000,4.000000,4.000000,4.000000,4.000000,4.000000,4.000000,4.000000,4.000000,4.000000,100.000000
1602006306.957007,73.000000,0.000000,4140.512695,4138.461426,4115.384766,4133.846191,4139.487305,4128.205078,4134.358887,4123.589844,4122.051270,4119.487305,4120.000000,4129.230957,4106.666504,4109.230957,838.000000,4.000000,,,,0.000000,4.000000,4.000000,4.000000,4.000000,4.000000,4.000000,4.000000,4.000000,4.000000,4.000000,4.000000,4.000000,4.000000,4.000000,100.000000
1602006306.964888,74.000000,0.000000,4137.948730,4128.717773,4125.128418,4132.307617,4135.897461,4125.128418,4140.000000,4122.563965,4121.025879,4126.153809,4117.436035,4136.410156,4109.743652,4108.717773,871.000000,4.000000,,,,0.000000,4.000000,4.000000,4.000000,4.000000,4.000000,4.000000,4.000000,4.000000,4.000000,4.000000,4.000000,4.000000,4.000000,4.000000,100.000000
1602006306.972770,75.000000,0.000000,4135.384766,4118.461426,4118.974121,4117.436035,4121.025879,4116.922852,4130.256348,4124.615234,4124.102539,4128.205078,4113.846191,4136.922852,4107.692383,4106.153809,839.000000,4.000000,,,,0.000000,4.000000,4.000000,4.000000,4.000000,4.000000,4.000000,4.000000,4.000000,4.000000,4.000000,4.000000,4.000000,4.000000,4.000000,100.000000
1602006306.980552,76.000000,0.000000,4138.974121,4121.538574,4121.025879,4116.922852,4117.436035,4122.051270,4129.743652,4131.794922,4142.051270,4141.025879,4119.487305,4137.948730,4105.128418,4109.743652,769.000000,4.000000,,,,0.000000,4.000000,4.000000,4.000000,4.000000,4.000000,4.000000,4.000000,4.000000,4.000000,4.000000,4.000000,4.000000,4.000000,4.000000,100.000000
1602006306.988433,77.000000,0.000000,4141.538574,4128.205078,4134.358887,4126.666504,4122.051270,4121.538574,4134.358887,4131.794922,4145.128418,4133.333496,4124.615234,4141.538574,4107.179688,4121.025879,743.000000,4.000000,,,,0.000000,4.000000,4.000000,4.000000,4.000000,4.000000,4.000000,4.000000,4.000000,4.000000,4.000000,4.000000,4.000000,4.000000,4.000000,100.000000
1602006306.996315,78.000000,0.000000,4138.974121,4125.128418,4134.358887,4123.589844,4121.538574,4106.666504,4128.717773,4125.641113,4127.692383,4106.153809,4113.846191,4142.051270,4108.205078,4123.077148,871.000000,4.000000,,,,0.000000,4.000000,4.000000,4.000000,4.000000,4.000000,4.000000,4.000000,4.000000,4.000000,4.000000,4.000000,4.000000,4.000000,4.000000,100.000000
1602006307.004197,79.000000,0.000000,4137.948730,4119.487305,4124.615234,4115.897461,4123.589844,4107.179688,4121.025879,4128.717773,4118.461426,4095.384521,4109.230957,4136.922852,4102.563965,4105.128418,839.000000,4.000000,,,,0.000000,4.000000,4.000000,4.000000,4.000000,4.000000,4.000000,4.000000,4.000000,4.000000,4.000000,4.000000,4.000000,4.000000,4.000000,100.000000
1602006307.012078,80.000000,0.000000,4140.512695,4124.102539,4122.563965,4126.153809,4131.282227,4124.102539,4124.615234,4136.922852,4122.051270,4103.589844,4121.538574,4135.897461,4099.487305,4094.358887,769.000000,4.000000,,,,0.000000,4.000000,4.000000,4.000000,4.000000,4.000000,4.000000,4.000000,4.000000,4.000000,4.000000,4.000000,4.000000,4.000000,4.000000,100.000000
1602006307.019960,81.000000,0.000000,4140.512695,4136.410156,4126.153809,4137.948730,4137.436035,4129.230957,4128.717773,4135.897461,4128.717773,4117.948730,4128.205078,4141.025879,4104.102539,4106.666504,743.000000,4.000000,,,,0.000000,4.000000,4.000000,4.000000,4.000000,4.000000,4.000000,4.000000,4.000000,4.000000,4.000000,4.000000,4.000000,4.000000,4.000000,100.000000
1602006307.027842,82.000000,0.000000,4137.436035,4136.922852,4125.641113,4128.717773,4138.974121,4126.153809,4124.102539,4127.692383,4126.666504,4126.153809,4122.051270,4144.102539,4109.743652,4114.871582,871.000000,4.000000,,,,0.000000,4.000000,4.000000,4.000000,4.000000,4.000000,4.000000,4.000000,4.000000,4.000000,4.000000,4.000000,4.000000,4.000000,4.000000,100.000000
1602006307.035723,83.000000,0.000000,4134.871582,4126.153809,4124.102539,4124.102539,4137.436035,4128.717773,4121.025879,4123.077148,4120.000000,4128.205078,4120.512695,4142.051270,4110.769043,4108.205078,839.000000,4.000000,,,,0.000000,4.000000,4.000000,4.000000,4.000000,4.000000,4.000000,4.000000,4.000000,4.000000,4.000000,4.000000,4.000000,4.000000,4.000000,100.000000
1602006307.043704,84.000000,0.000000,4136.410156,4122.563965,4125.641113,4135.384766,4136.410156,4132.820313,4121.538574,4124.102539,4124.102539,4137.436035,4124.615234,4142.563965,4108.717773,4112.307617,769.000000,4.000000,,,,0.000000,4.000000,4.000000,4.000000,4.000000,4.000000,4.000000,4.000000,4.000000,4.000000,4.000000,4.000000,4.000000,4.000000,4.000000,100.000000
1602006307.051585,85.000000,0.000000,4138.974121,4125.641113,4123.589844,4134.358887,4135.897461,4126.666504,4121.538574,4122.051270,4126.153809,4134.871582,4123.077148,4144.102539,4105.128418,4124.615234,743.000000,4.000000,,,,0.000000,4.000000,4.000000,4.000000,4.000000,4.000000,4.000000,4.000000,4.000000,4.000000,4.000000,4.000000,4.000000,4.000000,4.000000,100.000000
1602006307.059467,86.000000,0.000000,4141.538574,4128.205078,4125.641113,4126.666504,4135.897461,4121.025879,4122.051270,4121.538574,4120.000000,4120.000000,4125.128418,4144.615234,4105.641113,4128.205078,871.000000,4.000000,,,,0.000000,4.000000,4.000000,4.000000,4.000000,4.000000,4.000000,4.000000,4.000000,4.000000,4.000000,4.000000,4.000000,4.000000,4.000000,100.000000
1602006307.067348,87.000000,0.000000,4142.051270,4128.205078,4126.153809,4128.205078,4135.384766,4129.743652,4126.666504,4123.589844,4122.563965,4120.000000,4123.589844,4144.615234,4108.717773,4121.025879,839.000000,4.000000,,,,0.000000,4.000000,4.000000,4.000000,4.000000,4.000000,4.000000,4.000000,4.000000,4.000000,4.000000,4.000000,4.000000,4.000000,4.000000,100.000000
1602006307.075329,88.000000,0.000000,4136.922852,4122.051270,4114.358887,4124.615234,4128.205078,4134.871582,4127.692383,4119.487305,4121.538574,4125.641113,4116.922852,4139.487305,4106.153809,4112.820313,769.000000,4.000000,,,,0.000000,4.000000,4.000000,4.000000,4.000000,4.000000,4.000000,4.000000,4.000000,4.000000,4.000000,4.000000,4.000000,4.000000,4.000000,100.000000
1602006307.083211,89.000000,0.000000,4136.410156,4118.461426,4110.256348,4120.000000,4121.025879,4124.102539,4127.692383,4121.538574,4116.410156,4125.128418,4119.487305,4134.871582,4105.128418,4108.205078,743.000000,4.000000,,,,0.000000,4.000000,4.000000,4.000000,4.000000,4.000000,4.000000,4.000000,4.000000,4.000000,4.000000,4.000000,4.000000,4.000000,4.000000,100.000000
1602006307.091092,90.000000,0.000000,4138.974121,4128.717773,4121.538574,4122.051270,4128.205078,4123.077148,4136.410156,4135.897461,4131.794922,4137.948730,4124.102539,4135.897461,4109.743652,4106.666504,871.000000,4.000000,,,,0.000000,4.000000,4.000000,4.000000,4.000000,4.000000,4.000000,4.000000,4.000000,4.000000,4.000000,4.000000,4.000000,4.000000,4.000000,100.000000
1602006307.098973,91.000000,0.000000,4137.948730,4139.487305,4126.153809,4127.692383,4137.436035,4130.256348,4137.948730,4144.102539,4141.025879,4145.128418,4125.641113,4134.358887,4112.307617,4109.230957,839.000000,4.000000,,,,0.000000,4.000000,4.000000,4.000000,4.000000,4.000000,4.000000,4.000000,4.000000,4.000000,4.000000,4.000000,4.000000,4.000000,4.000000,100.000000
1602006307.106855,92.000000,0.000000,4142.563965,4139.487305,4123.077148,4132.820313,4135.384766,4126.153809,4126.666504,4142.051270,4126.153809,4130.256348,4134.358887,4135.384766,4112.307617,4122.563965,769.000000,4.000000,,,,0.000000,4.000000,4.000000,4.000000,4.000000,4.000000,4.000000,4.000000,4.000000,4.000000,4.000000,4.000000,4.000000,4.000000,4.000000,100.000000
1602006307.114736,93.000000,0.000000,4147.692383,4137.436035,4125.641113,4137.436035,4134.358887,4117.436035,4117.436035,4134.871582,4118.974121,4123.589844,4132.307617,4138.974121,4112.820313,4129.743652,743.000000,4.000000,,,,0.000000,4.000000,4.000000,4.000000,4.000000,4.000000,4.000000,4.000000,4.000000,4.000000,4.000000,4.000000,4.000000,4.000000,4.000000,100.000000
1602006307.122717,94.000000,0.000000,4137.948730,4132.307617,4124.102539,4135.897461,4136.410156,4113.333496,4115.384766,4118.461426,4120.512695,4120.512695,4108.717773,4131.794922,4106.153809,4112.307617,871.000000,4.000000,,,,0.000000,4.000000,4.000000,4.000000,4.000000,4.000000,4.000000,4.000000,4.000000,4.000000,4.000000,4.000000,4.000000,4.000000,4.000000,100.000000
1602006307.130598,95.000000,0.000000,4124.102539,4125.128418,4117.436035,4128.717773,4136.410156,4118.974121,4114.358887,4108.717773,4109.230957,4109.230957,4104.102539,4121.025879,4094.358887,4097.436035,839.000000,4.000000,,,,0.000000,4.000000,4.000000,4.000000,4.000000,4.000000,4.000000,4.000000,4.000000,4.000000,4.000000,4.000000,4.000000,4.000000,4.000000,100.000000
1602006307.138480,96.000000,0.000000,4123.077148,4122.051270,4118.974121,4128.205078,4137.436035,4128.717773,4118.974121,4115.897461,4105.128418,4116.410156,4121.538574,4120.000000,4094.871826,4104.615234,769.000000,4.000000,,,,0.000000,4.000000,4.000000,4.000000,4.000000,4.000000,4.000000,4.000000,4.000000,4.000000,4.000000,4.000000,4.000000,4.000000,4.000000,100.000000
1602006307.146361,97.000000,0.000000,4123.589844,4125.128418,4123.077148,4135.897461,4138.974121,4125.128418,4129.230957,4123.077148,4118.461426,4138.461426,4125.641113,4128.205078,4104.615234,4114.358887,743.000000,4.000000,,,,0.000000,4.000000,4.000000,4.000000,4.000000,4.000000,4.000000,4.000000,4.000000,4.000000,4.000000,4.000000,4.000000,4.000000,4.000000,100.000000
1602006307.154242,98.000000,0.000000,4124.615234,4127.179688,4125.641113,4137.948730,4135.897461,4124.102539,4135.384766,4129.743652,4125.641113,4145.641113,4121.538574,4136.410156,4108.205078,4120.512695,871.000000,4.000000,,,,0.000000,4.000000,4.000000,4.000000,4.000000,4.000000,4.000000,4.000000,4.000000,4.000000,4.000000,4.000000,4.000000,4.000000,4.000000,100.000000
1602006307.162123,99.000000,0.000000,4133.333496,4124.102539,4131.282227,4134.358887,4136.922852,4138.974121,4138.461426,4137.436035,4126.666504,4139.487305,4122.051270,4137.436035,4104.615234,4123.077148,839.000000,4.000000,,,,0.000000,4.000000,4.000000,4.000000,4.000000,4.000000,4.000000,4.000000,4.000000,4.000000,4.000000,4.000000,4.000000,4.000000,4.000000,100.000000
1602006307.169904,100.000000,0.000000,4133.333496,4121.025879,4135.897461,4133.333496,4138.974121,4137.948730,4137.436035,4139.487305,4124.102539,4134.871582,4121.025879,4134.358887,4104.102539,4114.871582,769.000000,4.000000,,,,0.000000,4.000000,4.000000,4.000000,4.000000,4.000000,4.000000,4.000000,4.000000,4.000000,4.000000,4.000000,4.000000,4.000000,4.000000,100.000000
1602006307.177785,101.000000,0.000000,4134.871582,4130.769043,4138.461426,4133.846191,4136.410156,4123.589844,4132.307617,4139.487305,4123.589844,4130.769043,4125.641113,4141.538574,4111.282227,4112.820313,743.000000,4.000000,,,,0.000000,4.000000,4.000000,4.000000,4.000000,4.000000,4.000000,4.000000,4.000000,4.000000,4.000000,4.000000,4.000000,4.000000,4.000000,100.000000
1602006307.185766,102.000000,0.000000,4137.948730,4132.820313,4138.461426,4127.179688,4137.436035,4121.538574,4127.692383,4140.000000,4130.769043,4123.589844,4125.641113,4148.205078,4104.102539,4115.384766,871.000000,4.000000,,,,0.000000,4.000000,4.000000,4.000000,4.000000,4.000000,4.000000,4.000000,4.000000,4.000000,4.000000,4.000000,4.000000,4.000000,4.000000,100.000000
1602006307.193647,103.000000,0.000000,4131.794922,4120.512695,4135.384766,4120.512695,4135.897461,4124.615234,4123.589844,4138.974121,4135.384766,4126.666504,4114.358887,4143.077148,4090.769287,4108.717773,839.000000,4.000000,,,,0.000000,4.000000,4.000000,4.000000,4.000000,4.000000,4.000000,4.000000,4.000000,4.000000,4.000000,4.000000,4.000000,4.000000,4.000000,100.000000
1602006307.201528,104.000000,0.000000,4138.461426,4127.179688,4135.897461,4127.692383,4130.256348,4125.128418,4120.000000,4138.974121,4137.948730,4148.205078,4127.179688,4147.692383,4111.794922,4122.051270,769.000000,4.000000,,,,0.000000,4.000000,4.000000,4.000000,4.000000,4.000000,4.000000,4.000000,4.000000,4.000000,4.000000,4.000000,4.000000,4.000000,4.000000,100.000000
1602006307.209410,105.000000,0.000000,4153.846191,4141.538574,4141.025879,4141.538574,4132.820313,4127.179688,4122.051270,4142.563965,4143.077148,4158.461426,4158.974121,4160.512695,4149.743652,4154.871582,743.000000,4.000000,,,,0.000000,4.000000,4.000000,4.000000,4.000000,4.000000,4.000000,4.000000,4.000000,4.000000,4.000000,4.000000,4.000000,4.000000,4.000000,100.000000
1602006307.217191,106.000000,0.000000,4137.948730,4128.205078,4138.461426,4137.436035,4138.461426,4123.589844,4131.794922,4143.589844,4144.102539,4150.256348,4166.153809,4154.358887,4157.948730,4158.461426,871.000000,4.000000,,,,0.000000,4.000000,4.000000,4.000000,4.000000,4.000000,4.000000,4.000000,4.000000,4.000000,4.000000,4.000000,4.000000,4.000000,4.000000,100.000000
1602006307.225071,107.000000,0.000000,4101.025879,4101.538574,4123.077148,4123.077148,4136.410156,4124.102539,4137.948730,4143.077148,4140.512695,4152.307617,4146.666504,4139.487305,4149.743652,4137.948730,839.000000,4.000000,,,,0.000000,4.000000,4.000000,4.000000,4.000000,4.000000,4.000000,4.000000,4.000000,4.000000,4.000000,4.000000,4.000000,4.000000,4.000000,100.000000
1602006307.232952,108.000000,0.000000,4087.179443,4091.794922,4114.871582,4118.974121,4135.897461,4137.948730,4139.487305,4140.000000,4137.436035,4152.820313,4136.922852,4137.436035,4154.871582,4136.410156,769.000000,4.000000,,,,0.000000,4.000000,4.000000,4.000000,4.000000,4.000000,4.000000,4.000000,4.000000,4.000000,4.000000,4.000000,4.000000,4.000000,4.000000,100.000000
1602006307.240933,109.000000,0.000000,4093.333252,4090.256348,4119.487305,4120.000000,4140.000000,4143.077148,4140.512695,4137.948730,4127.692383,4139.487305,4145.128418,4143.077148,4156.410156,4141.538574,743.000000,4.000000,,,,0.000000,4.000000,4.000000,4.000000,4.000000,4.000000,4.000000,4.000000,4.000000,4.000000,4.000000,4.000000,4.000000,4.000000,4.000000,100.000000
1602006307.248914,110.000000,0.000000,4095.897461,4092.820557,4122.563965,4120.000000,4142.051270,4138.974121,4138.974121,4138.461426,4125.128418,4143.077148,4153.846191,4146.153809,4156.410156,4138.461426,871.000000,4.000000,,,,0.000000,4.000000,4.000000,4.000000,4.000000,4.000000,4.000000,4.000000,4.000000,4.000000,4.000000,4.000000,4.000000,4.000000,4.000000,100.000000
1602006307.256795,111.000000,0.000000,4092.307617,4103.077148,4123.589844,4123.077148,4146.153809,4139.487305,4136.410156,4141.025879,4137.436035,4154.358887,4155.897461,4150.769043,4166.666504,4147.692383,839.000000,4.000000,,,,0.000000,4.000000,4.000000,4.000000,4.000000,4.000000,4.000000,4.000000,4.000000,4.000000,4.000000,4.000000,4.000000,4.000000,4.000000,100.000000
1602006307.264676,112.000000,0.000000,4090.769287,4104.102539,4123.589844,4122.563965,4142.563965,4129.230957,4129.230957,4136.922852,4134.358887,4152.307617,4149.230957,4152.820313,4167.692383,4153.333496,769.000000,4.000000,,,,0.000000,4.000000,4.000000,4.000000,4.000000,4.000000,4.000000,4.000000,4.000000,4.000000,4.000000,4.000000,4.000000,4.000000,4.000000,100.000000
1602006307.272558,113.000000,0.000000,4098.974121,4096.410156,4122.051270,4118.461426,4128.717773,4113.846191,4120.512695,4130.256348,4120.512695,4150.769043,4144.615234,4148.717773,4155.384766,4145.128418,743.000000,4.000000,,,,0.000000,4.000000,4.000000,4.000000,4.000000,4.000000,4.000000,4.000000,4.000000,4.000000,4.000000,4.000000,4.000000,4.000000,4.000000,100.000000
1602006307.280439,114.000000,0.000000,4104.102539,4098.461426,4127.179688,4118.974121,4129.230957,4116.410156,4125.641113,4131.794922,4119.487305,4146.666504,4148.205078,4149.743652,4154.871582,4149.743652,871.000000,4.000000,,,,0.000000,4.000000,4.000000,4.000000,4.000000,4.000000,4.000000,4.000000,4.000000,4.000000,4.000000,4.000000,4.000000,4.000000,4.000000,100.000000
1602006307.288320,115.000000,0.000000,4112.820313,4109.230957,4139.487305,4123.589844,4138.461426,4125.128418,4136.410156,4135.384766,4115.897461,4136.410156,4156.922852,4165.128418,4169.743652,4171.794922,839.000000,4.000000,,,,0.000000,4.000000,4.000000,4.000000,4.000000,4.000000,4.000000,4.000000,4.000000,4.000000,4.000000,4.000000,4.000000,4.000000,4.000000,100.000000
1602006307.296102,116.000000,0.000000,4125.128418,4108.205078,4146.666504,4123.077148,4132.820313,4127.692383,4136.410156,4134.871582,4108.205078,4138.461426,4157.436035,4169.743652,4175.897461,4180.512695,769.000000,4.000000,,,,0.000000,4.000000,4.000000,4.000000,4.000000,4.000000,4.000000,4.000000,4.000000,4.000000,4.000000,4.000000,4.000000,4.000000,4.000000,100.000000
1602006307.303983,117.000000,0.000000,4118.461426,4094.358887,4140.000000,4113.333496,4124.615234,4131.282227,4141.025879,4139.487305,4110.769043,4139.487305,4152.820313,4157.436035,4172.307617,4171.282227,743.000000,4.000000,,,,0.000000,4.000000,4.000000,4.000000,4.000000,4.000000,4.000000,4.000000,4.000000,4.000000,4.000000,4.000000,4.000000,4.000000,4.000000,100.000000
1602006307.311865,118.000000,0.000000,4104.615234,4089.230713,4126.666504,4107.179688,4124.615234,4135.384766,4154.871582,4148.205078,4120.000000,4137.436035,4151.282227,4146.666504,4167.692383,4158.461426,871.000000,4.000000,,,,0.000000,4.000000,4.000000,4.000000,4.000000,4.000000,4.000000,4.000000,4.000000,4.000000,4.000000,4.000000,4.000000,4.000000,4.000000,100.000000
1602006307.319747,119.000000,0.000000,4104.102539,4097.436035,4122.563965,4113.333496,4124.615234,4138.461426,4154.871582,4153.846191,4133.846191,4160.512695,4152.307617,4144.615234,4160.000000,4146.153809,839.000000,4.000000,,,,0.000000,4.000000,4.000000,4.000000,4.000000,4.000000,4.000000,4.000000,4.000000,4.000000,4.000000,4.000000,4.000000,4.000000,4.000000,100.000000
1602006307.327628,120.000000,0.000000,4101.025879,4107.179688,4123.077148,4120.512695,4131.282227,4135.384766,4144.615234,4157.436035,4146.666504,4176.410156,4151.794922,4142.563965,4157.948730,4144.102539,769.000000,4.000000,,,,0.000000,4.000000,4.000000,4.000000,4.000000,4.000000,4.000000,4.000000,4.000000,4.000000,4.000000,4.000000,4.000000,4.000000,4.000000,100.000000
1602006307.335510,121.000000,0.000000,4089.743652,4107.692383,4112.820313,4121.025879,4143.077148,4125.128418,4135.897461,4151.794922,4142.563965,4157.948730,4143.077148,4136.922852,4156.922852,4142.051270,743.000000,4.000000,,,,0.000000,4.000000,4.000000,4.000000,4.000000,4.000000,4.000000,4.000000,4.000000,4.000000,4.000000,4.000000,4.000000,4.000000,4.000000,100.000000
1602006307.343391,122.000000,0.000000,4086.666748,4105.128418,4101.538574,4121.538574,4142.563965,4126.666504,4128.717773,4139.487305,4137.436035,4149.743652,4134.871582,4133.333496,4151.282227,4129.230957,871.000000,4.000000,,,,0.000000,4.000000,4.000000,4.000000,4.000000,4.000000,4.000000,4.000000,4.000000,4.000000,4.000000,4.000000,4.000000,4.000000,4.000000,100.000000
1602006307.351273,123.000000,0.000000,4092.307617,4104.615234,4104.102539,4124.102539,4136.922852,4137.436035,4130.256348,4136.410156,4138.461426,4158.461426,4138.974121,4138.461426,4150.769043,4127.179688,839.000000,4.000000,,,,0.000000,4.000000,4.000000,4.000000,4.000000,4.000000,4.000000,4.000000,4.000000,4.000000,4.000000,4.000000,4.000000,4.000000,4.000000,100.000000
1602006307.359155,124.000000,0.000000,4096.922852,4105.641113,4111.794922,4119.487305,4140.000000,4138.974121,4136.922852,4138.974121,4126.666504,4143.589844,4142.563965,4146.153809,4151.282227,4144.615234,769.000000,4.000000,,,,0.000000,4.000000,4.000000,4.000000,4.000000,4.000000,4.000000,4.000000,4.000000,4.000000,4.000000,4.000000,4.000000,4.000000,4.000000,100.000000
1602006307.367136,125.000000,0.000000,4095.897461,4104.102539,4116.922852,4115.384766,4140.512695,4134.358887,4136.410156,4136.410156,4117.436035,4132.820313,4137.436035,4141.538574,4143.077148,4153.846191,743.000000,4.000000,,,,0.000000,4.000000,4.000000,4.000000,4.000000,4.000000,4.000000,4.000000,4.000000,4.000000,4.000000,4.000000,4.000000,4.000000,4.000000,100.000000
1602006307.375018,126.000000,0.000000,4088.718018,4100.000000,4120.512695,4118.974121,4134.871582,4134.871582,4135.897461,4133.333496,4123.077148,4148.717773,4136.410156,4135.384766,4140.512695,4142.563965,871.000000,4.000000,,,,0.000000,4.000000,4.000000,4.000000,4.000000,4.000000,4.000000,4.000000,4.000000,4.000000,4.000000,4.000000,4.000000,4.000000,4.000000,100.000000
1602006307.382900,127.000000,0.000000,4092.820557,4100.512695,4120.000000,4124.615234,4140.512695,4136.922852,4140.512695,4136.410156,4124.102539,4143.077148,4137.948730,4144.102539,4144.102539,4133.333496,839.000000,4.000000,,,,0.000000,4.000000,4.000000,4.000000,4.000000,4.000000,4.000000,4.000000,4.000000,4.000000,4.000000,4.000000,4.000000,4.000000,4.000000,100.000000
1602006307.390781,128.000000,0.000000,4102.563965,4107.692383,4123.077148,4125.128418,4151.282227,4138.974121,4141.538574,4138.974121,4118.974121,4120.512695,4135.897461,4153.333496,4138.974121,4140.512695,769.000000,4.000000,,,,0.000000,4.000000,4.000000,4.000000,4.000000,4.000000,4.000000,4.000000,4.000000,4.000000,4.000000,4.000000,4.000000,4.000000,4.000000,100.000000
1602006307.398663,0.000000,0.000000,4098.974121,4108.205078,4128.205078,4121.025879,4147.179688,4141.538574,4136.410156,4137.436035,4123.077148,4118.461426,4143.589844,4154.871582,4142.563965,4147.179688,795.000000,4.000000,,,,0.000000,4.000000,4.000000,4.000000,4.000000,4.000000,4.000000,4.000000,4.000000,4.000000,4.000000,4.000000,4.000000,4.000000,4.000000,100.000000
1602006307.406544,1.000000,0.000000,4092.820557,4104.615234,4124.102539,4118.974121,4138.461426,4143.077148,4137.436035,4134.358887,4126.153809,4132.307617,4154.871582,4150.256348,4153.846191,4143.077148,789.000000,4.000000,,,,0.000000,4.000000,4.000000,4.000000,4.000000,4.000000,4.000000,4.000000,4.000000,4.000000,4.000000,4.000000,4.000000,4.000000,4.000000,100.000000
1602006307.414426,2.000000,0.000000,4093.333252,4103.077148,4110.256348,4117.436035,4139.487305,4144.615234,4145.128418,4135.384766,4121.025879,4152.307617,4155.384766,4145.641113,4154.871582,4137.948730,850.000000,4.000000,,,,0.000000,4.000000,4.000000,4.000000,4.000000,4.000000,4.000000,4.000000,4.000000,4.000000,4.000000,4.000000,4.000000,4.000000,4.000000,100.000000
1602006307.422308,3.000000,0.000000,4095.897461,4101.025879,4103.077148,4111.282227,4140.512695,4142.563965,4148.717773,4140.000000,4130.256348,4174.871582,4155.384766,4148.205078,4160.512695,4139.487305,868.000000,4.000000,,,,0.000000,4.000000,4.000000,4.000000,4.000000,4.000000,4.000000,4.000000,4.000000,4.000000,4.000000,4.000000,4.000000,4.000000,4.000000,100.000000
1602006307.430289,4.000000,0.000000,4095.897461,4100.512695,4113.846191,4112.307617,4136.410156,4135.384766,4144.615234,4140.512695,4137.436035,4171.794922,4154.871582,4148.205078,4168.717773,4149.230957,812.000000,4.000000,,,,0.000000,4.000000,4.000000,4.000000,4.000000,4.000000,4.000000,4.000000,4.000000,4.000000,4.000000,4.000000,4.000000,4.000000,4.000000,100.000000
1602006307.438170,5.000000,0.000000,4090.769287,4101.538574,4120.512695,4118.461426,4134.871582,4130.256348,4139.487305,4137.436035,4118.461426,4149.743652,4143.077148,4132.307617,4154.871582,4144.102539,820.000000,4.000000,,,,0.000000,4.000000,4.000000,4.000000,4.000000,4.000000,4.000000,4.000000,4.000000,4.000000,4.000000,4.000000,4.000000,4.000000,4.000000,100.000000
1602006307.446051,6.000000,0.000000,4088.205078,4103.077148,4108.717773,4111.282227,4135.384766,4136.410156,4138.461426,4135.897461,4102.563965,4133.846191,4131.794922,4120.000000,4135.384766,4126.666504,771.000000,4.000000,,,,0.000000,4.000000,4.000000,4.000000,4.000000,4.000000,4.000000,4.000000,4.000000,4.000000,4.000000,4.000000,4.000000,4.000000,4.000000,100.000000
1602006307.453932,7.000000,0.000000,4093.333252,4102.051270,4095.897461,4103.077148,4136.410156,4142.051270,4137.948730,4134.358887,4109.230957,4111.282227,4129.743652,4123.077148,4137.436035,4123.589844,676.000000,4.000000,,,,0.000000,4.000000,4.000000,4.000000,4.000000,4.000000,4.000000,4.000000,4.000000,4.000000,4.000000,4.000000,4.000000,4.000000,4.000000,100.000000
1602006307.461813,8.000000,0.000000,4083.589844,4097.436035,4091.281982,4105.641113,4136.410156,4130.769043,4130.769043,4127.179688,4111.794922,4104.102539,4125.128418,4122.563965,4141.025879,4126.666504,783.000000,4.000000,,,,0.000000,4.000000,4.000000,4.000000,4.000000,4.000000,4.000000,4.000000,4.000000,4.000000,4.000000,4.000000,4.000000,4.000000,4.000000,100.000000
1602006307.469695,9.000000,0.000000,4071.794922,4096.410156,4093.333252,4110.256348,4137.436035,4125.641113,4122.051270,4122.563965,4113.846191,4138.461426,4125.641113,4121.538574,4135.384766,4126.153809,838.000000,4.000000,,,,0.000000,4.000000,4.000000,4.000000,4.000000,4.000000,4.000000,4.000000,4.000000,4.000000,4.000000,4.000000,4.000000,4.000000,4.000000,100.000000
1602006307.477476,10.000000,0.000000,4092.307617,4106.153809,4105.641113,4116.922852,4138.974121,4135.384766,4124.615234,4130.256348,4132.307617,4167.692383,4140.512695,4133.333496,4141.025879,4137.948730,871.000000,4.000000,,,,0.000000,4.000000,4.000000,4.000000,4.000000,4.000000,4.000000,4.000000,4.000000,4.000000,4.000000,4.000000,4.000000,4.000000,4.000000,100.000000
1602006307.485357,11.000000,0.000000,4116.922852,4118.974121,4122.563965,4127.179688,4137.948730,4138.974121,4135.384766,4140.512695,4141.538574,4160.512695,4154.358887,4150.256348,4158.974121,4157.948730,839.000000,4.000000,,,,0.000000,4.000000,4.000000,4.000000,4.000000,4.000000,4.000000,4.000000,4.000000,4.000000,4.000000,4.000000,4.000000,4.000000,4.000000,100.000000
1602006307.493238,12.000000,0.000000,4116.410156,4123.589844,4125.641113,4129.743652,4145.128418,4143.589844,4147.692383,4148.717773,4136.410156,4140.512695,4157.436035,4157.948730,4173.333496,4157.436035,769.000000,4.000000,,,,0.000000,4.000000,4.000000,4.000000,4.000000,4.000000,4.000000,4.000000,4.000000,4.000000,4.000000,4.000000,4.000000,4.000000,4.000000,100.000000
1602006307.501119,13.000000,0.000000,4106.153809,4117.436035,4115.384766,4125.641113,4153.846191,4156.922852,4154.871582,4152.820313,4135.897461,4128.717773,4150.769043,4153.846191,4169.743652,4135.384766,743.000000,4.000000,,,,0.000000,4.000000,4.000000,4.000000,4.000000,4.000000,4.000000,4.000000,4.000000,4.000000,4.000000,4.000000,4.000000,4.000000,4.000000,100.000000
1602006307.509001,14.000000,0.000000,4102.563965,4105.128418,4106.666504,4120.000000,4147.692383,4151.794922,4154.871582,4152.820313,4141.538574,4134.358887,4143.077148,4149.230957,4157.948730,4124.102539,871.000000,4.000000,,,,0.000000,4.000000,4.000000,4.000000,4.000000,4.000000,4.000000,4.000000,4.000000,4.000000,4.000000,4.000000,4.000000,4.000000,4.000000,100.000000
1602006307.516982,15.000000,0.000000,4104.102539,4104.102539,4107.692383,4112.307617,4137.948730,4140.000000,4154.358887,4151.794922,4146.153809,4155.384766,4144.102539,4154.358887,4157.436035,4137.436035,839.000000,4.000000,,,,0.000000,4.000000,4.000000,4.000000,4.000000,4.000000,4.000000,4.000000,4.000000,4.000000,4.000000,4.000000,4.000000,4.000000,4.000000,100.000000
1602006307.524864,16.000000,0.000000,4098.974121,4106.666504,4112.820313,4110.256348,4140.512695,4148.205078,4153.333496,4147.692383,4144.102539,4157.948730,4142.563965,4154.358887,4153.846191,4136.922852,0.000000,4.000000,,,,0.000000,4.000000,4.000000,4.000000,4.000000,4.000000,4.000000,4.000000,4.000000,4.000000,4.000000,4.000000,4.000000,4.000000,4.000000,100.000000
1602006307.532745,17.000000,0.000000,4078.461426,4095.384521,4102.563965,4105.641113,4139.487305,4145.641113,4140.000000,4138.974121,4136.922852,4145.128418,4127.692383,4131.794922,4134.358887,4101.025879,0.000000,4.000000,,,,0.000000,4.000000,4.000000,4.000000,4.000000,4.000000,4.000000,4.000000,4.000000,4.000000,4.000000,4.000000,4.000000,4.000000,4.000000,100.000000
1602006307.540627,18.000000,0.000000,4066.153809,4088.718018,4088.718018,4104.615234,4133.846191,4130.256348,4126.153809,4133.333496,4141.538574,4144.102539,4120.000000,4114.871582,4127.692383,4087.179443,0.000000,4.000000,,,,0.000000,4.000000,4.000000,4.000000,4.000000,4.000000,4.000000,4.000000,4.000000,4.000000,4.000000,4.000000,4.000000,4.000000,4.000000,100.000000
1602006307.548509,19.000000,0.000000,4080.000000,4102.051270,4092.820557,4115.897461,4140.512695,4134.358887,4127.179688,4137.436035,4154.871582,4143.589844,4121.538574,4124.102539,4137.436035,4102.051270,0.000000,4.000000,,,,0.000000,4.000000,4.000000,4.000000,4.000000,4.000000,4.000000,4.000000,4.000000,4.000000,4.000000,4.000000,4.000000,4.000000,4.000000,100.000000
1602006307.556390,20.000000,0.000000,4097.948730,4117.948730,4106.666504,4125.128418,4143.589844,4144.615234,4127.179688,4140.512695,4155.897461,4133.333496,4122.051270,4137.948730,4137.948730,4095.897461,0.000000,4.000000,,,,0.000000,4.000000,4.000000,4.000000,4.000000,4.000000,4.000000,4.000000,4.000000,4.000000,4.000000,4.000000,4.000000,4.000000,4.000000,100.000000
1602006307.564272,21.000000,0.000000,4102.051270,4121.538574,4112.307617,4126.153809,4142.563965,4135.897461,4123.589844,4141.025879,4149.230957,4135.384766,4138.461426,4141.538574,4142.051270,4088.205078,0.000000,4.000000,,,,0.000000,4.000000,4.000000,4.000000,4.000000,4.000000,4.000000,4.000000,4.000000,4.000000,4.000000,4.000000,4.000000,4.000000,4.000000,100.000000
1602006307.572154,22.000000,0.000000,4100.512695,4123.077148,4111.794922,4126.153809,4151.282227,4124.615234,4124.615234,4143.589844,4149.743652,4153.333496,4157.436035,4141.538574,4154.358887,4105.128418,0.000000,4.000000,,,,0.000000,4.000000,4.000000,4.000000,4.000000,4.000000,4.000000,4.000000,4.000000,4.000000,4.000000,4.000000,4.000000,4.000000,4.000000,100.000000
1602006307.580035,23.000000,0.000000,4108.205078,4127.692383,4112.307617,4129.743652,4152.307617,4125.641113,4128.717773,4144.102539,4146.153809,4155.384766,4146.153809,4138.974121,4154.358887,4111.282227,0.000000,4.000000,,,,0.000000,4.000000,4.000000,4.000000,4.000000,4.000000,4.000000,4.000000,4.000000,4.000000,4.000000,4.000000,4.000000,4.000000,4.000000,100.000000
1602006307.588016,24.000000,0.000000,4122.563965,4128.205078,4117.436035,4136.922852,4144.615234,4124.102539,4131.794922,4139.487305,4132.820313,4133.333496,4130.256348,4141.025879,4150.256348,4105.128418,0.000000,4.000000,,,,0.000000,4.000000,4.000000,4.000000,4.000000,4.000000,4.000000,4.000000,4.000000,4.000000,4.000000,4.000000,4.000000,4.000000,4.000000,100.000000
1602006307.595897,25.000000,0.000000,4124.615234,4130.256348,4132.307617,4143.077148,4147.692383,4119.487305,4133.846191,4134.871582,4129.230957,4124.102539,4143.077148,4158.974121,4153.846191,4123.589844,0.000000,4.000000,,,,0.000000,4.000000,4.000000,4.000000,4.000000,4.000000,4.000000,4.000000,4.000000,4.000000,4.000000,4.000000,4.000000,4.000000,4.000000,100.000000
1602006307.603779,26.000000,0.000000,4121.538574,4137.948730,4138.974121,4142.051270,4155.897461,4123.077148,4135.384766,4140.000000,4136.922852,4140.000000,4161.025879,4177.436035,4159.487305,4147.179688,0.000000,4.000000,,,,0.000000,4.000000,4.000000,4.000000,4.000000,4.000000,4.000000,4.000000,4.000000,4.000000,4.000000,4.000000,4.000000,4.000000,4.000000,100.000000
1602006307.611660,27.000000,0.000000,4123.589844,4137.948730,4130.256348,4137.436035,4154.358887,4133.333496,4136.922852,4144.615234,4141.538574,4156.922852,4157.436035,4180.000000,4165.641113,4146.666504,0.000000,4.000000,,,,0.000000,4.000000,4.000000,4.000000,4.000000,4.000000,4.000000,4.000000,4.000000,4.000000,4.000000,4.000000,4.000000,4.000000,4.000000,100.000000
1602006307.619541,28.000000,0.000000,4117.436035,4125.128418,4118.461426,4131.794922,4146.153809,4130.256348,4135.897461,4142.563965,4138.461426,4151.282227,4149.230957,4164.615234,4164.615234,4134.358887,0.000000,4.000000,,,,0.000000,4.000000,4.000000,4.000000,4.000000,4.000000,4.000000,4.000000,4.000000,4.000000,4.000000,4.000000,4.000000,4.000000,4.000000,100.000000
1602006307.627323,29.000000,0.000000,4101.025879,4118.974121,4111.282227,4125.128418,4138.461426,4123.077148,4134.358887,4146.666504,4137.948730,4137.436035,4153.333496,4146.666504,4155.897461,4122.051270,0.000000,4.000000,,,,0.000000,4.000000,4.000000,4.000000,4.000000,4.000000,4.000000,4.000000,4.000000,4.000000,4.000000,4.000000,4.000000,4.000000,4.000000,100.000000
1602006307.635204,30.000000,0.000000,4095.384521,4122.563965,4114.358887,4123.589844,4139.487305,4134.358887,4138.461426,4158.461426,4149.230957,4147.692383,4153.333496,4142.051270,4152.307617,4123.077148,0.000000,4.000000,,,,0.000000,4.000000,4.000000,4.000000,4.000000,4.000000,4.000000,4.000000,4.000000,4.000000,4.000000,4.000000,4.000000,4.000000,4.000000,100.000000
1602006307.643086,31.000000,0.000000,4102.051270,4122.051270,4114.871582,4126.153809,4143.077148,4143.077148,4140.512695,4155.384766,4152.307617,4152.820313,4135.384766,4140.000000,4149.743652,4124.102539,0.000000,4.000000,,,,0.000000,4.000000,4.000000,4.000000,4.000000,4.000000,4.000000,4.000000,4.000000,4.000000,4.000000,4.000000,4.000000,4.000000,4.000000,100.000000
1602006307.650968,32.000000,0.000000,4107.692383,4119.487305,4106.153809,4130.769043,4138.974121,4130.256348,4131.794922,4137.948730,4135.897461,4131.794922,4120.000000,4124.102539,4138.974121,4103.589844,0.000000,4.000000,,,,0.000000,4.000000,4.000000,4.000000,4.000000,4.000000,4.000000,4.000000,4.000000,4.000000,4.000000,4.000000,4.000000,4.000000,4.000000,100.000000
1602006307.658849,33.000000,0.000000,4107.179688,4122.563965,4104.102539,4133.846191,4137.436035,4126.666504,4124.102539,4129.743652,4116.410156,4111.282227,4120.000000,4112.820313,4127.692383,4081.025635,0.000000,4.000000,,,,0.000000,4.000000,4.000000,4.000000,4.000000,4.000000,4.000000,4.000000,4.000000,4.000000,4.000000,4.000000,4.000000,4.000000,4.000000,100.000000
1602006307.666731,34.000000,0.000000,4095.897461,4123.589844,4108.205078,4129.743652,4141.538574,4134.871582,4124.102539,4123.589844,4106.666504,4100.000000,4123.077148,4117.436035,4122.051270,4092.820557,0.000000,4.000000,,,,0.000000,4.000000,4.000000,4.000000,4.000000,4.000000,4.000000,4.000000,4.000000,4.000000,4.000000,4.000000,4.000000,4.000000,4.000000,100.000000
1602006307.674613,35.000000,0.000000,4085.641113,4120.512695,4105.641113,4123.077148,4142.051270,4126.153809,4118.461426,4111.794922,4102.563965,4099.487305,4123.589844,4121.025879,4117.948730,4111.282227,0.000000,4.000000,,,,0.000000,4.000000,4.000000,4.000000,4.000000,4.000000,4.000000,4.000000,4.000000,4.000000,4.000000,4.000000,4.000000,4.000000,4.000000,100.000000
1602006307.682494,36.000000,0.000000,4093.333252,4121.538574,4109.743652,4128.717773,4140.000000,4117.948730,4110.769043,4108.205078,4108.205078,4112.307617,4121.025879,4125.128418,4115.897461,4104.615234,0.000000,4.000000,,,,0.000000,4.000000,4.000000,4.000000,4.000000,4.000000,4.000000,4.000000,4.000000,4.000000,4.000000,4.000000,4.000000,4.000000,4.000000,100.000000
1602006307.690376,37.000000,0.000000,4095.897461,4126.153809,4123.077148,4137.436035,4138.974121,4123.077148,4113.846191,4117.436035,4126.666504,4118.974121,4118.461426,4134.358887,4124.102539,4097.948730,0.000000,4.000000,,,,0.000000,4.000000,4.000000,4.000000,4.000000,4.000000,4.000000,4.000000,4.000000,4.000000,4.000000,4.000000,4.000000,4.000000,4.000000,100.000000
1602006307.698157,38.000000,0.000000,4083.076904,4127.179688,4126.153809,4136.922852,4141.025879,4124.102539,4121.025879,4129.230957,4146.666504,4133.846191,4129.230957,4140.512695,4138.461426,4108.205078,0.000000,4.000000,,,,0.000000,4.000000,4.000000,4.000000,4.000000,4.000000,4.000000,4.000000,4.000000,4.000000,4.000000,4.000000,4.000000,4.000000,4.000000,100.000000
1602006307.706038,39.000000,0.000000,4079.487061,4120.512695,4113.333496,4128.717773,4141.538574,4130.256348,4123.589844,4138.461426,4152.307617,4156.922852,4140.000000,4136.410156,4138.461426,4111.794922,0.000000,4.000000,,,,0.000000,4.000000,4.000000,4.000000,4.000000,4.000000,4.000000,4.000000,4.000000,4.000000,4.000000,4.000000,4.000000,4.000000,4.000000,100.000000
1602006307.713919,40.000000,0.000000,4082.564209,4110.256348,4095.384521,4114.871582,4130.256348,4133.846191,4131.282227,4146.153809,4143.077148,4141.538574,4133.333496,4127.179688,4126.666504,4096.922852,0.000000,4.000000,,,,0.000000,4.000000,4.000000,4.000000,4.000000,4.000000,4.000000,4.000000,4.000000,4.000000,4.000000,4.000000,4.000000,4.000000,4.000000,100.000000
1602006307.721801,41.000000,0.000000,4078.461426,4105.641113,4087.179443,4111.282227,4120.000000,4123.077148,4142.051270,4153.846191,4134.358887,4106.153809,4122.051270,4120.512695,4121.025879,4091.794922,0.000000,4.000000,,,,0.000000,4.000000,4.000000,4.000000,4.000000,4.000000,4.000000,4.000000,4.000000,4.000000,4.000000,4.000000,4.000000,4.000000,4.000000,100.000000
1602006307.729782,42.000000,0.000000,4084.102539,4112.307617,4095.897461,4122.051270,4126.666504,4125.641113,4140.000000,4155.384766,4137.948730,4106.153809,4119.487305,4121.538574,4120.000000,4103.077148,0.000000,4.000000,,,,0.000000,4.000000,4.000000,4.000000,4.000000,4.000000,4.000000,4.000000,4.000000,4.000000,4.000000,4.000000,4.000000,4.000000,4.000000,100.000000
1602006307.737663,43.000000,0.000000,4097.436035,4121.025879,4113.846191,4128.717773,4135.384766,4137.436035,4125.641113,4144.615234,4139.487305,4121.538574,4124.102539,4131.794922,4120.000000,4110.769043,0.000000,4.000000,,,,0.000000,4.000000,4.000000,4.000000,4.000000,4.000000,4.000000,4.000000,4.000000,4.000000,4.000000,4.000000,4.000000,4.000000,4.000000,100.000000
1602006307.745545,44.000000,0.000000,4098.974121,4120.512695,4125.128418,4124.615234,4132.820313,4128.205078,4114.871582,4134.358887,4130.256348,4120.000000,4124.615234,4136.922852,4123.077148,4107.692383,0.000000,4.000000,,,,0.000000,4.000000,4.000000,4.000000,4.000000,4.000000,4.000000,4.000000,4.000000,4.000000,4.000000,4.000000,4.000000,4.000000,4.000000,100.000000
1602006307.753426,45.000000,0.000000,4096.922852,4111.282227,4126.666504,4124.615234,4132.820313,4122.051270,4116.410156,4134.871582,4129.230957,4126.153809,4115.384766,4136.410156,4119.487305,4104.615234,0.000000,4.000000,,,,0.000000,4.000000,4.000000,4.000000,4.000000,4.000000,4.000000,4.000000,4.000000,4.000000,4.000000,4.000000,4.000000,4.000000,4.000000,100.000000
1602006307.761308,46.000000,0.000000,4101.538574,4105.128418,4122.563965,4126.666504,4137.948730,4132.820313,4120.512695,4133.846191,4137.948730,4141.538574,4115.897461,4138.974121,4118.974121,4115.384766,0.000000,4.000000,,,,0.000000,4.000000,4.000000,4.000000,4.000000,4.000000,4.000000,4.000000,4.000000,4.000000,4.000000,4.000000,4.000000,4.000000,4.000000,100.000000
1602006307.769189,47.000000,0.000000,4104.102539,4111.282227,4121.538574,4123.589844,4137.948730,4137.948730,4120.000000,4131.282227,4138.461426,4145.641113,4134.358887,4148.717773,4133.333496,4132.820313,0.000000,4.000000,,,,0.000000,4.000000,4.000000,4.000000,4.000000,4.000000,4.000000,4.000000,4.000000,4.000000,4.000000,4.000000,4.000000,4.000000,4.000000,100.000000
1602006307.777070,48.000000,0.000000,4104.102539,4115.897461,4123.077148,4122.563965,4136.922852,4137.436035,4126.666504,4135.897461,4138.974121,4145.641113,4148.717773,4155.384766,4146.666504,4137.948730,0.000000,4.000000,,,,0.000000,4.000000,4.000000,4.000000,4.000000,4.000000,4.000000,4.000000,4.000000,4.000000,4.000000,4.000000,4.000000,4.000000,4.000000,100.000000
1602006307.784952,49.000000,0.000000,4107.692383,4111.794922,4124.102539,4123.077148,4134.358887,4133.846191,4137.948730,4140.512695,4147.179688,4154.358887,4151.282227,4155.384766,4149.230957,4136.922852,0.000000,4.000000,,,,0.000000,4.000000,4.000000,4.000000,4.000000,4.000000,4.000000,4.000000,4.000000,4.000000,4.000000,4.000000,4.000000,4.000000,4.000000,100.000000
1602006307.792733,50.000000,0.000000,4112.307617,4110.769043,4121.538574,4125.128418,4126.666504,4125.128418,4140.000000,4142.051270,4147.692383,4151.282227,4153.333496,4157.436035,4155.384766,4142.563965,0.000000,4.000000,,,,0.000000,4.000000,4.000000,4.000000,4.000000,4.000000,4.000000,4.000000,4.000000,4.000000,4.000000,4.000000,4.000000,4.000000,4.000000,100.000000
1602006307.800615,51.000000,0.000000,4111.794922,4109.230957,4112.307617,4121.538574,4127.692383,4124.615234,4133.846191,4143.589844,4133.333496,4127.692383,4146.153809,4151.282227,4153.333496,4136.922852,0.000000,4.000000,,,,0.000000,4.000000,4.000000,4.000000,4.000000,4.000000,4.000000,4.000000,4.000000,4.000000,4.000000,4.000000,4.000000,4.000000,4.000000,100.000000
1602006307.808497,52.000000,0.000000,4107.692383,4102.563965,4104.102539,4110.769043,4136.410156,4127.692383,4128.205078,4144.102539,4121.025879,4117.436035,4125.128418,4139.487305,4137.436035,4121.025879,0.000000,4.000000,,,,0.000000,4.000000,4.000000,4.000000,4.000000,4.000000,4.000000,4.000000,4.000000,4.000000,4.000000,4.000000,4.000000,4.000000,4.000000,100.000000
1602006307.816378,53.000000,0.000000,4102.051270,4100.512695,4110.769043,4104.615234,4137.436035,4126.666504,4129.230957,4142.051270,4120.000000,4128.205078,4114.358887,4143.589844,4128.717773,4123.077148,0.000000,4.000000,,,,0.000000,4.000000,4.000000,4.000000,4.000000,4.000000,4.000000,4.000000,4.000000,4.000000,4.000000,4.000000,4.000000,4.000000,4.000000,100.000000
1602006307.824260,54.000000,0.000000,4101.025879,4104.615234,4117.436035,4109.743652,4129.230957,4125.641113,4130.769043,4140.512695,4122.563965,4133.333496,4118.461426,4149.743652,4128.205078,4127.179688,0.000000,4.000000,,,,0.000000,4.000000,4.000000,4.000000,4.000000,4.000000,4.000000,4.000000,4.000000,4.000000,4.000000,4.000000,4.000000,4.000000,4.000000,100.000000
1602006307.832142,55.000000,0.000000,4105.641113,4107.692383,4112.820313,4120.000000,4125.641113,4124.615234,4128.205078,4137.948730,4116.410156,4130.256348,4122.563965,4141.538574,4124.615234,4117.436035,0.000000,4.000000,,,,0.000000,4.000000,4.000000,4.000000,4.000000,4.000000,4.000000,4.000000,4.000000,4.000000,4.000000,4.000000,4.000000,4.000000,4.000000,100.000000
1602006307.840023,56.000000,0.000000,4108.205078,4107.692383,4107.179688,4122.051270,4123.589844,4120.000000,4126.666504,4131.282227,4105.128418,4124.615234,4123.077148,4132.820313,4121.538574,4112.820313,0.000000,4.000000,,,,0.000000,4.000000,4.000000,4.000000,4.000000,4.000000,4.000000,4.000000,4.000000,4.000000,4.000000,4.000000,4.000000,4.000000,4.000000,100.000000
1602006307.847905,57.000000,0.000000,4109.230957,4111.282227,4111.282227,4120.000000,4123.077148,4116.922852,4127.179688,4129.230957,4106.666504,4114.871582,4130.256348,4133.846191,4126.153809,4117.948730,0.000000,4.000000,,,,0.000000,4.000000,4.000000,4.000000,4.000000,4.000000,4.000000,4.000000,4.000000,4.000000,4.000000,4.000000,4.000000,4.000000,4.000000,100.000000
1602006307.855787,58.000000,0.000000,4120.512695,4128.205078,4124.102539,4130.256348,4130.256348,4122.563965,4126.153809,4135.897461,4126.666504,4119.487305,4147.692383,4144.102539,4141.025879,4134.358887,0.000000,4.000000,,,,0.000000,4.000000,4.000000,4.000000,4.000000,4.000000,4.000000,4.000000,4.000000,4.000000,4.000000,4.000000,4.000000,4.000000,4.000000,100.000000
1602006307.863568,59.000000,0.000000,4131.282227,4142.563965,4138.461426,4143.589844,4137.436035,4127.179688,4131.794922,4144.102539,4143.077148,4148.717773,4156.922852,4161.538574,4155.897461,4149.743652,0.000000,4.000000,,,,0.000000,4.000000,4.000000,4.000000,4.000000,4.000000,4.000000,4.000000,4.000000,4.000000,4.000000,4.000000,4.000000,4.000000,4.000000,100.000000
1602006307.871449,60.000000,0.000000,4127.179688,4141.025879,4141.538574,4141.538574,4141.538574,4125.641113,4136.410156,4144.615234,4141.538574,4165.641113,4153.846191,4172.820313,4160.512695,4144.102539,0.000000,4.000000,,,,0.000000,4.000000,4.000000,4.000000,4.000000,4.000000,4.000000,4.000000,4.000000,4.000000,4.000000,4.000000,4.000000,4.000000,4.000000,100.000000
1602006307.879330,61.000000,0.000000,4121.538574,4137.948730,4131.794922,4136.410156,4144.102539,4129.743652,4129.230957,4140.512695,4131.794922,4151.282227,4151.794922,4166.666504,4154.358887,4137.948730,0.000000,4.000000,,,,0.000000,4.000000,4.000000,4.000000,4.000000,4.000000,4.000000,4.000000,4.000000,4.000000,4.000000,4.000000,4.000000,4.000000,4.000000,100.000000
1602006307.887211,62.000000,0.000000,4120.512695,4136.922852,4125.128418,4136.922852,4143.589844,4134.871582,4123.589844,4138.974121,4127.692383,4141.538574,4148.205078,4158.461426,4143.589844,4136.410156,0.000000,4.000000,,,,0.000000,4.000000,4.000000,4.000000,4.000000,4.000000,4.000000,4.000000,4.000000,4.000000,4.000000,4.000000,4.000000,4.000000,4.000000,100.000000
1602006307.895093,63.000000,0.000000,4119.487305,4128.717773,4124.102539,4134.871582,4138.974121,4128.205078,4126.153809,4137.436035,4125.641113,4141.538574,4140.000000,4147.692383,4135.384766,4124.102539,0.000000,4.000000,,,,0.000000,4.000000,4.000000,4.000000,4.000000,4.000000,4.000000,4.000000,4.000000,4.000000,4.000000,4.000000,4.000000,4.000000,4.000000,100.000000
1602006307.903074,64.000000,0.000000,4119.487305,4123.589844,4123.589844,4137.436035,4138.974121,4120.512695,4124.615234,4136.922852,4123.077148,4132.307617,4133.333496,4140.000000,4138.461426,4124.615234,795.000000,4.000000,,,,0.000000,4.000000,4.000000,4.000000,4.000000,4.000000,4.000000,4.000000,4.000000,4.000000,4.000000,4.000000,4.000000,4.000000,4.000000,100.000000
1602006307.910956,65.000000,0.000000,4117.436035,4130.769043,4123.077148,4141.538574,4140.512695,4118.461426,4123.077148,4138.974121,4116.410156,4123.077148,4127.692383,4141.538574,4137.436035,4138.974121,789.000000,4.000000,,,,0.000000,4.000000,4.000000,4.000000,4.000000,4.000000,4.000000,4.000000,4.000000,4.000000,4.000000,4.000000,4.000000,4.000000,4.000000,100.000000
1602006307.918837,66.000000,0.000000,4113.846191,4134.358887,4120.000000,4136.922852,4138.974121,4116.922852,4125.641113,4140.512695,4108.717773,4115.897461,4124.102539,4140.512695,4123.077148,4128.717773,850.000000,4.000000,,,,0.000000,4.000000,4.000000,4.000000,4.000000,4.000000,4.000000,4.000000,4.000000,4.000000,4.000000,4.000000,4.000000,4.000000,4.000000,100.000000
1602006307.926719,67.000000,0.000000,4118.461426,4134.871582,4121.538574,4135.384766,4137.948730,4117.948730,4125.128418,4133.333496,4112.820313,4117.436035,4131.794922,4135.897461,4123.077148,4112.307617,868.000000,4.000000,,,,0.000000,4.000000,4.000000,4.000000,4.000000,4.000000,4.000000,4.000000,4.000000,4.000000,4.000000,4.000000,4.000000,4.000000,4.000000,100.000000
1602006307.934601,68.000000,0.000000,4132.307617,4142.051270,4129.743652,4139.487305,4136.922852,4124.102539,4121.538574,4127.692383,4121.538574,4142.051270,4146.666504,4141.025879,4143.589844,4129.230957,812.000000,4.000000,,,,0.000000,4.000000,4.000000,4.000000,4.000000,4.000000,4.000000,4.000000,4.000000,4.000000,4.000000,4.000000,4.000000,4.000000,4.000000,100.000000
1602006307.942482,69.000000,0.000000,4134.871582,4143.589844,4136.922852,4138.974121,4135.384766,4127.692383,4123.077148,4132.820313,4124.102539,4154.871582,4156.410156,4152.820313,4156.922852,4155.384766,820.000000,4.000000,,,,0.000000,4.000000,4.000000,4.000000,4.000000,4.000000,4.000000,4.000000,4.000000,4.000000,4.000000,4.000000,4.000000,4.000000,4.000000,100.000000
1602006307.950364,70.000000,0.000000,4128.205078,4135.384766,4136.410156,4134.358887,4136.410156,4127.692383,4133.333496,4137.436035,4127.692383,4144.102539,4158.974121,4155.384766,4157.436035,4158.974121,771.000000,4.000000,,,,0.000000,4.000000,4.000000,4.000000,4.000000,4.000000,4.000000,4.000000,4.000000,4.000000,4.000000,4.000000,4.000000,4.000000,4.000000,100.000000
1602006307.958246,71.000000,0.000000,4130.769043,4132.820313,4134.871582,4134.871582,4136.922852,4121.538574,4140.000000,4141.538574,4130.256348,4150.769043,4155.384766,4152.820313,4155.384766,4148.717773,676.000000,4.000000,,,,0.000000,4.000000,4.000000,4.000000,4.000000,4.000000,4.000000,4.000000,4.000000,4.000000,4.000000,4.000000,4.000000,4.000000,4.000000,100.000000
1602006307.966127,72.000000,0.000000,4137.948730,4136.922852,4143.077148,4136.922852,4135.384766,4117.436035,4137.948730,4150.769043,4127.179688,4156.922852,4152.820313,4158.461426,4156.410156,4151.794922,783.000000,4.000000,,,,0.000000,4.000000,4.000000,4.000000,4.000000,4.000000,4.000000,4.000000,4.000000,4.000000,4.000000,4.000000,4.000000,4.000000,4.000000,100.000000
1602006307.974109,73.000000,0.000000,4145.641113,4137.948730,4153.846191,4135.384766,4137.948730,4124.615234,4136.410156,4154.358887,4132.307617,4138.461426,4157.436035,4170.256348,4167.179688,4171.282227,838.000000,4.000000,,,,0.000000,4.000000,4.000000,4.000000,4.000000,4.000000,4.000000,4.000000,4.000000,4.000000,4.000000,4.000000,4.000000,4.000000,4.000000,100.000000
1602006307.981990,74.000000,0.000000,4150.769043,4139.487305,4153.333496,4136.922852,4136.410156,4124.102539,4135.384766,4147.179688,4138.461426,4143.589844,4158.974121,4173.846191,4175.897461,4174.871582,872.000000,4.000000,,,,0.000000,4.000000,4.000000,4.000000,4.000000,4.000000,4.000000,4.000000,4.000000,4.000000,4.000000,4.000000,4.000000,4.000000,4.000000,100.000000
1602006307.989871,75.000000,0.000000,4144.615234,4138.974121,4140.000000,4140.000000,4126.666504,4112.307617,4127.692383,4140.512695,4127.179688,4162.563965,4149.230957,4164.615234,4163.589844,4158.974121,798.000000,4.000000,,,,0.000000,4.000000,4.000000,4.000000,4.000000,4.000000,4.000000,4.000000,4.000000,4.000000,4.000000,4.000000,4.000000,4.000000,4.000000,100.000000
1602006307.997753,76.000000,0.000000,4134.871582,4134.871582,4133.333496,4140.000000,4121.538574,4112.307617,4121.025879,4131.282227,4109.743652,4140.000000,4136.410156,4153.846191,4145.128418,4150.769043,769.000000,4.000000,,,,0.000000,4.000000,4.000000,4.000000,4.000000,4.000000,4.000000,4.000000,4.000000,4.000000,4.000000,4.000000,4.000000,4.000000,4.000000,100.000000
1602006308.005634,77.000000,0.000000,4142.051270,4136.922852,4143.589844,4138.461426,4122.051270,4116.922852,4121.538574,4123.077148,4104.102539,4113.333496,4140.000000,4151.794922,4136.410156,4154.871582,743.000000,4.000000,,,,0.000000,4.000000,4.000000,4.000000,4.000000,4.000000,4.000000,4.000000,4.000000,4.000000,4.000000,4.000000,4.000000,4.000000,4.000000,100.000000
1602006308.013516,78.000000,0.000000,4154.358887,4142.051270,4155.897461,4138.974121,4119.487305,4107.179688,4121.025879,4127.692383,4112.820313,4123.589844,4152.820313,4161.025879,4136.410156,4157.948730,872.000000,4.000000,,,,0.000000,4.000000,4.000000,4.000000,4.000000,4.000000,4.000000,4.000000,4.000000,4.000000,4.000000,4.000000,4.000000,4.000000,4.000000,100.000000
1602006308.021297,79.000000,0.000000,4155.897461,4145.128418,4154.871582,4141.025879,4124.615234,4106.666504,4117.948730,4135.897461,4122.051270,4136.922852,4157.436035,4167.179688,4148.717773,4158.974121,798.000000,4.000000,,,,0.000000,4.000000,4.000000,4.000000,4.000000,4.000000,4.000000,4.000000,4.000000,4.000000,4.000000,4.000000,4.000000,4.000000,4.000000,100.000000
1602006308.029179,80.000000,0.000000,4146.666504,4144.102539,4145.641113,4141.025879,4136.922852,4123.589844,4118.974121,4137.436035,4124.102539,4137.436035,4150.256348,4160.000000,4152.820313,4158.974121,769.000000,4.000000,,,,0.000000,4.000000,4.000000,4.000000,4.000000,4.000000,4.000000,4.000000,4.000000,4.000000,4.000000,4.000000,4.000000,4.000000,4.000000,100.000000
1602006308.037061,81.000000,0.000000,4131.282227,4132.820313,4137.436035,4136.410156,4137.948730,4124.615234,4123.077148,4137.436035,4122.051270,4133.333496,4136.410156,4151.282227,4135.384766,4152.307617,743.000000,4.000000,,,,0.000000,4.000000,4.000000,4.000000,4.000000,4.000000,4.000000,4.000000,4.000000,4.000000,4.000000,4.000000,4.000000,4.000000,4.000000,100.000000
1602006308.044942,82.000000,0.000000,4131.794922,4129.230957,4136.922852,4135.897461,4138.974121,4118.974121,4124.615234,4141.025879,4119.487305,4135.384766,4135.384766,4156.922852,4134.358887,4149.743652,872.000000,4.000000,,,,0.000000,4.000000,4.000000,4.000000,4.000000,4.000000,4.000000,4.000000,4.000000,4.000000,4.000000,4.000000,4.000000,4.000000,4.000000,100.000000
1602006308.052824,83.000000,0.000000,4144.615234,4135.897461,4137.948730,4142.051270,4147.692383,4134.358887,4125.128418,4143.589844,4117.948730,4147.179688,4146.153809,4163.589844,4151.794922,4155.384766,798.000000,4.000000,,,,0.000000,4.000000,4.000000,4.000000,4.000000,4.000000,4.000000,4.000000,4.000000,4.000000,4.000000,4.000000,4.000000,4.000000,4.000000,100.000000
1602006308.060705,84.000000,0.000000,4134.871582,4130.769043,4127.692383,4134.358887,4145.128418,4141.025879,4118.974121,4140.000000,4121.025879,4156.410156,4144.615234,4149.230957,4144.102539,4150.769043,769.000000,4.000000,,,,0.000000,4.000000,4.000000,4.000000,4.000000,4.000000,4.000000,4.000000,4.000000,4.000000,4.000000,4.000000,4.000000,4.000000,4.000000,100.000000
1602006308.068587,85.000000,0.000000,4117.436035,4119.487305,4115.897461,4121.025879,4137.436035,4127.692383,4113.333496,4135.384766,4129.230957,4153.333496,4145.641113,4139.487305,4134.871582,4139.487305,743.000000,4.000000,,,,0.000000,4.000000,4.000000,4.000000,4.000000,4.000000,4.000000,4.000000,4.000000,4.000000,4.000000,4.000000,4.000000,4.000000,4.000000,100.000000
1602006308.076469,86.000000,0.000000,4124.615234,4123.589844,4118.461426,4122.051270,4142.051270,4128.205078,4116.922852,4135.384766,4136.922852,4146.153809,4153.846191,4147.179688,4147.692383,4141.538574,872.000000,4.000000,,,,0.000000,4.000000,4.000000,4.000000,4.000000,4.000000,4.000000,4.000000,4.000000,4.000000,4.000000,4.000000,4.000000,4.000000,4.000000,100.000000
1602006308.084450,87.000000,0.000000,4129.743652,4128.205078,4123.589844,4130.256348,4144.615234,4132.820313,4117.948730,4136.410156,4135.384766,4142.051270,4146.666504,4147.692383,4149.230957,4141.538574,798.000000,4.000000,,,,0.000000,4.000000,4.000000,4.000000,4.000000,4.000000,4.000000,4.000000,4.000000,4.000000,4.000000,4.000000,4.000000,4.000000,4.000000,100.000000
1602006308.092331,88.000000,0.000000,4122.563965,4123.589844,4117.436035,4132.820313,4129.743652,4115.897461,4113.846191,4134.358887,4128.717773,4131.794922,4133.846191,4133.846191,4134.871582,4130.769043,769.000000,4.000000,,,,0.000000,4.000000,4.000000,4.000000,4.000000,4.000000,4.000000,4.000000,4.000000,4.000000,4.000000,4.000000,4.000000,4.000000,4.000000,100.000000
1602006308.100212,89.000000,0.000000,4127.692383,4126.666504,4118.974121,4136.922852,4121.538574,4107.692383,4116.922852,4134.871582,4133.846191,4134.871582,4136.410156,4135.384766,4132.307617,4126.666504,743.000000,4.000000,,,,0.000000,4.000000,4.000000,4.000000,4.000000,4.000000,4.000000,4.000000,4.000000,4.000000,4.000000,4.000000,4.000000,4.000000,4.000000,100.000000
1602006308.108093,90.000000,0.000000,4135.384766,4129.743652,4134.871582,4141.025879,4126.153809,4121.025879,4124.615234,4136.922852,4137.948730,4154.358887,4141.025879,4150.256348,4140.000000,4128.205078,872.000000,4.000000,,,,0.000000,4.000000,4.000000,4.000000,4.000000,4.000000,4.000000,4.000000,4.000000,4.000000,4.000000,4.000000,4.000000,4.000000,4.000000,100.000000
1602006308.115974,91.000000,0.000000,4126.666504,4123.589844,4140.000000,4133.846191,4126.153809,4124.615234,4125.641113,4134.358887,4118.974121,4144.615234,4134.358887,4146.666504,4137.436035,4123.589844,798.000000,4.000000,,,,0.000000,4.000000,4.000000,4.000000,4.000000,4.000000,4.000000,4.000000,4.000000,4.000000,4.000000,4.000000,4.000000,4.000000,4.000000,100.000000
1602006308.123856,92.000000,0.000000,4119.487305,4118.461426,4128.205078,4121.538574,4127.179688,4117.948730,4121.538574,4130.769043,4101.538574,4116.410156,4126.153809,4134.358887,4124.615234,4129.230957,769.000000,4.000000,,,,0.000000,4.000000,4.000000,4.000000,4.000000,4.000000,4.000000,4.000000,4.000000,4.000000,4.000000,4.000000,4.000000,4.000000,4.000000,100.000000
1602006308.131637,93.000000,0.000000,4124.102539,4118.974121,4121.025879,4120.000000,4136.410156,4121.025879,4118.461426,4133.846191,4107.179688,4122.051270,4130.769043,4140.512695,4122.563965,4145.128418,743.000000,4.000000,,,,0.000000,4.000000,4.000000,4.000000,4.000000,4.000000,4.000000,4.000000,4.000000,4.000000,4.000000,4.000000,4.000000,4.000000,4.000000,100.000000
1602006308.139519,94.000000,0.000000,4136.922852,4125.128418,4130.769043,4131.794922,4144.615234,4130.769043,4124.615234,4145.128418,4129.743652,4144.615234,4148.717773,4160.000000,4138.461426,4154.358887,872.000000,4.000000,,,,0.000000,4.000000,4.000000,4.000000,4.000000,4.000000,4.000000,4.000000,4.000000,4.000000,4.000000,4.000000,4.000000,4.000000,4.000000,100.000000
1602006308.147401,95.000000,0.000000,4155.384766,4135.384766,4142.563965,4140.000000,4152.820313,4138.461426,4137.948730,4157.948730,4153.333496,4160.512695,4162.051270,4172.307617,4155.384766,4167.179688,798.000000,4.000000,,,,0.000000,4.000000,4.000000,4.000000,4.000000,4.000000,4.000000,4.000000,4.000000,4.000000,4.000000,4.000000,4.000000,4.000000,4.000000,100.000000
1602006308.155282,96.000000,0.000000,4157.436035,4143.077148,4144.102539,4138.461426,4155.897461,4141.025879,4139.487305,4158.974121,4158.974121,4173.846191,4163.077148,4167.692383,4160.512695,4171.282227,769.000000,4.000000,,,,0.000000,4.000000,4.000000,4.000000,4.000000,4.000000,4.000000,4.000000,4.000000,4.000000,4.000000,4.000000,4.000000,4.000000,4.000000,100.000000
1602006308.163164,97.000000,0.000000,4141.538574,4137.948730,4132.820313,4134.871582,4144.615234,4139.487305,4134.358887,4147.179688,4145.641113,4160.000000,4152.307617,4149.743652,4156.922852,4153.846191,743.000000,4.000000,,,,0.000000,4.000000,4.000000,4.000000,4.000000,4.000000,4.000000,4.000000,4.000000,4.000000,4.000000,4.000000,4.000000,4.000000,4.000000,100.000000
1602006308.171046,98.000000,0.000000,4134.871582,4129.230957,4121.538574,4132.820313,4134.871582,4140.000000,4135.384766,4133.333496,4130.769043,4135.897461,4133.333496,4130.769043,4144.102539,4136.922852,872.000000,4.000000,,,,0.000000,4.000000,4.000000,4.000000,4.000000,4.000000,4.000000,4.000000,4.000000,4.000000,4.000000,4.000000,4.000000,4.000000,4.000000,100.000000
1602006308.178927,99.000000,0.000000,4135.897461,4125.641113,4120.000000,4128.205078,4131.282227,4141.025879,4140.512695,4127.179688,4124.102539,4134.358887,4118.461426,4125.128418,4127.692383,4130.256348,798.000000,4.000000,,,,0.000000,4.000000,4.000000,4.000000,4.000000,4.000000,4.000000,4.000000,4.000000,4.000000,4.000000,4.000000,4.000000,4.000000,4.000000,100.000000
1602006308.186809,100.000000,0.000000,4136.410156,4125.128418,4119.487305,4122.563965,4123.077148,4141.025879,4140.000000,4126.153809,4121.538574,4125.641113,4114.358887,4129.230957,4121.538574,4131.282227,769.000000,4.000000,,,,0.000000,4.000000,4.000000,4.000000,4.000000,4.000000,4.000000,4.000000,4.000000,4.000000,4.000000,4.000000,4.000000,4.000000,4.000000,100.000000
1602006308.194790,101.000000,0.000000,4139.487305,4130.769043,4123.077148,4127.179688,4120.000000,4135.384766,4133.333496,4121.538574,4115.897461,4120.000000,4127.692383,4140.000000,4130.256348,4135.384766,743.000000,4.000000,,,,0.000000,4.000000,4.000000,4.000000,4.000000,4.000000,4.000000,4.000000,4.000000,4.000000,4.000000,4.000000,4.000000,4.000000,4.000000,100.000000
1602006308.202672,102.000000,0.000000,4143.589844,4136.410156,4133.846191,4136.922852,4121.538574,4117.436035,4122.051270,4114.358887,4104.615234,4136.922852,4146.153809,4152.307617,4139.487305,4139.487305,872.000000,4.000000,,,,0.000000,4.000000,4.000000,4.000000,4.000000,4.000000,4.000000,4.000000,4.000000,4.000000,4.000000,4.000000,4.000000,4.000000,4.000000,100.000000
1602006308.210553,103.000000,0.000000,4149.230957,4136.922852,4142.563965,4138.461426,4121.538574,4101.025879,4115.384766,4115.384766,4105.128418,4137.436035,4145.641113,4157.436035,4137.948730,4146.153809,798.000000,4.000000,,,,0.000000,4.000000,4.000000,4.000000,4.000000,4.000000,4.000000,4.000000,4.000000,4.000000,4.000000,4.000000,4.000000,4.000000,4.000000,100.000000
1602006308.218434,104.000000,0.000000,4153.846191,4134.871582,4138.974121,4137.436035,4129.230957,4101.538574,4115.384766,4123.077148,4118.974121,4129.743652,4137.436035,4155.897461,4134.871582,4151.794922,769.000000,4.000000,,,,0.000000,4.000000,4.000000,4.000000,4.000000,4.000000,4.000000,4.000000,4.000000,4.000000,4.000000,4.000000,4.000000,4.000000,4.000000,100.000000
1602006308.226316,105.000000,0.000000,4146.153809,4132.820313,4133.846191,4135.897461,4138.461426,4104.102539,4112.307617,4127.692383,4120.000000,4133.846191,4144.615234,4155.897461,4140.512695,4145.641113,743.000000,4.000000,,,,0.000000,4.000000,4.000000,4.000000,4.000000,4.000000,4.000000,4.000000,4.000000,4.000000,4.000000,4.000000,4.000000,4.000000,4.000000,100.000000
1602006308.234197,106.000000,0.000000,4131.282227,4124.615234,4131.794922,4126.666504,4135.897461,4103.077148,4108.717773,4126.153809,4107.692383,4121.025879,4143.077148,4151.282227,4137.436035,4133.333496,872.000000,4.000000,,,,0.000000,4.000000,4.000000,4.000000,4.000000,4.000000,4.000000,4.000000,4.000000,4.000000,4.000000,4.000000,4.000000,4.000000,4.000000,100.000000
1602006308.242079,107.000000,0.000000,4121.025879,4119.487305,4124.615234,4120.000000,4131.282227,4112.307617,4114.871582,4122.563965,4104.615234,4104.102539,4121.025879,4135.897461,4118.461426,4123.077148,798.000000,4.000000,,,,0.000000,4.000000,4.000000,4.000000,4.000000,4.000000,4.000000,4.000000,4.000000,4.000000,4.000000,4.000000,4.000000,4.000000,4.000000,100.000000
1602006308.249960,108.000000,0.000000,4113.333496,4120.000000,4111.794922,4121.538574,4135.384766,4130.769043,4123.077148,4118.974121,4110.769043,4114.358887,4113.846191,4122.563965,4104.615234,4113.333496,769.000000,4.000000,,,,0.000000,4.000000,4.000000,4.000000,4.000000,4.000000,4.000000,4.000000,4.000000,4.000000,4.000000,4.000000,4.000000,4.000000,4.000000,100.000000
1602006308.257741,109.000000,0.000000,4109.743652,4112.820313,4102.563965,4122.563965,4140.512695,4146.666504,4123.589844,4118.461426,4111.282227,4133.846191,4119.487305,4120.000000,4102.563965,4108.205078,743.000000,4.000000,,,,0.000000,4.000000,4.000000,4.000000,4.000000,4.000000,4.000000,4.000000,4.000000,4.000000,4.000000,4.000000,4.000000,4.000000,4.000000,100.000000
1602006308.265622,110.000000,0.000000,4114.358887,4111.794922,4107.692383,4124.102539,4140.000000,4153.846191,4123.589844,4122.051270,4107.692383,4147.179688,4118.461426,4125.128418,4106.153809,4104.102539,872.000000,4.000000,,,,0.000000,4.000000,4.000000,4.000000,4.000000,4.000000,4.000000,4.000000,4.000000,4.000000,4.000000,4.000000,4.000000,4.000000,4.000000,100.000000
1602006308.273504,111.000000,0.000000,4117.436035,4120.512695,4116.410156,4123.589844,4140.000000,4152.307617,4127.179688,4125.641113,4105.641113,4140.512695,4125.641113,4133.333496,4112.820313,4104.615234,798.000000,4.000000,,,,0.000000,4.000000,4.000000,4.000000,4.000000,4.000000,4.000000,4.000000,4.000000,4.000000,4.000000,4.000000,4.000000,4.000000,4.000000,100.000000
1602006308.281385,112.000000,0.000000,4125.641113,4125.128418,4118.461426,4124.615234,4141.025879,4139.487305,4127.179688,4126.153809,4107.179688,4117.436035,4143.077148,4144.615234,4120.512695,4125.641113,769.000000,4.000000,,,,0.000000,4.000000,4.000000,4.000000,4.000000,4.000000,4.000000,4.000000,4.000000,4.000000,4.000000,4.000000,4.000000,4.000000,4.000000,100.000000
1602006308.289266,113.000000,0.000000,4142.051270,4130.769043,4128.205078,4133.846191,4139.487305,4125.641113,4126.153809,4129.743652,4110.769043,4111.282227,4142.051270,4160.512695,4127.692383,4150.769043,743.000000,4.000000,,,,0.000000,4.000000,4.000000,4.000000,4.000000,4.000000,4.000000,4.000000,4.000000,4.000000,4.000000,4.000000,4.000000,4.000000,4.000000,100.000000
1602006308.297047,114.000000,0.000000,4144.615234,4141.025879,4146.666504,4140.512695,4136.922852,4117.948730,4128.205078,4135.897461,4112.307617,4120.512695,4134.871582,4172.307617,4134.358887,4154.871582,872.000000,4.000000,,,,0.000000,4.000000,4.000000,4.000000,4.000000,4.000000,4.000000,4.000000,4.000000,4.000000,4.000000,4.000000,4.000000,4.000000,4.000000,100.000000
1602006308.304929,115.000000,0.000000,4138.974121,4142.563965,4157.948730,4139.487305,4136.410156,4109.230957,4128.717773,4137.948730,4116.922852,4132.307617,4150.769043,4175.897461,4141.538574,4160.000000,798.000000,4.000000,,,,0.000000,4.000000,4.000000,4.000000,4.000000,4.000000,4.000000,4.000000,4.000000,4.000000,4.000000,4.000000,4.000000,4.000000,4.000000,100.000000
1602006308.312810,116.000000,0.000000,4145.641113,4133.846191,4156.922852,4137.436035,4132.820313,4098.461426,4124.615234,4133.333496,4119.487305,4139.487305,4155.897461,4174.871582,4137.436035,4168.717773,769.000000,4.000000,,,,0.000000,4.000000,4.000000,4.000000,4.000000,4.000000,4.000000,4.000000,4.000000,4.000000,4.000000,4.000000,4.000000,4.000000,4.000000,100.000000
1602006308.320692,117.000000,0.000000,4152.820313,4128.717773,4151.282227,4132.820313,4126.666504,4100.512695,4120.512695,4130.256348,4116.922852,4131.282227,4138.974121,4168.717773,4125.128418,4159.487305,743.000000,4.000000,,,,0.000000,4.000000,4.000000,4.000000,4.000000,4.000000,4.000000,4.000000,4.000000,4.000000,4.000000,4.000000,4.000000,4.000000,4.000000,100.000000
1602006308.328573,118.000000,0.000000,4142.051270,4124.615234,4141.025879,4124.102539,4124.102539,4116.410156,4122.563965,4131.794922,4120.000000,4128.717773,4135.897461,4159.487305,4123.077148,4146.666504,872.000000,4.000000,,,,0.000000,4.000000,4.000000,4.000000,4.000000,4.000000,4.000000,4.000000,4.000000,4.000000,4.000000,4.000000,4.000000,4.000000,4.000000,100.000000
1602006308.336454,119.000000,0.000000,4128.717773,4121.025879,4132.820313,4118.974121,4127.179688,4127.179688,4126.666504,4137.436035,4121.538574,4139.487305,4145.641113,4155.897461,4126.666504,4144.615234,798.000000,4.000000,,,,0.000000,4.000000,4.000000,4.000000,4.000000,4.000000,4.000000,4.000000,4.000000,4.000000,4.000000,4.000000,4.000000,4.000000,4.000000,100.000000
1602006308.344336,120.000000,0.000000,4130.769043,4120.000000,4135.384766,4120.000000,4126.666504,4124.615234,4126.153809,4136.922852,4112.307617,4136.922852,4143.589844,4156.410156,4125.641113,4138.974121,769.000000,4.000000,,,,0.000000,4.000000,4.000000,4.000000,4.000000,4.000000,4.000000,4.000000,4.000000,4.000000,4.000000,4.000000,4.000000,4.000000,4.000000,100.000000
1602006308.352117,121.000000,0.000000,4138.461426,4121.025879,4140.512695,4123.077148,4123.077148,4121.538574,4125.641113,4129.230957,4103.077148,4122.051270,4133.846191,4151.794922,4123.589844,4138.461426,743.000000,4.000000,,,,0.000000,4.000000,4.000000,4.000000,4.000000,4.000000,4.000000,4.000000,4.000000,4.000000,4.000000,4.000000,4.000000,4.000000,4.000000,100.000000
1602006308.359998,122.000000,0.000000,4140.000000,4121.538574,4144.615234,4126.666504,4129.230957,4128.205078,4130.256348,4129.230957,4104.615234,4122.563965,4138.974121,4151.794922,4127.179688,4154.871582,872.000000,4.000000,,,,0.000000,4.000000,4.000000,4.000000,4.000000,4.000000,4.000000,4.000000,4.000000,4.000000,4.000000,4.000000,4.000000,4.000000,4.000000,100.000000
1602006308.367879,123.000000,0.000000,4144.102539,4123.077148,4150.769043,4127.179688,4136.922852,4123.589844,4129.230957,4135.384766,4112.307617,4120.512695,4144.102539,4161.025879,4131.282227,4161.025879,798.000000,4.000000,,,,0.000000,4.000000,4.000000,4.000000,4.000000,4.000000,4.000000,4.000000,4.000000,4.000000,4.000000,4.000000,4.000000,4.000000,4.000000,100.000000
1602006308.375761,124.000000,0.000000,4157.948730,4131.794922,4158.461426,4129.230957,4135.897461,4104.615234,4121.538574,4139.487305,4120.512695,4096.922852,4139.487305,4170.769043,4136.410156,4158.461426,769.000000,4.000000,,,,0.000000,4.000000,4.000000,4.000000,4.000000,4.000000,4.000000,4.000000,4.000000,4.000000,4.000000,4.000000,4.000000,4.000000,4.000000,100.000000
1602006308.383642,125.000000,0.000000,4165.641113,4136.922852,4157.436035,4132.820313,4135.384766,4108.205078,4119.487305,4136.410156,4124.102539,4092.820557,4147.692383,4172.307617,4145.128418,4161.538574,743.000000,4.000000,,,,0.000000,4.000000,4.000000,4.000000,4.000000,4.000000,4.000000,4.000000,4.000000,4.000000,4.000000,4.000000,4.000000,4.000000,4.000000,100.000000
1602006308.391523,126.000000,0.000000,4149.230957,4126.666504,4140.000000,4121.025879,4140.000000,4127.179688,4119.487305,4125.641113,4125.641113,4126.153809,4157.948730,4159.487305,4137.948730,4146.153809,872.000000,4.000000,,,,0.000000,4.000000,4.000000,4.000000,4.000000,4.000000,4.000000,4.000000,4.000000,4.000000,4.000000,4.000000,4.000000,4.000000,4.000000,100.000000
1602006308.399304,127.000000,0.000000,4129.230957,4116.922852,4121.538574,4109.743652,4139.487305,4125.128418,4115.384766,4119.487305,4123.077148,4142.563965,4141.025879,4140.512695,4116.410156,4122.051270,798.000000,4.000000,,,,0.000000,4.000000,4.000000,4.000000,4.000000,4.000000,4.000000,4.000000,4.000000,4.000000,4.000000,4.000000,4.000000,4.000000,4.000000,100.000000
1602006308.407186,128.000000,0.000000,4122.563965,4123.589844,4118.461426,4119.487305,4137.948730,4118.974121,4119.487305,4124.102539,4117.948730,4128.717773,4117.436035,4136.922852,4106.666504,4120.512695,769.000000,4.000000,,,,0.000000,4.000000,4.000000,4.000000,4.000000,4.000000,4.000000,4.000000,4.000000,4.000000,4.000000,4.000000,4.000000,4.000000,4.000000,100.000000
1602006308.415067,0.000000,0.000000,4113.846191,4121.538574,4123.077148,4122.563965,4140.000000,4133.333496,4133.846191,4129.743652,4122.563965,4138.461426,4120.512695,4148.205078,4110.256348,4123.077148,795.000000,4.000000,,,,0.000000,4.000000,4.000000,4.000000,4.000000,4.000000,4.000000,4.000000,4.000000,4.000000,4.000000,4.000000,4.000000,4.000000,4.000000,100.000000
1602006308.422949,1.000000,0.000000,4102.563965,4105.641113,4114.871582,4105.641113,4134.358887,4136.410156,4136.410156,4124.102539,4122.051270,4134.358887,4127.692383,4145.641113,4107.179688,4109.743652,789.000000,4.000000,,,,0.000000,4.000000,4.000000,4.000000,4.000000,4.000000,4.000000,4.000000,4.000000,4.000000,4.000000,4.000000,4.000000,4.000000,4.000000,100.000000
1602006308.430830,2.000000,0.000000,4110.256348,4106.666504,4107.179688,4105.128418,4129.743652,4123.077148,4128.205078,4118.461426,4101.025879,4082.564209,4118.461426,4133.333496,4103.589844,4104.615234,850.000000,4.000000,,,,0.000000,4.000000,4.000000,4.000000,4.000000,4.000000,4.000000,4.000000,4.000000,4.000000,4.000000,4.000000,4.000000,4.000000,4.000000,100.000000
1602006308.438711,3.000000,0.000000,4126.153809,4121.538574,4114.358887,4123.077148,4135.384766,4120.512695,4126.666504,4121.025879,4096.922852,4082.564209,4116.410156,4143.589844,4115.897461,4112.307617,868.000000,4.000000,,,,0.000000,4.000000,4.000000,4.000000,4.000000,4.000000,4.000000,4.000000,4.000000,4.000000,4.000000,4.000000,4.000000,4.000000,4.000000,100.000000
1602006308.446493,4.000000,0.000000,4129.230957,4127.179688,4124.615234,4125.641113,4137.948730,4121.538574,4125.641113,4124.102539,4123.077148,4145.128418,4129.743652,4165.641113,4129.743652,4124.102539,812.000000,4.000000,,,,0.000000,4.000000,4.000000,4.000000,4.000000,4.000000,4.000000,4.000000,4.000000,4.000000,4.000000,4.000000,4.000000,4.000000,4.000000,100.000000
1602006308.454375,5.000000,0.000000,4131.282227,4129.743652,4131.282227,4123.589844,4133.333496,4115.897461,4114.871582,4124.615234,4138.461426,4165.641113,4143.589844,4172.820313,4136.922852,4138.461426,820.000000,4.000000,,,,0.000000,4.000000,4.000000,4.000000,4.000000,4.000000,4.000000,4.000000,4.000000,4.000000,4.000000,4.000000,4.000000,4.000000,4.000000,100.000000
1602006308.462256,6.000000,0.000000,4138.461426,4136.922852,4137.948730,4135.384766,4138.461426,4116.410156,4105.641113,4125.128418,4142.563965,4149.743652,4152.307617,4169.230957,4147.692383,4145.128418,771.000000,4.000000,,,,0.000000,4.000000,4.000000,4.000000,4.000000,4.000000,4.000000,4.000000,4.000000,4.000000,4.000000,4.000000,4.000000,4.000000,4.000000,100.000000
1602006308.470138,7.000000,0.000000,4144.102539,4146.666504,4142.563965,4146.153809,4149.743652,4127.692383,4111.794922,4129.230957,4154.358887,4158.974121,4151.794922,4169.230957,4158.461426,4139.487305,675.000000,4.000000,,,,0.000000,4.000000,4.000000,4.000000,4.000000,4.000000,4.000000,4.000000,4.000000,4.000000,4.000000,4.000000,4.000000,4.000000,4.000000,100.000000
1602006308.478020,8.000000,0.000000,4147.692383,4151.794922,4140.512695,4141.538574,4147.179688,4136.922852,4120.000000,4131.794922,4155.384766,4156.922852,4146.666504,4169.743652,4158.461426,4138.974121,783.000000,4.000000,,,,0.000000,4.000000,4.000000,4.000000,4.000000,4.000000,4.000000,4.000000,4.000000,4.000000,4.000000,4.000000,4.000000,4.000000,4.000000,100.000000
1602006308.485901,9.000000,0.000000,4148.717773,4146.666504,4137.436035,4137.436035,4139.487305,4139.487305,4121.025879,4127.179688,4139.487305,4120.512695,4149.230957,4166.153809,4153.333496,4143.077148,838.000000,4.000000,,,,0.000000,4.000000,4.000000,4.000000,4.000000,4.000000,4.000000,4.000000,4.000000,4.000000,4.000000,4.000000,4.000000,4.000000,4.000000,100.000000
1602006308.493783,10.000000,0.000000,4149.743652,4140.000000,4137.436035,4140.000000,4141.025879,4136.410156,4124.102539,4123.589844,4133.846191,4114.871582,4159.487305,4166.153809,4152.820313,4143.077148,872.000000,4.000000,,,,0.000000,4.000000,4.000000,4.000000,4.000000,4.000000,4.000000,4.000000,4.000000,4.000000,4.000000,4.000000,4.000000,4.000000,4.000000,100.000000
1602006308.501665,11.000000,0.000000,4153.333496,4141.538574,4140.512695,4134.871582,4143.077148,4131.282227,4128.205078,4125.641113,4133.333496,4143.077148,4155.897461,4169.743652,4149.230957,4142.563965,827.000000,4.000000,,,,0.000000,4.000000,4.000000,4.000000,4.000000,4.000000,4.000000,4.000000,4.000000,4.000000,4.000000,4.000000,4.000000,4.000000,4.000000,100.000000
1602006308.509646,12.000000,0.000000,4143.589844,4133.846191,4136.410156,4124.102539,4132.307617,4117.436035,4124.615234,4120.000000,4107.692383,4141.025879,4136.410156,4164.615234,4134.871582,4134.871582,769.000000,4.000000,,,,0.000000,4.000000,4.000000,4.000000,4.000000,4.000000,4.000000,4.000000,4.000000,4.000000,4.000000,4.000000,4.000000,4.000000,4.000000,100.000000
1602006308.517528,13.000000,0.000000,4124.102539,4119.487305,4124.615234,4121.025879,4121.025879,4103.077148,4120.512695,4109.230957,4077.435791,4108.717773,4131.282227,4160.512695,4125.128418,4126.153809,743.000000,4.000000,,,,0.000000,4.000000,4.000000,4.000000,4.000000,4.000000,4.000000,4.000000,4.000000,4.000000,4.000000,4.000000,4.000000,4.000000,4.000000,100.000000
1602006308.525410,14.000000,0.000000,4119.487305,4120.000000,4122.563965,4122.563965,4122.563965,4110.769043,4119.487305,4112.307617,4082.564209,4097.436035,4133.846191,4166.666504,4126.153809,4123.589844,872.000000,4.000000,,,,0.000000,4.000000,4.000000,4.000000,4.000000,4.000000,4.000000,4.000000,4.000000,4.000000,4.000000,4.000000,4.000000,4.000000,4.000000,100.000000
1602006308.533291,15.000000,0.000000,4132.307617,4125.128418,4125.641113,4123.077148,4124.615234,4120.000000,4112.307617,4122.563965,4105.128418,4112.307617,4129.230957,4168.717773,4127.179688,4121.538574,827.000000,4.000000,,,,0.000000,4.000000,4.000000,4.000000,4.000000,4.000000,4.000000,4.000000,4.000000,4.000000,4.000000,4.000000,4.000000,4.000000,4.000000,100.000000
1602006308.541173,16.000000,0.000000,4144.615234,4123.077148,4123.077148,4123.589844,4124.615234,4110.769043,4106.666504,4122.051270,4119.487305,4110.256348,4130.256348,4160.512695,4125.128418,4120.512695,0.000000,4.000000,,,,0.000000,4.000000,4.000000,4.000000,4.000000,4.000000,4.000000,4.000000,4.000000,4.000000,4.000000,4.000000,4.000000,4.000000,4.000000,100.000000
1602006308.549054,17.000000,0.000000,4138.461426,4121.538574,4121.025879,4121.538574,4130.256348,4112.820313,4111.794922,4122.563965,4130.256348,4092.820557,4138.461426,4153.333496,4124.615234,4122.563965,0.000000,4.000000,,,,0.000000,4.000000,4.000000,4.000000,4.000000,4.000000,4.000000,4.000000,4.000000,4.000000,4.000000,4.000000,4.000000,4.000000,4.000000,100.000000
1602006308.556936,18.000000,0.000000,4124.615234,4121.538574,4122.051270,4116.410156,4134.871582,4123.077148,4112.820313,4132.820313,4138.974121,4101.538574,4137.948730,4150.256348,4122.563965,4120.512695,0.000000,4.000000,,,,0.000000,4.000000,4.000000,4.000000,4.000000,4.000000,4.000000,4.000000,4.000000,4.000000,4.000000,4.000000,4.000000,4.000000,4.000000,100.000000
1602006308.564818,19.000000,0.000000,4125.641113,4120.512695,4120.000000,4119.487305,4133.846191,4117.948730,4108.717773,4138.461426,4145.641113,4130.256348,4136.410156,4150.769043,4119.487305,4123.077148,0.000000,4.000000,,,,0.000000,4.000000,4.000000,4.000000,4.000000,4.000000,4.000000,4.000000,4.000000,4.000000,4.000000,4.000000,4.000000,4.000000,4.000000,100.000000
1602006308.572699,20.000000,0.000000,4138.461426,4125.641113,4123.077148,4127.179688,4137.436035,4114.871582,4111.282227,4137.948730,4156.410156,4140.512695,4142.563965,4157.948730,4128.205078,4134.358887,0.000000,4.000000,,,,0.000000,4.000000,4.000000,4.000000,4.000000,4.000000,4.000000,4.000000,4.000000,4.000000,4.000000,4.000000,4.000000,4.000000,4.000000,100.000000
1602006308.580680,21.000000,0.000000,4141.025879,4133.846191,4131.794922,4126.153809,4141.025879,4114.871582,4111.794922,4137.436035,4157.436035,4138.461426,4141.538574,4161.025879,4138.461426,4139.487305,0.000000,4.000000,,,,0.000000,4.000000,4.000000,4.000000,4.000000,4.000000,4.000000,4.000000,4.000000,4.000000,4.000000,4.000000,4.000000,4.000000,4.000000,100.000000
1602006308.588562,22.000000,0.000000,4134.871582,4137.948730,4134.358887,4124.102539,4139.487305,4109.230957,4110.256348,4136.922852,4138.974121,4140.512695,4137.948730,4155.384766,4139.487305,4137.948730,0.000000,4.000000,,,,0.000000,4.000000,4.000000,4.000000,4.000000,4.000000,4.000000,4.000000,4.000000,4.000000,4.000000,4.000000,4.000000,4.000000,4.000000,100.000000
1602006308.596443,23.000000,0.000000,4138.461426,4141.025879,4134.358887,4130.256348,4141.538574,4114.358887,4116.922852,4132.307617,4121.025879,4138.974121,4140.512695,4152.820313,4142.051270,4130.256348,0.000000,4.000000,,,,0.000000,4.000000,4.000000,4.000000,4.000000,4.000000,4.000000,4.000000,4.000000,4.000000,4.000000,4.000000,4.000000,4.000000,4.000000,100.000000
1602006308.604324,24.000000,0.000000,4143.077148,4138.461426,4132.820313,4130.769043,4142.051270,4123.077148,4122.051270,4124.615234,4110.256348,4124.615234,4140.512695,4158.461426,4144.102539,4115.384766,0.000000,4.000000,,,,0.000000,4.000000,4.000000,4.000000,4.000000,4.000000,4.000000,4.000000,4.000000,4.000000,4.000000,4.000000,4.000000,4.000000,4.000000,100.000000
1602006308.612105,25.000000,0.000000,4138.974121,4131.282227,4128.717773,4123.589844,4135.384766,4122.563965,4120.512695,4124.102539,4103.589844,4103.589844,4138.974121,4162.563965,4137.436035,4122.051270,0.000000,4.000000,,,,0.000000,4.000000,4.000000,4.000000,4.000000,4.000000,4.000000,4.000000,4.000000,4.000000,4.000000,4.000000,4.000000,4.000000,4.000000,100.000000
1602006308.619986,26.000000,0.000000,4137.436035,4127.692383,4129.230957,4124.102539,4134.358887,4126.666504,4124.102539,4125.128418,4104.102539,4102.051270,4139.487305,4160.000000,4128.205078,4147.692383,0.000000,4.000000,,,,0.000000,4.000000,4.000000,4.000000,4.000000,4.000000,4.000000,4.000000,4.000000,4.000000,4.000000,4.000000,4.000000,4.000000,4.000000,100.000000
