Timestamp,EEG.Counter,EEG.Interpolated,EEG.AF3,EEG.F7,EEG.F3,EEG.FC5,EEG.T7,EEG.P7,EEG.O1,EEG.O2,EEG.P8,EEG.T8,EEG.FC6,EEG.F4,EEG.F8,EEG.AF4,EEG.RawCq,EEG.Battery,MarkerIndex,MarkerType,MarkerValueInt,EEG.MarkerHardware,CQ.AF3,CQ.F7,CQ.F3,CQ.FC5,CQ.T7,CQ.P7,CQ.O1,CQ.O2,CQ.P8,CQ.T8,CQ.FC6,CQ.F4,CQ.F8,CQ.AF4,CQ.Overall
1602006327.540762,105.000000,0.000000,4129.743652,4119.487305,4136.922852,4127.179688,4127.179688,4120.512695,4134.871582,4115.897461,4096.922852,4137.948730,4125.128418,4140.000000,4119.487305,4138.974121,742.000000,4.000000,,,,0.000000,4.000000,4.000000,4.000000,4.000000,4.000000,4.000000,4.000000,4.000000,4.000000,4.000000,4.000000,4.000000,4.000000,4.000000,100.000000
1602006327.548743,106.000000,0.000000,4134.358887,4125.128418,4142.563965,4133.846191,4135.384766,4132.307617,4137.436035,4131.794922,4107.692383,4130.769043,4135.384766,4152.307617,4125.128418,4144.615234,872.000000,4.000000,,,,0.000000,4.000000,4.000000,4.000000,4.000000,4.000000,4.000000,4.000000,4.000000,4.000000,4.000000,4.000000,4.000000,4.000000,4.000000,100.000000
1602006327.556625,107.000000,0.000000,4128.717773,4122.563965,4135.384766,4127.179688,4138.974121,4140.000000,4143.077148,4144.102539,4112.307617,4115.384766,4125.641113,4149.230957,4128.205078,4140.000000,837.000000,4.000000,,,,0.000000,4.000000,4.000000,4.000000,4.000000,4.000000,4.000000,4.000000,4.000000,4.000000,4.000000,4.000000,4.000000,4.000000,4.000000,100.000000
1602006327.564506,108.000000,0.000000,4117.948730,4114.871582,4121.025879,4120.512695,4135.384766,4138.974121,4143.077148,4141.025879,4116.922852,4125.641113,4120.000000,4131.794922,4112.820313,4121.538574,768.000000,4.000000,,,,0.000000,4.000000,4.000000,4.000000,4.000000,4.000000,4.000000,4.000000,4.000000,4.000000,4.000000,4.000000,4.000000,4.000000,4.000000,100.000000
1602006327.572388,109.000000,0.000000,4122.051270,4121.025879,4121.538574,4124.615234,4135.897461,4142.051270,4138.974121,4136.410156,4123.589844,4140.512695,4120.000000,4124.102539,4105.128418,4109.230957,742.000000,4.000000,,,,0.000000,4.000000,4.000000,4.000000,4.000000,4.000000,4.000000,4.000000,4.000000,4.000000,4.000000,4.000000,4.000000,4.000000,4.000000,100.000000
1602006327.580270,110.000000,0.000000,4127.179688,4129.230957,4122.563965,4125.641113,4147.179688,4149.743652,4146.153809,4136.922852,4124.615234,4142.563965,4101.538574,4121.025879,4106.153809,4113.846191,872.000000,4.000000,,,,0.000000,4.000000,4.000000,4.000000,4.000000,4.000000,4.000000,4.000000,4.000000,4.000000,4.000000,4.000000,4.000000,4.000000,4.000000,100.000000
1602006327.588151,111.000000,0.000000,4117.948730,4125.641113,4120.000000,4121.025879,4155.384766,4148.205078,4151.282227,4131.794922,4117.436035,4131.282227,4093.846191,4114.871582,4103.589844,4117.436035,837.000000,4.000000,,,,0.000000,4.000000,4.000000,4.000000,4.000000,4.000000,4.000000,4.000000,4.000000,4.000000,4.000000,4.000000,4.000000,4.000000,4.000000,100.000000
1602006327.596033,112.000000,0.000000,4113.333496,4121.538574,4126.666504,4123.589844,4149.743652,4142.563965,4143.589844,4124.102539,4109.743652,4107.179688,4113.333496,4119.487305,4106.666504,4118.461426,768.000000,4.000000,,,,0.000000,4.000000,4.000000,4.000000,4.000000,4.000000,4.000000,4.000000,4.000000,4.000000,4.000000,4.000000,4.000000,4.000000,4.000000,100.000000
1602006327.603915,113.000000,0.000000,4127.179688,4129.230957,4137.436035,4133.846191,4145.128418,4143.077148,4140.512695,4123.077148,4109.230957,4096.410156,4124.102539,4135.897461,4117.436035,4130.769043,742.000000,4.000000,,,,0.000000,4.000000,4.000000,4.000000,4.000000,4.000000,4.000000,4.000000,4.000000,4.000000,4.000000,4.000000,4.000000,4.000000,4.000000,100.000000
1602006327.611796,114.000000,0.000000,4141.538574,4138.974121,4145.641113,4140.000000,4151.794922,4142.563965,4144.102539,4124.102539,4115.897461,4107.692383,4123.589844,4152.820313,4126.666504,4144.615234,872.000000,4.000000,,,,0.000000,4.000000,4.000000,4.000000,4.000000,4.000000,4.000000,4.000000,4.000000,4.000000,4.000000,4.000000,4.000000,4.000000,4.000000,100.000000
1602006327.619678,115.000000,0.000000,4142.563965,4138.974121,4153.846191,4136.922852,4148.205078,4139.487305,4140.000000,4122.051270,4117.948730,4118.461426,4133.333496,4163.077148,4140.000000,4152.307617,837.000000,4.000000,,,,0.000000,4.000000,4.000000,4.000000,4.000000,4.000000,4.000000,4.000000,4.000000,4.000000,4.000000,4.000000,4.000000,4.000000,4.000000,100.000000
1602006327.627459,116.000000,0.000000,4140.512695,4133.333496,4159.487305,4136.410156,4138.974121,4141.538574,4138.461426,4122.051270,4119.487305,4134.871582,4139.487305,4169.743652,4153.846191,4158.974121,768.000000,4.000000,,,,0.000000,4.000000,4.000000,4.000000,4.000000,4.000000,4.000000,4.000000,4.000000,4.000000,4.000000,4.000000,4.000000,4.000000,4.000000,100.000000
1602006327.635341,117.000000,0.000000,4131.794922,4125.128418,4151.794922,4134.358887,4138.974121,4142.563965,4144.102539,4122.051270,4124.102539,4152.820313,4130.256348,4169.743652,4144.102539,4145.128418,742.000000,4.000000,,,,0.000000,4.000000,4.000000,4.000000,4.000000,4.000000,4.000000,4.000000,4.000000,4.000000,4.000000,4.000000,4.000000,4.000000,4.000000,100.000000
1602006327.643222,118.000000,0.000000,4123.589844,4118.974121,4140.512695,4123.589844,4131.282227,4136.922852,4142.563965,4123.077148,4129.230957,4147.692383,4124.102539,4158.974121,4124.102539,4121.025879,872.000000,4.000000,,,,0.000000,4.000000,4.000000,4.000000,4.000000,4.000000,4.000000,4.000000,4.000000,4.000000,4.000000,4.000000,4.000000,4.000000,4.000000,100.000000
1602006327.651104,119.000000,0.000000,4129.743652,4120.000000,4141.025879,4120.000000,4125.128418,4137.948730,4141.025879,4132.307617,4137.948730,4135.897461,4130.256348,4153.333496,4123.589844,4121.538574,837.000000,4.000000,,,,0.000000,4.000000,4.000000,4.000000,4.000000,4.000000,4.000000,4.000000,4.000000,4.000000,4.000000,4.000000,4.000000,4.000000,4.000000,100.000000
1602006327.658985,120.000000,0.000000,4130.769043,4122.051270,4134.871582,4123.077148,4134.871582,4138.461426,4141.538574,4139.487305,4144.102539,4133.333496,4126.666504,4150.256348,4121.025879,4127.179688,768.000000,4.000000,,,,0.000000,4.000000,4.000000,4.000000,4.000000,4.000000,4.000000,4.000000,4.000000,4.000000,4.000000,4.000000,4.000000,4.000000,4.000000,100.000000
1602006327.666866,121.000000,0.000000,4125.128418,4124.102539,4125.128418,4126.666504,4138.461426,4130.256348,4137.436035,4140.000000,4146.153809,4126.153809,4117.436035,4139.487305,4109.230957,4117.948730,742.000000,4.000000,,,,0.000000,4.000000,4.000000,4.000000,4.000000,4.000000,4.000000,4.000000,4.000000,4.000000,4.000000,4.000000,4.000000,4.000000,4.000000,100.000000
1602006327.674748,122.000000,0.000000,4133.333496,4134.871582,4129.230957,4134.358887,4132.307617,4123.077148,4136.410156,4142.563965,4152.820313,4120.512695,4120.512695,4133.846191,4114.358887,4116.410156,872.000000,4.000000,,,,0.000000,4.000000,4.000000,4.000000,4.000000,4.000000,4.000000,4.000000,4.000000,4.000000,4.000000,4.000000,4.000000,4.000000,4.000000,100.000000
1602006327.682629,123.000000,0.000000,4143.077148,4144.102539,4138.974121,4140.512695,4135.897461,4121.025879,4136.922852,4145.128418,4156.410156,4123.077148,4119.487305,4135.897461,4125.641113,4124.102539,837.000000,4.000000,,,,0.000000,4.000000,4.000000,4.000000,4.000000,4.000000,4.000000,4.000000,4.000000,4.000000,4.000000,4.000000,4.000000,4.000000,4.000000,100.000000
1602006327.690610,124.000000,0.000000,4142.051270,4144.615234,4140.000000,4143.589844,4135.897461,4118.974121,4131.794922,4141.025879,4142.051270,4122.563965,4106.666504,4136.922852,4125.641113,4122.563965,768.000000,4.000000,,,,0.000000,4.000000,4.000000,4.000000,4.000000,4.000000,4.000000,4.000000,4.000000,4.000000,4.000000,4.000000,4.000000,4.000000,4.000000,100.000000
1602006327.698491,125.000000,0.000000,4137.436035,4143.077148,4142.563965,4141.538574,4124.615234,4119.487305,4130.769043,4131.282227,4120.000000,4120.000000,4100.512695,4140.512695,4124.102539,4118.461426,742.000000,4.000000,,,,0.000000,4.000000,4.000000,4.000000,4.000000,4.000000,4.000000,4.000000,4.000000,4.000000,4.000000,4.000000,4.000000,4.000000,4.000000,100.000000
1602006327.706373,126.000000,0.000000,4122.563965,4136.410156,4138.974121,4129.743652,4126.153809,4121.538574,4136.410156,4123.077148,4107.692383,4112.307617,4109.230957,4144.102539,4117.948730,4122.051270,872.000000,4.000000,,,,0.000000,4.000000,4.000000,4.000000,4.000000,4.000000,4.000000,4.000000,4.000000,4.000000,4.000000,4.000000,4.000000,4.000000,4.000000,100.000000
1602006327.714254,127.000000,0.000000,4111.794922,4123.077148,4128.717773,4123.077148,4135.897461,4125.128418,4134.871582,4120.512695,4103.077148,4101.538574,4112.307617,4140.512695,4104.102539,4122.051270,837.000000,4.000000,,,,0.000000,4.000000,4.000000,4.000000,4.000000,4.000000,4.000000,4.000000,4.000000,4.000000,4.000000,4.000000,4.000000,4.000000,4.000000,100.000000
1602006327.722135,128.000000,0.000000,4118.461426,4119.487305,4131.282227,4127.692383,4140.512695,4134.871582,4127.179688,4123.589844,4102.051270,4101.025879,4108.717773,4140.512695,4107.692383,4118.461426,768.000000,4.000000,,,,0.000000,4.000000,4.000000,4.000000,4.000000,4.000000,4.000000,4.000000,4.000000,4.000000,4.000000,4.000000,4.000000,4.000000,4.000000,100.000000
1602006327.730016,0.000000,0.000000,4125.128418,4122.563965,4138.461426,4125.641113,4143.077148,4137.948730,4125.128418,4128.205078,4112.307617,4106.153809,4114.358887,4148.205078,4123.077148,4128.205078,795.000000,4.000000,,,,0.000000,4.000000,4.000000,4.000000,4.000000,4.000000,4.000000,4.000000,4.000000,4.000000,4.000000,4.000000,4.000000,4.000000,4.000000,100.000000
1602006327.737797,1.000000,0.000000,4128.717773,4120.512695,4137.948730,4120.512695,4145.641113,4129.230957,4123.077148,4135.384766,4131.794922,4120.512695,4120.512695,4152.820313,4122.563965,4139.487305,788.000000,4.000000,,,,0.000000,4.000000,4.000000,4.000000,4.000000,4.000000,4.000000,4.000000,4.000000,4.000000,4.000000,4.000000,4.000000,4.000000,4.000000,100.000000
1602006327.745678,2.000000,0.000000,4131.794922,4120.000000,4132.307617,4126.153809,4149.230957,4125.128418,4122.051270,4139.487305,4139.487305,4138.461426,4121.538574,4154.871582,4120.000000,4133.333496,854.000000,4.000000,,,,0.000000,4.000000,4.000000,4.000000,4.000000,4.000000,4.000000,4.000000,4.000000,4.000000,4.000000,4.000000,4.000000,4.000000,4.000000,100.000000
1602006327.753559,3.000000,0.000000,4123.077148,4124.102539,4123.589844,4128.717773,4150.769043,4131.282227,4127.692383,4138.461426,4136.922852,4140.512695,4124.102539,4157.436035,4131.282227,4124.102539,869.000000,4.000000,,,,0.000000,4.000000,4.000000,4.000000,4.000000,4.000000,4.000000,4.000000,4.000000,4.000000,4.000000,4.000000,4.000000,4.000000,4.000000,100.000000
1602006327.761340,4.000000,0.000000,4112.820313,4123.077148,4117.436035,4123.589844,4143.589844,4136.922852,4130.256348,4135.897461,4145.128418,4135.384766,4125.641113,4150.769043,4141.538574,4126.666504,815.000000,4.000000,,,,0.000000,4.000000,4.000000,4.000000,4.000000,4.000000,4.000000,4.000000,4.000000,4.000000,4.000000,4.000000,4.000000,4.000000,4.000000,100.000000
1602006327.769221,5.000000,0.000000,4109.743652,4121.538574,4120.512695,4126.153809,4135.384766,4134.871582,4129.743652,4129.743652,4156.922852,4140.512695,4122.563965,4139.487305,4137.436035,4127.179688,824.000000,4.000000,,,,0.000000,4.000000,4.000000,4.000000,4.000000,4.000000,4.000000,4.000000,4.000000,4.000000,4.000000,4.000000,4.000000,4.000000,4.000000,100.000000
1602006327.777102,6.000000,0.000000,4107.692383,4124.615234,4121.025879,4129.743652,4136.410156,4128.205078,4134.358887,4129.743652,4154.358887,4143.077148,4124.615234,4138.461426,4127.692383,4122.563965,762.000000,4.000000,,,,0.000000,4.000000,4.000000,4.000000,4.000000,4.000000,4.000000,4.000000,4.000000,4.000000,4.000000,4.000000,4.000000,4.000000,4.000000,100.000000
1602006327.784883,7.000000,0.000000,4103.589844,4125.128418,4114.871582,4127.692383,4138.974121,4125.128418,4136.922852,4135.384766,4146.153809,4125.641113,4126.153809,4138.461426,4126.153809,4118.974121,664.000000,4.000000,,,,0.000000,4.000000,4.000000,4.000000,4.000000,4.000000,4.000000,4.000000,4.000000,4.000000,4.000000,4.000000,4.000000,4.000000,4.000000,100.000000
1602006327.792764,8.000000,0.000000,4102.563965,4121.538574,4114.358887,4122.051270,4138.461426,4125.128418,4131.282227,4135.384766,4139.487305,4107.692383,4120.000000,4125.641113,4123.077148,4111.282227,788.000000,4.000000,,,,0.000000,4.000000,4.000000,4.000000,4.000000,4.000000,4.000000,4.000000,4.000000,4.000000,4.000000,4.000000,4.000000,4.000000,4.000000,100.000000
1602006327.800645,9.000000,0.000000,4105.128418,4119.487305,4121.025879,4117.436035,4138.974121,4121.538574,4125.128418,4134.358887,4134.871582,4111.794922,4114.871582,4122.051270,4115.384766,4104.615234,839.000000,4.000000,,,,0.000000,4.000000,4.000000,4.000000,4.000000,4.000000,4.000000,4.000000,4.000000,4.000000,4.000000,4.000000,4.000000,4.000000,4.000000,100.000000
1602006327.808526,10.000000,0.000000,4106.666504,4121.538574,4130.256348,4121.025879,4145.128418,4121.025879,4126.153809,4134.871582,4138.461426,4126.666504,4124.102539,4143.077148,4124.102539,4113.846191,872.000000,4.000000,,,,0.000000,4.000000,4.000000,4.000000,4.000000,4.000000,4.000000,4.000000,4.000000,4.000000,4.000000,4.000000,4.000000,4.000000,4.000000,100.000000
1602006327.816307,11.000000,0.000000,4113.333496,4124.102539,4136.922852,4127.692383,4150.256348,4121.025879,4131.282227,4127.179688,4133.333496,4135.897461,4133.846191,4161.025879,4142.051270,4126.153809,837.000000,4.000000,,,,0.000000,4.000000,4.000000,4.000000,4.000000,4.000000,4.000000,4.000000,4.000000,4.000000,4.000000,4.000000,4.000000,4.000000,4.000000,100.000000
1602006327.824188,12.000000,0.000000,4121.538574,4123.077148,4134.871582,4126.153809,4143.077148,4120.512695,4135.384766,4118.974121,4117.436035,4138.461426,4129.230957,4158.461426,4142.051270,4122.051270,768.000000,4.000000,,,,0.000000,4.000000,4.000000,4.000000,4.000000,4.000000,4.000000,4.000000,4.000000,4.000000,4.000000,4.000000,4.000000,4.000000,4.000000,100.000000
1602006327.832069,13.000000,0.000000,4123.589844,4123.589844,4129.230957,4125.128418,4135.897461,4129.230957,4138.461426,4127.179688,4120.000000,4147.179688,4132.820313,4155.897461,4136.922852,4118.974121,742.000000,4.000000,,,,0.000000,4.000000,4.000000,4.000000,4.000000,4.000000,4.000000,4.000000,4.000000,4.000000,4.000000,4.000000,4.000000,4.000000,4.000000,100.000000
1602006327.839950,14.000000,0.000000,4122.563965,4124.102539,4126.153809,4126.666504,4137.436035,4140.000000,4139.487305,4137.948730,4133.846191,4157.948730,4143.077148,4155.384766,4140.000000,4125.641113,872.000000,4.000000,,,,0.000000,4.000000,4.000000,4.000000,4.000000,4.000000,4.000000,4.000000,4.000000,4.000000,4.000000,4.000000,4.000000,4.000000,4.000000,100.000000
1602006327.847932,15.000000,0.000000,4122.563965,4120.000000,4122.563965,4120.512695,4136.410156,4140.512695,4142.051270,4137.948730,4133.333496,4154.871582,4131.282227,4146.153809,4136.922852,4126.153809,837.000000,4.000000,,,,0.000000,4.000000,4.000000,4.000000,4.000000,4.000000,4.000000,4.000000,4.000000,4.000000,4.000000,4.000000,4.000000,4.000000,4.000000,100.000000
1602006327.855813,16.000000,0.000000,4121.538574,4119.487305,4120.000000,4117.948730,4133.333496,4141.025879,4145.641113,4135.897461,4130.769043,4151.282227,4115.384766,4139.487305,4131.794922,4121.538574,0.000000,4.000000,,,,0.000000,4.000000,4.000000,4.000000,4.000000,4.000000,4.000000,4.000000,4.000000,4.000000,4.000000,4.000000,4.000000,4.000000,4.000000,100.000000
1602006327.863694,17.000000,0.000000,4122.051270,4125.128418,4123.589844,4124.615234,4136.922852,4143.077148,4143.077148,4139.487305,4138.461426,4149.230957,4120.512695,4142.051270,4132.307617,4122.563965,0.000000,4.000000,,,,0.000000,4.000000,4.000000,4.000000,4.000000,4.000000,4.000000,4.000000,4.000000,4.000000,4.000000,4.000000,4.000000,4.000000,4.000000,100.000000
1602006327.871576,18.000000,0.000000,4122.051270,4124.615234,4119.487305,4125.641113,4146.153809,4136.410156,4137.436035,4138.974121,4141.025879,4135.384766,4125.641113,4137.948730,4127.179688,4124.102539,0.000000,4.000000,,,,0.000000,4.000000,4.000000,4.000000,4.000000,4.000000,4.000000,4.000000,4.000000,4.000000,4.000000,4.000000,4.000000,4.000000,4.000000,100.000000
1602006327.879457,19.000000,0.000000,4120.000000,4124.102539,4106.666504,4121.025879,4153.846191,4122.563965,4135.897461,4134.871582,4141.025879,4129.743652,4119.487305,4131.794922,4116.922852,4118.461426,0.000000,4.000000,,,,0.000000,4.000000,4.000000,4.000000,4.000000,4.000000,4.000000,4.000000,4.000000,4.000000,4.000000,4.000000,4.000000,4.000000,4.000000,100.000000
1602006327.887339,20.000000,0.000000,4130.256348,4133.333496,4111.794922,4127.179688,4153.333496,4120.000000,4135.897461,4142.051270,4151.282227,4160.512695,4124.102539,4146.666504,4126.666504,4124.102539,0.000000,4.000000,,,,0.000000,4.000000,4.000000,4.000000,4.000000,4.000000,4.000000,4.000000,4.000000,4.000000,4.000000,4.000000,4.000000,4.000000,4.000000,100.000000
1602006327.895220,21.000000,0.000000,4142.563965,4143.589844,4133.333496,4138.974121,4153.846191,4132.820313,4137.948730,4152.307617,4162.051270,4182.563965,4143.077148,4171.282227,4152.307617,4143.589844,0.000000,4.000000,,,,0.000000,4.000000,4.000000,4.000000,4.000000,4.000000,4.000000,4.000000,4.000000,4.000000,4.000000,4.000000,4.000000,4.000000,4.000000,100.000000
1602006327.903101,22.000000,0.000000,4138.974121,4141.538574,4143.077148,4141.538574,4157.436035,4142.563965,4147.179688,4154.358887,4161.025879,4157.436035,4152.820313,4174.871582,4159.487305,4155.897461,0.000000,4.000000,,,,0.000000,4.000000,4.000000,4.000000,4.000000,4.000000,4.000000,4.000000,4.000000,4.000000,4.000000,4.000000,4.000000,4.000000,4.000000,100.000000
1602006327.910883,23.000000,0.000000,4141.538574,4138.461426,4142.563965,4139.487305,4152.307617,4140.512695,4153.846191,4154.358887,4148.205078,4136.922852,4145.128418,4171.794922,4152.307617,4155.897461,0.000000,4.000000,,,,0.000000,4.000000,4.000000,4.000000,4.000000,4.000000,4.000000,4.000000,4.000000,4.000000,4.000000,4.000000,4.000000,4.000000,4.000000,100.000000
1602006327.918765,24.000000,0.000000,4156.922852,4144.102539,4149.230957,4140.512695,4141.025879,4136.922852,4155.384766,4154.358887,4137.436035,4149.230957,4137.436035,4180.512695,4154.871582,4155.897461,0.000000,4.000000,,,,0.000000,4.000000,4.000000,4.000000,4.000000,4.000000,4.000000,4.000000,4.000000,4.000000,4.000000,4.000000,4.000000,4.000000,4.000000,100.000000
1602006327.926647,25.000000,0.000000,4149.743652,4134.358887,4149.230957,4133.333496,4135.384766,4142.563965,4157.948730,4152.820313,4136.410156,4164.615234,4133.846191,4178.974121,4156.922852,4155.897461,0.000000,4.000000,,,,0.000000,4.000000,4.000000,4.000000,4.000000,4.000000,4.000000,4.000000,4.000000,4.000000,4.000000,4.000000,4.000000,4.000000,4.000000,100.000000
1602006327.934528,26.000000,0.000000,4126.153809,4116.410156,4136.922852,4121.538574,4136.922852,4149.743652,4159.487305,4153.846191,4133.846191,4155.897461,4135.384766,4162.563965,4146.153809,4148.717773,0.000000,4.000000,,,,0.000000,4.000000,4.000000,4.000000,4.000000,4.000000,4.000000,4.000000,4.000000,4.000000,4.000000,4.000000,4.000000,4.000000,4.000000,100.000000
1602006327.942410,27.000000,0.000000,4120.000000,4117.436035,4125.641113,4121.538574,4138.974121,4146.153809,4155.384766,4148.205078,4120.512695,4138.461426,4138.974121,4150.256348,4137.948730,4137.436035,0.000000,4.000000,,,,0.000000,4.000000,4.000000,4.000000,4.000000,4.000000,4.000000,4.000000,4.000000,4.000000,4.000000,4.000000,4.000000,4.000000,4.000000,100.000000
1602006327.950291,28.000000,0.000000,4119.487305,4125.128418,4116.922852,4121.538574,4137.948730,4138.974121,4147.179688,4135.384766,4115.384766,4141.538574,4134.871582,4144.102539,4135.384766,4126.666504,0.000000,4.000000,,,,0.000000,4.000000,4.000000,4.000000,4.000000,4.000000,4.000000,4.000000,4.000000,4.000000,4.000000,4.000000,4.000000,4.000000,4.000000,100.000000
1602006327.958173,29.000000,0.000000,4111.794922,4121.025879,4111.794922,4120.512695,4144.102539,4138.974121,4140.512695,4133.333496,4130.256348,4153.846191,4133.333496,4143.589844,4136.410156,4125.641113,0.000000,4.000000,,,,0.000000,4.000000,4.000000,4.000000,4.000000,4.000000,4.000000,4.000000,4.000000,4.000000,4.000000,4.000000,4.000000,4.000000,4.000000,100.000000
1602006327.966055,30.000000,0.000000,4102.051270,4121.025879,4110.256348,4126.153809,4154.358887,4142.051270,4135.897461,4134.871582,4143.077148,4155.384766,4132.820313,4145.641113,4133.333496,4129.743652,0.000000,4.000000,,,,0.000000,4.000000,4.000000,4.000000,4.000000,4.000000,4.000000,4.000000,4.000000,4.000000,4.000000,4.000000,4.000000,4.000000,4.000000,100.000000
1602006327.973936,31.000000,0.000000,4096.922852,4124.615234,4105.128418,4125.641113,4154.871582,4138.974121,4134.871582,4128.205078,4134.358887,4145.641113,4120.512695,4140.000000,4122.563965,4117.948730,0.000000,4.000000,,,,0.000000,4.000000,4.000000,4.000000,4.000000,4.000000,4.000000,4.000000,4.000000,4.000000,4.000000,4.000000,4.000000,4.000000,4.000000,100.000000
1602006327.981918,32.000000,0.000000,4102.563965,4122.051270,4110.256348,4121.025879,4151.282227,4136.922852,4136.410156,4124.102539,4123.589844,4134.871582,4117.948730,4135.384766,4120.000000,4102.051270,0.000000,4.000000,,,,0.000000,4.000000,4.000000,4.000000,4.000000,4.000000,4.000000,4.000000,4.000000,4.000000,4.000000,4.000000,4.000000,4.000000,4.000000,100.000000
1602006327.989799,33.000000,0.000000,4115.897461,4128.717773,4123.589844,4130.769043,4152.307617,4136.922852,4134.871582,4123.589844,4126.666504,4124.102539,4126.666504,4137.436035,4125.641113,4108.205078,0.000000,4.000000,,,,0.000000,4.000000,4.000000,4.000000,4.000000,4.000000,4.000000,4.000000,4.000000,4.000000,4.000000,4.000000,4.000000,4.000000,4.000000,100.000000
1602006327.997680,34.000000,0.000000,4128.205078,4138.461426,4127.179688,4137.436035,4149.230957,4128.717773,4132.307617,4121.025879,4126.666504,4117.436035,4118.461426,4136.410156,4124.615234,4121.025879,0.000000,4.000000,,,,0.000000,4.000000,4.000000,4.000000,4.000000,4.000000,4.000000,4.000000,4.000000,4.000000,4.000000,4.000000,4.000000,4.000000,4.000000,100.000000
1602006328.005562,35.000000,0.000000,4136.410156,4133.846191,4124.615234,4127.692383,4137.436035,4121.538574,4133.846191,4125.641113,4122.051270,4125.641113,4109.743652,4142.563965,4119.487305,4124.102539,0.000000,4.000000,,,,0.000000,4.000000,4.000000,4.000000,4.000000,4.000000,4.000000,4.000000,4.000000,4.000000,4.000000,4.000000,4.000000,4.000000,4.000000,100.000000
1602006328.013443,36.000000,0.000000,4134.871582,4124.615234,4129.743652,4124.615234,4131.282227,4129.230957,4138.974121,4135.897461,4127.692383,4137.948730,4120.512695,4154.358887,4120.000000,4132.307617,0.000000,4.000000,,,,0.000000,4.000000,4.000000,4.000000,4.000000,4.000000,4.000000,4.000000,4.000000,4.000000,4.000000,4.000000,4.000000,4.000000,4.000000,100.000000
1602006328.021325,37.000000,0.000000,4126.153809,4124.102539,4136.922852,4130.769043,4136.410156,4142.563965,4144.102539,4141.538574,4130.256348,4153.333496,4127.692383,4157.436035,4125.641113,4138.974121,0.000000,4.000000,,,,0.000000,4.000000,4.000000,4.000000,4.000000,4.000000,4.000000,4.000000,4.000000,4.000000,4.000000,4.000000,4.000000,4.000000,4.000000,100.000000
1602006328.029206,38.000000,0.000000,4121.538574,4123.077148,4133.846191,4124.615234,4141.025879,4136.922852,4143.589844,4134.871582,4113.333496,4163.589844,4124.615234,4154.871582,4118.974121,4126.153809,0.000000,4.000000,,,,0.000000,4.000000,4.000000,4.000000,4.000000,4.000000,4.000000,4.000000,4.000000,4.000000,4.000000,4.000000,4.000000,4.000000,4.000000,100.000000
1602006328.037087,39.000000,0.000000,4115.384766,4117.948730,4130.769043,4115.897461,4135.384766,4119.487305,4135.384766,4126.153809,4104.615234,4147.692383,4121.538574,4153.846191,4104.102539,4111.794922,0.000000,4.000000,,,,0.000000,4.000000,4.000000,4.000000,4.000000,4.000000,4.000000,4.000000,4.000000,4.000000,4.000000,4.000000,4.000000,4.000000,4.000000,100.000000
1602006328.044869,40.000000,0.000000,4115.384766,4125.128418,4134.871582,4127.179688,4135.384766,4119.487305,4133.846191,4133.333496,4119.487305,4138.461426,4121.025879,4153.846191,4109.230957,4107.692383,0.000000,4.000000,,,,0.000000,4.000000,4.000000,4.000000,4.000000,4.000000,4.000000,4.000000,4.000000,4.000000,4.000000,4.000000,4.000000,4.000000,4.000000,100.000000
1602006328.052750,41.000000,0.000000,4125.128418,4138.974121,4132.307617,4138.974121,4142.563965,4127.179688,4140.512695,4140.512695,4125.641113,4144.102539,4122.563965,4148.205078,4120.512695,4103.589844,0.000000,4.000000,,,,0.000000,4.000000,4.000000,4.000000,4.000000,4.000000,4.000000,4.000000,4.000000,4.000000,4.000000,4.000000,4.000000,4.000000,4.000000,100.000000
1602006328.060632,42.000000,0.000000,4122.051270,4142.051270,4121.025879,4137.436035,4142.051270,4122.563965,4133.333496,4129.743652,4115.897461,4122.051270,4124.615234,4132.307617,4109.743652,4109.230957,0.000000,4.000000,,,,0.000000,4.000000,4.000000,4.000000,4.000000,4.000000,4.000000,4.000000,4.000000,4.000000,4.000000,4.000000,4.000000,4.000000,4.000000,100.000000
1602006328.068513,43.000000,0.000000,4120.000000,4141.025879,4116.410156,4136.410156,4137.436035,4124.102539,4123.077148,4120.000000,4109.743652,4102.051270,4114.358887,4117.948730,4105.641113,4119.487305,0.000000,4.000000,,,,0.000000,4.000000,4.000000,4.000000,4.000000,4.000000,4.000000,4.000000,4.000000,4.000000,4.000000,4.000000,4.000000,4.000000,4.000000,100.000000
1602006328.076395,44.000000,0.000000,4131.282227,4142.563965,4118.974121,4137.948730,4140.000000,4136.410156,4127.179688,4124.615234,4109.743652,4127.179688,4105.641113,4118.974121,4119.487305,4116.410156,0.000000,4.000000,,,,0.000000,4.000000,4.000000,4.000000,4.000000,4.000000,4.000000,4.000000,4.000000,4.000000,4.000000,4.000000,4.000000,4.000000,4.000000,100.000000
1602006328.084276,45.000000,0.000000,4143.077148,4140.512695,4124.615234,4136.410156,4142.563965,4140.000000,4135.897461,4132.307617,4115.384766,4147.692383,4118.974121,4137.436035,4126.153809,4118.974121,0.000000,4.000000,,,,0.000000,4.000000,4.000000,4.000000,4.000000,4.000000,4.000000,4.000000,4.000000,4.000000,4.000000,4.000000,4.000000,4.000000,4.000000,100.000000
1602006328.092258,46.000000,0.000000,4150.769043,4138.461426,4138.461426,4137.436035,4139.487305,4138.974121,4145.641113,4137.948730,4126.153809,4135.384766,4127.692383,4159.487305,4125.128418,4141.025879,0.000000,4.000000,,,,0.000000,4.000000,4.000000,4.000000,4.000000,4.000000,4.000000,4.000000,4.000000,4.000000,4.000000,4.000000,4.000000,4.000000,4.000000,100.000000
1602006328.100139,47.000000,0.000000,4158.974121,4140.000000,4154.871582,4136.922852,4137.948730,4142.563965,4154.358887,4138.461426,4128.717773,4134.358887,4121.025879,4172.820313,4128.205078,4156.922852,0.000000,4.000000,,,,0.000000,4.000000,4.000000,4.000000,4.000000,4.000000,4.000000,4.000000,4.000000,4.000000,4.000000,4.000000,4.000000,4.000000,4.000000,100.000000
1602006328.108021,48.000000,0.000000,4162.563965,4135.384766,4163.589844,4131.282227,4138.461426,4143.589844,4155.897461,4134.871582,4119.487305,4144.102539,4129.230957,4178.461426,4131.794922,4153.846191,0.000000,4.000000,,,,0.000000,4.000000,4.000000,4.000000,4.000000,4.000000,4.000000,4.000000,4.000000,4.000000,4.000000,4.000000,4.000000,4.000000,4.000000,100.000000
1602006328.115902,49.000000,0.000000,4158.974121,4126.153809,4160.512695,4126.153809,4134.358887,4139.487305,4154.358887,4135.384766,4117.436035,4140.000000,4145.641113,4182.563965,4140.512695,4154.871582,0.000000,4.000000,,,,0.000000,4.000000,4.000000,4.000000,4.000000,4.000000,4.000000,4.000000,4.000000,4.000000,4.000000,4.000000,4.000000,4.000000,4.000000,100.000000
1602006328.123784,50.000000,0.000000,4151.282227,4115.897461,4147.179688,4121.025879,4126.153809,4138.461426,4153.333496,4137.948730,4124.102539,4134.358887,4143.589844,4174.871582,4140.512695,4161.025879,0.000000,4.000000,,,,0.000000,4.000000,4.000000,4.000000,4.000000,4.000000,4.000000,4.000000,4.000000,4.000000,4.000000,4.000000,4.000000,4.000000,4.000000,100.000000
1602006328.131666,51.000000,0.000000,4135.897461,4110.769043,4132.820313,4117.948730,4126.153809,4145.641113,4152.307617,4135.897461,4125.641113,4136.410156,4131.282227,4158.974121,4131.794922,4150.769043,0.000000,4.000000,,,,0.000000,4.000000,4.000000,4.000000,4.000000,4.000000,4.000000,4.000000,4.000000,4.000000,4.000000,4.000000,4.000000,4.000000,4.000000,100.000000
1602006328.139547,52.000000,0.000000,4123.077148,4116.410156,4122.051270,4120.512695,4135.897461,4154.871582,4149.743652,4135.384766,4127.692383,4145.641113,4132.820313,4149.230957,4133.846191,4135.384766,0.000000,4.000000,,,,0.000000,4.000000,4.000000,4.000000,4.000000,4.000000,4.000000,4.000000,4.000000,4.000000,4.000000,4.000000,4.000000,4.000000,4.000000,100.000000
1602006328.147429,53.000000,0.000000,4122.051270,4129.230957,4119.487305,4125.128418,4144.615234,4156.922852,4145.128418,4142.051270,4141.025879,4160.512695,4140.512695,4144.102539,4138.461426,4140.512695,0.000000,4.000000,,,,0.000000,4.000000,4.000000,4.000000,4.000000,4.000000,4.000000,4.000000,4.000000,4.000000,4.000000,4.000000,4.000000,4.000000,4.000000,100.000000
1602006328.155311,54.000000,0.000000,4115.897461,4136.410156,4116.410156,4127.179688,4143.077148,4148.717773,4137.948730,4144.102539,4137.436035,4155.897461,4127.692383,4132.820313,4127.692383,4133.846191,0.000000,4.000000,,,,0.000000,4.000000,4.000000,4.000000,4.000000,4.000000,4.000000,4.000000,4.000000,4.000000,4.000000,4.000000,4.000000,4.000000,4.000000,100.000000
1602006328.163292,55.000000,0.000000,4104.102539,4128.717773,4106.153809,4126.153809,4137.436035,4131.794922,4133.333496,4131.794922,4108.717773,4129.743652,4105.641113,4119.487305,4110.769043,4106.153809,0.000000,4.000000,,,,0.000000,4.000000,4.000000,4.000000,4.000000,4.000000,4.000000,4.000000,4.000000,4.000000,4.000000,4.000000,4.000000,4.000000,4.000000,100.000000
1602006328.171173,56.000000,0.000000,4105.128418,4122.051270,4107.692383,4122.563965,4136.922852,4124.615234,4132.307617,4124.615234,4102.563965,4122.051270,4109.743652,4115.384766,4105.641113,4102.563965,0.000000,4.000000,,,,0.000000,4.000000,4.000000,4.000000,4.000000,4.000000,4.000000,4.000000,4.000000,4.000000,4.000000,4.000000,4.000000,4.000000,4.000000,100.000000
1602006328.179054,57.000000,0.000000,4119.487305,4129.743652,4125.641113,4125.128418,4141.025879,4133.333496,4134.871582,4132.307617,4120.512695,4140.000000,4128.717773,4129.743652,4115.384766,4121.025879,0.000000,4.000000,,,,0.000000,4.000000,4.000000,4.000000,4.000000,4.000000,4.000000,4.000000,4.000000,4.000000,4.000000,4.000000,4.000000,4.000000,4.000000,100.000000
1602006328.186935,58.000000,0.000000,4127.692383,4136.922852,4134.871582,4133.333496,4139.487305,4142.563965,4141.538574,4138.461426,4124.102539,4149.743652,4126.153809,4146.153809,4124.615234,4135.384766,0.000000,4.000000,,,,0.000000,4.000000,4.000000,4.000000,4.000000,4.000000,4.000000,4.000000,4.000000,4.000000,4.000000,4.000000,4.000000,4.000000,4.000000,100.000000
1602006328.194816,59.000000,0.000000,4133.846191,4135.384766,4141.538574,4137.948730,4136.922852,4143.077148,4148.717773,4138.461426,4117.436035,4148.205078,4116.410156,4153.846191,4122.051270,4149.230957,0.000000,4.000000,,,,0.000000,4.000000,4.000000,4.000000,4.000000,4.000000,4.000000,4.000000,4.000000,4.000000,4.000000,4.000000,4.000000,4.000000,4.000000,100.000000
1602006328.202698,60.000000,0.000000,4148.717773,4140.000000,4157.436035,4143.589844,4140.000000,4142.051270,4148.205078,4137.436035,4123.077148,4157.948730,4130.256348,4163.077148,4127.179688,4161.025879,0.000000,4.000000,,,,0.000000,4.000000,4.000000,4.000000,4.000000,4.000000,4.000000,4.000000,4.000000,4.000000,4.000000,4.000000,4.000000,4.000000,4.000000,100.000000
1602006328.210479,61.000000,0.000000,4154.358887,4140.000000,4161.025879,4142.051270,4136.410156,4137.948730,4141.025879,4135.384766,4128.205078,4162.051270,4141.025879,4169.230957,4140.512695,4154.871582,0.000000,4.000000,,,,0.000000,4.000000,4.000000,4.000000,4.000000,4.000000,4.000000,4.000000,4.000000,4.000000,4.000000,4.000000,4.000000,4.000000,4.000000,100.000000
1602006328.218360,62.000000,0.000000,4139.487305,4129.230957,4152.307617,4130.769043,4126.153809,4127.179688,4135.897461,4133.333496,4127.179688,4144.102539,4124.102539,4158.974121,4133.846191,4142.563965,0.000000,4.000000,,,,0.000000,4.000000,4.000000,4.000000,4.000000,4.000000,4.000000,4.000000,4.000000,4.000000,4.000000,4.000000,4.000000,4.000000,4.000000,100.000000
1602006328.226240,63.000000,0.000000,4139.487305,4130.769043,4151.794922,4129.743652,4128.717773,4123.077148,4138.974121,4137.436035,4142.051270,4140.000000,4122.563965,4150.769043,4127.692383,4146.666504,0.000000,4.000000,,,,0.000000,4.000000,4.000000,4.000000,4.000000,4.000000,4.000000,4.000000,4.000000,4.000000,4.000000,4.000000,4.000000,4.000000,4.000000,100.000000
1602006328.234021,64.000000,0.000000,4166.153809,4141.538574,4160.000000,4141.025879,4141.025879,4132.820313,4143.077148,4145.128418,4158.461426,4165.128418,4151.282227,4156.410156,4142.563965,4158.461426,795.000000,4.000000,,,,0.000000,4.000000,4.000000,4.000000,4.000000,4.000000,4.000000,4.000000,4.000000,4.000000,4.000000,4.000000,4.000000,4.000000,4.000000,100.000000
1602006328.241902,65.000000,0.000000,4171.794922,4141.025879,4157.436035,4142.563965,4145.128418,4141.538574,4142.563965,4145.641113,4153.846191,4176.410156,4158.461426,4159.487305,4147.692383,4160.512695,788.000000,4.000000,,,,0.000000,4.000000,4.000000,4.000000,4.000000,4.000000,4.000000,4.000000,4.000000,4.000000,4.000000,4.000000,4.000000,4.000000,4.000000,100.000000
1602006328.249684,66.000000,0.000000,4147.692383,4137.436035,4144.102539,4136.410156,4145.128418,4142.051270,4139.487305,4141.025879,4143.589844,4158.974121,4143.077148,4154.358887,4141.025879,4152.820313,854.000000,4.000000,,,,0.000000,4.000000,4.000000,4.000000,4.000000,4.000000,4.000000,4.000000,4.000000,4.000000,4.000000,4.000000,4.000000,4.000000,4.000000,100.000000
1602006328.257565,67.000000,0.000000,4135.897461,4134.871582,4135.897461,4137.436035,4145.128418,4138.974121,4137.948730,4134.871582,4139.487305,4148.205078,4136.410156,4150.769043,4140.000000,4152.820313,869.000000,4.000000,,,,0.000000,4.000000,4.000000,4.000000,4.000000,4.000000,4.000000,4.000000,4.000000,4.000000,4.000000,4.000000,4.000000,4.000000,4.000000,100.000000
1602006328.265447,68.000000,0.000000,4145.641113,4131.282227,4138.974121,4137.948730,4139.487305,4136.922852,4136.410156,4131.794922,4132.820313,4150.769043,4128.205078,4149.743652,4136.410156,4154.358887,815.000000,4.000000,,,,0.000000,4.000000,4.000000,4.000000,4.000000,4.000000,4.000000,4.000000,4.000000,4.000000,4.000000,4.000000,4.000000,4.000000,4.000000,100.000000
1602006328.273328,69.000000,0.000000,4155.897461,4134.871582,4142.563965,4137.948730,4138.461426,4140.000000,4137.436035,4133.846191,4135.384766,4160.000000,4121.025879,4153.333496,4127.179688,4151.282227,824.000000,4.000000,,,,0.000000,4.000000,4.000000,4.000000,4.000000,4.000000,4.000000,4.000000,4.000000,4.000000,4.000000,4.000000,4.000000,4.000000,4.000000,100.000000
1602006328.281210,70.000000,0.000000,4152.307617,4134.871582,4141.025879,4137.436035,4138.974121,4145.128418,4143.077148,4137.436035,4141.025879,4164.102539,4125.641113,4154.358887,4123.589844,4151.282227,764.000000,4.000000,,,,0.000000,4.000000,4.000000,4.000000,4.000000,4.000000,4.000000,4.000000,4.000000,4.000000,4.000000,4.000000,4.000000,4.000000,4.000000,100.000000
1602006328.289091,71.000000,0.000000,4141.025879,4124.102539,4137.948730,4132.307617,4134.871582,4142.563965,4142.563965,4135.897461,4126.666504,4134.871582,4126.666504,4150.769043,4121.025879,4151.282227,666.000000,4.000000,,,,0.000000,4.000000,4.000000,4.000000,4.000000,4.000000,4.000000,4.000000,4.000000,4.000000,4.000000,4.000000,4.000000,4.000000,4.000000,100.000000
1602006328.296972,72.000000,0.000000,4141.025879,4121.025879,4137.436035,4126.666504,4134.871582,4130.256348,4137.436035,4134.871582,4115.384766,4120.000000,4127.692383,4152.820313,4120.000000,4154.358887,788.000000,4.000000,,,,0.000000,4.000000,4.000000,4.000000,4.000000,4.000000,4.000000,4.000000,4.000000,4.000000,4.000000,4.000000,4.000000,4.000000,4.000000,100.000000
1602006328.304954,73.000000,0.000000,4149.230957,4125.641113,4139.487305,4124.102539,4135.384766,4119.487305,4135.384766,4136.410156,4121.025879,4151.794922,4138.974121,4156.922852,4127.692383,4154.871582,839.000000,4.000000,,,,0.000000,4.000000,4.000000,4.000000,4.000000,4.000000,4.000000,4.000000,4.000000,4.000000,4.000000,4.000000,4.000000,4.000000,4.000000,100.000000
1602006328.312835,74.000000,0.000000,4154.358887,4127.179688,4141.538574,4128.205078,4132.820313,4115.384766,4135.897461,4138.461426,4122.051270,4157.948730,4146.153809,4155.897461,4136.922852,4152.307617,880.000000,4.000000,,,,0.000000,4.000000,4.000000,4.000000,4.000000,4.000000,4.000000,4.000000,4.000000,4.000000,4.000000,4.000000,4.000000,4.000000,4.000000,100.000000
1602006328.320716,75.000000,0.000000,4158.461426,4126.666504,4141.025879,4130.769043,4134.358887,4120.512695,4135.897461,4137.436035,4118.461426,4139.487305,4140.512695,4154.358887,4137.948730,4155.384766,837.000000,4.000000,,,,0.000000,4.000000,4.000000,4.000000,4.000000,4.000000,4.000000,4.000000,4.000000,4.000000,4.000000,4.000000,4.000000,4.000000,4.000000,100.000000
1602006328.328598,76.000000,0.000000,4158.974121,4124.102539,4137.948730,4125.128418,4135.897461,4129.743652,4136.922852,4131.794922,4123.077148,4150.256348,4138.974121,4153.333496,4135.897461,4157.436035,768.000000,4.000000,,,,0.000000,4.000000,4.000000,4.000000,4.000000,4.000000,4.000000,4.000000,4.000000,4.000000,4.000000,4.000000,4.000000,4.000000,4.000000,100.000000
1602006328.336479,77.000000,0.000000,4156.410156,4123.589844,4138.461426,4122.563965,4134.871582,4138.461426,4138.461426,4132.820313,4132.307617,4159.487305,4148.205078,4154.871582,4140.512695,4154.871582,742.000000,4.000000,,,,0.000000,4.000000,4.000000,4.000000,4.000000,4.000000,4.000000,4.000000,4.000000,4.000000,4.000000,4.000000,4.000000,4.000000,4.000000,100.000000
1602006328.344361,78.000000,0.000000,4153.846191,4128.717773,4138.461426,4129.743652,4138.461426,4143.589844,4139.487305,4140.000000,4140.512695,4158.974121,4149.230957,4156.922852,4148.205078,4149.230957,880.000000,4.000000,,,,0.000000,4.000000,4.000000,4.000000,4.000000,4.000000,4.000000,4.000000,4.000000,4.000000,4.000000,4.000000,4.000000,4.000000,4.000000,100.000000
1602006328.352242,79.000000,0.000000,4143.589844,4125.641113,4126.666504,4129.230957,4139.487305,4144.102539,4137.436035,4138.461426,4142.051270,4168.717773,4135.384766,4147.692383,4140.512695,4141.538574,837.000000,4.000000,,,,0.000000,4.000000,4.000000,4.000000,4.000000,4.000000,4.000000,4.000000,4.000000,4.000000,4.000000,4.000000,4.000000,4.000000,4.000000,100.000000
1602006328.360224,80.000000,0.000000,4133.846191,4118.974121,4118.461426,4121.538574,4135.384766,4142.563965,4135.384766,4133.333496,4137.948730,4161.025879,4120.512695,4133.333496,4123.077148,4136.410156,768.000000,4.000000,,,,0.000000,4.000000,4.000000,4.000000,4.000000,4.000000,4.000000,4.000000,4.000000,4.000000,4.000000,4.000000,4.000000,4.000000,4.000000,100.000000
1602006328.368105,81.000000,0.000000,4135.384766,4121.538574,4122.563965,4122.051270,4135.384766,4140.000000,4136.922852,4136.410156,4134.358887,4144.102539,4124.102539,4128.205078,4118.461426,4137.436035,742.000000,4.000000,,,,0.000000,4.000000,4.000000,4.000000,4.000000,4.000000,4.000000,4.000000,4.000000,4.000000,4.000000,4.000000,4.000000,4.000000,4.000000,100.000000
1602006328.375987,82.000000,0.000000,4136.410156,4125.641113,4124.102539,4122.563965,4136.410156,4136.922852,4135.897461,4137.436035,4129.743652,4147.692383,4133.846191,4125.128418,4123.077148,4136.922852,880.000000,4.000000,,,,0.000000,4.000000,4.000000,4.000000,4.000000,4.000000,4.000000,4.000000,4.000000,4.000000,4.000000,4.000000,4.000000,4.000000,4.000000,100.000000
1602006328.383869,83.000000,0.000000,4134.871582,4130.769043,4123.589844,4123.077148,4134.871582,4131.282227,4128.205078,4128.205078,4119.487305,4143.077148,4130.769043,4123.077148,4117.436035,4135.897461,837.000000,4.000000,,,,0.000000,4.000000,4.000000,4.000000,4.000000,4.000000,4.000000,4.000000,4.000000,4.000000,4.000000,4.000000,4.000000,4.000000,4.000000,100.000000
1602006328.391750,84.000000,0.000000,4142.051270,4137.436035,4132.820313,4131.282227,4134.871582,4121.025879,4122.563965,4121.025879,4110.256348,4118.974121,4120.000000,4127.692383,4110.769043,4139.487305,768.000000,4.000000,,,,0.000000,4.000000,4.000000,4.000000,4.000000,4.000000,4.000000,4.000000,4.000000,4.000000,4.000000,4.000000,4.000000,4.000000,4.000000,100.000000
1602006328.399632,85.000000,0.000000,4153.846191,4140.000000,4143.589844,4138.974121,4136.922852,4125.128418,4123.077148,4122.563965,4103.077148,4105.128418,4120.000000,4134.871582,4115.897461,4141.538574,742.000000,4.000000,,,,0.000000,4.000000,4.000000,4.000000,4.000000,4.000000,4.000000,4.000000,4.000000,4.000000,4.000000,4.000000,4.000000,4.000000,4.000000,100.000000
1602006328.407513,86.000000,0.000000,4158.461426,4144.102539,4148.205078,4140.512695,4137.436035,4135.384766,4126.666504,4121.025879,4095.897461,4117.948730,4126.666504,4143.589844,4121.025879,4147.692383,880.000000,4.000000,,,,0.000000,4.000000,4.000000,4.000000,4.000000,4.000000,4.000000,4.000000,4.000000,4.000000,4.000000,4.000000,4.000000,4.000000,4.000000,100.000000
1602006328.415395,87.000000,0.000000,4157.948730,4155.897461,4152.820313,4142.051270,4140.000000,4135.384766,4131.282227,4117.948730,4100.000000,4138.461426,4129.230957,4152.307617,4127.692383,4158.461426,837.000000,4.000000,,,,0.000000,4.000000,4.000000,4.000000,4.000000,4.000000,4.000000,4.000000,4.000000,4.000000,4.000000,4.000000,4.000000,4.000000,4.000000,100.000000
1602006328.423376,88.000000,0.000000,4157.948730,4159.487305,4154.358887,4141.025879,4141.538574,4133.333496,4135.897461,4127.179688,4116.410156,4141.538574,4136.922852,4156.922852,4135.897461,4155.897461,768.000000,4.000000,,,,0.000000,4.000000,4.000000,4.000000,4.000000,4.000000,4.000000,4.000000,4.000000,4.000000,4.000000,4.000000,4.000000,4.000000,4.000000,100.000000
1602006328.431258,89.000000,0.000000,4158.974121,4147.179688,4146.666504,4138.461426,4138.974121,4132.307617,4137.436035,4137.436035,4129.743652,4144.615234,4143.077148,4156.410156,4140.000000,4144.615234,742.000000,4.000000,,,,0.000000,4.000000,4.000000,4.000000,4.000000,4.000000,4.000000,4.000000,4.000000,4.000000,4.000000,4.000000,4.000000,4.000000,4.000000,100.000000
1602006328.439139,90.000000,0.000000,4155.897461,4140.000000,4142.563965,4141.025879,4134.871582,4127.692383,4138.974121,4142.051270,4133.333496,4162.563965,4138.974121,4153.333496,4141.538574,4149.230957,880.000000,4.000000,,,,0.000000,4.000000,4.000000,4.000000,4.000000,4.000000,4.000000,4.000000,4.000000,4.000000,4.000000,4.000000,4.000000,4.000000,4.000000,100.000000
1602006328.447021,91.000000,0.000000,4152.307617,4145.128418,4151.794922,4143.589844,4137.436035,4134.871582,4142.051270,4153.846191,4143.077148,4172.307617,4142.051270,4157.436035,4145.128418,4167.179688,837.000000,4.000000,,,,0.000000,4.000000,4.000000,4.000000,4.000000,4.000000,4.000000,4.000000,4.000000,4.000000,4.000000,4.000000,4.000000,4.000000,4.000000,100.000000
1602006328.454902,92.000000,0.000000,4153.333496,4143.077148,4156.922852,4137.436035,4140.000000,4144.102539,4143.589844,4157.436035,4154.871582,4169.743652,4151.794922,4166.153809,4143.589844,4165.641113,768.000000,4.000000,,,,0.000000,4.000000,4.000000,4.000000,4.000000,4.000000,4.000000,4.000000,4.000000,4.000000,4.000000,4.000000,4.000000,4.000000,4.000000,100.000000
1602006328.462783,93.000000,0.000000,4153.333496,4134.871582,4143.589844,4131.794922,4131.794922,4128.205078,4138.461426,4142.563965,4144.102539,4158.974121,4143.589844,4160.000000,4129.743652,4142.563965,742.000000,4.000000,,,,0.000000,4.000000,4.000000,4.000000,4.000000,4.000000,4.000000,4.000000,4.000000,4.000000,4.000000,4.000000,4.000000,4.000000,4.000000,100.000000
1602006328.470665,94.000000,0.000000,4149.743652,4133.333496,4133.333496,4135.384766,4125.641113,4111.794922,4128.205078,4135.897461,4120.512695,4140.512695,4124.102539,4148.717773,4118.461426,4133.846191,880.000000,4.000000,,,,0.000000,4.000000,4.000000,4.000000,4.000000,4.000000,4.000000,4.000000,4.000000,4.000000,4.000000,4.000000,4.000000,4.000000,4.000000,100.000000
1602006328.478446,95.000000,0.000000,4155.384766,4135.897461,4139.487305,4139.487305,4131.282227,4119.487305,4122.563965,4134.358887,4107.692383,4132.307617,4118.461426,4150.769043,4116.922852,4146.666504,837.000000,4.000000,,,,0.000000,4.000000,4.000000,4.000000,4.000000,4.000000,4.000000,4.000000,4.000000,4.000000,4.000000,4.000000,4.000000,4.000000,4.000000,100.000000
1602006328.486327,96.000000,0.000000,4168.717773,4140.512695,4146.666504,4144.615234,4140.000000,4132.307617,4123.589844,4124.102539,4105.641113,4130.256348,4128.205078,4154.871582,4120.512695,4154.358887,768.000000,4.000000,,,,0.000000,4.000000,4.000000,4.000000,4.000000,4.000000,4.000000,4.000000,4.000000,4.000000,4.000000,4.000000,4.000000,4.000000,4.000000,100.000000
1602006328.494208,97.000000,0.000000,4173.333496,4149.743652,4149.743652,4150.256348,4146.666504,4131.282227,4126.666504,4123.077148,4102.051270,4122.563965,4135.897461,4151.794922,4127.692383,4152.820313,742.000000,4.000000,,,,0.000000,4.000000,4.000000,4.000000,4.000000,4.000000,4.000000,4.000000,4.000000,4.000000,4.000000,4.000000,4.000000,4.000000,4.000000,100.000000
1602006328.502090,98.000000,0.000000,4168.717773,4153.846191,4150.256348,4151.794922,4146.153809,4121.538574,4125.128418,4129.743652,4102.563965,4117.436035,4137.948730,4149.230957,4133.846191,4151.794922,880.000000,4.000000,,,,0.000000,4.000000,4.000000,4.000000,4.000000,4.000000,4.000000,4.000000,4.000000,4.000000,4.000000,4.000000,4.000000,4.000000,4.000000,100.000000
1602006328.509971,99.000000,0.000000,4171.794922,4156.410156,4151.282227,4153.333496,4144.615234,4117.948730,4122.563965,4131.794922,4110.769043,4123.589844,4144.615234,4151.282227,4135.897461,4157.436035,837.000000,4.000000,,,,0.000000,4.000000,4.000000,4.000000,4.000000,4.000000,4.000000,4.000000,4.000000,4.000000,4.000000,4.000000,4.000000,4.000000,4.000000,100.000000
1602006328.517852,100.000000,0.000000,4177.948730,4166.153809,4153.333496,4158.461426,4149.230957,4122.051270,4128.205078,4134.358887,4117.948730,4140.512695,4152.820313,4161.025879,4143.077148,4165.641113,768.000000,4.000000,,,,0.000000,4.000000,4.000000,4.000000,4.000000,4.000000,4.000000,4.000000,4.000000,4.000000,4.000000,4.000000,4.000000,4.000000,4.000000,100.000000
1602006328.525633,101.000000,0.000000,4176.410156,4174.358887,4156.922852,4161.538574,4152.307617,4127.692383,4134.871582,4140.000000,4122.051270,4156.410156,4157.948730,4168.717773,4156.410156,4171.282227,742.000000,4.000000,,,,0.000000,4.000000,4.000000,4.000000,4.000000,4.000000,4.000000,4.000000,4.000000,4.000000,4.000000,4.000000,4.000000,4.000000,4.000000,100.000000
1602006328.533514,102.000000,0.000000,4170.769043,4171.282227,4155.384766,4157.436035,4142.051270,4126.153809,4130.769043,4138.974121,4122.051270,4160.512695,4159.487305,4161.538574,4156.922852,4168.717773,880.000000,4.000000,,,,0.000000,4.000000,4.000000,4.000000,4.000000,4.000000,4.000000,4.000000,4.000000,4.000000,4.000000,4.000000,4.000000,4.000000,4.000000,100.000000
1602006328.541395,103.000000,0.000000,4167.179688,4165.128418,4148.717773,4153.333496,4135.384766,4121.538574,4124.102539,4130.256348,4115.897461,4160.512695,4151.282227,4151.794922,4151.794922,4158.974121,837.000000,4.000000,,,,0.000000,4.000000,4.000000,4.000000,4.000000,4.000000,4.000000,4.000000,4.000000,4.000000,4.000000,4.000000,4.000000,4.000000,4.000000,100.000000
1602006328.549277,104.000000,0.000000,4168.717773,4166.666504,4147.692383,4153.846191,4140.512695,4120.000000,4124.615234,4122.051270,4109.743652,4155.384766,4136.410156,4153.333496,4152.820313,4155.384766,768.000000,4.000000,,,,0.000000,4.000000,4.000000,4.000000,4.000000,4.000000,4.000000,4.000000,4.000000,4.000000,4.000000,4.000000,4.000000,4.000000,4.000000,100.000000
1602006328.557158,105.000000,0.000000,4170.256348,4168.717773,4147.692383,4155.384766,4142.051270,4122.051270,4124.615234,4121.025879,4107.692383,4141.025879,4134.358887,4155.897461,4146.666504,4154.871582,742.000000,4.000000,,,,0.000000,4.000000,4.000000,4.000000,4.000000,4.000000,4.000000,4.000000,4.000000,4.000000,4.000000,4.000000,4.000000,4.000000,4.000000,100.000000
1602006328.565039,106.000000,0.000000,4167.179688,4160.000000,4141.025879,4152.820313,4137.948730,4121.025879,4121.538574,4123.589844,4104.615234,4135.897461,4137.948730,4148.717773,4135.897461,4156.922852,880.000000,4.000000,,,,0.000000,4.000000,4.000000,4.000000,4.000000,4.000000,4.000000,4.000000,4.000000,4.000000,4.000000,4.000000,4.000000,4.000000,4.000000,100.000000
1602006328.572820,107.000000,0.000000,4165.128418,4152.307617,4141.538574,4151.282227,4135.897461,4113.333496,4119.487305,4121.538574,4107.179688,4136.922852,4141.538574,4146.666504,4135.384766,4162.563965,837.000000,4.000000,,,,0.000000,4.000000,4.000000,4.000000,4.000000,4.000000,4.000000,4.000000,4.000000,4.000000,4.000000,4.000000,4.000000,4.000000,4.000000,100.000000
1602006328.580701,108.000000,0.000000,4168.717773,4155.897461,4152.307617,4155.897461,4139.487305,4110.769043,4119.487305,4126.153809,4114.871582,4128.717773,4148.717773,4161.538574,4141.538574,4162.051270,768.000000,4.000000,,,,0.000000,4.000000,4.000000,4.000000,4.000000,4.000000,4.000000,4.000000,4.000000,4.000000,4.000000,4.000000,4.000000,4.000000,4.000000,100.000000
1602006328.588583,109.000000,0.000000,4171.282227,4158.974121,4155.384766,4156.410156,4141.025879,4117.948730,4121.538574,4136.410156,4115.384766,4136.922852,4142.563965,4168.205078,4145.128418,4155.897461,742.000000,4.000000,,,,0.000000,4.000000,4.000000,4.000000,4.000000,4.000000,4.000000,4.000000,4.000000,4.000000,4.000000,4.000000,4.000000,4.000000,4.000000,100.000000
1602006328.596464,110.000000,0.000000,4168.205078,4158.461426,4150.769043,4151.794922,4138.461426,4120.512695,4124.615234,4138.974121,4116.410156,4165.128418,4134.871582,4160.000000,4149.230957,4164.615234,880.000000,4.000000,,,,0.000000,4.000000,4.000000,4.000000,4.000000,4.000000,4.000000,4.000000,4.000000,4.000000,4.000000,4.000000,4.000000,4.000000,4.000000,100.000000
1602006328.604345,111.000000,0.000000,4167.179688,4159.487305,4154.358887,4152.307617,4138.974121,4118.974121,4131.282227,4137.948730,4123.077148,4172.820313,4150.256348,4163.077148,4156.410156,4180.512695,837.000000,4.000000,,,,0.000000,4.000000,4.000000,4.000000,4.000000,4.000000,4.000000,4.000000,4.000000,4.000000,4.000000,4.000000,4.000000,4.000000,4.000000,100.000000
1602006328.612226,112.000000,0.000000,4169.743652,4157.948730,4156.410156,4157.436035,4141.025879,4130.256348,4137.948730,4139.487305,4130.256348,4156.410156,4155.384766,4168.717773,4153.846191,4167.692383,768.000000,4.000000,,,,0.000000,4.000000,4.000000,4.000000,4.000000,4.000000,4.000000,4.000000,4.000000,4.000000,4.000000,4.000000,4.000000,4.000000,4.000000,100.000000
1602006328.620107,113.000000,0.000000,4166.153809,4154.871582,4146.666504,4152.307617,4137.948730,4142.563965,4138.461426,4140.000000,4136.410156,4142.051270,4142.051270,4157.436035,4141.025879,4152.307617,742.000000,4.000000,,,,0.000000,4.000000,4.000000,4.000000,4.000000,4.000000,4.000000,4.000000,4.000000,4.000000,4.000000,4.000000,4.000000,4.000000,4.000000,100.000000
1602006328.627988,114.000000,0.000000,4156.922852,4150.256348,4137.948730,4140.512695,4135.384766,4140.512695,4137.436035,4135.897461,4134.871582,4145.128418,4141.025879,4151.282227,4134.358887,4167.692383,880.000000,4.000000,,,,0.000000,4.000000,4.000000,4.000000,4.000000,4.000000,4.000000,4.000000,4.000000,4.000000,4.000000,4.000000,4.000000,4.000000,4.000000,100.000000
1602006328.635969,115.000000,0.000000,4153.333496,4144.102539,4141.025879,4142.051270,4136.922852,4135.384766,4137.948730,4131.794922,4127.179688,4153.846191,4144.615234,4156.922852,4138.974121,4174.358887,837.000000,4.000000,,,,0.000000,4.000000,4.000000,4.000000,4.000000,4.000000,4.000000,4.000000,4.000000,4.000000,4.000000,4.000000,4.000000,4.000000,4.000000,100.000000
1602006328.643851,116.000000,0.000000,4153.846191,4145.641113,4145.128418,4150.256348,4139.487305,4138.974121,4138.974121,4131.282227,4120.512695,4143.589844,4140.512695,4154.358887,4142.563965,4158.461426,768.000000,4.000000,,,,0.000000,4.000000,4.000000,4.000000,4.000000,4.000000,4.000000,4.000000,4.000000,4.000000,4.000000,4.000000,4.000000,4.000000,4.000000,100.000000
1602006328.651732,117.000000,0.000000,4153.333496,4148.717773,4142.051270,4145.128418,4146.666504,4144.615234,4140.000000,4129.743652,4111.794922,4125.128418,4136.922852,4151.282227,4136.922852,4149.230957,742.000000,4.000000,,,,0.000000,4.000000,4.000000,4.000000,4.000000,4.000000,4.000000,4.000000,4.000000,4.000000,4.000000,4.000000,4.000000,4.000000,4.000000,100.000000
1602006328.659613,118.000000,0.000000,4156.922852,4144.615234,4138.461426,4134.358887,4151.282227,4137.436035,4136.410156,4125.128418,4103.077148,4132.820313,4126.153809,4149.743652,4127.692383,4153.846191,880.000000,4.000000,,,,0.000000,4.000000,4.000000,4.000000,4.000000,4.000000,4.000000,4.000000,4.000000,4.000000,4.000000,4.000000,4.000000,4.000000,4.000000,100.000000
1602006328.667594,119.000000,0.000000,4160.000000,4141.538574,4142.563965,4139.487305,4142.051270,4123.077148,4125.641113,4122.563965,4101.538574,4142.051270,4115.897461,4145.128418,4123.589844,4155.384766,837.000000,4.000000,,,,0.000000,4.000000,4.000000,4.000000,4.000000,4.000000,4.000000,4.000000,4.000000,4.000000,4.000000,4.000000,4.000000,4.000000,4.000000,100.000000
1602006328.675476,120.000000,0.000000,4161.538574,4141.025879,4150.256348,4151.794922,4134.358887,4120.000000,4118.974121,4121.538574,4100.000000,4125.128418,4120.512695,4144.615234,4123.077148,4153.846191,768.000000,4.000000,,,,0.000000,4.000000,4.000000,4.000000,4.000000,4.000000,4.000000,4.000000,4.000000,4.000000,4.000000,4.000000,4.000000,4.000000,4.000000,100.000000
1602006328.683357,121.000000,0.000000,4168.205078,4143.077148,4157.948730,4153.333496,4138.974121,4125.128418,4124.102539,4120.000000,4099.487305,4122.051270,4132.820313,4153.333496,4123.077148,4153.846191,742.000000,4.000000,,,,0.000000,4.000000,4.000000,4.000000,4.000000,4.000000,4.000000,4.000000,4.000000,4.000000,4.000000,4.000000,4.000000,4.000000,4.000000,100.000000
1602006328.691238,122.000000,0.000000,4175.897461,4152.307617,4162.051270,4153.333496,4142.563965,4123.077148,4131.282227,4122.563965,4108.717773,4138.461426,4139.487305,4168.205078,4128.717773,4163.077148,880.000000,4.000000,,,,0.000000,4.000000,4.000000,4.000000,4.000000,4.000000,4.000000,4.000000,4.000000,4.000000,4.000000,4.000000,4.000000,4.000000,4.000000,100.000000
1602006328.699120,123.000000,0.000000,4174.358887,4153.846191,4158.974121,4156.410156,4138.461426,4118.461426,4129.743652,4129.230957,4114.358887,4141.538574,4141.025879,4170.769043,4136.922852,4174.358887,837.000000,4.000000,,,,0.000000,4.000000,4.000000,4.000000,4.000000,4.000000,4.000000,4.000000,4.000000,4.000000,4.000000,4.000000,4.000000,4.000000,4.000000,100.000000
1602006328.707001,124.000000,0.000000,4168.205078,4141.538574,4153.846191,4149.743652,4136.922852,4121.025879,4125.641113,4128.205078,4107.692383,4140.000000,4141.025879,4158.974121,4136.922852,4167.179688,768.000000,4.000000,,,,0.000000,4.000000,4.000000,4.000000,4.000000,4.000000,4.000000,4.000000,4.000000,4.000000,4.000000,4.000000,4.000000,4.000000,4.000000,100.000000
1602006328.714883,125.000000,0.000000,4167.179688,4137.948730,4153.846191,4137.436035,4138.461426,4122.051270,4129.230957,4124.615234,4106.153809,4132.307617,4141.538574,4155.897461,4135.384766,4156.922852,742.000000,4.000000,,,,0.000000,4.000000,4.000000,4.000000,4.000000,4.000000,4.000000,4.000000,4.000000,4.000000,4.000000,4.000000,4.000000,4.000000,4.000000,100.000000
1602006328.722764,126.000000,0.000000,4163.589844,4145.641113,4152.820313,4142.051270,4139.487305,4117.436035,4136.410156,4130.256348,4118.974121,4120.512695,4139.487305,4160.512695,4143.077148,4153.846191,880.000000,4.000000,,,,0.000000,4.000000,4.000000,4.000000,4.000000,4.000000,4.000000,4.000000,4.000000,4.000000,4.000000,4.000000,4.000000,4.000000,4.000000,100.000000
1602006328.730745,127.000000,0.000000,4158.974121,4152.307617,4144.102539,4151.794922,4143.589844,4124.615234,4137.948730,4139.487305,4128.205078,4138.461426,4134.358887,4155.897461,4151.794922,4152.307617,837.000000,4.000000,,,,0.000000,4.000000,4.000000,4.000000,4.000000,4.000000,4.000000,4.000000,4.000000,4.000000,4.000000,4.000000,4.000000,4.000000,4.000000,100.000000
1602006328.738626,128.000000,0.000000,4160.000000,4150.769043,4136.410156,4146.153809,4152.307617,4136.410156,4137.436035,4141.025879,4122.563965,4166.153809,4137.436035,4156.410156,4154.871582,4158.461426,768.000000,4.000000,,,,0.000000,4.000000,4.000000,4.000000,4.000000,4.000000,4.000000,4.000000,4.000000,4.000000,4.000000,4.000000,4.000000,4.000000,4.000000,100.000000
1602006328.746507,0.000000,0.000000,4158.974121,4142.051270,4136.922852,4136.922852,4153.333496,4133.846191,4137.948730,4138.974121,4119.487305,4165.128418,4148.205078,4169.743652,4153.846191,4164.615234,795.000000,4.000000,,,,0.000000,4.000000,4.000000,4.000000,4.000000,4.000000,4.000000,4.000000,4.000000,4.000000,4.000000,4.000000,4.000000,4.000000,4.000000,100.000000
1602006328.754389,1.000000,0.000000,4153.333496,4136.410156,4138.461426,4136.922852,4145.128418,4129.230957,4138.461426,4140.512695,4125.128418,4146.153809,4153.333496,4172.820313,4152.820313,4164.102539,788.000000,4.000000,,,,0.000000,4.000000,4.000000,4.000000,4.000000,4.000000,4.000000,4.000000,4.000000,4.000000,4.000000,4.000000,4.000000,4.000000,4.000000,100.000000
1602006328.762270,2.000000,0.000000,4152.307617,4136.922852,4136.410156,4137.436035,4140.512695,4137.948730,4140.512695,4146.666504,4133.846191,4137.436035,4156.410156,4171.282227,4154.358887,4166.153809,854.000000,4.000000,,,,0.000000,4.000000,4.000000,4.000000,4.000000,4.000000,4.000000,4.000000,4.000000,4.000000,4.000000,4.000000,4.000000,4.000000,4.000000,100.000000
1602006328.770251,3.000000,0.000000,4159.487305,4135.897461,4135.384766,4136.410156,4140.000000,4143.077148,4140.000000,4152.820313,4145.641113,4147.692383,4157.436035,4178.461426,4156.410156,4169.230957,869.000000,4.000000,,,,0.000000,4.000000,4.000000,4.000000,4.000000,4.000000,4.000000,4.000000,4.000000,4.000000,4.000000,4.000000,4.000000,4.000000,4.000000,100.000000
1602006328.778133,4.000000,0.000000,4167.179688,4137.436035,4142.051270,4140.512695,4139.487305,4133.846191,4141.538574,4155.897461,4157.436035,4160.000000,4156.922852,4187.179688,4163.077148,4174.358887,815.000000,4.000000,,,,0.000000,4.000000,4.000000,4.000000,4.000000,4.000000,4.000000,4.000000,4.000000,4.000000,4.000000,4.000000,4.000000,4.000000,4.000000,100.000000
1602006328.786015,5.000000,0.000000,4169.743652,4141.538574,4146.153809,4141.538574,4140.512695,4126.666504,4143.077148,4154.871582,4160.000000,4155.384766,4161.025879,4191.282227,4169.743652,4185.128418,824.000000,4.000000,,,,0.000000,4.000000,4.000000,4.000000,4.000000,4.000000,4.000000,4.000000,4.000000,4.000000,4.000000,4.000000,4.000000,4.000000,4.000000,100.000000
1602006328.793896,6.000000,0.000000,4162.563965,4140.512695,4139.487305,4137.948730,4139.487305,4123.589844,4132.820313,4145.128418,4147.179688,4148.717773,4155.897461,4182.563965,4163.589844,4178.461426,764.000000,4.000000,,,,0.000000,4.000000,4.000000,4.000000,4.000000,4.000000,4.000000,4.000000,4.000000,4.000000,4.000000,4.000000,4.000000,4.000000,4.000000,100.000000
1602006328.801778,7.000000,0.000000,4153.333496,4136.410156,4132.820313,4136.922852,4138.461426,4118.461426,4120.512695,4131.282227,4127.179688,4157.436035,4138.461426,4167.179688,4149.230957,4158.461426,666.000000,4.000000,,,,0.000000,4.000000,4.000000,4.000000,4.000000,4.000000,4.000000,4.000000,4.000000,4.000000,4.000000,4.000000,4.000000,4.000000,4.000000,100.000000
1602006328.809660,8.000000,0.000000,4155.384766,4138.461426,4135.897461,4141.025879,4140.000000,4119.487305,4122.051270,4126.666504,4118.974121,4153.846191,4134.871582,4166.153809,4141.538574,4151.282227,788.000000,4.000000,,,,0.000000,4.000000,4.000000,4.000000,4.000000,4.000000,4.000000,4.000000,4.000000,4.000000,4.000000,4.000000,4.000000,4.000000,4.000000,100.000000
1602006328.817541,9.000000,0.000000,4155.384766,4141.025879,4138.974121,4141.538574,4140.512695,4130.256348,4125.641113,4125.128418,4118.974121,4127.692383,4146.153809,4168.717773,4141.025879,4147.692383,839.000000,4.000000,,,,0.000000,4.000000,4.000000,4.000000,4.000000,4.000000,4.000000,4.000000,4.000000,4.000000,4.000000,4.000000,4.000000,4.000000,4.000000,100.000000
1602006328.825423,10.000000,0.000000,4144.615234,4131.282227,4132.820313,4132.307617,4138.461426,4132.307617,4123.589844,4119.487305,4110.256348,4113.846191,4140.000000,4158.974121,4134.871582,4136.410156,889.000000,4.000000,,,,0.000000,4.000000,4.000000,4.000000,4.000000,4.000000,4.000000,4.000000,4.000000,4.000000,4.000000,4.000000,4.000000,4.000000,4.000000,100.000000
1602006328.833304,11.000000,0.000000,4136.410156,4119.487305,4129.230957,4125.641113,4136.410156,4125.128418,4126.153809,4118.461426,4104.102539,4115.384766,4123.077148,4150.769043,4120.512695,4124.615234,837.000000,4.000000,,,,0.000000,4.000000,4.000000,4.000000,4.000000,4.000000,4.000000,4.000000,4.000000,4.000000,4.000000,4.000000,4.000000,4.000000,4.000000,100.000000
1602006328.841186,12.000000,0.000000,4132.820313,4118.461426,4133.846191,4122.051270,4129.230957,4124.102539,4127.179688,4121.025879,4112.820313,4097.436035,4116.410156,4150.256348,4110.769043,4118.461426,768.000000,4.000000,,,,0.000000,4.000000,4.000000,4.000000,4.000000,4.000000,4.000000,4.000000,4.000000,4.000000,4.000000,4.000000,4.000000,4.000000,4.000000,100.000000
1602006328.848968,13.000000,0.000000,4129.230957,4118.461426,4135.897461,4119.487305,4124.102539,4124.102539,4126.153809,4124.615234,4122.051270,4081.538574,4116.922852,4149.230957,4113.333496,4123.589844,742.000000,4.000000,,,,0.000000,4.000000,4.000000,4.000000,4.000000,4.000000,4.000000,4.000000,4.000000,4.000000,4.000000,4.000000,4.000000,4.000000,4.000000,100.000000
1602006328.856849,14.000000,0.000000,4133.333496,4126.153809,4140.000000,4126.666504,4133.333496,4124.102539,4129.743652,4133.333496,4125.128418,4109.743652,4125.641113,4156.922852,4122.051270,4135.384766,889.000000,4.000000,,,,0.000000,4.000000,4.000000,4.000000,4.000000,4.000000,4.000000,4.000000,4.000000,4.000000,4.000000,4.000000,4.000000,4.000000,4.000000,100.000000
1602006328.864730,15.000000,0.000000,4142.563965,4139.487305,4148.717773,4137.436035,4142.563965,4124.615234,4128.205078,4134.358887,4130.769043,4131.794922,4130.769043,4170.256348,4128.205078,4141.538574,837.000000,4.000000,,,,0.000000,4.000000,4.000000,4.000000,4.000000,4.000000,4.000000,4.000000,4.000000,4.000000,4.000000,4.000000,4.000000,4.000000,4.000000,100.000000
1602006328.872612,16.000000,0.000000,4144.615234,4134.871582,4147.179688,4131.282227,4134.358887,4114.358887,4118.974121,4122.563965,4124.615234,4111.794922,4108.717773,4172.820313,4124.615234,4141.025879,0.000000,4.000000,,,,0.000000,4.000000,4.000000,4.000000,4.000000,4.000000,4.000000,4.000000,4.000000,4.000000,4.000000,4.000000,4.000000,4.000000,4.000000,100.000000
1602006328.880493,17.000000,0.000000,4147.692383,4124.615234,4139.487305,4121.025879,4121.538574,4106.153809,4117.436035,4114.871582,4106.666504,4095.897461,4093.846191,4167.179688,4117.436035,4137.948730,0.000000,4.000000,,,,0.000000,4.000000,4.000000,4.000000,4.000000,4.000000,4.000000,4.000000,4.000000,4.000000,4.000000,4.000000,4.000000,4.000000,4.000000,100.000000
1602006328.888375,18.000000,0.000000,4154.871582,4132.820313,4140.512695,4130.256348,4122.051270,4117.948730,4131.282227,4119.487305,4105.641113,4111.282227,4123.077148,4172.820313,4127.179688,4138.461426,0.000000,4.000000,,,,0.000000,4.000000,4.000000,4.000000,4.000000,4.000000,4.000000,4.000000,4.000000,4.000000,4.000000,4.000000,4.000000,4.000000,4.000000,100.000000
1602006328.896256,19.000000,0.000000,4153.333496,4141.025879,4142.563965,4138.461426,4130.256348,4132.307617,4142.051270,4125.641113,4114.358887,4133.333496,4149.230957,4182.563965,4142.051270,4145.128418,0.000000,4.000000,,,,0.000000,4.000000,4.000000,4.000000,4.000000,4.000000,4.000000,4.000000,4.000000,4.000000,4.000000,4.000000,4.000000,4.000000,4.000000,100.000000
1602006328.904137,20.000000,0.000000,4150.769043,4135.897461,4146.666504,4135.384766,4135.384766,4134.358887,4141.538574,4125.641113,4106.666504,4140.000000,4136.922852,4180.000000,4142.051270,4146.666504,0.000000,4.000000,,,,0.000000,4.000000,4.000000,4.000000,4.000000,4.000000,4.000000,4.000000,4.000000,4.000000,4.000000,4.000000,4.000000,4.000000,4.000000,100.000000
1602006328.912118,21.000000,0.000000,4155.384766,4134.871582,4153.846191,4133.846191,4135.897461,4135.384766,4139.487305,4125.641113,4103.589844,4127.179688,4124.615234,4173.846191,4137.436035,4138.974121,0.000000,4.000000,,,,0.000000,4.000000,4.000000,4.000000,4.000000,4.000000,4.000000,4.000000,4.000000,4.000000,4.000000,4.000000,4.000000,4.000000,4.000000,100.000000
1602006328.919999,22.000000,0.000000,4152.307617,4138.974121,4150.256348,4134.358887,4137.948730,4140.512695,4140.000000,4132.820313,4126.153809,4116.410156,4127.692383,4175.897461,4141.025879,4137.436035,0.000000,4.000000,,,,0.000000,4.000000,4.000000,4.000000,4.000000,4.000000,4.000000,4.000000,4.000000,4.000000,4.000000,4.000000,4.000000,4.000000,4.000000,100.000000
1602006328.927880,23.000000,0.000000,4140.512695,4139.487305,4139.487305,4134.871582,4143.077148,4144.615234,4140.000000,4140.512695,4148.205078,4125.641113,4126.666504,4170.769043,4142.563965,4142.563965,0.000000,4.000000,,,,0.000000,4.000000,4.000000,4.000000,4.000000,4.000000,4.000000,4.000000,4.000000,4.000000,4.000000,4.000000,4.000000,4.000000,4.000000,100.000000
1602006328.935761,24.000000,0.000000,4135.897461,4136.410156,4131.794922,4134.871582,4142.563965,4142.051270,4138.461426,4140.512695,4152.307617,4143.589844,4128.717773,4156.410156,4138.974121,4140.000000,0.000000,4.000000,,,,0.000000,4.000000,4.000000,4.000000,4.000000,4.000000,4.000000,4.000000,4.000000,4.000000,4.000000,4.000000,4.000000,4.000000,4.000000,100.000000
1602006328.943542,25.000000,0.000000,4140.000000,4135.897461,4127.179688,4134.871582,4136.410156,4135.384766,4134.871582,4139.487305,4158.461426,4157.948730,4138.974121,4153.333496,4139.487305,4136.410156,0.000000,4.000000,,,,0.000000,4.000000,4.000000,4.000000,4.000000,4.000000,4.000000,4.000000,4.000000,4.000000,4.000000,4.000000,4.000000,4.000000,4.000000,100.000000
1602006328.951523,26.000000,0.000000,4135.897461,4138.461426,4126.153809,4136.410156,4135.897461,4127.179688,4123.589844,4137.436035,4157.436035,4150.256348,4134.871582,4154.871582,4138.461426,4138.974121,0.000000,4.000000,,,,0.000000,4.000000,4.000000,4.000000,4.000000,4.000000,4.000000,4.000000,4.000000,4.000000,4.000000,4.000000,4.000000,4.000000,4.000000,100.000000
1602006328.959404,27.000000,0.000000,4133.333496,4136.922852,4132.307617,4134.871582,4139.487305,4123.589844,4118.461426,4132.307617,4140.000000,4136.922852,4122.563965,4153.333496,4136.922852,4141.538574,0.000000,4.000000,,,,0.000000,4.000000,4.000000,4.000000,4.000000,4.000000,4.000000,4.000000,4.000000,4.000000,4.000000,4.000000,4.000000,4.000000,4.000000,100.000000
1602006328.967284,28.000000,0.000000,4143.077148,4135.384766,4140.000000,4129.743652,4139.487305,4136.410156,4129.230957,4130.769043,4135.384766,4138.974121,4129.743652,4163.589844,4140.512695,4141.538574,0.000000,4.000000,,,,0.000000,4.000000,4.000000,4.000000,4.000000,4.000000,4.000000,4.000000,4.000000,4.000000,4.000000,4.000000,4.000000,4.000000,4.000000,100.000000
1602006328.975066,29.000000,0.000000,4145.641113,4137.436035,4134.871582,4129.230957,4136.922852,4143.589844,4137.948730,4128.205078,4144.615234,4126.153809,4136.922852,4168.717773,4142.051270,4137.436035,0.000000,4.000000,,,,0.000000,4.000000,4.000000,4.000000,4.000000,4.000000,4.000000,4.000000,4.000000,4.000000,4.000000,4.000000,4.000000,4.000000,4.000000,100.000000
1602006328.982947,30.000000,0.000000,4133.333496,4136.410156,4121.538574,4135.897461,4135.897461,4128.205078,4135.384766,4125.641113,4142.051270,4105.641113,4124.102539,4154.358887,4134.358887,4132.307617,0.000000,4.000000,,,,0.000000,4.000000,4.000000,4.000000,4.000000,4.000000,4.000000,4.000000,4.000000,4.000000,4.000000,4.000000,4.000000,4.000000,4.000000,100.000000
1602006328.990829,31.000000,0.000000,4134.871582,4133.846191,4120.000000,4137.948730,4135.384766,4124.615234,4134.358887,4132.820313,4136.410156,4121.538574,4121.538574,4153.333496,4136.410156,4138.974121,0.000000,4.000000,,,,0.000000,4.000000,4.000000,4.000000,4.000000,4.000000,4.000000,4.000000,4.000000,4.000000,4.000000,4.000000,4.000000,4.000000,4.000000,100.000000
1602006328.998710,32.000000,0.000000,4151.282227,4137.948730,4133.846191,4137.948730,4137.436035,4137.436035,4139.487305,4144.102539,4143.077148,4155.384766,4139.487305,4167.692383,4150.256348,4154.358887,0.000000,4.000000,,,,0.000000,4.000000,4.000000,4.000000,4.000000,4.000000,4.000000,4.000000,4.000000,4.000000,4.000000,4.000000,4.000000,4.000000,4.000000,100.000000
1602006329.006592,33.000000,0.000000,4148.205078,4136.922852,4137.948730,4134.871582,4139.487305,4131.282227,4137.436035,4145.641113,4141.538574,4156.922852,4143.077148,4162.563965,4147.179688,4158.461426,0.000000,4.000000,,,,0.000000,4.000000,4.000000,4.000000,4.000000,4.000000,4.000000,4.000000,4.000000,4.000000,4.000000,4.000000,4.000000,4.000000,4.000000,100.000000
1602006329.014473,34.000000,0.000000,4132.307617,4126.153809,4133.846191,4129.743652,4137.436035,4116.922852,4128.717773,4139.487305,4132.307617,4137.948730,4126.666504,4147.179688,4133.846191,4145.641113,0.000000,4.000000,,,,0.000000,4.000000,4.000000,4.000000,4.000000,4.000000,4.000000,4.000000,4.000000,4.000000,4.000000,4.000000,4.000000,4.000000,4.000000,100.000000
1602006329.022454,35.000000,0.000000,4133.846191,4126.153809,4135.897461,4132.820313,4134.871582,4128.205078,4129.743652,4135.897461,4140.000000,4127.179688,4123.589844,4147.179688,4134.358887,4144.102539,0.000000,4.000000,,,,0.000000,4.000000,4.000000,4.000000,4.000000,4.000000,4.000000,4.000000,4.000000,4.000000,4.000000,4.000000,4.000000,4.000000,4.000000,100.000000
1602006329.030335,36.000000,0.000000,4141.025879,4132.820313,4133.333496,4135.384766,4135.897461,4144.102539,4135.897461,4136.410156,4154.358887,4126.153809,4136.410156,4151.794922,4141.025879,4149.743652,0.000000,4.000000,,,,0.000000,4.000000,4.000000,4.000000,4.000000,4.000000,4.000000,4.000000,4.000000,4.000000,4.000000,4.000000,4.000000,4.000000,4.000000,100.000000
1602006329.038316,37.000000,0.000000,4138.974121,4126.666504,4124.102539,4127.179688,4136.922852,4141.025879,4135.897461,4136.410156,4155.384766,4133.846191,4145.641113,4152.307617,4138.974121,4141.538574,0.000000,4.000000,,,,0.000000,4.000000,4.000000,4.000000,4.000000,4.000000,4.000000,4.000000,4.000000,4.000000,4.000000,4.000000,4.000000,4.000000,4.000000,100.000000
1602006329.046197,38.000000,0.000000,4133.846191,4124.102539,4121.025879,4126.666504,4135.897461,4137.436035,4133.846191,4136.410156,4153.333496,4140.000000,4138.974121,4152.820313,4138.461426,4131.794922,0.000000,4.000000,,,,0.000000,4.000000,4.000000,4.000000,4.000000,4.000000,4.000000,4.000000,4.000000,4.000000,4.000000,4.000000,4.000000,4.000000,4.000000,100.000000
1602006329.054178,39.000000,0.000000,4134.871582,4136.922852,4126.666504,4136.922852,4136.922852,4132.820313,4136.922852,4138.461426,4157.436035,4138.974121,4125.128418,4152.307617,4140.512695,4134.871582,0.000000,4.000000,,,,0.000000,4.000000,4.000000,4.000000,4.000000,4.000000,4.000000,4.000000,4.000000,4.000000,4.000000,4.000000,4.000000,4.000000,4.000000,100.000000
1602006329.062059,40.000000,0.000000,4145.128418,4142.051270,4131.794922,4141.538574,4136.922852,4122.563965,4133.846191,4138.974121,4155.384766,4140.512695,4126.153809,4151.794922,4138.461426,4138.461426,0.000000,4.000000,,,,0.000000,4.000000,4.000000,4.000000,4.000000,4.000000,4.000000,4.000000,4.000000,4.000000,4.000000,4.000000,4.000000,4.000000,4.000000,100.000000
1602006329.069941,41.000000,0.000000,4152.307617,4135.897461,4134.871582,4137.948730,4137.436035,4119.487305,4125.641113,4138.461426,4151.794922,4154.358887,4138.974121,4156.410156,4141.538574,4143.077148,0.000000,4.000000,,,,0.000000,4.000000,4.000000,4.000000,4.000000,4.000000,4.000000,4.000000,4.000000,4.000000,4.000000,4.000000,4.000000,4.000000,4.000000,100.000000
1602006329.077822,42.000000,0.000000,4149.230957,4145.128418,4137.948730,4138.974121,4138.974121,4122.051270,4122.051270,4140.000000,4151.794922,4160.000000,4142.563965,4165.641113,4153.333496,4156.410156,0.000000,4.000000,,,,0.000000,4.000000,4.000000,4.000000,4.000000,4.000000,4.000000,4.000000,4.000000,4.000000,4.000000,4.000000,4.000000,4.000000,4.000000,100.000000
1602006329.085703,43.000000,0.000000,4149.230957,4153.846191,4142.051270,4142.563965,4132.307617,4113.333496,4118.974121,4137.948730,4143.589844,4136.922852,4139.487305,4169.743652,4157.436035,4163.077148,0.000000,4.000000,,,,0.000000,4.000000,4.000000,4.000000,4.000000,4.000000,4.000000,4.000000,4.000000,4.000000,4.000000,4.000000,4.000000,4.000000,4.000000,100.000000
1602006329.093585,44.000000,0.000000,4156.410156,4145.128418,4145.641113,4142.563965,4121.025879,4107.179688,4114.358887,4134.358887,4134.358887,4117.948730,4141.025879,4165.641113,4145.641113,4157.948730,0.000000,4.000000,,,,0.000000,4.000000,4.000000,4.000000,4.000000,4.000000,4.000000,4.000000,4.000000,4.000000,4.000000,4.000000,4.000000,4.000000,4.000000,100.000000
1602006329.101466,45.000000,0.000000,4153.846191,4137.948730,4145.641113,4139.487305,4119.487305,4113.333496,4118.974121,4133.846191,4129.230957,4128.717773,4139.487305,4166.666504,4136.410156,4153.846191,0.000000,4.000000,,,,0.000000,4.000000,4.000000,4.000000,4.000000,4.000000,4.000000,4.000000,4.000000,4.000000,4.000000,4.000000,4.000000,4.000000,4.000000,100.000000
1602006329.109448,46.000000,0.000000,4140.512695,4140.000000,4142.051270,4140.000000,4126.666504,4121.538574,4132.820313,4135.384766,4122.563965,4139.487305,4139.487305,4167.692383,4140.000000,4152.820313,0.000000,4.000000,,,,0.000000,4.000000,4.000000,4.000000,4.000000,4.000000,4.000000,4.000000,4.000000,4.000000,4.000000,4.000000,4.000000,4.000000,4.000000,100.000000
1602006329.117329,47.000000,0.000000,4135.384766,4138.974121,4136.922852,4139.487305,4131.794922,4131.794922,4140.512695,4131.794922,4118.974121,4128.205078,4136.922852,4157.436035,4142.051270,4147.692383,0.000000,4.000000,,,,0.000000,4.000000,4.000000,4.000000,4.000000,4.000000,4.000000,4.000000,4.000000,4.000000,4.000000,4.000000,4.000000,4.000000,4.000000,100.000000
1602006329.125210,48.000000,0.000000,4140.512695,4137.436035,4132.307617,4135.384766,4135.384766,4144.615234,4142.563965,4126.666504,4119.487305,4120.000000,4122.563965,4150.256348,4137.948730,4132.307617,0.000000,4.000000,,,,0.000000,4.000000,4.000000,4.000000,4.000000,4.000000,4.000000,4.000000,4.000000,4.000000,4.000000,4.000000,4.000000,4.000000,4.000000,100.000000
1602006329.133092,49.000000,0.000000,4147.179688,4143.077148,4136.410156,4136.922852,4137.436035,4147.692383,4151.282227,4131.282227,4121.538574,4124.102539,4121.538574,4156.410156,4138.974121,4130.256348,0.000000,4.000000,,,,0.000000,4.000000,4.000000,4.000000,4.000000,4.000000,4.000000,4.000000,4.000000,4.000000,4.000000,4.000000,4.000000,4.000000,4.000000,100.000000
1602006329.140973,50.000000,0.000000,4147.179688,4143.077148,4143.077148,4141.025879,4136.922852,4141.538574,4154.871582,4138.461426,4124.615234,4125.128418,4133.333496,4161.025879,4142.051270,4146.666504,0.000000,4.000000,,,,0.000000,4.000000,4.000000,4.000000,4.000000,4.000000,4.000000,4.000000,4.000000,4.000000,4.000000,4.000000,4.000000,4.000000,4.000000,100.000000
1602006329.148855,51.000000,0.000000,4145.641113,4137.948730,4142.563965,4139.487305,4136.410156,4136.922852,4142.051270,4134.871582,4126.666504,4125.641113,4124.615234,4155.897461,4131.794922,4151.794922,0.000000,4.000000,,,,0.000000,4.000000,4.000000,4.000000,4.000000,4.000000,4.000000,4.000000,4.000000,4.000000,4.000000,4.000000,4.000000,4.000000,4.000000,100.000000
1602006329.156736,52.000000,0.000000,4143.589844,4138.461426,4138.974121,4138.974121,4132.307617,4129.743652,4127.692383,4126.153809,4127.179688,4134.358887,4115.897461,4152.307617,4126.153809,4139.487305,0.000000,4.000000,,,,0.000000,4.000000,4.000000,4.000000,4.000000,4.000000,4.000000,4.000000,4.000000,4.000000,4.000000,4.000000,4.000000,4.000000,4.000000,100.000000
1602006329.164518,53.000000,0.000000,4145.128418,4141.538574,4141.025879,4140.000000,4131.282227,4122.563965,4122.051270,4126.666504,4126.666504,4143.077148,4132.307617,4160.000000,4134.358887,4132.820313,0.000000,4.000000,,,,0.000000,4.000000,4.000000,4.000000,4.000000,4.000000,4.000000,4.000000,4.000000,4.000000,4.000000,4.000000,4.000000,4.000000,4.000000,100.000000
1602006329.172399,54.000000,0.000000,4154.871582,4142.563965,4145.128418,4139.487305,4136.922852,4120.512695,4113.846191,4129.743652,4123.589844,4140.512695,4138.974121,4167.179688,4136.922852,4142.563965,0.000000,4.000000,,,,0.000000,4.000000,4.000000,4.000000,4.000000,4.000000,4.000000,4.000000,4.000000,4.000000,4.000000,4.000000,4.000000,4.000000,4.000000,100.000000
1602006329.180281,55.000000,0.000000,4156.410156,4142.563965,4143.589844,4141.025879,4138.974121,4120.512695,4110.256348,4126.153809,4122.051270,4126.666504,4125.128418,4160.512695,4135.897461,4149.230957,0.000000,4.000000,,,,0.000000,4.000000,4.000000,4.000000,4.000000,4.000000,4.000000,4.000000,4.000000,4.000000,4.000000,4.000000,4.000000,4.000000,4.000000,100.000000
1602006329.188163,56.000000,0.000000,4142.563965,4141.025879,4137.948730,4141.025879,4139.487305,4128.205078,4120.000000,4127.692383,4133.846191,4119.487305,4121.538574,4151.282227,4141.025879,4145.641113,0.000000,4.000000,,,,0.000000,4.000000,4.000000,4.000000,4.000000,4.000000,4.000000,4.000000,4.000000,4.000000,4.000000,4.000000,4.000000,4.000000,4.000000,100.000000
1602006329.196044,57.000000,0.000000,4134.358887,4138.461426,4135.897461,4134.871582,4144.615234,4140.512695,4127.692383,4137.436035,4149.230957,4136.410156,4131.794922,4150.769043,4143.077148,4147.179688,0.000000,4.000000,,,,0.000000,4.000000,4.000000,4.000000,4.000000,4.000000,4.000000,4.000000,4.000000,4.000000,4.000000,4.000000,4.000000,4.000000,4.000000,100.000000
1602006329.203926,58.000000,0.000000,4138.974121,4136.410156,4137.436035,4133.846191,4146.666504,4142.051270,4128.717773,4138.974121,4150.769043,4156.410156,4136.922852,4151.794922,4137.948730,4153.333496,0.000000,4.000000,,,,0.000000,4.000000,4.000000,4.000000,4.000000,4.000000,4.000000,4.000000,4.000000,4.000000,4.000000,4.000000,4.000000,4.000000,4.000000,100.000000
1602006329.211808,59.000000,0.000000,4135.384766,4129.743652,4133.333496,4132.820313,4138.461426,4137.948730,4129.230957,4134.871582,4151.794922,4156.922852,4131.794922,4149.743652,4135.897461,4142.563965,0.000000,4.000000,,,,0.000000,4.000000,4.000000,4.000000,4.000000,4.000000,4.000000,4.000000,4.000000,4.000000,4.000000,4.000000,4.000000,4.000000,4.000000,100.000000
1602006329.219689,60.000000,0.000000,4125.128418,4126.153809,4124.615234,4126.153809,4133.846191,4138.461426,4128.205078,4138.461426,4155.384766,4150.256348,4129.743652,4149.743652,4134.358887,4128.717773,0.000000,4.000000,,,,0.000000,4.000000,4.000000,4.000000,4.000000,4.000000,4.000000,4.000000,4.000000,4.000000,4.000000,4.000000,4.000000,4.000000,4.000000,100.000000
1602006329.227571,61.000000,0.000000,4122.051270,4133.846191,4123.077148,4127.179688,4135.897461,4131.282227,4123.589844,4134.871582,4138.461426,4144.102539,4128.205078,4149.743652,4133.333496,4138.461426,0.000000,4.000000,,,,0.000000,4.000000,4.000000,4.000000,4.000000,4.000000,4.000000,4.000000,4.000000,4.000000,4.000000,4.000000,4.000000,4.000000,4.000000,100.000000
1602006329.235352,62.000000,0.000000,4122.051270,4140.000000,4126.666504,4138.461426,4130.256348,4122.563965,4123.077148,4123.077148,4118.461426,4127.692383,4125.641113,4152.820313,4140.000000,4140.000000,0.000000,4.000000,,,,0.000000,4.000000,4.000000,4.000000,4.000000,4.000000,4.000000,4.000000,4.000000,4.000000,4.000000,4.000000,4.000000,4.000000,4.000000,100.000000
1602006329.243233,63.000000,0.000000,4125.641113,4134.358887,4126.666504,4141.025879,4126.153809,4130.769043,4126.666504,4125.641113,4124.615234,4114.358887,4131.282227,4153.333496,4141.538574,4123.589844,0.000000,4.000000,,,,0.000000,4.000000,4.000000,4.000000,4.000000,4.000000,4.000000,4.000000,4.000000,4.000000,4.000000,4.000000,4.000000,4.000000,4.000000,100.000000
1602006329.251214,64.000000,0.000000,4125.128418,4122.563965,4120.000000,4127.692383,4132.307617,4131.794922,4126.666504,4134.871582,4138.461426,4121.025879,4138.461426,4145.641113,4128.205078,4125.641113,795.000000,4.000000,,,,0.000000,4.000000,4.000000,4.000000,4.000000,4.000000,4.000000,4.000000,4.000000,4.000000,4.000000,4.000000,4.000000,4.000000,4.000000,100.000000
1602006329.259095,65.000000,0.000000,4120.512695,4118.974121,4117.436035,4122.051270,4134.358887,4121.025879,4120.000000,4133.846191,4135.897461,4137.436035,4135.897461,4142.563965,4123.077148,4144.615234,788.000000,4.000000,,,,0.000000,4.000000,4.000000,4.000000,4.000000,4.000000,4.000000,4.000000,4.000000,4.000000,4.000000,4.000000,4.000000,4.000000,4.000000,100.000000
1602006329.266975,66.000000,0.000000,4130.256348,4131.282227,4132.820313,4133.846191,4138.974121,4128.205078,4120.000000,4134.871582,4133.846191,4152.820313,4136.410156,4152.820313,4138.974121,4155.384766,854.000000,4.000000,,,,0.000000,4.000000,4.000000,4.000000,4.000000,4.000000,4.000000,4.000000,4.000000,4.000000,4.000000,4.000000,4.000000,4.000000,4.000000,100.000000
1602006329.274756,67.000000,0.000000,4141.025879,4142.051270,4143.077148,4146.153809,4149.230957,4145.641113,4133.333496,4141.538574,4145.128418,4156.922852,4146.153809,4161.538574,4148.205078,4151.282227,869.000000,4.000000,,,,0.000000,4.000000,4.000000,4.000000,4.000000,4.000000,4.000000,4.000000,4.000000,4.000000,4.000000,4.000000,4.000000,4.000000,4.000000,100.000000
1602006329.282538,68.000000,0.000000,4126.153809,4131.794922,4125.641113,4138.974121,4145.641113,4141.538574,4140.512695,4138.974121,4153.846191,4144.102539,4138.461426,4150.256348,4137.436035,4138.974121,815.000000,4.000000,,,,0.000000,4.000000,4.000000,4.000000,4.000000,4.000000,4.000000,4.000000,4.000000,4.000000,4.000000,4.000000,4.000000,4.000000,4.000000,100.000000
1602006329.290419,69.000000,0.000000,4112.820313,4119.487305,4111.794922,4122.563965,4134.871582,4135.897461,4136.922852,4140.000000,4157.436035,4135.897461,4129.230957,4135.384766,4131.794922,4133.333496,824.000000,4.000000,,,,0.000000,4.000000,4.000000,4.000000,4.000000,4.000000,4.000000,4.000000,4.000000,4.000000,4.000000,4.000000,4.000000,4.000000,4.000000,100.000000
1602006329.298300,70.000000,0.000000,4124.615234,4120.000000,4118.461426,4123.077148,4140.000000,4147.179688,4138.974121,4152.820313,4158.974121,4147.692383,4139.487305,4135.384766,4135.897461,4135.384766,747.000000,4.000000,,,,0.000000,4.000000,4.000000,4.000000,4.000000,4.000000,4.000000,4.000000,4.000000,4.000000,4.000000,4.000000,4.000000,4.000000,4.000000,100.000000
1602006329.306181,71.000000,0.000000,4137.436035,4128.717773,4127.179688,4135.384766,4147.179688,4150.769043,4144.102539,4154.871582,4159.487305,4162.563965,4144.615234,4143.589844,4142.563965,4138.461426,666.000000,4.000000,,,,0.000000,4.000000,4.000000,4.000000,4.000000,4.000000,4.000000,4.000000,4.000000,4.000000,4.000000,4.000000,4.000000,4.000000,4.000000,100.000000
1602006329.314062,72.000000,0.000000,4139.487305,4139.487305,4134.871582,4141.538574,4143.077148,4136.410156,4136.410156,4143.589844,4155.384766,4153.846191,4145.128418,4151.282227,4154.358887,4147.179688,788.000000,4.000000,,,,0.000000,4.000000,4.000000,4.000000,4.000000,4.000000,4.000000,4.000000,4.000000,4.000000,4.000000,4.000000,4.000000,4.000000,4.000000,100.000000
1602006329.321943,73.000000,0.000000,4136.922852,4143.077148,4142.563965,4140.512695,4135.897461,4121.025879,4122.051270,4138.974121,4142.563965,4132.307617,4146.666504,4154.871582,4155.384766,4160.000000,839.000000,4.000000,,,,0.000000,4.000000,4.000000,4.000000,4.000000,4.000000,4.000000,4.000000,4.000000,4.000000,4.000000,4.000000,4.000000,4.000000,4.000000,100.000000
1602006329.329725,74.000000,0.000000,4130.769043,4140.000000,4140.512695,4141.025879,4133.846191,4120.000000,4119.487305,4141.025879,4132.820313,4135.897461,4144.102539,4149.743652,4147.179688,4152.820313,878.000000,4.000000,,,,0.000000,4.000000,4.000000,4.000000,4.000000,4.000000,4.000000,4.000000,4.000000,4.000000,4.000000,4.000000,4.000000,4.000000,4.000000,100.000000
1602006329.337607,75.000000,0.000000,4124.615234,4135.897461,4127.179688,4142.051270,4134.358887,4129.230957,4124.615234,4136.410156,4136.922852,4152.307617,4137.948730,4140.512695,4139.487305,4135.384766,837.000000,4.000000,,,,0.000000,4.000000,4.000000,4.000000,4.000000,4.000000,4.000000,4.000000,4.000000,4.000000,4.000000,4.000000,4.000000,4.000000,4.000000,100.000000
1602006329.345488,76.000000,0.000000,4121.025879,4129.743652,4115.384766,4141.025879,4138.461426,4134.871582,4127.692383,4127.692383,4140.000000,4147.692383,4130.256348,4136.922852,4127.179688,4134.358887,768.000000,4.000000,,,,0.000000,4.000000,4.000000,4.000000,4.000000,4.000000,4.000000,4.000000,4.000000,4.000000,4.000000,4.000000,4.000000,4.000000,4.000000,100.000000
1602006329.353370,77.000000,0.000000,4118.461426,4123.077148,4114.358887,4135.384766,4142.563965,4139.487305,4127.179688,4123.589844,4129.230957,4131.794922,4125.128418,4136.410156,4119.487305,4138.974121,742.000000,4.000000,,,,0.000000,4.000000,4.000000,4.000000,4.000000,4.000000,4.000000,4.000000,4.000000,4.000000,4.000000,4.000000,4.000000,4.000000,4.000000,100.000000
1602006329.361252,78.000000,0.000000,4117.948730,4122.051270,4121.538574,4126.666504,4142.051270,4138.461426,4125.641113,4121.025879,4121.538574,4121.538574,4134.358887,4136.410156,4127.692383,4135.897461,878.000000,4.000000,,,,0.000000,4.000000,4.000000,4.000000,4.000000,4.000000,4.000000,4.000000,4.000000,4.000000,4.000000,4.000000,4.000000,4.000000,4.000000,100.000000
1602006329.369133,79.000000,0.000000,4120.512695,4123.077148,4123.077148,4124.615234,4140.000000,4133.846191,4127.179688,4127.692383,4130.256348,4123.077148,4136.410156,4139.487305,4132.820313,4134.871582,837.000000,4.000000,,,,0.000000,4.000000,4.000000,4.000000,4.000000,4.000000,4.000000,4.000000,4.000000,4.000000,4.000000,4.000000,4.000000,4.000000,4.000000,100.000000
1602006329.377015,80.000000,0.000000,4120.512695,4122.563965,4125.128418,4127.692383,4135.897461,4131.794922,4128.717773,4136.410156,4136.922852,4138.974121,4117.436035,4139.487305,4126.153809,4138.974121,768.000000,4.000000,,,,0.000000,4.000000,4.000000,4.000000,4.000000,4.000000,4.000000,4.000000,4.000000,4.000000,4.000000,4.000000,4.000000,4.000000,4.000000,100.000000
1602006329.384897,81.000000,0.000000,4121.025879,4121.025879,4135.384766,4127.692383,4125.128418,4122.563965,4128.717773,4137.948730,4136.410156,4142.051270,4121.025879,4137.948730,4131.282227,4146.153809,742.000000,4.000000,,,,0.000000,4.000000,4.000000,4.000000,4.000000,4.000000,4.000000,4.000000,4.000000,4.000000,4.000000,4.000000,4.000000,4.000000,4.000000,100.000000
1602006329.392778,82.000000,0.000000,4130.256348,4124.615234,4141.025879,4130.256348,4117.436035,4111.282227,4132.307617,4143.077148,4144.102539,4133.333496,4151.794922,4146.153809,4149.743652,4156.410156,878.000000,4.000000,,,,0.000000,4.000000,4.000000,4.000000,4.000000,4.000000,4.000000,4.000000,4.000000,4.000000,4.000000,4.000000,4.000000,4.000000,4.000000,100.000000
1602006329.400559,83.000000,0.000000,4140.512695,4136.922852,4141.025879,4137.948730,4126.666504,4122.051270,4139.487305,4156.922852,4158.974121,4159.487305,4166.153809,4158.461426,4161.538574,4165.641113,837.000000,4.000000,,,,0.000000,4.000000,4.000000,4.000000,4.000000,4.000000,4.000000,4.000000,4.000000,4.000000,4.000000,4.000000,4.000000,4.000000,4.000000,100.000000
1602006329.408441,84.000000,0.000000,4142.563965,4141.538574,4141.025879,4139.487305,4134.871582,4140.512695,4142.563965,4161.538574,4159.487305,4177.436035,4155.384766,4160.512695,4161.538574,4165.128418,768.000000,4.000000,,,,0.000000,4.000000,4.000000,4.000000,4.000000,4.000000,4.000000,4.000000,4.000000,4.000000,4.000000,4.000000,4.000000,4.000000,4.000000,100.000000
1602006329.416322,85.000000,0.000000,4136.410156,4130.769043,4135.897461,4129.230957,4127.179688,4132.307617,4139.487305,4148.205078,4137.948730,4148.205078,4140.512695,4149.743652,4153.333496,4154.358887,742.000000,4.000000,,,,0.000000,4.000000,4.000000,4.000000,4.000000,4.000000,4.000000,4.000000,4.000000,4.000000,4.000000,4.000000,4.000000,4.000000,4.000000,100.000000
1602006329.424203,86.000000,0.000000,4126.153809,4124.615234,4122.051270,4122.563965,4123.077148,4123.589844,4137.948730,4132.820313,4116.410156,4132.307617,4140.000000,4139.487305,4138.974121,4136.922852,878.000000,4.000000,,,,0.000000,4.000000,4.000000,4.000000,4.000000,4.000000,4.000000,4.000000,4.000000,4.000000,4.000000,4.000000,4.000000,4.000000,4.000000,100.000000
1602006329.432084,87.000000,0.000000,4113.846191,4125.128418,4107.692383,4128.717773,4132.307617,4133.846191,4136.922852,4123.589844,4108.205078,4142.051270,4136.922852,4133.846191,4125.128418,4123.589844,837.000000,4.000000,,,,0.000000,4.000000,4.000000,4.000000,4.000000,4.000000,4.000000,4.000000,4.000000,4.000000,4.000000,4.000000,4.000000,4.000000,4.000000,100.000000
1602006329.439965,88.000000,0.000000,4108.717773,4125.128418,4106.153809,4136.922852,4140.512695,4137.948730,4130.256348,4121.538574,4108.205078,4132.307617,4124.102539,4132.820313,4121.538574,4128.717773,768.000000,4.000000,,,,0.000000,4.000000,4.000000,4.000000,4.000000,4.000000,4.000000,4.000000,4.000000,4.000000,4.000000,4.000000,4.000000,4.000000,4.000000,100.000000
1602006329.447947,89.000000,0.000000,4116.922852,4131.282227,4118.974121,4136.922852,4141.025879,4136.410156,4123.077148,4122.051270,4114.358887,4104.615234,4122.051270,4133.846191,4126.666504,4144.615234,742.000000,4.000000,,,,0.000000,4.000000,4.000000,4.000000,4.000000,4.000000,4.000000,4.000000,4.000000,4.000000,4.000000,4.000000,4.000000,4.000000,4.000000,100.000000
1602006329.455828,90.000000,0.000000,4132.307617,4140.512695,4130.769043,4137.436035,4142.563965,4142.051270,4121.025879,4123.589844,4123.077148,4093.333252,4134.358887,4138.461426,4129.230957,4153.846191,878.000000,4.000000,,,,0.000000,4.000000,4.000000,4.000000,4.000000,4.000000,4.000000,4.000000,4.000000,4.000000,4.000000,4.000000,4.000000,4.000000,4.000000,100.000000
1602006329.463709,91.000000,0.000000,4140.000000,4141.025879,4131.282227,4140.000000,4145.128418,4140.000000,4124.102539,4131.282227,4125.641113,4114.358887,4140.000000,4149.230957,4128.205078,4150.769043,837.000000,4.000000,,,,0.000000,4.000000,4.000000,4.000000,4.000000,4.000000,4.000000,4.000000,4.000000,4.000000,4.000000,4.000000,4.000000,4.000000,4.000000,100.000000
1602006329.471591,92.000000,0.000000,4131.282227,4132.820313,4123.589844,4133.333496,4141.025879,4124.102539,4128.717773,4135.897461,4122.051270,4147.692383,4132.820313,4151.282227,4124.615234,4149.743652,768.000000,4.000000,,,,0.000000,4.000000,4.000000,4.000000,4.000000,4.000000,4.000000,4.000000,4.000000,4.000000,4.000000,4.000000,4.000000,4.000000,4.000000,100.000000
1602006329.479472,93.000000,0.000000,4122.563965,4126.153809,4117.436035,4121.025879,4137.436035,4125.641113,4133.333496,4136.410156,4121.025879,4153.333496,4130.769043,4143.589844,4124.615234,4148.205078,742.000000,4.000000,,,,0.000000,4.000000,4.000000,4.000000,4.000000,4.000000,4.000000,4.000000,4.000000,4.000000,4.000000,4.000000,4.000000,4.000000,4.000000,100.000000
1602006329.487354,94.000000,0.000000,4121.538574,4121.025879,4111.282227,4116.410156,4137.948730,4132.820313,4135.384766,4136.410156,4122.563965,4142.563965,4133.846191,4135.897461,4131.794922,4132.307617,878.000000,4.000000,,,,0.000000,4.000000,4.000000,4.000000,4.000000,4.000000,4.000000,4.000000,4.000000,4.000000,4.000000,4.000000,4.000000,4.000000,4.000000,100.000000
1602006329.495335,95.000000,0.000000,4120.000000,4120.000000,4111.282227,4117.436035,4131.282227,4114.358887,4134.358887,4136.410156,4120.000000,4142.563965,4137.948730,4137.436035,4140.000000,4123.077148,837.000000,4.000000,,,,0.000000,4.000000,4.000000,4.000000,4.000000,4.000000,4.000000,4.000000,4.000000,4.000000,4.000000,4.000000,4.000000,4.000000,4.000000,100.000000
1602006329.503217,96.000000,0.000000,4128.205078,4128.205078,4125.128418,4124.102539,4126.666504,4103.589844,4134.871582,4136.922852,4120.000000,4132.820313,4143.589844,4147.692383,4145.128418,4145.128418,768.000000,4.000000,,,,0.000000,4.000000,4.000000,4.000000,4.000000,4.000000,4.000000,4.000000,4.000000,4.000000,4.000000,4.000000,4.000000,4.000000,4.000000,100.000000
1602006329.511098,97.000000,0.000000,4149.230957,4138.974121,4141.025879,4135.897461,4135.897461,4127.179688,4137.948730,4139.487305,4125.128418,4124.615234,4145.641113,4156.922852,4152.307617,4174.871582,742.000000,4.000000,,,,0.000000,4.000000,4.000000,4.000000,4.000000,4.000000,4.000000,4.000000,4.000000,4.000000,4.000000,4.000000,4.000000,4.000000,4.000000,100.000000
1602006329.518980,98.000000,0.000000,4160.000000,4141.538574,4143.589844,4142.051270,4142.563965,4148.205078,4141.538574,4142.051270,4127.692383,4143.589844,4144.615234,4159.487305,4157.436035,4176.922852,878.000000,4.000000,,,,0.000000,4.000000,4.000000,4.000000,4.000000,4.000000,4.000000,4.000000,4.000000,4.000000,4.000000,4.000000,4.000000,4.000000,4.000000,100.000000
1602006329.526862,99.000000,0.000000,4151.794922,4132.307617,4133.333496,4134.871582,4137.436035,4142.563965,4140.512695,4135.897461,4123.589844,4158.461426,4140.512695,4151.794922,4147.179688,4156.410156,837.000000,4.000000,,,,0.000000,4.000000,4.000000,4.000000,4.000000,4.000000,4.000000,4.000000,4.000000,4.000000,4.000000,4.000000,4.000000,4.000000,4.000000,100.000000
1602006329.534743,100.000000,0.000000,4137.948730,4123.589844,4118.974121,4127.179688,4134.358887,4135.384766,4135.384766,4127.179688,4120.512695,4145.641113,4132.820313,4139.487305,4129.743652,4142.051270,768.000000,4.000000,,,,0.000000,4.000000,4.000000,4.000000,4.000000,4.000000,4.000000,4.000000,4.000000,4.000000,4.000000,4.000000,4.000000,4.000000,4.000000,100.000000
1602006329.542625,101.000000,0.000000,4126.153809,4123.589844,4109.230957,4125.641113,4139.487305,4139.487305,4136.410156,4125.641113,4120.000000,4123.589844,4125.128418,4132.820313,4121.538574,4134.871582,742.000000,4.000000,,,,0.000000,4.000000,4.000000,4.000000,4.000000,4.000000,4.000000,4.000000,4.000000,4.000000,4.000000,4.000000,4.000000,4.000000,4.000000,100.000000
1602006329.550507,102.000000,0.000000,4118.974121,4124.615234,4109.230957,4125.641113,4142.051270,4143.589844,4137.948730,4128.717773,4120.000000,4116.410156,4127.179688,4135.384766,4121.538574,4123.589844,878.000000,4.000000,,,,0.000000,4.000000,4.000000,4.000000,4.000000,4.000000,4.000000,4.000000,4.000000,4.000000,4.000000,4.000000,4.000000,4.000000,4.000000,100.000000
1602006329.558388,103.000000,0.000000,4119.487305,4122.563965,4115.897461,4123.589844,4140.512695,4136.922852,4129.230957,4132.820313,4115.384766,4130.256348,4129.230957,4135.897461,4120.512695,4125.128418,837.000000,4.000000,,,,0.000000,4.000000,4.000000,4.000000,4.000000,4.000000,4.000000,4.000000,4.000000,4.000000,4.000000,4.000000,4.000000,4.000000,4.000000,100.000000
1602006329.566170,104.000000,0.000000,4119.487305,4121.025879,4119.487305,4123.589844,4137.948730,4123.589844,4117.948730,4134.871582,4107.179688,4141.025879,4120.000000,4139.487305,4117.948730,4144.615234,768.000000,4.000000,,,,0.000000,4.000000,4.000000,4.000000,4.000000,4.000000,4.000000,4.000000,4.000000,4.000000,4.000000,4.000000,4.000000,4.000000,4.000000,100.000000
1602006329.574052,105.000000,0.000000,4120.000000,4126.153809,4124.615234,4126.666504,4139.487305,4121.025879,4118.461426,4135.897461,4105.641113,4133.846191,4125.128418,4153.333496,4123.077148,4154.871582,742.000000,4.000000,,,,0.000000,4.000000,4.000000,4.000000,4.000000,4.000000,4.000000,4.000000,4.000000,4.000000,4.000000,4.000000,4.000000,4.000000,4.000000,100.000000
1602006329.581933,106.000000,0.000000,4130.256348,4127.179688,4134.358887,4127.692383,4140.000000,4128.205078,4123.589844,4136.922852,4115.384766,4133.333496,4139.487305,4158.974121,4129.230957,4149.230957,878.000000,4.000000,,,,0.000000,4.000000,4.000000,4.000000,4.000000,4.000000,4.000000,4.000000,4.000000,4.000000,4.000000,4.000000,4.000000,4.000000,4.000000,100.000000
1602006329.589815,107.000000,0.000000,4138.974121,4123.077148,4138.974121,4123.077148,4134.358887,4122.051270,4121.025879,4135.897461,4122.563965,4136.410156,4126.666504,4154.871582,4124.102539,4145.128418,837.000000,4.000000,,,,0.000000,4.000000,4.000000,4.000000,4.000000,4.000000,4.000000,4.000000,4.000000,4.000000,4.000000,4.000000,4.000000,4.000000,4.000000,100.000000
1602006329.597697,108.000000,0.000000,4136.410156,4119.487305,4134.871582,4119.487305,4123.589844,4105.641113,4124.102539,4133.846191,4120.512695,4127.179688,4118.461426,4152.307617,4120.000000,4135.897461,768.000000,4.000000,,,,0.000000,4.000000,4.000000,4.000000,4.000000,4.000000,4.000000,4.000000,4.000000,4.000000,4.000000,4.000000,4.000000,4.000000,4.000000,100.000000
1602006329.605578,109.000000,0.000000,4135.384766,4121.025879,4135.897461,4124.102539,4118.974121,4104.102539,4138.461426,4144.615234,4118.461426,4132.307617,4146.666504,4155.384766,4133.846191,4133.846191,742.000000,4.000000,,,,0.000000,4.000000,4.000000,4.000000,4.000000,4.000000,4.000000,4.000000,4.000000,4.000000,4.000000,4.000000,4.000000,4.000000,4.000000,100.000000
1602006329.613460,110.000000,0.000000,4141.025879,4129.743652,4142.051270,4134.358887,4125.641113,4117.436035,4146.153809,4157.948730,4128.717773,4155.384766,4162.563965,4158.974121,4151.282227,4151.794922,878.000000,4.000000,,,,0.000000,4.000000,4.000000,4.000000,4.000000,4.000000,4.000000,4.000000,4.000000,4.000000,4.000000,4.000000,4.000000,4.000000,4.000000,100.000000
1602006329.621342,111.000000,0.000000,4148.717773,4136.410156,4143.077148,4140.000000,4134.358887,4132.820313,4144.615234,4155.897461,4142.051270,4168.205078,4148.205078,4160.000000,4152.820313,4162.051270,837.000000,4.000000,,,,0.000000,4.000000,4.000000,4.000000,4.000000,4.000000,4.000000,4.000000,4.000000,4.000000,4.000000,4.000000,4.000000,4.000000,4.000000,100.000000
1602006329.629223,112.000000,0.000000,4158.461426,4139.487305,4143.589844,4139.487305,4140.512695,4145.128418,4142.051270,4149.743652,4147.692383,4174.871582,4153.333496,4161.538574,4153.846191,4158.461426,768.000000,4.000000,,,,0.000000,4.000000,4.000000,4.000000,4.000000,4.000000,4.000000,4.000000,4.000000,4.000000,4.000000,4.000000,4.000000,4.000000,4.000000,100.000000
1602006329.637005,113.000000,0.000000,4157.948730,4144.615234,4144.615234,4141.538574,4142.563965,4139.487305,4133.846191,4142.051270,4143.077148,4169.743652,4165.128418,4157.948730,4158.461426,4158.974121,742.000000,4.000000,,,,0.000000,4.000000,4.000000,4.000000,4.000000,4.000000,4.000000,4.000000,4.000000,4.000000,4.000000,4.000000,4.000000,4.000000,4.000000,100.000000
1602006329.644887,114.000000,0.000000,4139.487305,4142.051270,4134.871582,4140.000000,4136.410156,4114.358887,4122.051270,4127.179688,4126.666504,4142.563965,4147.179688,4143.077148,4147.692383,4155.897461,878.000000,4.000000,,,,0.000000,4.000000,4.000000,4.000000,4.000000,4.000000,4.000000,4.000000,4.000000,4.000000,4.000000,4.000000,4.000000,4.000000,4.000000,100.000000
1602006329.652768,115.000000,0.000000,4126.153809,4131.282227,4120.512695,4127.179688,4133.333496,4103.077148,4119.487305,4124.615234,4112.307617,4131.794922,4135.384766,4135.897461,4136.922852,4143.589844,837.000000,4.000000,,,,0.000000,4.000000,4.000000,4.000000,4.000000,4.000000,4.000000,4.000000,4.000000,4.000000,4.000000,4.000000,4.000000,4.000000,4.000000,100.000000
1602006329.660650,116.000000,0.000000,4126.666504,4130.256348,4114.358887,4120.512695,4142.051270,4114.871582,4123.077148,4132.307617,4109.743652,4147.692383,4139.487305,4140.512695,4135.897461,4137.948730,768.000000,4.000000,,,,0.000000,4.000000,4.000000,4.000000,4.000000,4.000000,4.000000,4.000000,4.000000,4.000000,4.000000,4.000000,4.000000,4.000000,4.000000,100.000000
1602006329.668531,117.000000,0.000000,4126.153809,4137.948730,4118.461426,4126.666504,4146.666504,4122.563965,4121.025879,4125.128418,4108.717773,4146.666504,4127.179688,4138.974121,4128.717773,4134.871582,742.000000,4.000000,,,,0.000000,4.000000,4.000000,4.000000,4.000000,4.000000,4.000000,4.000000,4.000000,4.000000,4.000000,4.000000,4.000000,4.000000,4.000000,100.000000
1602006329.676413,118.000000,0.000000,4119.487305,4133.846191,4122.563965,4128.205078,4140.512695,4124.102539,4115.384766,4111.794922,4107.692383,4134.871582,4106.153809,4133.846191,4117.948730,4125.641113,878.000000,4.000000,,,,0.000000,4.000000,4.000000,4.000000,4.000000,4.000000,4.000000,4.000000,4.000000,4.000000,4.000000,4.000000,4.000000,4.000000,4.000000,100.000000
1602006329.684295,119.000000,0.000000,4115.897461,4123.077148,4118.461426,4124.615234,4136.922852,4124.615234,4117.436035,4114.358887,4108.717773,4126.666504,4108.205078,4132.307617,4118.461426,4122.051270,837.000000,4.000000,,,,0.000000,4.000000,4.000000,4.000000,4.000000,4.000000,4.000000,4.000000,4.000000,4.000000,4.000000,4.000000,4.000000,4.000000,4.000000,100.000000
1602006329.692176,120.000000,0.000000,4126.153809,4126.153809,4118.461426,4132.307617,4137.948730,4131.282227,4130.769043,4132.820313,4115.897461,4128.205078,4133.846191,4137.948730,4130.256348,4131.282227,768.000000,4.000000,,,,0.000000,4.000000,4.000000,4.000000,4.000000,4.000000,4.000000,4.000000,4.000000,4.000000,4.000000,4.000000,4.000000,4.000000,4.000000,100.000000
1602006329.700058,121.000000,0.000000,4138.461426,4136.410156,4130.256348,4135.384766,4139.487305,4140.512695,4143.077148,4150.769043,4132.820313,4147.692383,4151.282227,4149.230957,4139.487305,4147.179688,742.000000,4.000000,,,,0.000000,4.000000,4.000000,4.000000,4.000000,4.000000,4.000000,4.000000,4.000000,4.000000,4.000000,4.000000,4.000000,4.000000,4.000000,100.000000
1602006329.708039,122.000000,0.000000,4137.436035,4136.410156,4138.461426,4124.102539,4140.512695,4144.102539,4143.077148,4151.282227,4146.153809,4160.000000,4149.230957,4153.333496,4142.563965,4158.974121,878.000000,4.000000,,,,0.000000,4.000000,4.000000,4.000000,4.000000,4.000000,4.000000,4.000000,4.000000,4.000000,4.000000,4.000000,4.000000,4.000000,4.000000,100.000000
1602006329.715920,123.000000,0.000000,4134.871582,4132.307617,4140.000000,4123.077148,4138.974121,4141.538574,4141.025879,4142.563965,4143.077148,4158.461426,4142.051270,4158.974121,4145.641113,4158.974121,837.000000,4.000000,,,,0.000000,4.000000,4.000000,4.000000,4.000000,4.000000,4.000000,4.000000,4.000000,4.000000,4.000000,4.000000,4.000000,4.000000,4.000000,100.000000
1602006329.723801,124.000000,0.000000,4141.538574,4137.436035,4141.025879,4136.922852,4138.461426,4140.000000,4140.512695,4137.436035,4131.794922,4160.512695,4143.077148,4168.717773,4147.179688,4155.384766,768.000000,4.000000,,,,0.000000,4.000000,4.000000,4.000000,4.000000,4.000000,4.000000,4.000000,4.000000,4.000000,4.000000,4.000000,4.000000,4.000000,4.000000,100.000000
1602006329.731683,125.000000,0.000000,4142.051270,4141.025879,4141.025879,4142.051270,4138.974121,4140.512695,4130.769043,4129.230957,4118.974121,4152.820313,4148.717773,4163.077148,4135.384766,4154.871582,742.000000,4.000000,,,,0.000000,4.000000,4.000000,4.000000,4.000000,4.000000,4.000000,4.000000,4.000000,4.000000,4.000000,4.000000,4.000000,4.000000,4.000000,100.000000
1602006329.739564,126.000000,0.000000,4133.333496,4132.820313,4136.922852,4134.871582,4137.436035,4138.461426,4118.974121,4117.436035,4103.589844,4126.153809,4139.487305,4151.794922,4123.077148,4148.205078,878.000000,4.000000,,,,0.000000,4.000000,4.000000,4.000000,4.000000,4.000000,4.000000,4.000000,4.000000,4.000000,4.000000,4.000000,4.000000,4.000000,4.000000,100.000000
1602006329.747545,127.000000,0.000000,4130.256348,4125.128418,4132.307617,4129.230957,4136.410156,4136.922852,4113.846191,4119.487305,4103.077148,4114.871582,4122.051270,4154.358887,4120.000000,4134.871582,837.000000,4.000000,,,,0.000000,4.000000,4.000000,4.000000,4.000000,4.000000,4.000000,4.000000,4.000000,4.000000,4.000000,4.000000,4.000000,4.000000,4.000000,100.000000
1602006329.755426,128.000000,0.000000,4120.512695,4121.538574,4125.641113,4125.128418,4137.436035,4131.282227,4103.589844,4118.974121,4109.743652,4121.538574,4115.897461,4150.256348,4111.794922,4124.102539,768.000000,4.000000,,,,0.000000,4.000000,4.000000,4.000000,4.000000,4.000000,4.000000,4.000000,4.000000,4.000000,4.000000,4.000000,4.000000,4.000000,4.000000,100.000000
1602006329.763307,0.000000,0.000000,4107.179688,4119.487305,4117.436035,4123.077148,4139.487305,4124.102539,4095.897461,4106.666504,4100.512695,4129.230957,4121.538574,4137.948730,4107.179688,4123.077148,795.000000,4.000000,,,,0.000000,4.000000,4.000000,4.000000,4.000000,4.000000,4.000000,4.000000,4.000000,4.000000,4.000000,4.000000,4.000000,4.000000,4.000000,100.000000
1602006329.771188,1.000000,0.000000,4113.846191,4123.589844,4111.794922,4127.692383,4140.000000,4122.051270,4100.512695,4108.717773,4092.307617,4114.358887,4116.922852,4132.820313,4107.692383,4116.410156,788.000000,4.000000,,,,0.000000,4.000000,4.000000,4.000000,4.000000,4.000000,4.000000,4.000000,4.000000,4.000000,4.000000,4.000000,4.000000,4.000000,4.000000,100.000000
1602006329.779069,2.000000,0.000000,4118.461426,4123.589844,4104.615234,4126.153809,4134.871582,4120.000000,4106.666504,4117.948730,4101.025879,4082.051270,4102.563965,4125.128418,4095.384521,4097.436035,854.000000,4.000000,,,,0.000000,4.000000,4.000000,4.000000,4.000000,4.000000,4.000000,4.000000,4.000000,4.000000,4.000000,4.000000,4.000000,4.000000,4.000000,100.000000
1602006329.786951,3.000000,0.000000,4110.256348,4118.974121,4106.153809,4126.153809,4132.820313,4111.794922,4113.846191,4121.538574,4110.769043,4086.153809,4106.666504,4120.000000,4089.743652,4101.538574,869.000000,4.000000,,,,0.000000,4.000000,4.000000,4.000000,4.000000,4.000000,4.000000,4.000000,4.000000,4.000000,4.000000,4.000000,4.000000,4.000000,4.000000,100.000000
1602006329.794732,4.000000,0.000000,4114.871582,4125.128418,4119.487305,4136.410156,4134.871582,4104.615234,4126.153809,4129.743652,4114.871582,4120.000000,4123.589844,4130.256348,4110.769043,4123.589844,815.000000,4.000000,,,,0.000000,4.000000,4.000000,4.000000,4.000000,4.000000,4.000000,4.000000,4.000000,4.000000,4.000000,4.000000,4.000000,4.000000,4.000000,100.000000
1602006329.802613,5.000000,0.000000,4133.846191,4137.948730,4131.794922,4144.615234,4135.897461,4111.282227,4130.256348,4141.025879,4122.563965,4132.820313,4127.692383,4146.666504,4132.307617,4126.153809,824.000000,4.000000,,,,0.000000,4.000000,4.000000,4.000000,4.000000,4.000000,4.000000,4.000000,4.000000,4.000000,4.000000,4.000000,4.000000,4.000000,4.000000,100.000000
1602006329.810594,6.000000,0.000000,4142.051270,4141.538574,4136.410156,4142.563965,4135.897461,4115.384766,4126.153809,4147.692383,4127.179688,4135.897461,4127.692383,4156.410156,4137.436035,4125.641113,762.000000,4.000000,,,,0.000000,4.000000,4.000000,4.000000,4.000000,4.000000,4.000000,4.000000,4.000000,4.000000,4.000000,4.000000,4.000000,4.000000,4.000000,100.000000
1602006329.818475,7.000000,0.000000,4138.461426,4138.461426,4137.948730,4138.974121,4132.820313,4107.692383,4124.615234,4153.333496,4123.589844,4145.641113,4137.948730,4163.077148,4145.128418,4141.025879,667.000000,4.000000,,,,0.000000,4.000000,4.000000,4.000000,4.000000,4.000000,4.000000,4.000000,4.000000,4.000000,4.000000,4.000000,4.000000,4.000000,4.000000,100.000000
1602006329.826356,8.000000,0.000000,4140.000000,4140.000000,4141.538574,4140.512695,4130.769043,4110.256348,4118.461426,4151.794922,4125.641113,4148.205078,4147.179688,4168.205078,4156.922852,4149.230957,788.000000,4.000000,,,,0.000000,4.000000,4.000000,4.000000,4.000000,4.000000,4.000000,4.000000,4.000000,4.000000,4.000000,4.000000,4.000000,4.000000,4.000000,100.000000
1602006329.834237,9.000000,0.000000,4143.589844,4144.102539,4144.102539,4140.512695,4134.871582,4120.512695,4108.205078,4140.000000,4133.846191,4143.589844,4144.615234,4171.794922,4160.000000,4144.615234,839.000000,4.000000,,,,0.000000,4.000000,4.000000,4.000000,4.000000,4.000000,4.000000,4.000000,4.000000,4.000000,4.000000,4.000000,4.000000,4.000000,4.000000,100.000000
1602006329.842219,10.000000,0.000000,4143.077148,4142.563965,4143.589844,4138.974121,4138.461426,4126.153809,4108.717773,4134.871582,4136.922852,4136.410156,4142.563965,4171.794922,4156.410156,4142.563965,878.000000,4.000000,,,,0.000000,4.000000,4.000000,4.000000,4.000000,4.000000,4.000000,4.000000,4.000000,4.000000,4.000000,4.000000,4.000000,4.000000,4.000000,100.000000
1602006329.850100,11.000000,0.000000,4140.512695,4139.487305,4137.948730,4138.974121,4138.974121,4137.436035,4116.410156,4132.820313,4140.512695,4141.025879,4143.077148,4167.179688,4149.230957,4143.589844,837.000000,4.000000,,,,0.000000,4.000000,4.000000,4.000000,4.000000,4.000000,4.000000,4.000000,4.000000,4.000000,4.000000,4.000000,4.000000,4.000000,4.000000,100.000000
1602006329.857982,12.000000,0.000000,4133.846191,4135.897461,4128.717773,4137.948730,4145.641113,4157.948730,4123.077148,4126.153809,4142.051270,4155.897461,4128.717773,4156.410156,4136.410156,4135.897461,768.000000,4.000000,,,,0.000000,4.000000,4.000000,4.000000,4.000000,4.000000,4.000000,4.000000,4.000000,4.000000,4.000000,4.000000,4.000000,4.000000,4.000000,100.000000
1602006329.865864,13.000000,0.000000,4114.358887,4130.256348,4116.922852,4132.307617,4148.205078,4161.538574,4125.128418,4121.538574,4134.358887,4137.948730,4104.102539,4138.461426,4114.871582,4109.230957,742.000000,4.000000,,,,0.000000,4.000000,4.000000,4.000000,4.000000,4.000000,4.000000,4.000000,4.000000,4.000000,4.000000,4.000000,4.000000,4.000000,4.000000,100.000000
1602006329.873745,14.000000,0.000000,4103.077148,4121.538574,4107.692383,4124.615234,4141.025879,4148.205078,4122.563965,4120.512695,4129.230957,4100.000000,4096.922852,4128.717773,4102.563965,4089.743652,878.000000,4.000000,,,,0.000000,4.000000,4.000000,4.000000,4.000000,4.000000,4.000000,4.000000,4.000000,4.000000,4.000000,4.000000,4.000000,4.000000,4.000000,100.000000
1602006329.881627,15.000000,0.000000,4108.717773,4118.461426,4109.743652,4122.051270,4139.487305,4135.384766,4120.512695,4126.153809,4133.846191,4100.000000,4113.333496,4132.307617,4114.358887,4102.563965,837.000000,4.000000,,,,0.000000,4.000000,4.000000,4.000000,4.000000,4.000000,4.000000,4.000000,4.000000,4.000000,4.000000,4.000000,4.000000,4.000000,4.000000,100.000000
1602006329.889509,16.000000,0.000000,4116.922852,4127.692383,4125.641113,4128.205078,4141.025879,4125.641113,4122.051270,4135.384766,4144.615234,4133.846191,4131.282227,4140.512695,4134.358887,4121.025879,0.000000,4.000000,,,,0.000000,4.000000,4.000000,4.000000,4.000000,4.000000,4.000000,4.000000,4.000000,4.000000,4.000000,4.000000,4.000000,4.000000,4.000000,100.000000
1602006329.897390,17.000000,0.000000,4129.230957,4140.512695,4140.000000,4138.974121,4142.051270,4117.436035,4122.051270,4144.102539,4152.820313,4150.769043,4138.461426,4150.769043,4140.512695,4124.615234,0.000000,4.000000,,,,0.000000,4.000000,4.000000,4.000000,4.000000,4.000000,4.000000,4.000000,4.000000,4.000000,4.000000,4.000000,4.000000,4.000000,4.000000,100.000000
1602006329.905372,18.000000,0.000000,4131.282227,4142.051270,4141.538574,4142.051270,4139.487305,4112.820313,4120.512695,4144.615234,4146.666504,4138.461426,4134.871582,4154.871582,4136.922852,4115.897461,0.000000,4.000000,,,,0.000000,4.000000,4.000000,4.000000,4.000000,4.000000,4.000000,4.000000,4.000000,4.000000,4.000000,4.000000,4.000000,4.000000,4.000000,100.000000
1602006329.913253,19.000000,0.000000,4125.128418,4134.871582,4135.897461,4136.410156,4136.922852,4114.871582,4118.974121,4134.358887,4129.230957,4133.846191,4126.153809,4150.769043,4142.563965,4112.307617,0.000000,4.000000,,,,0.000000,4.000000,4.000000,4.000000,4.000000,4.000000,4.000000,4.000000,4.000000,4.000000,4.000000,4.000000,4.000000,4.000000,4.000000,100.000000
1602006329.921135,20.000000,0.000000,4134.871582,4137.436035,4136.410156,4134.871582,4140.000000,4122.563965,4121.025879,4125.128418,4121.025879,4144.615234,4129.230957,4156.922852,4153.333496,4127.179688,0.000000,4.000000,,,,0.000000,4.000000,4.000000,4.000000,4.000000,4.000000,4.000000,4.000000,4.000000,4.000000,4.000000,4.000000,4.000000,4.000000,4.000000,100.000000
1602006329.929017,21.000000,0.000000,4146.153809,4144.615234,4148.205078,4138.974121,4144.102539,4131.282227,4124.102539,4125.128418,4128.205078,4145.641113,4142.563965,4173.846191,4159.487305,4141.538574,0.000000,4.000000,,,,0.000000,4.000000,4.000000,4.000000,4.000000,4.000000,4.000000,4.000000,4.000000,4.000000,4.000000,4.000000,4.000000,4.000000,4.000000,100.000000
1602006329.936898,22.000000,0.000000,4140.000000,4142.051270,4151.794922,4140.512695,4140.000000,4130.256348,4117.436035,4126.153809,4131.282227,4136.410156,4147.692383,4170.256348,4157.436035,4138.461426,0.000000,4.000000,,,,0.000000,4.000000,4.000000,4.000000,4.000000,4.000000,4.000000,4.000000,4.000000,4.000000,4.000000,4.000000,4.000000,4.000000,4.000000,100.000000
1602006329.944780,23.000000,0.000000,4136.922852,4139.487305,4142.563965,4137.436035,4134.358887,4125.128418,4106.666504,4122.051270,4136.922852,4131.794922,4138.461426,4151.282227,4147.692383,4132.820313,0.000000,4.000000,,,,0.000000,4.000000,4.000000,4.000000,4.000000,4.000000,4.000000,4.000000,4.000000,4.000000,4.000000,4.000000,4.000000,4.000000,4.000000,100.000000
1602006329.952662,24.000000,0.000000,4136.922852,4137.948730,4133.333496,4136.410156,4135.897461,4125.641113,4106.153809,4123.589844,4148.717773,4130.769043,4127.692383,4140.512695,4134.358887,4127.692383,0.000000,4.000000,,,,0.000000,4.000000,4.000000,4.000000,4.000000,4.000000,4.000000,4.000000,4.000000,4.000000,4.000000,4.000000,4.000000,4.000000,4.000000,100.000000
1602006329.960543,25.000000,0.000000,4125.128418,4128.205078,4121.538574,4134.871582,4137.436035,4120.000000,4110.769043,4127.692383,4148.717773,4122.051270,4119.487305,4132.820313,4118.461426,4115.897461,0.000000,4.000000,,,,0.000000,4.000000,4.000000,4.000000,4.000000,4.000000,4.000000,4.000000,4.000000,4.000000,4.000000,4.000000,4.000000,4.000000,4.000000,100.000000
1602006329.968425,26.000000,0.000000,4115.897461,4118.974121,4106.666504,4126.153809,4136.410156,4116.922852,4115.384766,4128.205078,4135.897461,4107.179688,4109.230957,4121.538574,4109.230957,4104.102539,0.000000,4.000000,,,,0.000000,4.000000,4.000000,4.000000,4.000000,4.000000,4.000000,4.000000,4.000000,4.000000,4.000000,4.000000,4.000000,4.000000,4.000000,100.000000
1602006329.976306,27.000000,0.000000,4113.333496,4119.487305,4105.128418,4120.000000,4134.871582,4118.974121,4122.563965,4126.153809,4126.153809,4102.051270,4103.589844,4117.436035,4105.128418,4092.307617,0.000000,4.000000,,,,0.000000,4.000000,4.000000,4.000000,4.000000,4.000000,4.000000,4.000000,4.000000,4.000000,4.000000,4.000000,4.000000,4.000000,4.000000,100.000000
1602006329.984088,28.000000,0.000000,4111.794922,4120.000000,4110.769043,4123.589844,4128.717773,4113.846191,4125.641113,4121.538574,4121.025879,4112.820313,4105.641113,4119.487305,4103.589844,4086.666748,0.000000,4.000000,,,,0.000000,4.000000,4.000000,4.000000,4.000000,4.000000,4.000000,4.000000,4.000000,4.000000,4.000000,4.000000,4.000000,4.000000,4.000000,100.000000
1602006329.991969,29.000000,0.000000,4122.051270,4119.487305,4113.333496,4126.666504,4124.102539,4113.846191,4124.615234,4124.615234,4118.974121,4117.948730,4111.794922,4128.205078,4109.230957,4103.589844,0.000000,4.000000,,,,0.000000,4.000000,4.000000,4.000000,4.000000,4.000000,4.000000,4.000000,4.000000,4.000000,4.000000,4.000000,4.000000,4.000000,4.000000,100.000000
1602006329.999850,30.000000,0.000000,4138.974121,4126.153809,4124.615234,4126.666504,4129.743652,4126.666504,4128.205078,4135.897461,4125.641113,4109.743652,4123.077148,4147.179688,4123.589844,4122.563965,0.000000,4.000000,,,,0.000000,4.000000,4.000000,4.000000,4.000000,4.000000,4.000000,4.000000,4.000000,4.000000,4.000000,4.000000,4.000000,4.000000,4.000000,100.000000
1602006330.007731,31.000000,0.000000,4144.102539,4130.256348,4137.948730,4132.820313,4137.436035,4130.769043,4126.153809,4133.846191,4128.205078,4107.179688,4132.820313,4154.358887,4135.384766,4124.102539,0.000000,4.000000,,,,0.000000,4.000000,4.000000,4.000000,4.000000,4.000000,4.000000,4.000000,4.000000,4.000000,4.000000,4.000000,4.000000,4.000000,4.000000,100.000000
1602006330.015612,32.000000,0.000000,4141.538574,4125.128418,4140.000000,4137.948730,4137.436035,4124.615234,4115.384766,4122.563965,4124.615234,4114.358887,4129.230957,4146.153809,4137.436035,4125.128418,0.000000,4.000000,,,,0.000000,4.000000,4.000000,4.000000,4.000000,4.000000,4.000000,4.000000,4.000000,4.000000,4.000000,4.000000,4.000000,4.000000,4.000000,100.000000
1602006330.023494,33.000000,0.000000,4142.051270,4122.051270,4141.538574,4135.897461,4134.871582,4117.948730,4106.666504,4123.077148,4128.205078,4125.128418,4122.563965,4148.717773,4138.974121,4136.922852,0.000000,4.000000,,,,0.000000,4.000000,4.000000,4.000000,4.000000,4.000000,4.000000,4.000000,4.000000,4.000000,4.000000,4.000000,4.000000,4.000000,4.000000,100.000000
1602006330.031475,34.000000,0.000000,4144.615234,4131.282227,4148.717773,4135.384766,4136.922852,4110.769043,4106.153809,4129.230957,4130.256348,4132.820313,4132.307617,4160.000000,4142.563965,4148.717773,0.000000,4.000000,,,,0.000000,4.000000,4.000000,4.000000,4.000000,4.000000,4.000000,4.000000,4.000000,4.000000,4.000000,4.000000,4.000000,4.000000,4.000000,100.000000
1602006330.039356,35.000000,0.000000,4140.000000,4134.358887,4142.563965,4140.000000,4139.487305,4115.384766,4106.153809,4123.589844,4123.077148,4124.102539,4141.538574,4155.384766,4137.948730,4143.589844,0.000000,4.000000,,,,0.000000,4.000000,4.000000,4.000000,4.000000,4.000000,4.000000,4.000000,4.000000,4.000000,4.000000,4.000000,4.000000,4.000000,4.000000,100.000000
1602006330.047238,36.000000,0.000000,4126.666504,4122.563965,4124.102539,4135.384766,4132.307617,4124.615234,4106.666504,4113.333496,4115.384766,4109.230957,4134.358887,4139.487305,4126.153809,4123.077148,0.000000,4.000000,,,,0.000000,4.000000,4.000000,4.000000,4.000000,4.000000,4.000000,4.000000,4.000000,4.000000,4.000000,4.000000,4.000000,4.000000,4.000000,100.000000
1602006330.055119,37.000000,0.000000,4116.922852,4114.358887,4115.897461,4123.077148,4122.563965,4119.487305,4112.307617,4111.794922,4107.179688,4109.230957,4121.538574,4132.307617,4120.000000,4104.615234,0.000000,4.000000,,,,0.000000,4.000000,4.000000,4.000000,4.000000,4.000000,4.000000,4.000000,4.000000,4.000000,4.000000,4.000000,4.000000,4.000000,4.000000,100.000000
