Timestamp,EEG.Counter,EEG.Interpolated,EEG.AF3,EEG.F7,EEG.F3,EEG.FC5,EEG.T7,EEG.P7,EEG.O1,EEG.O2,EEG.P8,EEG.T8,EEG.FC6,EEG.F4,EEG.F8,EEG.AF4,EEG.RawCq,EEG.Battery,MarkerIndex,MarkerType,MarkerValueInt,EEG.MarkerHardware,CQ.AF3,CQ.F7,CQ.F3,CQ.FC5,CQ.T7,CQ.P7,CQ.O1,CQ.O2,CQ.P8,CQ.T8,CQ.FC6,CQ.F4,CQ.F8,CQ.AF4,CQ.Overall
1602006342.577197,78.000000,0.000000,4172.307617,4145.128418,4136.922852,4137.948730,4135.384766,4130.769043,4126.153809,4125.128418,4123.077148,4131.282227,4133.846191,4138.974121,4130.256348,4137.436035,870.000000,4.000000,,,,0.000000,4.000000,4.000000,4.000000,4.000000,4.000000,4.000000,4.000000,4.000000,4.000000,4.000000,4.000000,4.000000,4.000000,4.000000,100.000000
1602006342.584978,79.000000,0.000000,4177.436035,4154.358887,4136.410156,4143.589844,4142.563965,4138.461426,4125.641113,4128.717773,4124.102539,4142.563965,4130.256348,4140.000000,4140.000000,4141.025879,839.000000,4.000000,,,,0.000000,4.000000,4.000000,4.000000,4.000000,4.000000,4.000000,4.000000,4.000000,4.000000,4.000000,4.000000,4.000000,4.000000,4.000000,100.000000
1602006342.592860,80.000000,0.000000,4178.974121,4146.153809,4122.563965,4137.948730,4141.538574,4143.077148,4125.128418,4126.666504,4134.871582,4159.487305,4131.794922,4136.922852,4133.846191,4138.974121,769.000000,4.000000,,,,0.000000,4.000000,4.000000,4.000000,4.000000,4.000000,4.000000,4.000000,4.000000,4.000000,4.000000,4.000000,4.000000,4.000000,4.000000,100.000000
1602006342.600742,81.000000,0.000000,4171.282227,4138.461426,4123.077148,4138.974121,4134.871582,4133.333496,4125.128418,4127.692383,4138.974121,4144.615234,4127.692383,4136.922852,4126.666504,4132.820313,738.000000,4.000000,,,,0.000000,4.000000,4.000000,4.000000,4.000000,4.000000,4.000000,4.000000,4.000000,4.000000,4.000000,4.000000,4.000000,4.000000,4.000000,100.000000
1602006342.608623,82.000000,0.000000,4173.846191,4143.077148,4137.436035,4142.563965,4135.897461,4123.077148,4126.153809,4132.820313,4125.128418,4130.256348,4124.615234,4148.205078,4133.846191,4142.051270,870.000000,4.000000,,,,0.000000,4.000000,4.000000,4.000000,4.000000,4.000000,4.000000,4.000000,4.000000,4.000000,4.000000,4.000000,4.000000,4.000000,4.000000,100.000000
1602006342.616505,83.000000,0.000000,4188.205078,4145.641113,4142.563965,4137.948730,4135.897461,4124.102539,4129.230957,4134.358887,4121.538574,4137.436035,4133.333496,4158.974121,4140.512695,4153.846191,839.000000,4.000000,,,,0.000000,4.000000,4.000000,4.000000,4.000000,4.000000,4.000000,4.000000,4.000000,4.000000,4.000000,4.000000,4.000000,4.000000,4.000000,100.000000
1602006342.624387,84.000000,0.000000,4185.128418,4142.051270,4140.000000,4134.871582,4128.717773,4129.743652,4135.384766,4134.871582,4138.974121,4143.077148,4141.025879,4155.384766,4138.461426,4145.641113,769.000000,4.000000,,,,0.000000,4.000000,4.000000,4.000000,4.000000,4.000000,4.000000,4.000000,4.000000,4.000000,4.000000,4.000000,4.000000,4.000000,4.000000,100.000000
1602006342.632268,85.000000,0.000000,4172.307617,4140.512695,4137.948730,4137.436035,4129.230957,4135.384766,4138.461426,4136.410156,4142.051270,4137.948730,4133.846191,4151.794922,4130.769043,4129.743652,738.000000,4.000000,,,,0.000000,4.000000,4.000000,4.000000,4.000000,4.000000,4.000000,4.000000,4.000000,4.000000,4.000000,4.000000,4.000000,4.000000,4.000000,100.000000
1602006342.640150,86.000000,0.000000,4168.205078,4138.461426,4131.282227,4138.461426,4135.897461,4137.436035,4135.897461,4134.871582,4123.589844,4132.820313,4123.077148,4153.333496,4126.666504,4125.641113,870.000000,4.000000,,,,0.000000,4.000000,4.000000,4.000000,4.000000,4.000000,4.000000,4.000000,4.000000,4.000000,4.000000,4.000000,4.000000,4.000000,4.000000,100.000000
1602006342.648032,87.000000,0.000000,4168.717773,4140.512695,4126.153809,4136.410156,4135.897461,4136.922852,4135.384766,4133.333496,4120.512695,4142.051270,4120.000000,4152.307617,4133.333496,4131.794922,839.000000,4.000000,,,,0.000000,4.000000,4.000000,4.000000,4.000000,4.000000,4.000000,4.000000,4.000000,4.000000,4.000000,4.000000,4.000000,4.000000,4.000000,100.000000
1602006342.656013,88.000000,0.000000,4176.410156,4149.743652,4130.256348,4136.410156,4135.897461,4147.179688,4142.051270,4137.948730,4127.692383,4160.000000,4123.077148,4154.871582,4140.512695,4140.000000,769.000000,4.000000,,,,0.000000,4.000000,4.000000,4.000000,4.000000,4.000000,4.000000,4.000000,4.000000,4.000000,4.000000,4.000000,4.000000,4.000000,4.000000,100.000000
1602006342.663895,89.000000,0.000000,4183.589844,4152.307617,4130.769043,4137.948730,4138.974121,4156.922852,4140.512695,4136.922852,4127.179688,4152.307617,4124.102539,4157.948730,4139.487305,4145.128418,738.000000,4.000000,,,,0.000000,4.000000,4.000000,4.000000,4.000000,4.000000,4.000000,4.000000,4.000000,4.000000,4.000000,4.000000,4.000000,4.000000,4.000000,100.000000
1602006342.671776,90.000000,0.000000,4173.846191,4142.051270,4122.051270,4134.358887,4137.436035,4146.666504,4127.179688,4128.717773,4130.256348,4128.717773,4121.538574,4150.769043,4136.410156,4136.922852,870.000000,4.000000,,,,0.000000,4.000000,4.000000,4.000000,4.000000,4.000000,4.000000,4.000000,4.000000,4.000000,4.000000,4.000000,4.000000,4.000000,4.000000,100.000000
1602006342.679658,91.000000,0.000000,4163.077148,4134.871582,4112.820313,4130.769043,4136.410156,4132.820313,4117.948730,4124.615234,4135.897461,4135.897461,4121.025879,4141.025879,4130.769043,4122.051270,839.000000,4.000000,,,,0.000000,4.000000,4.000000,4.000000,4.000000,4.000000,4.000000,4.000000,4.000000,4.000000,4.000000,4.000000,4.000000,4.000000,4.000000,100.000000
1602006342.687540,92.000000,0.000000,4171.282227,4144.615234,4113.333496,4134.358887,4138.974121,4133.846191,4125.128418,4126.153809,4142.563965,4157.436035,4120.000000,4140.512695,4128.205078,4119.487305,769.000000,4.000000,,,,0.000000,4.000000,4.000000,4.000000,4.000000,4.000000,4.000000,4.000000,4.000000,4.000000,4.000000,4.000000,4.000000,4.000000,4.000000,100.000000
1602006342.695421,93.000000,0.000000,4183.589844,4153.333496,4120.000000,4138.974121,4142.563965,4145.128418,4134.358887,4130.769043,4153.333496,4149.743652,4123.589844,4146.666504,4137.948730,4130.769043,738.000000,4.000000,,,,0.000000,4.000000,4.000000,4.000000,4.000000,4.000000,4.000000,4.000000,4.000000,4.000000,4.000000,4.000000,4.000000,4.000000,4.000000,100.000000
1602006342.703303,94.000000,0.000000,4186.153809,4147.692383,4123.077148,4137.436035,4144.102539,4148.205078,4134.871582,4133.333496,4149.743652,4133.846191,4134.358887,4150.256348,4143.589844,4137.436035,870.000000,4.000000,,,,0.000000,4.000000,4.000000,4.000000,4.000000,4.000000,4.000000,4.000000,4.000000,4.000000,4.000000,4.000000,4.000000,4.000000,4.000000,100.000000
1602006342.711185,95.000000,0.000000,4184.615234,4141.538574,4124.102539,4136.410156,4140.000000,4146.153809,4135.897461,4130.256348,4133.333496,4143.077148,4140.512695,4152.307617,4142.051270,4136.922852,839.000000,4.000000,,,,0.000000,4.000000,4.000000,4.000000,4.000000,4.000000,4.000000,4.000000,4.000000,4.000000,4.000000,4.000000,4.000000,4.000000,4.000000,100.000000
1602006342.719066,96.000000,0.000000,4182.051270,4141.025879,4123.077148,4135.384766,4132.307617,4134.871582,4133.333496,4124.102539,4122.563965,4147.692383,4133.846191,4152.820313,4139.487305,4137.436035,769.000000,4.000000,,,,0.000000,4.000000,4.000000,4.000000,4.000000,4.000000,4.000000,4.000000,4.000000,4.000000,4.000000,4.000000,4.000000,4.000000,4.000000,100.000000
1602006342.727048,97.000000,0.000000,4182.051270,4140.512695,4119.487305,4135.897461,4130.769043,4123.077148,4126.666504,4122.051270,4120.512695,4124.615234,4123.077148,4150.256348,4129.743652,4137.436035,738.000000,4.000000,,,,0.000000,4.000000,4.000000,4.000000,4.000000,4.000000,4.000000,4.000000,4.000000,4.000000,4.000000,4.000000,4.000000,4.000000,4.000000,100.000000
1602006342.734929,98.000000,0.000000,4185.641113,4141.538574,4122.563965,4137.436035,4134.871582,4128.717773,4126.666504,4121.025879,4126.153809,4109.743652,4121.538574,4151.282227,4127.179688,4140.512695,870.000000,4.000000,,,,0.000000,4.000000,4.000000,4.000000,4.000000,4.000000,4.000000,4.000000,4.000000,4.000000,4.000000,4.000000,4.000000,4.000000,4.000000,100.000000
1602006342.742811,99.000000,0.000000,4186.153809,4142.563965,4125.641113,4131.282227,4135.897461,4141.025879,4127.179688,4119.487305,4132.820313,4121.025879,4124.102539,4155.384766,4137.436035,4143.077148,839.000000,4.000000,,,,0.000000,4.000000,4.000000,4.000000,4.000000,4.000000,4.000000,4.000000,4.000000,4.000000,4.000000,4.000000,4.000000,4.000000,4.000000,100.000000
1602006342.750693,100.000000,0.000000,4181.025879,4139.487305,4115.897461,4122.563965,4136.410156,4145.641113,4125.128418,4120.000000,4132.307617,4140.512695,4122.051270,4151.282227,4138.461426,4132.307617,769.000000,4.000000,,,,0.000000,4.000000,4.000000,4.000000,4.000000,4.000000,4.000000,4.000000,4.000000,4.000000,4.000000,4.000000,4.000000,4.000000,4.000000,100.000000
1602006342.758574,101.000000,0.000000,4177.436035,4136.410156,4109.743652,4126.153809,4136.410156,4141.025879,4125.641113,4120.512695,4130.256348,4146.153809,4117.948730,4144.102539,4133.846191,4122.563965,738.000000,4.000000,,,,0.000000,4.000000,4.000000,4.000000,4.000000,4.000000,4.000000,4.000000,4.000000,4.000000,4.000000,4.000000,4.000000,4.000000,4.000000,100.000000
1602006342.766456,102.000000,0.000000,4186.153809,4139.487305,4120.000000,4137.436035,4136.410156,4137.948730,4128.717773,4127.692383,4135.897461,4139.487305,4122.051270,4152.820313,4141.025879,4132.307617,870.000000,4.000000,,,,0.000000,4.000000,4.000000,4.000000,4.000000,4.000000,4.000000,4.000000,4.000000,4.000000,4.000000,4.000000,4.000000,4.000000,4.000000,100.000000
1602006342.774338,103.000000,0.000000,4192.307617,4144.615234,4128.205078,4142.051270,4140.512695,4139.487305,4126.666504,4137.436035,4138.974121,4144.615234,4133.846191,4164.102539,4146.666504,4145.128418,839.000000,4.000000,,,,0.000000,4.000000,4.000000,4.000000,4.000000,4.000000,4.000000,4.000000,4.000000,4.000000,4.000000,4.000000,4.000000,4.000000,4.000000,100.000000
1602006342.782219,104.000000,0.000000,4183.589844,4142.563965,4122.051270,4134.358887,4139.487305,4143.589844,4122.563965,4139.487305,4137.948730,4156.922852,4130.769043,4158.974121,4136.922852,4142.563965,769.000000,4.000000,,,,0.000000,4.000000,4.000000,4.000000,4.000000,4.000000,4.000000,4.000000,4.000000,4.000000,4.000000,4.000000,4.000000,4.000000,4.000000,100.000000
1602006342.790101,105.000000,0.000000,4179.487305,4136.410156,4117.436035,4126.666504,4133.846191,4142.051270,4123.077148,4134.871582,4138.974121,4147.179688,4118.974121,4150.769043,4132.307617,4134.358887,738.000000,4.000000,,,,0.000000,4.000000,4.000000,4.000000,4.000000,4.000000,4.000000,4.000000,4.000000,4.000000,4.000000,4.000000,4.000000,4.000000,4.000000,100.000000
1602006342.798082,106.000000,0.000000,4186.666504,4137.436035,4124.615234,4133.333496,4136.922852,4137.948730,4133.846191,4139.487305,4143.589844,4140.512695,4129.743652,4154.871582,4142.051270,4138.461426,870.000000,4.000000,,,,0.000000,4.000000,4.000000,4.000000,4.000000,4.000000,4.000000,4.000000,4.000000,4.000000,4.000000,4.000000,4.000000,4.000000,4.000000,100.000000
1602006342.805964,107.000000,0.000000,4184.615234,4140.512695,4128.205078,4143.077148,4135.897461,4139.487305,4140.000000,4143.077148,4147.179688,4155.384766,4145.641113,4158.461426,4145.128418,4142.563965,839.000000,4.000000,,,,0.000000,4.000000,4.000000,4.000000,4.000000,4.000000,4.000000,4.000000,4.000000,4.000000,4.000000,4.000000,4.000000,4.000000,4.000000,100.000000
1602006342.813846,108.000000,0.000000,4170.769043,4136.410156,4118.974121,4136.922852,4122.563965,4137.948730,4132.307617,4129.743652,4132.307617,4156.410156,4130.769043,4150.256348,4128.205078,4133.846191,769.000000,4.000000,,,,0.000000,4.000000,4.000000,4.000000,4.000000,4.000000,4.000000,4.000000,4.000000,4.000000,4.000000,4.000000,4.000000,4.000000,4.000000,100.000000
1602006342.821727,109.000000,0.000000,4165.128418,4134.358887,4115.384766,4130.256348,4119.487305,4140.512695,4130.769043,4118.974121,4117.436035,4135.897461,4109.230957,4145.641113,4117.436035,4125.128418,738.000000,4.000000,,,,0.000000,4.000000,4.000000,4.000000,4.000000,4.000000,4.000000,4.000000,4.000000,4.000000,4.000000,4.000000,4.000000,4.000000,4.000000,100.000000
1602006342.829609,110.000000,0.000000,4174.871582,4138.461426,4122.563965,4136.410156,4125.641113,4145.641113,4136.922852,4121.025879,4123.589844,4124.102539,4112.820313,4150.769043,4122.051270,4125.128418,870.000000,4.000000,,,,0.000000,4.000000,4.000000,4.000000,4.000000,4.000000,4.000000,4.000000,4.000000,4.000000,4.000000,4.000000,4.000000,4.000000,4.000000,100.000000
1602006342.837491,111.000000,0.000000,4185.641113,4139.487305,4126.666504,4140.000000,4125.128418,4140.512695,4136.922852,4125.641113,4131.794922,4132.307617,4123.077148,4152.820313,4124.615234,4125.128418,839.000000,4.000000,,,,0.000000,4.000000,4.000000,4.000000,4.000000,4.000000,4.000000,4.000000,4.000000,4.000000,4.000000,4.000000,4.000000,4.000000,4.000000,100.000000
1602006342.845372,112.000000,0.000000,4185.128418,4142.051270,4127.692383,4140.512695,4125.641113,4136.410156,4133.333496,4132.820313,4129.230957,4141.025879,4127.179688,4154.358887,4123.589844,4127.692383,769.000000,4.000000,,,,0.000000,4.000000,4.000000,4.000000,4.000000,4.000000,4.000000,4.000000,4.000000,4.000000,4.000000,4.000000,4.000000,4.000000,4.000000,100.000000
1602006342.853254,113.000000,0.000000,4176.410156,4142.563965,4127.179688,4142.051270,4126.666504,4138.974121,4130.769043,4136.410156,4123.589844,4128.717773,4127.692383,4157.436035,4126.153809,4129.743652,738.000000,4.000000,,,,0.000000,4.000000,4.000000,4.000000,4.000000,4.000000,4.000000,4.000000,4.000000,4.000000,4.000000,4.000000,4.000000,4.000000,4.000000,100.000000
1602006342.861136,114.000000,0.000000,4168.717773,4130.769043,4122.051270,4131.794922,4120.000000,4135.384766,4125.641113,4126.153809,4123.077148,4118.461426,4120.512695,4154.358887,4120.000000,4121.025879,870.000000,4.000000,,,,0.000000,4.000000,4.000000,4.000000,4.000000,4.000000,4.000000,4.000000,4.000000,4.000000,4.000000,4.000000,4.000000,4.000000,4.000000,100.000000
1602006342.869117,115.000000,0.000000,4165.641113,4125.641113,4121.025879,4123.077148,4121.538574,4131.794922,4124.615234,4122.051270,4123.589844,4131.282227,4117.436035,4149.230957,4114.871582,4117.436035,839.000000,4.000000,,,,0.000000,4.000000,4.000000,4.000000,4.000000,4.000000,4.000000,4.000000,4.000000,4.000000,4.000000,4.000000,4.000000,4.000000,4.000000,100.000000
1602006342.876999,116.000000,0.000000,4169.743652,4138.461426,4128.717773,4135.384766,4131.794922,4141.538574,4132.307617,4136.410156,4125.128418,4142.563965,4125.128418,4154.358887,4124.102539,4125.128418,769.000000,4.000000,,,,0.000000,4.000000,4.000000,4.000000,4.000000,4.000000,4.000000,4.000000,4.000000,4.000000,4.000000,4.000000,4.000000,4.000000,4.000000,100.000000
1602006342.884880,117.000000,0.000000,4174.358887,4139.487305,4127.692383,4136.922852,4129.230957,4144.102539,4135.384766,4136.922852,4123.077148,4142.051270,4127.692383,4159.487305,4126.666504,4127.692383,738.000000,4.000000,,,,0.000000,4.000000,4.000000,4.000000,4.000000,4.000000,4.000000,4.000000,4.000000,4.000000,4.000000,4.000000,4.000000,4.000000,4.000000,100.000000
1602006342.892762,118.000000,0.000000,4169.743652,4122.563965,4118.974121,4123.077148,4119.487305,4134.871582,4134.871582,4127.179688,4118.461426,4138.974121,4120.000000,4149.230957,4109.230957,4123.077148,870.000000,4.000000,,,,0.000000,4.000000,4.000000,4.000000,4.000000,4.000000,4.000000,4.000000,4.000000,4.000000,4.000000,4.000000,4.000000,4.000000,4.000000,100.000000
1602006342.900644,119.000000,0.000000,4164.615234,4118.974121,4117.436035,4126.666504,4120.000000,4140.000000,4136.922852,4133.846191,4130.769043,4142.051270,4118.974121,4140.000000,4105.128418,4122.051270,839.000000,4.000000,,,,0.000000,4.000000,4.000000,4.000000,4.000000,4.000000,4.000000,4.000000,4.000000,4.000000,4.000000,4.000000,4.000000,4.000000,4.000000,100.000000
1602006342.908525,120.000000,0.000000,4169.230957,4129.743652,4122.051270,4135.384766,4124.102539,4155.384766,4141.025879,4142.563965,4152.820313,4151.794922,4125.641113,4143.589844,4124.102539,4131.282227,769.000000,4.000000,,,,0.000000,4.000000,4.000000,4.000000,4.000000,4.000000,4.000000,4.000000,4.000000,4.000000,4.000000,4.000000,4.000000,4.000000,4.000000,100.000000
1602006342.916407,121.000000,0.000000,4177.436035,4135.384766,4122.051270,4130.769043,4123.077148,4151.794922,4141.025879,4139.487305,4151.794922,4146.153809,4126.153809,4145.641113,4128.205078,4136.410156,738.000000,4.000000,,,,0.000000,4.000000,4.000000,4.000000,4.000000,4.000000,4.000000,4.000000,4.000000,4.000000,4.000000,4.000000,4.000000,4.000000,4.000000,100.000000
1602006342.924289,122.000000,0.000000,4182.051270,4136.922852,4125.128418,4132.820313,4122.051270,4137.436035,4135.384766,4135.384766,4130.769043,4123.077148,4121.025879,4141.538574,4114.358887,4130.256348,870.000000,4.000000,,,,0.000000,4.000000,4.000000,4.000000,4.000000,4.000000,4.000000,4.000000,4.000000,4.000000,4.000000,4.000000,4.000000,4.000000,4.000000,100.000000
1602006342.932170,123.000000,0.000000,4176.410156,4134.871582,4130.256348,4138.974121,4120.512695,4136.410156,4127.692383,4131.794922,4122.563965,4119.487305,4115.897461,4140.000000,4106.666504,4125.641113,839.000000,4.000000,,,,0.000000,4.000000,4.000000,4.000000,4.000000,4.000000,4.000000,4.000000,4.000000,4.000000,4.000000,4.000000,4.000000,4.000000,4.000000,100.000000
1602006342.940152,124.000000,0.000000,4161.538574,4125.128418,4124.615234,4128.717773,4117.948730,4136.922852,4123.077148,4121.538574,4123.077148,4129.743652,4109.743652,4136.410156,4106.666504,4124.102539,769.000000,4.000000,,,,0.000000,4.000000,4.000000,4.000000,4.000000,4.000000,4.000000,4.000000,4.000000,4.000000,4.000000,4.000000,4.000000,4.000000,4.000000,100.000000
1602006342.948033,125.000000,0.000000,4158.974121,4120.512695,4123.077148,4118.974121,4118.974121,4133.333496,4127.179688,4117.436035,4117.948730,4130.256348,4110.769043,4133.846191,4112.307617,4124.615234,738.000000,4.000000,,,,0.000000,4.000000,4.000000,4.000000,4.000000,4.000000,4.000000,4.000000,4.000000,4.000000,4.000000,4.000000,4.000000,4.000000,4.000000,100.000000
1602006342.955915,126.000000,0.000000,4175.384766,4130.256348,4135.897461,4129.230957,4125.641113,4143.589844,4132.307617,4121.025879,4125.128418,4143.077148,4125.641113,4147.179688,4130.256348,4133.846191,870.000000,4.000000,,,,0.000000,4.000000,4.000000,4.000000,4.000000,4.000000,4.000000,4.000000,4.000000,4.000000,4.000000,4.000000,4.000000,4.000000,4.000000,100.000000
1602006342.963797,127.000000,0.000000,4191.282227,4141.025879,4144.102539,4142.051270,4136.410156,4157.948730,4136.922852,4123.077148,4140.512695,4163.077148,4144.102539,4165.128418,4144.615234,4144.102539,839.000000,4.000000,,,,0.000000,4.000000,4.000000,4.000000,4.000000,4.000000,4.000000,4.000000,4.000000,4.000000,4.000000,4.000000,4.000000,4.000000,4.000000,100.000000
1602006342.971678,128.000000,0.000000,4186.666504,4138.974121,4139.487305,4140.000000,4135.384766,4150.256348,4140.512695,4123.589844,4135.384766,4154.871582,4142.563965,4163.589844,4142.051270,4141.025879,769.000000,4.000000,,,,0.000000,4.000000,4.000000,4.000000,4.000000,4.000000,4.000000,4.000000,4.000000,4.000000,4.000000,4.000000,4.000000,4.000000,4.000000,100.000000
1602006342.979560,0.000000,0.000000,4172.820313,4134.358887,4136.922852,4133.333496,4126.666504,4136.922852,4136.922852,4123.077148,4125.128418,4129.743652,4125.641113,4152.307617,4138.461426,4138.461426,793.000000,4.000000,,,,0.000000,4.000000,4.000000,4.000000,4.000000,4.000000,4.000000,4.000000,4.000000,4.000000,4.000000,4.000000,4.000000,4.000000,4.000000,100.000000
1602006342.987442,1.000000,0.000000,4175.897461,4136.922852,4138.461426,4134.358887,4125.128418,4140.512695,4128.717773,4124.615234,4131.282227,4136.922852,4127.179688,4149.743652,4139.487305,4140.512695,789.000000,4.000000,,,,0.000000,4.000000,4.000000,4.000000,4.000000,4.000000,4.000000,4.000000,4.000000,4.000000,4.000000,4.000000,4.000000,4.000000,4.000000,100.000000
1602006342.995323,2.000000,0.000000,4183.589844,4141.025879,4138.461426,4141.025879,4127.692383,4144.102539,4121.538574,4122.563965,4132.820313,4158.974121,4138.461426,4149.230957,4130.769043,4133.846191,858.000000,4.000000,,,,0.000000,4.000000,4.000000,4.000000,4.000000,4.000000,4.000000,4.000000,4.000000,4.000000,4.000000,4.000000,4.000000,4.000000,4.000000,100.000000
1602006343.003205,3.000000,0.000000,4177.436035,4136.922852,4136.922852,4139.487305,4126.153809,4140.000000,4120.000000,4116.922852,4116.410156,4141.538574,4129.230957,4140.000000,4114.871582,4122.563965,866.000000,4.000000,,,,0.000000,4.000000,4.000000,4.000000,4.000000,4.000000,4.000000,4.000000,4.000000,4.000000,4.000000,4.000000,4.000000,4.000000,4.000000,100.000000
1602006343.011087,4.000000,0.000000,4167.179688,4125.128418,4129.230957,4127.179688,4123.077148,4138.974121,4120.512695,4116.922852,4108.717773,4117.436035,4115.897461,4130.256348,4108.717773,4120.000000,812.000000,4.000000,,,,0.000000,4.000000,4.000000,4.000000,4.000000,4.000000,4.000000,4.000000,4.000000,4.000000,4.000000,4.000000,4.000000,4.000000,4.000000,100.000000
1602006343.018868,5.000000,0.000000,4167.179688,4120.512695,4123.077148,4120.512695,4120.000000,4134.871582,4123.077148,4120.512695,4116.922852,4128.205078,4120.000000,4135.384766,4111.282227,4129.743652,823.000000,4.000000,,,,0.000000,4.000000,4.000000,4.000000,4.000000,4.000000,4.000000,4.000000,4.000000,4.000000,4.000000,4.000000,4.000000,4.000000,4.000000,100.000000
1602006343.026749,6.000000,0.000000,4178.974121,4131.794922,4132.307617,4130.769043,4123.077148,4135.384766,4131.794922,4126.153809,4130.769043,4144.615234,4126.666504,4156.410156,4117.948730,4145.641113,762.000000,4.000000,,,,0.000000,4.000000,4.000000,4.000000,4.000000,4.000000,4.000000,4.000000,4.000000,4.000000,4.000000,4.000000,4.000000,4.000000,4.000000,100.000000
1602006343.034631,7.000000,0.000000,4194.871582,4147.179688,4146.666504,4141.025879,4131.282227,4147.179688,4140.000000,4135.897461,4147.179688,4140.512695,4131.794922,4171.794922,4130.769043,4156.922852,668.000000,4.000000,,,,0.000000,4.000000,4.000000,4.000000,4.000000,4.000000,4.000000,4.000000,4.000000,4.000000,4.000000,4.000000,4.000000,4.000000,4.000000,100.000000
1602006343.042512,8.000000,0.000000,4202.051270,4149.230957,4146.666504,4142.051270,4128.205078,4147.179688,4141.025879,4141.538574,4156.922852,4132.820313,4143.589844,4166.666504,4137.948730,4154.358887,787.000000,4.000000,,,,0.000000,4.000000,4.000000,4.000000,4.000000,4.000000,4.000000,4.000000,4.000000,4.000000,4.000000,4.000000,4.000000,4.000000,4.000000,100.000000
1602006343.050394,9.000000,0.000000,4193.846191,4141.538574,4138.974121,4138.974121,4122.051270,4138.974121,4137.948730,4140.512695,4152.820313,4144.102539,4143.589844,4155.897461,4131.794922,4143.077148,833.000000,4.000000,,,,0.000000,4.000000,4.000000,4.000000,4.000000,4.000000,4.000000,4.000000,4.000000,4.000000,4.000000,4.000000,4.000000,4.000000,4.000000,100.000000
1602006343.058275,10.000000,0.000000,4185.128418,4136.410156,4134.358887,4134.871582,4121.538574,4141.025879,4134.871582,4141.538574,4140.512695,4157.436035,4128.205078,4149.230957,4122.563965,4138.461426,870.000000,4.000000,,,,0.000000,4.000000,4.000000,4.000000,4.000000,4.000000,4.000000,4.000000,4.000000,4.000000,4.000000,4.000000,4.000000,4.000000,4.000000,100.000000
1602006343.066156,11.000000,0.000000,4183.077148,4137.948730,4135.384766,4133.333496,4122.563965,4148.205078,4135.384766,4143.589844,4133.333496,4147.179688,4126.666504,4142.563965,4121.538574,4142.563965,839.000000,4.000000,,,,0.000000,4.000000,4.000000,4.000000,4.000000,4.000000,4.000000,4.000000,4.000000,4.000000,4.000000,4.000000,4.000000,4.000000,4.000000,100.000000
1602006343.074038,12.000000,0.000000,4186.153809,4141.025879,4140.512695,4134.871582,4126.153809,4155.384766,4141.538574,4142.563965,4144.615234,4133.846191,4140.512695,4145.641113,4130.256348,4145.641113,769.000000,4.000000,,,,0.000000,4.000000,4.000000,4.000000,4.000000,4.000000,4.000000,4.000000,4.000000,4.000000,4.000000,4.000000,4.000000,4.000000,4.000000,100.000000
1602006343.082019,13.000000,0.000000,4181.538574,4140.000000,4137.948730,4135.897461,4127.692383,4153.333496,4145.128418,4141.025879,4151.282227,4144.102539,4137.436035,4151.282227,4134.358887,4142.051270,738.000000,4.000000,,,,0.000000,4.000000,4.000000,4.000000,4.000000,4.000000,4.000000,4.000000,4.000000,4.000000,4.000000,4.000000,4.000000,4.000000,4.000000,100.000000
1602006343.089901,14.000000,0.000000,4169.230957,4134.871582,4126.153809,4132.820313,4122.563965,4138.461426,4138.974121,4137.948730,4140.512695,4146.666504,4121.538574,4144.615234,4127.179688,4130.769043,870.000000,4.000000,,,,0.000000,4.000000,4.000000,4.000000,4.000000,4.000000,4.000000,4.000000,4.000000,4.000000,4.000000,4.000000,4.000000,4.000000,4.000000,100.000000
1602006343.097782,15.000000,0.000000,4165.641113,4131.794922,4125.641113,4126.666504,4120.512695,4132.307617,4132.820313,4132.820313,4135.384766,4121.538574,4121.538574,4136.922852,4113.846191,4120.000000,839.000000,4.000000,,,,0.000000,4.000000,4.000000,4.000000,4.000000,4.000000,4.000000,4.000000,4.000000,4.000000,4.000000,4.000000,4.000000,4.000000,4.000000,100.000000
1602006343.105663,16.000000,0.000000,4168.717773,4134.871582,4135.897461,4123.077148,4126.666504,4143.077148,4133.846191,4128.717773,4140.000000,4114.871582,4124.102539,4138.974121,4109.230957,4124.615234,0.000000,4.000000,,,,0.000000,4.000000,4.000000,4.000000,4.000000,4.000000,4.000000,4.000000,4.000000,4.000000,4.000000,4.000000,4.000000,4.000000,4.000000,100.000000
1602006343.113545,17.000000,0.000000,4174.871582,4140.512695,4137.948730,4130.769043,4127.692383,4146.153809,4137.436035,4130.256348,4138.461426,4134.871582,4121.025879,4145.641113,4116.922852,4144.615234,0.000000,4.000000,,,,0.000000,4.000000,4.000000,4.000000,4.000000,4.000000,4.000000,4.000000,4.000000,4.000000,4.000000,4.000000,4.000000,4.000000,4.000000,100.000000
1602006343.121426,18.000000,0.000000,4180.512695,4141.538574,4134.871582,4137.948730,4124.615234,4137.948730,4137.436035,4133.846191,4135.897461,4143.589844,4127.692383,4153.846191,4124.615234,4156.410156,0.000000,4.000000,,,,0.000000,4.000000,4.000000,4.000000,4.000000,4.000000,4.000000,4.000000,4.000000,4.000000,4.000000,4.000000,4.000000,4.000000,4.000000,100.000000
1602006343.129308,19.000000,0.000000,4182.563965,4140.000000,4137.948730,4136.922852,4128.205078,4133.846191,4134.358887,4136.410156,4137.948730,4136.410156,4136.410156,4158.461426,4130.256348,4153.333496,0.000000,4.000000,,,,0.000000,4.000000,4.000000,4.000000,4.000000,4.000000,4.000000,4.000000,4.000000,4.000000,4.000000,4.000000,4.000000,4.000000,4.000000,100.000000
1602006343.137189,20.000000,0.000000,4185.128418,4147.179688,4141.538574,4137.436035,4135.384766,4138.974121,4134.871582,4138.974121,4140.512695,4144.102539,4136.922852,4156.410156,4132.820313,4155.897461,0.000000,4.000000,,,,0.000000,4.000000,4.000000,4.000000,4.000000,4.000000,4.000000,4.000000,4.000000,4.000000,4.000000,4.000000,4.000000,4.000000,4.000000,100.000000
1602006343.145170,21.000000,0.000000,4184.615234,4151.794922,4140.512695,4141.025879,4136.410156,4144.102539,4135.897461,4139.487305,4143.077148,4156.922852,4135.897461,4154.871582,4131.794922,4154.358887,0.000000,4.000000,,,,0.000000,4.000000,4.000000,4.000000,4.000000,4.000000,4.000000,4.000000,4.000000,4.000000,4.000000,4.000000,4.000000,4.000000,4.000000,100.000000
1602006343.153051,22.000000,0.000000,4176.922852,4141.025879,4137.436035,4136.922852,4133.846191,4133.333496,4131.794922,4135.384766,4141.538574,4145.128418,4132.820313,4152.307617,4121.538574,4136.922852,0.000000,4.000000,,,,0.000000,4.000000,4.000000,4.000000,4.000000,4.000000,4.000000,4.000000,4.000000,4.000000,4.000000,4.000000,4.000000,4.000000,4.000000,100.000000
1602006343.160932,23.000000,0.000000,4175.897461,4137.948730,4137.948730,4133.846191,4135.384766,4127.179688,4132.307617,4134.871582,4138.461426,4127.692383,4132.307617,4149.230957,4118.461426,4136.922852,0.000000,4.000000,,,,0.000000,4.000000,4.000000,4.000000,4.000000,4.000000,4.000000,4.000000,4.000000,4.000000,4.000000,4.000000,4.000000,4.000000,4.000000,100.000000
1602006343.168813,24.000000,0.000000,4187.692383,4151.794922,4146.666504,4147.179688,4141.025879,4145.641113,4138.974121,4138.974121,4138.974121,4131.282227,4144.615234,4157.948730,4130.256348,4156.410156,0.000000,4.000000,,,,0.000000,4.000000,4.000000,4.000000,4.000000,4.000000,4.000000,4.000000,4.000000,4.000000,4.000000,4.000000,4.000000,4.000000,4.000000,100.000000
1602006343.176594,25.000000,0.000000,4191.794922,4160.000000,4155.384766,4155.384766,4140.000000,4158.974121,4138.974121,4137.436035,4141.538574,4147.692383,4153.846191,4170.256348,4141.025879,4160.000000,0.000000,4.000000,,,,0.000000,4.000000,4.000000,4.000000,4.000000,4.000000,4.000000,4.000000,4.000000,4.000000,4.000000,4.000000,4.000000,4.000000,4.000000,100.000000
1602006343.184475,26.000000,0.000000,4185.641113,4152.820313,4153.333496,4142.563965,4136.922852,4150.256348,4136.922852,4136.410156,4149.230957,4157.436035,4146.153809,4168.717773,4144.102539,4153.333496,0.000000,4.000000,,,,0.000000,4.000000,4.000000,4.000000,4.000000,4.000000,4.000000,4.000000,4.000000,4.000000,4.000000,4.000000,4.000000,4.000000,4.000000,100.000000
1602006343.192357,27.000000,0.000000,4181.025879,4149.743652,4144.102539,4135.384766,4137.436035,4141.025879,4136.410156,4136.410156,4151.794922,4155.897461,4137.436035,4156.410156,4141.025879,4155.897461,0.000000,4.000000,,,,0.000000,4.000000,4.000000,4.000000,4.000000,4.000000,4.000000,4.000000,4.000000,4.000000,4.000000,4.000000,4.000000,4.000000,4.000000,100.000000
1602006343.200238,28.000000,0.000000,4184.615234,4157.436035,4140.000000,4142.563965,4136.922852,4136.410156,4128.717773,4132.307617,4142.051270,4153.333496,4137.436035,4146.153809,4134.871582,4150.769043,0.000000,4.000000,,,,0.000000,4.000000,4.000000,4.000000,4.000000,4.000000,4.000000,4.000000,4.000000,4.000000,4.000000,4.000000,4.000000,4.000000,4.000000,100.000000
1602006343.208120,29.000000,0.000000,4183.077148,4156.410156,4135.897461,4140.512695,4126.666504,4126.153809,4120.512695,4125.641113,4137.436035,4153.846191,4136.922852,4142.563965,4123.589844,4138.974121,0.000000,4.000000,,,,0.000000,4.000000,4.000000,4.000000,4.000000,4.000000,4.000000,4.000000,4.000000,4.000000,4.000000,4.000000,4.000000,4.000000,4.000000,100.000000
1602006343.216001,30.000000,0.000000,4169.743652,4144.102539,4127.692383,4132.307617,4120.000000,4122.563965,4120.512695,4124.102539,4141.538574,4151.794922,4133.846191,4142.563965,4124.102539,4135.384766,0.000000,4.000000,,,,0.000000,4.000000,4.000000,4.000000,4.000000,4.000000,4.000000,4.000000,4.000000,4.000000,4.000000,4.000000,4.000000,4.000000,4.000000,100.000000
1602006343.223882,31.000000,0.000000,4165.641113,4138.974121,4124.615234,4136.922852,4131.282227,4131.794922,4125.641113,4126.666504,4138.974121,4151.794922,4137.948730,4146.666504,4137.948730,4134.358887,0.000000,4.000000,,,,0.000000,4.000000,4.000000,4.000000,4.000000,4.000000,4.000000,4.000000,4.000000,4.000000,4.000000,4.000000,4.000000,4.000000,4.000000,100.000000
1602006343.231764,32.000000,0.000000,4170.769043,4142.563965,4127.179688,4138.461426,4135.384766,4137.948730,4129.230957,4125.128418,4134.358887,4151.794922,4139.487305,4149.743652,4136.922852,4135.897461,0.000000,4.000000,,,,0.000000,4.000000,4.000000,4.000000,4.000000,4.000000,4.000000,4.000000,4.000000,4.000000,4.000000,4.000000,4.000000,4.000000,4.000000,100.000000
1602006343.239745,33.000000,0.000000,4167.179688,4140.000000,4124.102539,4126.666504,4123.589844,4134.358887,4126.666504,4123.077148,4135.384766,4147.179688,4130.256348,4145.128418,4123.589844,4135.897461,0.000000,4.000000,,,,0.000000,4.000000,4.000000,4.000000,4.000000,4.000000,4.000000,4.000000,4.000000,4.000000,4.000000,4.000000,4.000000,4.000000,4.000000,100.000000
1602006343.247626,34.000000,0.000000,4166.153809,4136.922852,4121.538574,4124.102539,4121.025879,4135.384766,4122.051270,4121.538574,4138.974121,4142.051270,4125.128418,4139.487305,4119.487305,4126.666504,0.000000,4.000000,,,,0.000000,4.000000,4.000000,4.000000,4.000000,4.000000,4.000000,4.000000,4.000000,4.000000,4.000000,4.000000,4.000000,4.000000,4.000000,100.000000
1602006343.255507,35.000000,0.000000,4168.717773,4137.436035,4125.128418,4134.358887,4127.692383,4143.589844,4127.179688,4122.051270,4135.384766,4143.589844,4127.179688,4137.436035,4123.077148,4121.025879,0.000000,4.000000,,,,0.000000,4.000000,4.000000,4.000000,4.000000,4.000000,4.000000,4.000000,4.000000,4.000000,4.000000,4.000000,4.000000,4.000000,4.000000,100.000000
1602006343.263487,36.000000,0.000000,4157.948730,4135.384766,4123.589844,4129.743652,4123.077148,4138.461426,4137.948730,4129.230957,4128.205078,4141.538574,4123.077148,4136.410156,4119.487305,4123.589844,0.000000,4.000000,,,,0.000000,4.000000,4.000000,4.000000,4.000000,4.000000,4.000000,4.000000,4.000000,4.000000,4.000000,4.000000,4.000000,4.000000,4.000000,100.000000
1602006343.271368,37.000000,0.000000,4148.205078,4134.358887,4123.077148,4116.922852,4116.922852,4120.512695,4140.000000,4136.922852,4130.256348,4141.538574,4122.051270,4135.897461,4117.436035,4122.051270,0.000000,4.000000,,,,0.000000,4.000000,4.000000,4.000000,4.000000,4.000000,4.000000,4.000000,4.000000,4.000000,4.000000,4.000000,4.000000,4.000000,4.000000,100.000000
1602006343.279249,38.000000,0.000000,4154.358887,4138.461426,4128.717773,4128.205078,4122.563965,4125.128418,4136.922852,4140.000000,4138.461426,4152.820313,4128.205078,4140.000000,4123.589844,4121.025879,0.000000,4.000000,,,,0.000000,4.000000,4.000000,4.000000,4.000000,4.000000,4.000000,4.000000,4.000000,4.000000,4.000000,4.000000,4.000000,4.000000,4.000000,100.000000
1602006343.287130,39.000000,0.000000,4155.897461,4140.000000,4127.179688,4138.974121,4125.641113,4139.487305,4136.410156,4138.974121,4140.512695,4149.230957,4123.077148,4139.487305,4124.102539,4122.563965,0.000000,4.000000,,,,0.000000,4.000000,4.000000,4.000000,4.000000,4.000000,4.000000,4.000000,4.000000,4.000000,4.000000,4.000000,4.000000,4.000000,4.000000,100.000000
1602006343.294912,40.000000,0.000000,4151.794922,4136.922852,4119.487305,4126.666504,4123.589844,4130.256348,4136.410156,4138.461426,4137.436035,4132.307617,4125.128418,4138.974121,4118.974121,4121.025879,0.000000,4.000000,,,,0.000000,4.000000,4.000000,4.000000,4.000000,4.000000,4.000000,4.000000,4.000000,4.000000,4.000000,4.000000,4.000000,4.000000,4.000000,100.000000
1602006343.302794,41.000000,0.000000,4161.538574,4143.077148,4124.102539,4124.615234,4125.128418,4124.615234,4136.410156,4141.025879,4139.487305,4140.000000,4144.102539,4155.384766,4125.128418,4130.769043,0.000000,4.000000,,,,0.000000,4.000000,4.000000,4.000000,4.000000,4.000000,4.000000,4.000000,4.000000,4.000000,4.000000,4.000000,4.000000,4.000000,4.000000,100.000000
1602006343.310675,42.000000,0.000000,4174.871582,4151.282227,4136.410156,4138.974121,4124.615234,4136.922852,4139.487305,4144.102539,4145.641113,4166.153809,4148.717773,4169.230957,4137.948730,4146.153809,0.000000,4.000000,,,,0.000000,4.000000,4.000000,4.000000,4.000000,4.000000,4.000000,4.000000,4.000000,4.000000,4.000000,4.000000,4.000000,4.000000,4.000000,100.000000
1602006343.318557,43.000000,0.000000,4171.794922,4145.128418,4137.436035,4141.538574,4121.025879,4135.897461,4141.025879,4141.538574,4141.538574,4171.282227,4137.436035,4162.563965,4141.025879,4144.615234,0.000000,4.000000,,,,0.000000,4.000000,4.000000,4.000000,4.000000,4.000000,4.000000,4.000000,4.000000,4.000000,4.000000,4.000000,4.000000,4.000000,4.000000,100.000000
1602006343.326438,44.000000,0.000000,4166.153809,4139.487305,4135.384766,4134.871582,4121.538574,4128.717773,4139.487305,4138.974121,4136.410156,4161.538574,4138.974121,4153.846191,4135.384766,4138.974121,0.000000,4.000000,,,,0.000000,4.000000,4.000000,4.000000,4.000000,4.000000,4.000000,4.000000,4.000000,4.000000,4.000000,4.000000,4.000000,4.000000,4.000000,100.000000
1602006343.334320,45.000000,0.000000,4171.794922,4142.563965,4137.436035,4137.948730,4127.179688,4138.974121,4141.025879,4141.538574,4144.615234,4154.358887,4140.000000,4151.794922,4130.256348,4140.000000,0.000000,4.000000,,,,0.000000,4.000000,4.000000,4.000000,4.000000,4.000000,4.000000,4.000000,4.000000,4.000000,4.000000,4.000000,4.000000,4.000000,4.000000,100.000000
1602006343.342202,46.000000,0.000000,4169.230957,4141.538574,4130.256348,4140.512695,4127.179688,4141.538574,4146.153809,4140.512695,4136.922852,4142.563965,4125.641113,4141.025879,4121.025879,4131.794922,0.000000,4.000000,,,,0.000000,4.000000,4.000000,4.000000,4.000000,4.000000,4.000000,4.000000,4.000000,4.000000,4.000000,4.000000,4.000000,4.000000,4.000000,100.000000
1602006343.350083,47.000000,0.000000,4152.820313,4133.333496,4121.025879,4131.794922,4125.641113,4134.358887,4152.307617,4137.436035,4115.384766,4134.871582,4119.487305,4129.230957,4110.256348,4122.563965,0.000000,4.000000,,,,0.000000,4.000000,4.000000,4.000000,4.000000,4.000000,4.000000,4.000000,4.000000,4.000000,4.000000,4.000000,4.000000,4.000000,4.000000,100.000000
1602006343.357965,48.000000,0.000000,4142.051270,4126.666504,4120.000000,4121.538574,4128.205078,4133.333496,4152.820313,4140.512695,4115.897461,4136.410156,4116.922852,4125.641113,4105.641113,4118.461426,0.000000,4.000000,,,,0.000000,4.000000,4.000000,4.000000,4.000000,4.000000,4.000000,4.000000,4.000000,4.000000,4.000000,4.000000,4.000000,4.000000,4.000000,100.000000
1602006343.365747,49.000000,0.000000,4141.025879,4119.487305,4116.922852,4118.974121,4122.563965,4126.666504,4142.051270,4133.846191,4117.948730,4130.256348,4102.563965,4120.512695,4099.487305,4103.589844,0.000000,4.000000,,,,0.000000,4.000000,4.000000,4.000000,4.000000,4.000000,4.000000,4.000000,4.000000,4.000000,4.000000,4.000000,4.000000,4.000000,4.000000,100.000000
1602006343.373628,50.000000,0.000000,4140.512695,4122.051270,4115.384766,4124.615234,4120.000000,4122.051270,4132.820313,4120.000000,4106.153809,4117.436035,4094.871826,4118.974121,4094.358887,4094.871826,0.000000,4.000000,,,,0.000000,4.000000,4.000000,4.000000,4.000000,4.000000,4.000000,4.000000,4.000000,4.000000,4.000000,4.000000,4.000000,4.000000,4.000000,100.000000
1602006343.381510,51.000000,0.000000,4142.051270,4132.820313,4122.051270,4127.692383,4130.769043,4131.794922,4133.846191,4125.641113,4111.794922,4122.563965,4107.692383,4125.128418,4104.102539,4111.282227,0.000000,4.000000,,,,0.000000,4.000000,4.000000,4.000000,4.000000,4.000000,4.000000,4.000000,4.000000,4.000000,4.000000,4.000000,4.000000,4.000000,4.000000,100.000000
1602006343.389392,52.000000,0.000000,4154.358887,4136.922852,4129.230957,4129.743652,4139.487305,4140.000000,4137.948730,4135.897461,4125.128418,4138.461426,4123.077148,4134.358887,4121.538574,4126.666504,0.000000,4.000000,,,,0.000000,4.000000,4.000000,4.000000,4.000000,4.000000,4.000000,4.000000,4.000000,4.000000,4.000000,4.000000,4.000000,4.000000,4.000000,100.000000
1602006343.397273,53.000000,0.000000,4173.333496,4145.641113,4137.948730,4137.436035,4139.487305,4141.538574,4138.461426,4129.230957,4123.077148,4141.025879,4126.666504,4148.205078,4127.179688,4131.282227,0.000000,4.000000,,,,0.000000,4.000000,4.000000,4.000000,4.000000,4.000000,4.000000,4.000000,4.000000,4.000000,4.000000,4.000000,4.000000,4.000000,4.000000,100.000000
1602006343.405155,54.000000,0.000000,4176.410156,4153.333496,4144.102539,4143.077148,4135.384766,4141.025879,4135.897461,4124.102539,4124.615234,4138.461426,4128.205078,4153.333496,4124.615234,4138.461426,0.000000,4.000000,,,,0.000000,4.000000,4.000000,4.000000,4.000000,4.000000,4.000000,4.000000,4.000000,4.000000,4.000000,4.000000,4.000000,4.000000,4.000000,100.000000
1602006343.413037,55.000000,0.000000,4160.512695,4141.538574,4132.820313,4133.846191,4126.153809,4133.846191,4134.871582,4128.205078,4130.256348,4142.563965,4129.230957,4144.615234,4121.025879,4133.846191,0.000000,4.000000,,,,0.000000,4.000000,4.000000,4.000000,4.000000,4.000000,4.000000,4.000000,4.000000,4.000000,4.000000,4.000000,4.000000,4.000000,4.000000,100.000000
1602006343.420918,56.000000,0.000000,4154.358887,4130.769043,4121.538574,4123.077148,4120.512695,4123.589844,4136.410156,4125.128418,4123.077148,4137.948730,4126.153809,4138.461426,4115.897461,4114.358887,0.000000,4.000000,,,,0.000000,4.000000,4.000000,4.000000,4.000000,4.000000,4.000000,4.000000,4.000000,4.000000,4.000000,4.000000,4.000000,4.000000,4.000000,100.000000
1602006343.428800,57.000000,0.000000,4163.589844,4137.948730,4127.179688,4124.102539,4123.589844,4121.538574,4135.897461,4127.179688,4118.461426,4127.179688,4118.974121,4142.563965,4111.794922,4107.179688,0.000000,4.000000,,,,0.000000,4.000000,4.000000,4.000000,4.000000,4.000000,4.000000,4.000000,4.000000,4.000000,4.000000,4.000000,4.000000,4.000000,4.000000,100.000000
1602006343.436581,58.000000,0.000000,4163.077148,4134.871582,4127.692383,4125.641113,4122.563965,4123.077148,4129.230957,4136.922852,4125.641113,4132.820313,4115.897461,4141.538574,4108.717773,4111.282227,0.000000,4.000000,,,,0.000000,4.000000,4.000000,4.000000,4.000000,4.000000,4.000000,4.000000,4.000000,4.000000,4.000000,4.000000,4.000000,4.000000,4.000000,100.000000
1602006343.444463,59.000000,0.000000,4151.282227,4121.025879,4118.974121,4120.512695,4117.948730,4122.051270,4126.666504,4130.769043,4123.077148,4138.974121,4114.358887,4134.358887,4105.641113,4100.512695,0.000000,4.000000,,,,0.000000,4.000000,4.000000,4.000000,4.000000,4.000000,4.000000,4.000000,4.000000,4.000000,4.000000,4.000000,4.000000,4.000000,4.000000,100.000000
1602006343.452344,60.000000,0.000000,4151.282227,4127.692383,4118.974121,4120.512695,4120.000000,4123.589844,4131.794922,4121.538574,4111.794922,4123.077148,4108.205078,4134.358887,4103.077148,4090.769287,0.000000,4.000000,,,,0.000000,4.000000,4.000000,4.000000,4.000000,4.000000,4.000000,4.000000,4.000000,4.000000,4.000000,4.000000,4.000000,4.000000,4.000000,100.000000
1602006343.460226,61.000000,0.000000,4161.538574,4138.974121,4122.563965,4129.743652,4125.641113,4126.153809,4136.922852,4124.615234,4115.384766,4118.461426,4105.641113,4136.410156,4107.692383,4100.512695,0.000000,4.000000,,,,0.000000,4.000000,4.000000,4.000000,4.000000,4.000000,4.000000,4.000000,4.000000,4.000000,4.000000,4.000000,4.000000,4.000000,4.000000,100.000000
1602006343.468107,62.000000,0.000000,4168.205078,4144.102539,4124.615234,4137.436035,4127.692383,4125.128418,4135.897461,4127.179688,4129.230957,4140.512695,4112.307617,4137.436035,4120.000000,4107.692383,0.000000,4.000000,,,,0.000000,4.000000,4.000000,4.000000,4.000000,4.000000,4.000000,4.000000,4.000000,4.000000,4.000000,4.000000,4.000000,4.000000,4.000000,100.000000
1602006343.475988,63.000000,0.000000,4170.769043,4150.769043,4135.897461,4140.000000,4129.743652,4126.666504,4131.282227,4122.051270,4136.410156,4143.077148,4115.384766,4142.563965,4129.230957,4105.641113,0.000000,4.000000,,,,0.000000,4.000000,4.000000,4.000000,4.000000,4.000000,4.000000,4.000000,4.000000,4.000000,4.000000,4.000000,4.000000,4.000000,4.000000,100.000000
1602006343.483870,64.000000,0.000000,4168.717773,4145.128418,4141.538574,4140.000000,4128.205078,4124.615234,4121.538574,4118.461426,4136.410156,4122.563965,4109.743652,4143.077148,4123.589844,4104.615234,793.000000,4.000000,,,,0.000000,4.000000,4.000000,4.000000,4.000000,4.000000,4.000000,4.000000,4.000000,4.000000,4.000000,4.000000,4.000000,4.000000,4.000000,100.000000
1602006343.491652,65.000000,0.000000,4169.230957,4139.487305,4136.410156,4138.461426,4125.128418,4117.948730,4113.333496,4118.974121,4135.897461,4125.641113,4113.846191,4143.077148,4119.487305,4110.256348,789.000000,4.000000,,,,0.000000,4.000000,4.000000,4.000000,4.000000,4.000000,4.000000,4.000000,4.000000,4.000000,4.000000,4.000000,4.000000,4.000000,4.000000,100.000000
1602006343.499533,66.000000,0.000000,4174.871582,4150.769043,4139.487305,4139.487305,4125.128418,4123.589844,4116.410156,4125.128418,4139.487305,4145.641113,4128.717773,4152.820313,4130.769043,4120.512695,856.000000,4.000000,,,,0.000000,4.000000,4.000000,4.000000,4.000000,4.000000,4.000000,4.000000,4.000000,4.000000,4.000000,4.000000,4.000000,4.000000,4.000000,100.000000
1602006343.507415,67.000000,0.000000,4173.333496,4150.769043,4138.974121,4138.461426,4126.666504,4127.179688,4122.563965,4127.179688,4142.051270,4140.000000,4129.230957,4156.410156,4133.846191,4123.589844,866.000000,4.000000,,,,0.000000,4.000000,4.000000,4.000000,4.000000,4.000000,4.000000,4.000000,4.000000,4.000000,4.000000,4.000000,4.000000,4.000000,4.000000,100.000000
1602006343.515297,68.000000,0.000000,4164.615234,4133.333496,4124.102539,4127.179688,4124.102539,4111.282227,4127.179688,4121.025879,4131.282227,4122.563965,4118.461426,4141.025879,4113.846191,4110.256348,812.000000,4.000000,,,,0.000000,4.000000,4.000000,4.000000,4.000000,4.000000,4.000000,4.000000,4.000000,4.000000,4.000000,4.000000,4.000000,4.000000,4.000000,100.000000
1602006343.523178,69.000000,0.000000,4164.615234,4130.256348,4117.436035,4118.461426,4122.051270,4107.692383,4135.384766,4127.179688,4125.128418,4130.256348,4116.410156,4137.436035,4103.589844,4102.051270,823.000000,4.000000,,,,0.000000,4.000000,4.000000,4.000000,4.000000,4.000000,4.000000,4.000000,4.000000,4.000000,4.000000,4.000000,4.000000,4.000000,4.000000,100.000000
1602006343.531060,70.000000,0.000000,4169.230957,4137.948730,4123.589844,4124.102539,4125.641113,4128.717773,4138.974121,4140.000000,4134.871582,4144.615234,4115.384766,4150.769043,4116.410156,4108.717773,762.000000,4.000000,,,,0.000000,4.000000,4.000000,4.000000,4.000000,4.000000,4.000000,4.000000,4.000000,4.000000,4.000000,4.000000,4.000000,4.000000,4.000000,100.000000
1602006343.538941,71.000000,0.000000,4165.641113,4137.436035,4124.102539,4126.153809,4125.641113,4131.794922,4129.230957,4134.358887,4142.051270,4144.102539,4108.717773,4149.743652,4123.077148,4109.230957,668.000000,4.000000,,,,0.000000,4.000000,4.000000,4.000000,4.000000,4.000000,4.000000,4.000000,4.000000,4.000000,4.000000,4.000000,4.000000,4.000000,4.000000,100.000000
1602006343.546823,72.000000,0.000000,4164.615234,4135.897461,4122.051270,4123.077148,4121.025879,4117.948730,4121.025879,4126.153809,4136.410156,4138.461426,4112.307617,4139.487305,4116.922852,4103.077148,787.000000,4.000000,,,,0.000000,4.000000,4.000000,4.000000,4.000000,4.000000,4.000000,4.000000,4.000000,4.000000,4.000000,4.000000,4.000000,4.000000,4.000000,100.000000
1602006343.554705,73.000000,0.000000,4170.769043,4138.974121,4122.051270,4129.230957,4127.179688,4116.410156,4122.563965,4129.743652,4124.102539,4130.769043,4124.102539,4144.615234,4118.974121,4106.666504,833.000000,4.000000,,,,0.000000,4.000000,4.000000,4.000000,4.000000,4.000000,4.000000,4.000000,4.000000,4.000000,4.000000,4.000000,4.000000,4.000000,4.000000,100.000000
1602006343.562686,74.000000,0.000000,4172.820313,4147.179688,4122.563965,4136.922852,4137.948730,4125.128418,4123.077148,4128.205078,4123.077148,4123.077148,4129.743652,4153.333496,4131.282227,4118.974121,870.000000,4.000000,,,,0.000000,4.000000,4.000000,4.000000,4.000000,4.000000,4.000000,4.000000,4.000000,4.000000,4.000000,4.000000,4.000000,4.000000,4.000000,100.000000
1602006343.570567,75.000000,0.000000,4171.282227,4154.871582,4128.205078,4135.897461,4134.871582,4124.615234,4121.025879,4126.153809,4136.410156,4130.256348,4128.205078,4153.333496,4140.512695,4127.179688,839.000000,4.000000,,,,0.000000,4.000000,4.000000,4.000000,4.000000,4.000000,4.000000,4.000000,4.000000,4.000000,4.000000,4.000000,4.000000,4.000000,4.000000,100.000000
1602006343.578448,76.000000,0.000000,4175.897461,4150.769043,4132.820313,4134.358887,4125.128418,4111.282227,4115.384766,4131.282227,4142.563965,4147.692383,4126.666504,4151.282227,4137.948730,4124.102539,769.000000,4.000000,,,,0.000000,4.000000,4.000000,4.000000,4.000000,4.000000,4.000000,4.000000,4.000000,4.000000,4.000000,4.000000,4.000000,4.000000,4.000000,100.000000
1602006343.586329,77.000000,0.000000,4176.410156,4141.538574,4130.256348,4136.410156,4123.077148,4100.512695,4112.820313,4129.743652,4133.846191,4153.333496,4125.641113,4151.282227,4132.820313,4115.384766,738.000000,4.000000,,,,0.000000,4.000000,4.000000,4.000000,4.000000,4.000000,4.000000,4.000000,4.000000,4.000000,4.000000,4.000000,4.000000,4.000000,4.000000,100.000000
1602006343.594210,78.000000,0.000000,4169.743652,4140.512695,4127.179688,4138.974121,4124.102539,4107.179688,4121.025879,4129.230957,4133.846191,4149.743652,4129.230957,4149.230957,4136.410156,4114.871582,870.000000,4.000000,,,,0.000000,4.000000,4.000000,4.000000,4.000000,4.000000,4.000000,4.000000,4.000000,4.000000,4.000000,4.000000,4.000000,4.000000,4.000000,100.000000
1602006343.602192,79.000000,0.000000,4173.333496,4143.077148,4128.717773,4142.051270,4123.077148,4127.179688,4134.871582,4137.436035,4141.025879,4145.641113,4130.769043,4146.666504,4136.922852,4123.589844,839.000000,4.000000,,,,0.000000,4.000000,4.000000,4.000000,4.000000,4.000000,4.000000,4.000000,4.000000,4.000000,4.000000,4.000000,4.000000,4.000000,4.000000,100.000000
1602006343.610073,80.000000,0.000000,4174.871582,4140.000000,4122.563965,4135.384766,4123.077148,4139.487305,4143.077148,4140.512695,4141.538574,4145.128418,4123.589844,4138.461426,4123.077148,4122.051270,769.000000,4.000000,,,,0.000000,4.000000,4.000000,4.000000,4.000000,4.000000,4.000000,4.000000,4.000000,4.000000,4.000000,4.000000,4.000000,4.000000,4.000000,100.000000
1602006343.617955,81.000000,0.000000,4156.922852,4128.717773,4109.230957,4122.563965,4122.051270,4138.461426,4149.230957,4140.000000,4149.230957,4142.563965,4119.487305,4125.128418,4112.820313,4103.077148,738.000000,4.000000,,,,0.000000,4.000000,4.000000,4.000000,4.000000,4.000000,4.000000,4.000000,4.000000,4.000000,4.000000,4.000000,4.000000,4.000000,4.000000,100.000000
1602006343.625836,82.000000,0.000000,4146.153809,4123.589844,4111.282227,4122.563965,4121.538574,4147.179688,4153.333496,4141.538574,4156.410156,4135.384766,4128.205078,4120.512695,4117.948730,4093.333252,870.000000,4.000000,,,,0.000000,4.000000,4.000000,4.000000,4.000000,4.000000,4.000000,4.000000,4.000000,4.000000,4.000000,4.000000,4.000000,4.000000,4.000000,100.000000
1602006343.633717,83.000000,0.000000,4154.871582,4129.743652,4120.000000,4126.666504,4125.641113,4157.436035,4142.563965,4134.871582,4146.153809,4135.897461,4130.769043,4126.666504,4125.641113,4107.179688,839.000000,4.000000,,,,0.000000,4.000000,4.000000,4.000000,4.000000,4.000000,4.000000,4.000000,4.000000,4.000000,4.000000,4.000000,4.000000,4.000000,4.000000,100.000000
1602006343.641599,84.000000,0.000000,4158.461426,4133.333496,4116.922852,4125.641113,4123.589844,4137.948730,4125.128418,4122.563965,4132.307617,4138.974121,4122.563965,4131.282227,4121.025879,4116.922852,769.000000,4.000000,,,,0.000000,4.000000,4.000000,4.000000,4.000000,4.000000,4.000000,4.000000,4.000000,4.000000,4.000000,4.000000,4.000000,4.000000,4.000000,100.000000
1602006343.649580,85.000000,0.000000,4164.615234,4135.384766,4118.461426,4132.307617,4120.512695,4122.563965,4117.948730,4118.974121,4133.846191,4142.051270,4124.102539,4131.794922,4118.461426,4118.974121,738.000000,4.000000,,,,0.000000,4.000000,4.000000,4.000000,4.000000,4.000000,4.000000,4.000000,4.000000,4.000000,4.000000,4.000000,4.000000,4.000000,4.000000,100.000000
1602006343.657462,86.000000,0.000000,4181.538574,4145.641113,4132.820313,4141.025879,4131.794922,4138.461426,4121.025879,4127.179688,4139.487305,4149.743652,4131.282227,4139.487305,4131.794922,4132.307617,870.000000,4.000000,,,,0.000000,4.000000,4.000000,4.000000,4.000000,4.000000,4.000000,4.000000,4.000000,4.000000,4.000000,4.000000,4.000000,4.000000,4.000000,100.000000
1602006343.665344,87.000000,0.000000,4189.743652,4155.897461,4146.666504,4142.563965,4140.000000,4138.461426,4122.051270,4135.897461,4135.897461,4155.897461,4132.820313,4151.282227,4143.077148,4145.128418,839.000000,4.000000,,,,0.000000,4.000000,4.000000,4.000000,4.000000,4.000000,4.000000,4.000000,4.000000,4.000000,4.000000,4.000000,4.000000,4.000000,4.000000,100.000000
1602006343.673225,88.000000,0.000000,4192.307617,4156.922852,4154.358887,4146.666504,4132.820313,4116.410156,4122.563965,4131.282227,4131.282227,4148.205078,4131.282227,4154.871582,4135.897461,4141.538574,769.000000,4.000000,,,,0.000000,4.000000,4.000000,4.000000,4.000000,4.000000,4.000000,4.000000,4.000000,4.000000,4.000000,4.000000,4.000000,4.000000,4.000000,100.000000
1602006343.681107,89.000000,0.000000,4197.436035,4154.871582,4153.333496,4148.205078,4128.205078,4117.436035,4122.563965,4123.589844,4133.846191,4122.563965,4133.846191,4153.333496,4127.179688,4137.948730,738.000000,4.000000,,,,0.000000,4.000000,4.000000,4.000000,4.000000,4.000000,4.000000,4.000000,4.000000,4.000000,4.000000,4.000000,4.000000,4.000000,4.000000,100.000000
1602006343.688988,90.000000,0.000000,4200.000000,4152.307617,4142.563965,4143.589844,4128.205078,4129.230957,4120.512695,4121.025879,4132.820313,4108.205078,4134.871582,4153.333496,4128.205078,4140.512695,870.000000,4.000000,,,,0.000000,4.000000,4.000000,4.000000,4.000000,4.000000,4.000000,4.000000,4.000000,4.000000,4.000000,4.000000,4.000000,4.000000,4.000000,100.000000
1602006343.696870,91.000000,0.000000,4195.384766,4149.743652,4137.948730,4140.512695,4122.563965,4124.102539,4124.615234,4122.051270,4126.666504,4120.000000,4128.205078,4152.820313,4123.589844,4137.948730,839.000000,4.000000,,,,0.000000,4.000000,4.000000,4.000000,4.000000,4.000000,4.000000,4.000000,4.000000,4.000000,4.000000,4.000000,4.000000,4.000000,4.000000,100.000000
1602006343.704752,92.000000,0.000000,4187.179688,4152.307617,4139.487305,4141.025879,4123.589844,4123.589844,4134.358887,4129.230957,4130.256348,4138.461426,4126.666504,4151.282227,4120.512695,4134.358887,769.000000,4.000000,,,,0.000000,4.000000,4.000000,4.000000,4.000000,4.000000,4.000000,4.000000,4.000000,4.000000,4.000000,4.000000,4.000000,4.000000,4.000000,100.000000
1602006343.712633,93.000000,0.000000,4183.077148,4150.769043,4139.487305,4138.461426,4133.333496,4131.794922,4140.000000,4136.922852,4137.436035,4149.230957,4135.897461,4153.333496,4127.692383,4137.436035,738.000000,4.000000,,,,0.000000,4.000000,4.000000,4.000000,4.000000,4.000000,4.000000,4.000000,4.000000,4.000000,4.000000,4.000000,4.000000,4.000000,4.000000,100.000000
1602006343.720515,94.000000,0.000000,4181.538574,4142.051270,4139.487305,4134.871582,4135.897461,4130.256348,4138.974121,4133.846191,4132.307617,4149.230957,4140.000000,4151.794922,4130.769043,4135.384766,870.000000,4.000000,,,,0.000000,4.000000,4.000000,4.000000,4.000000,4.000000,4.000000,4.000000,4.000000,4.000000,4.000000,4.000000,4.000000,4.000000,4.000000,100.000000
1602006343.728296,95.000000,0.000000,4181.538574,4142.563965,4135.897461,4134.358887,4135.897461,4129.743652,4134.871582,4130.256348,4133.333496,4140.512695,4136.410156,4141.025879,4129.743652,4126.153809,839.000000,4.000000,,,,0.000000,4.000000,4.000000,4.000000,4.000000,4.000000,4.000000,4.000000,4.000000,4.000000,4.000000,4.000000,4.000000,4.000000,4.000000,100.000000
1602006343.736177,96.000000,0.000000,4185.128418,4152.307617,4132.820313,4139.487305,4135.897461,4135.384766,4126.153809,4135.384766,4150.769043,4134.871582,4137.948730,4137.948730,4133.333496,4127.179688,769.000000,4.000000,,,,0.000000,4.000000,4.000000,4.000000,4.000000,4.000000,4.000000,4.000000,4.000000,4.000000,4.000000,4.000000,4.000000,4.000000,4.000000,100.000000
1602006343.744058,97.000000,0.000000,4189.230957,4154.358887,4136.922852,4141.538574,4128.717773,4127.692383,4123.077148,4137.948730,4152.820313,4144.615234,4140.000000,4148.717773,4142.563965,4135.897461,738.000000,4.000000,,,,0.000000,4.000000,4.000000,4.000000,4.000000,4.000000,4.000000,4.000000,4.000000,4.000000,4.000000,4.000000,4.000000,4.000000,4.000000,100.000000
1602006343.752039,98.000000,0.000000,4190.256348,4150.769043,4140.512695,4140.000000,4128.717773,4120.000000,4132.307617,4138.461426,4142.563965,4150.256348,4148.205078,4159.487305,4151.794922,4143.077148,870.000000,4.000000,,,,0.000000,4.000000,4.000000,4.000000,4.000000,4.000000,4.000000,4.000000,4.000000,4.000000,4.000000,4.000000,4.000000,4.000000,4.000000,100.000000
1602006343.759820,99.000000,0.000000,4192.820313,4152.820313,4143.589844,4143.077148,4136.922852,4126.666504,4135.384766,4139.487305,4143.077148,4149.743652,4155.384766,4160.000000,4156.410156,4149.743652,839.000000,4.000000,,,,0.000000,4.000000,4.000000,4.000000,4.000000,4.000000,4.000000,4.000000,4.000000,4.000000,4.000000,4.000000,4.000000,4.000000,4.000000,100.000000
1602006343.767701,100.000000,0.000000,4197.436035,4154.358887,4151.282227,4148.717773,4135.897461,4118.974121,4124.615234,4135.897461,4139.487305,4151.282227,4148.717773,4156.410156,4153.333496,4160.512695,769.000000,4.000000,,,,0.000000,4.000000,4.000000,4.000000,4.000000,4.000000,4.000000,4.000000,4.000000,4.000000,4.000000,4.000000,4.000000,4.000000,4.000000,100.000000
1602006343.775583,101.000000,0.000000,4200.512695,4153.333496,4157.948730,4152.820313,4122.563965,4104.102539,4118.974121,4134.358887,4128.717773,4156.410156,4147.179688,4160.000000,4151.282227,4169.230957,738.000000,4.000000,,,,0.000000,4.000000,4.000000,4.000000,4.000000,4.000000,4.000000,4.000000,4.000000,4.000000,4.000000,4.000000,4.000000,4.000000,4.000000,100.000000
1602006343.783464,102.000000,0.000000,4202.563965,4156.410156,4159.487305,4152.820313,4121.538574,4121.025879,4128.205078,4140.000000,4131.282227,4168.205078,4155.384766,4171.794922,4156.922852,4168.717773,870.000000,4.000000,,,,0.000000,4.000000,4.000000,4.000000,4.000000,4.000000,4.000000,4.000000,4.000000,4.000000,4.000000,4.000000,4.000000,4.000000,4.000000,100.000000
1602006343.791346,103.000000,0.000000,4198.974121,4155.384766,4158.974121,4145.128418,4132.820313,4137.948730,4136.922852,4143.589844,4146.666504,4161.025879,4155.897461,4175.384766,4161.025879,4161.025879,839.000000,4.000000,,,,0.000000,4.000000,4.000000,4.000000,4.000000,4.000000,4.000000,4.000000,4.000000,4.000000,4.000000,4.000000,4.000000,4.000000,4.000000,100.000000
1602006343.799227,104.000000,0.000000,4183.077148,4146.666504,4149.743652,4137.948730,4132.307617,4124.102539,4134.871582,4141.538574,4142.563965,4140.512695,4150.256348,4162.563965,4152.307617,4154.358887,769.000000,4.000000,,,,0.000000,4.000000,4.000000,4.000000,4.000000,4.000000,4.000000,4.000000,4.000000,4.000000,4.000000,4.000000,4.000000,4.000000,4.000000,100.000000
1602006343.807108,105.000000,0.000000,4168.205078,4137.436035,4139.487305,4134.871582,4125.128418,4123.589844,4136.922852,4138.461426,4126.666504,4140.512695,4141.025879,4152.307617,4140.000000,4152.820313,738.000000,4.000000,,,,0.000000,4.000000,4.000000,4.000000,4.000000,4.000000,4.000000,4.000000,4.000000,4.000000,4.000000,4.000000,4.000000,4.000000,4.000000,100.000000
1602006343.814990,106.000000,0.000000,4166.153809,4129.230957,4136.410156,4127.179688,4126.153809,4141.538574,4143.589844,4138.461426,4128.717773,4148.717773,4129.743652,4148.717773,4133.846191,4136.922852,870.000000,4.000000,,,,0.000000,4.000000,4.000000,4.000000,4.000000,4.000000,4.000000,4.000000,4.000000,4.000000,4.000000,4.000000,4.000000,4.000000,4.000000,100.000000
1602006343.822771,107.000000,0.000000,4165.128418,4122.051270,4131.282227,4118.974121,4127.179688,4138.461426,4141.538574,4138.974121,4136.922852,4145.641113,4130.769043,4145.128418,4129.230957,4120.512695,839.000000,4.000000,,,,0.000000,4.000000,4.000000,4.000000,4.000000,4.000000,4.000000,4.000000,4.000000,4.000000,4.000000,4.000000,4.000000,4.000000,4.000000,100.000000
1602006343.830653,108.000000,0.000000,4168.717773,4129.743652,4131.794922,4124.102539,4126.153809,4136.410156,4135.897461,4137.436035,4135.897461,4151.282227,4140.512695,4148.205078,4133.333496,4130.769043,769.000000,4.000000,,,,0.000000,4.000000,4.000000,4.000000,4.000000,4.000000,4.000000,4.000000,4.000000,4.000000,4.000000,4.000000,4.000000,4.000000,4.000000,100.000000
1602006343.838534,109.000000,0.000000,4187.692383,4146.666504,4142.563965,4141.538574,4135.897461,4152.820313,4134.358887,4136.410156,4142.051270,4157.948730,4144.615234,4154.358887,4150.769043,4151.794922,738.000000,4.000000,,,,0.000000,4.000000,4.000000,4.000000,4.000000,4.000000,4.000000,4.000000,4.000000,4.000000,4.000000,4.000000,4.000000,4.000000,4.000000,100.000000
1602006343.846416,110.000000,0.000000,4206.153809,4158.461426,4155.384766,4153.333496,4146.153809,4154.871582,4135.384766,4138.461426,4157.436035,4153.333496,4153.333496,4154.871582,4161.538574,4165.641113,870.000000,4.000000,,,,0.000000,4.000000,4.000000,4.000000,4.000000,4.000000,4.000000,4.000000,4.000000,4.000000,4.000000,4.000000,4.000000,4.000000,4.000000,100.000000
1602006343.854297,111.000000,0.000000,4205.128418,4160.000000,4165.641113,4154.358887,4143.077148,4138.461426,4134.358887,4137.436035,4148.717773,4150.256348,4152.820313,4156.410156,4149.743652,4166.153809,839.000000,4.000000,,,,0.000000,4.000000,4.000000,4.000000,4.000000,4.000000,4.000000,4.000000,4.000000,4.000000,4.000000,4.000000,4.000000,4.000000,4.000000,100.000000
1602006343.862178,112.000000,0.000000,4199.487305,4157.436035,4167.692383,4153.333496,4138.461426,4129.743652,4133.846191,4135.384766,4133.846191,4151.794922,4138.974121,4166.666504,4141.025879,4158.974121,769.000000,4.000000,,,,0.000000,4.000000,4.000000,4.000000,4.000000,4.000000,4.000000,4.000000,4.000000,4.000000,4.000000,4.000000,4.000000,4.000000,4.000000,100.000000
1602006343.870060,113.000000,0.000000,4203.077148,4163.589844,4163.589844,4154.358887,4140.000000,4134.358887,4134.871582,4144.615234,4145.128418,4159.487305,4141.025879,4172.307617,4150.769043,4159.487305,738.000000,4.000000,,,,0.000000,4.000000,4.000000,4.000000,4.000000,4.000000,4.000000,4.000000,4.000000,4.000000,4.000000,4.000000,4.000000,4.000000,4.000000,100.000000
1602006343.877941,114.000000,0.000000,4205.128418,4168.205078,4165.128418,4156.922852,4140.000000,4141.538574,4138.974121,4150.769043,4157.948730,4167.692383,4156.922852,4169.743652,4160.000000,4166.153809,870.000000,4.000000,,,,0.000000,4.000000,4.000000,4.000000,4.000000,4.000000,4.000000,4.000000,4.000000,4.000000,4.000000,4.000000,4.000000,4.000000,4.000000,100.000000
1602006343.885922,115.000000,0.000000,4199.487305,4158.974121,4170.256348,4156.922852,4135.384766,4145.128418,4146.153809,4145.128418,4151.794922,4157.948730,4157.948730,4168.205078,4153.846191,4162.051270,839.000000,4.000000,,,,0.000000,4.000000,4.000000,4.000000,4.000000,4.000000,4.000000,4.000000,4.000000,4.000000,4.000000,4.000000,4.000000,4.000000,4.000000,100.000000
1602006343.893804,116.000000,0.000000,4190.256348,4149.743652,4168.205078,4148.205078,4132.820313,4150.769043,4152.307617,4145.128418,4150.256348,4147.179688,4149.230957,4167.179688,4142.563965,4147.179688,769.000000,4.000000,,,,0.000000,4.000000,4.000000,4.000000,4.000000,4.000000,4.000000,4.000000,4.000000,4.000000,4.000000,4.000000,4.000000,4.000000,4.000000,100.000000
1602006343.901685,117.000000,0.000000,4182.051270,4146.153809,4155.897461,4140.512695,4135.384766,4167.692383,4157.436035,4154.358887,4163.589844,4158.461426,4145.128418,4154.358887,4138.974121,4140.000000,738.000000,4.000000,,,,0.000000,4.000000,4.000000,4.000000,4.000000,4.000000,4.000000,4.000000,4.000000,4.000000,4.000000,4.000000,4.000000,4.000000,4.000000,100.000000
1602006343.909567,118.000000,0.000000,4170.769043,4136.922852,4138.974121,4134.358887,4136.410156,4168.717773,4157.436035,4153.846191,4161.538574,4167.179688,4138.461426,4137.948730,4137.436035,4134.871582,870.000000,4.000000,,,,0.000000,4.000000,4.000000,4.000000,4.000000,4.000000,4.000000,4.000000,4.000000,4.000000,4.000000,4.000000,4.000000,4.000000,4.000000,100.000000
1602006343.917448,119.000000,0.000000,4159.487305,4131.794922,4124.102539,4126.666504,4134.871582,4145.641113,4149.230957,4144.102539,4143.589844,4160.512695,4133.846191,4131.794922,4131.282227,4124.615234,839.000000,4.000000,,,,0.000000,4.000000,4.000000,4.000000,4.000000,4.000000,4.000000,4.000000,4.000000,4.000000,4.000000,4.000000,4.000000,4.000000,4.000000,100.000000
1602006343.925329,120.000000,0.000000,4154.871582,4137.436035,4120.000000,4123.589844,4135.897461,4135.384766,4136.410156,4139.487305,4137.948730,4150.769043,4138.461426,4127.692383,4129.743652,4118.461426,769.000000,4.000000,,,,0.000000,4.000000,4.000000,4.000000,4.000000,4.000000,4.000000,4.000000,4.000000,4.000000,4.000000,4.000000,4.000000,4.000000,4.000000,100.000000
1602006343.933211,121.000000,0.000000,4149.230957,4133.333496,4126.666504,4125.641113,4136.922852,4142.051270,4130.256348,4136.410156,4141.538574,4151.794922,4138.974121,4128.205078,4134.358887,4126.666504,738.000000,4.000000,,,,0.000000,4.000000,4.000000,4.000000,4.000000,4.000000,4.000000,4.000000,4.000000,4.000000,4.000000,4.000000,4.000000,4.000000,4.000000,100.000000
1602006343.941092,122.000000,0.000000,4161.025879,4136.922852,4138.974121,4133.846191,4137.948730,4140.512695,4124.615234,4130.256348,4137.436035,4155.897461,4134.871582,4137.948730,4135.384766,4139.487305,870.000000,4.000000,,,,0.000000,4.000000,4.000000,4.000000,4.000000,4.000000,4.000000,4.000000,4.000000,4.000000,4.000000,4.000000,4.000000,4.000000,4.000000,100.000000
1602006343.948874,123.000000,0.000000,4196.922852,4158.461426,4148.717773,4148.717773,4136.410156,4131.794922,4110.256348,4122.051270,4127.692383,4138.974121,4135.384766,4141.025879,4131.282227,4141.538574,839.000000,4.000000,,,,0.000000,4.000000,4.000000,4.000000,4.000000,4.000000,4.000000,4.000000,4.000000,4.000000,4.000000,4.000000,4.000000,4.000000,4.000000,100.000000
1602006343.956755,124.000000,0.000000,4219.487305,4175.897461,4153.333496,4159.487305,4137.436035,4135.384766,4107.692383,4118.461426,4120.512695,4120.000000,4138.974121,4138.461426,4131.794922,4140.000000,769.000000,4.000000,,,,0.000000,4.000000,4.000000,4.000000,4.000000,4.000000,4.000000,4.000000,4.000000,4.000000,4.000000,4.000000,4.000000,4.000000,4.000000,100.000000
1602006343.964637,125.000000,0.000000,4220.000000,4181.025879,4155.897461,4161.025879,4138.974121,4141.025879,4121.025879,4120.512695,4117.436035,4122.051270,4131.282227,4137.948730,4127.692383,4135.384766,738.000000,4.000000,,,,0.000000,4.000000,4.000000,4.000000,4.000000,4.000000,4.000000,4.000000,4.000000,4.000000,4.000000,4.000000,4.000000,4.000000,4.000000,100.000000
1602006343.972518,126.000000,0.000000,4217.436035,4177.948730,4155.384766,4155.897461,4131.794922,4136.410156,4131.282227,4123.077148,4118.461426,4128.205078,4113.333496,4131.282227,4103.589844,4122.051270,870.000000,4.000000,,,,0.000000,4.000000,4.000000,4.000000,4.000000,4.000000,4.000000,4.000000,4.000000,4.000000,4.000000,4.000000,4.000000,4.000000,4.000000,100.000000
1602006343.980399,127.000000,0.000000,4209.743652,4171.794922,4149.230957,4145.128418,4123.589844,4133.333496,4134.871582,4126.153809,4120.512695,4133.846191,4104.102539,4124.102539,4085.641113,4112.307617,839.000000,4.000000,,,,0.000000,4.000000,4.000000,4.000000,4.000000,4.000000,4.000000,4.000000,4.000000,4.000000,4.000000,4.000000,4.000000,4.000000,4.000000,100.000000
1602006343.988281,128.000000,0.000000,4194.358887,4168.205078,4141.538574,4140.000000,4125.128418,4141.538574,4140.000000,4128.717773,4130.769043,4150.256348,4108.205078,4124.615234,4086.666748,4109.230957,769.000000,4.000000,,,,0.000000,4.000000,4.000000,4.000000,4.000000,4.000000,4.000000,4.000000,4.000000,4.000000,4.000000,4.000000,4.000000,4.000000,4.000000,100.000000
1602006343.996162,0.000000,0.000000,4186.153809,4165.641113,4135.897461,4140.512695,4127.692383,4143.589844,4135.897461,4132.307617,4142.563965,4146.153809,4108.205078,4123.589844,4082.564209,4103.077148,793.000000,4.000000,,,,0.000000,4.000000,4.000000,4.000000,4.000000,4.000000,4.000000,4.000000,4.000000,4.000000,4.000000,4.000000,4.000000,4.000000,4.000000,100.000000
1602006344.004044,1.000000,0.000000,4186.666504,4155.897461,4133.846191,4136.922852,4123.077148,4132.820313,4125.641113,4135.897461,4137.436035,4118.974121,4099.487305,4121.025879,4072.307617,4098.461426,789.000000,4.000000,,,,0.000000,4.000000,4.000000,4.000000,4.000000,4.000000,4.000000,4.000000,4.000000,4.000000,4.000000,4.000000,4.000000,4.000000,4.000000,100.000000
1602006344.012025,2.000000,0.000000,4192.307617,4155.384766,4137.436035,4135.897461,4124.102539,4131.282227,4131.282227,4136.922852,4128.717773,4111.794922,4093.846191,4123.589844,4073.333252,4103.589844,852.000000,4.000000,,,,0.000000,4.000000,4.000000,4.000000,4.000000,4.000000,4.000000,4.000000,4.000000,4.000000,4.000000,4.000000,4.000000,4.000000,4.000000,100.000000
1602006344.019906,3.000000,0.000000,4195.897461,4168.717773,4144.615234,4141.538574,4129.230957,4140.512695,4135.897461,4129.743652,4126.153809,4111.794922,4093.846191,4126.153809,4076.923096,4108.717773,866.000000,4.000000,,,,0.000000,4.000000,4.000000,4.000000,4.000000,4.000000,4.000000,4.000000,4.000000,4.000000,4.000000,4.000000,4.000000,4.000000,4.000000,100.000000
1602006344.027787,4.000000,0.000000,4192.307617,4167.692383,4146.153809,4143.589844,4127.179688,4138.461426,4125.641113,4121.025879,4114.358887,4101.025879,4090.769287,4123.589844,4074.358887,4103.589844,812.000000,4.000000,,,,0.000000,4.000000,4.000000,4.000000,4.000000,4.000000,4.000000,4.000000,4.000000,4.000000,4.000000,4.000000,4.000000,4.000000,4.000000,100.000000
1602006344.035668,5.000000,0.000000,4191.282227,4156.410156,4141.025879,4141.025879,4122.563965,4128.205078,4121.538574,4121.025879,4107.692383,4111.282227,4088.718018,4125.128418,4073.333252,4098.461426,823.000000,4.000000,,,,0.000000,4.000000,4.000000,4.000000,4.000000,4.000000,4.000000,4.000000,4.000000,4.000000,4.000000,4.000000,4.000000,4.000000,4.000000,100.000000
1602006344.043549,6.000000,0.000000,4191.282227,4157.436035,4137.436035,4140.512695,4123.077148,4122.563965,4128.717773,4127.692383,4118.461426,4125.641113,4098.461426,4132.820313,4074.358887,4103.077148,762.000000,4.000000,,,,0.000000,4.000000,4.000000,4.000000,4.000000,4.000000,4.000000,4.000000,4.000000,4.000000,4.000000,4.000000,4.000000,4.000000,4.000000,100.000000
1602006344.051431,7.000000,0.000000,4185.641113,4168.717773,4138.974121,4148.205078,4123.589844,4116.922852,4132.307617,4126.153809,4115.897461,4118.974121,4110.256348,4136.410156,4082.564209,4112.307617,668.000000,4.000000,,,,0.000000,4.000000,4.000000,4.000000,4.000000,4.000000,4.000000,4.000000,4.000000,4.000000,4.000000,4.000000,4.000000,4.000000,4.000000,100.000000
1602006344.059212,8.000000,0.000000,4186.666504,4173.333496,4147.179688,4155.384766,4124.615234,4112.820313,4133.846191,4121.025879,4105.641113,4124.615234,4111.282227,4136.922852,4095.384521,4123.589844,787.000000,4.000000,,,,0.000000,4.000000,4.000000,4.000000,4.000000,4.000000,4.000000,4.000000,4.000000,4.000000,4.000000,4.000000,4.000000,4.000000,4.000000,100.000000
1602006344.067093,9.000000,0.000000,4196.410156,4172.307617,4154.358887,4153.846191,4127.179688,4115.384766,4137.436035,4127.179688,4119.487305,4136.410156,4109.230957,4136.922852,4094.358887,4125.128418,833.000000,4.000000,,,,0.000000,4.000000,4.000000,4.000000,4.000000,4.000000,4.000000,4.000000,4.000000,4.000000,4.000000,4.000000,4.000000,4.000000,4.000000,100.000000
1602006344.074975,10.000000,0.000000,4201.025879,4168.717773,4149.743652,4149.743652,4127.179688,4121.538574,4136.410156,4136.410156,4138.974121,4129.230957,4114.358887,4134.358887,4089.743652,4114.871582,870.000000,4.000000,,,,0.000000,4.000000,4.000000,4.000000,4.000000,4.000000,4.000000,4.000000,4.000000,4.000000,4.000000,4.000000,4.000000,4.000000,4.000000,100.000000
1602006344.082856,11.000000,0.000000,4198.974121,4159.487305,4142.051270,4148.717773,4122.051270,4131.794922,4140.000000,4136.410156,4135.897461,4114.871582,4118.461426,4128.717773,4093.333252,4109.230957,867.000000,4.000000,,,,0.000000,4.000000,4.000000,4.000000,4.000000,4.000000,4.000000,4.000000,4.000000,4.000000,4.000000,4.000000,4.000000,4.000000,4.000000,100.000000
1602006344.090738,12.000000,0.000000,4194.358887,4154.871582,4134.871582,4143.589844,4122.051270,4140.512695,4144.615234,4134.871582,4117.948730,4100.512695,4104.102539,4124.102539,4082.564209,4105.641113,769.000000,4.000000,,,,0.000000,4.000000,4.000000,4.000000,4.000000,4.000000,4.000000,4.000000,4.000000,4.000000,4.000000,4.000000,4.000000,4.000000,4.000000,100.000000
1602006344.098619,13.000000,0.000000,4185.641113,4154.871582,4126.153809,4136.410156,4129.743652,4140.000000,4142.563965,4135.384766,4107.179688,4091.281982,4087.692383,4121.538574,4064.615479,4096.922852,738.000000,4.000000,,,,0.000000,4.000000,4.000000,4.000000,4.000000,4.000000,4.000000,4.000000,4.000000,4.000000,4.000000,4.000000,4.000000,4.000000,4.000000,100.000000
1602006344.106500,14.000000,0.000000,4182.051270,4154.358887,4130.769043,4135.897461,4136.410156,4136.922852,4139.487305,4137.436035,4114.358887,4108.205078,4095.897461,4121.025879,4069.743652,4101.025879,870.000000,4.000000,,,,0.000000,4.000000,4.000000,4.000000,4.000000,4.000000,4.000000,4.000000,4.000000,4.000000,4.000000,4.000000,4.000000,4.000000,4.000000,100.000000
1602006344.114481,15.000000,0.000000,4186.666504,4158.974121,4139.487305,4138.461426,4138.461426,4146.153809,4137.436035,4138.461426,4125.128418,4126.153809,4110.256348,4123.077148,4078.974365,4105.641113,867.000000,4.000000,,,,0.000000,4.000000,4.000000,4.000000,4.000000,4.000000,4.000000,4.000000,4.000000,4.000000,4.000000,4.000000,4.000000,4.000000,4.000000,100.000000
1602006344.122363,16.000000,0.000000,4186.153809,4167.179688,4133.333496,4141.025879,4140.000000,4154.871582,4137.948730,4133.846191,4118.974121,4114.358887,4102.051270,4121.538574,4077.948730,4096.410156,0.000000,4.000000,,,,0.000000,4.000000,4.000000,4.000000,4.000000,4.000000,4.000000,4.000000,4.000000,4.000000,4.000000,4.000000,4.000000,4.000000,4.000000,100.000000
1602006344.130244,17.000000,0.000000,4184.102539,4171.282227,4130.769043,4146.153809,4142.563965,4151.282227,4136.922852,4127.692383,4112.820313,4111.282227,4096.922852,4119.487305,4085.128174,4093.846191,0.000000,4.000000,,,,0.000000,4.000000,4.000000,4.000000,4.000000,4.000000,4.000000,4.000000,4.000000,4.000000,4.000000,4.000000,4.000000,4.000000,4.000000,100.000000
1602006344.138125,18.000000,0.000000,4186.153809,4167.179688,4134.871582,4147.179688,4140.512695,4140.512695,4128.717773,4126.153809,4121.025879,4125.641113,4107.179688,4121.538574,4089.230713,4095.897461,0.000000,4.000000,,,,0.000000,4.000000,4.000000,4.000000,4.000000,4.000000,4.000000,4.000000,4.000000,4.000000,4.000000,4.000000,4.000000,4.000000,4.000000,100.000000
1602006344.146006,19.000000,0.000000,4185.128418,4157.436035,4127.179688,4141.538574,4135.897461,4127.179688,4123.589844,4122.051270,4121.538574,4116.410156,4100.000000,4121.538574,4073.333252,4091.281982,0.000000,4.000000,,,,0.000000,4.000000,4.000000,4.000000,4.000000,4.000000,4.000000,4.000000,4.000000,4.000000,4.000000,4.000000,4.000000,4.000000,4.000000,100.000000
1602006344.153887,20.000000,0.000000,4180.000000,4157.948730,4124.615234,4142.563965,4135.897461,4125.641113,4130.256348,4123.077148,4117.436035,4091.794922,4087.692383,4124.102539,4071.794922,4095.384521,0.000000,4.000000,,,,0.000000,4.000000,4.000000,4.000000,4.000000,4.000000,4.000000,4.000000,4.000000,4.000000,4.000000,4.000000,4.000000,4.000000,4.000000,100.000000
1602006344.161869,21.000000,0.000000,4183.589844,4169.230957,4137.948730,4151.794922,4137.948730,4136.410156,4139.487305,4135.384766,4129.743652,4102.051270,4102.563965,4137.948730,4090.769287,4110.769043,0.000000,4.000000,,,,0.000000,4.000000,4.000000,4.000000,4.000000,4.000000,4.000000,4.000000,4.000000,4.000000,4.000000,4.000000,4.000000,4.000000,4.000000,100.000000
1602006344.169751,22.000000,0.000000,4190.256348,4169.230957,4145.641113,4153.846191,4137.948730,4141.538574,4139.487305,4139.487305,4143.589844,4129.230957,4115.384766,4152.820313,4097.436035,4120.512695,0.000000,4.000000,,,,0.000000,4.000000,4.000000,4.000000,4.000000,4.000000,4.000000,4.000000,4.000000,4.000000,4.000000,4.000000,4.000000,4.000000,4.000000,100.000000
1602006344.177632,23.000000,0.000000,4180.000000,4157.948730,4141.025879,4145.128418,4135.897461,4135.897461,4136.410156,4133.333496,4140.512695,4129.230957,4106.153809,4149.743652,4091.281982,4118.461426,0.000000,4.000000,,,,0.000000,4.000000,4.000000,4.000000,4.000000,4.000000,4.000000,4.000000,4.000000,4.000000,4.000000,4.000000,4.000000,4.000000,4.000000,100.000000
1602006344.185514,24.000000,0.000000,4174.871582,4153.333496,4134.358887,4137.436035,4130.769043,4136.922852,4136.922852,4134.358887,4132.307617,4127.179688,4102.563965,4141.538574,4092.820557,4109.230957,0.000000,4.000000,,,,0.000000,4.000000,4.000000,4.000000,4.000000,4.000000,4.000000,4.000000,4.000000,4.000000,4.000000,4.000000,4.000000,4.000000,4.000000,100.000000
1602006344.193395,25.000000,0.000000,4183.077148,4153.846191,4129.743652,4135.897461,4124.615234,4141.025879,4138.461426,4140.000000,4125.128418,4127.179688,4108.205078,4138.974121,4090.256348,4105.128418,0.000000,4.000000,,,,0.000000,4.000000,4.000000,4.000000,4.000000,4.000000,4.000000,4.000000,4.000000,4.000000,4.000000,4.000000,4.000000,4.000000,4.000000,100.000000
1602006344.201277,26.000000,0.000000,4182.051270,4151.794922,4128.205078,4137.948730,4121.538574,4135.897461,4136.922852,4138.461426,4113.333496,4102.563965,4100.512695,4131.282227,4078.974365,4103.077148,0.000000,4.000000,,,,0.000000,4.000000,4.000000,4.000000,4.000000,4.000000,4.000000,4.000000,4.000000,4.000000,4.000000,4.000000,4.000000,4.000000,4.000000,100.000000
1602006344.209159,27.000000,0.000000,4175.384766,4150.256348,4124.615234,4138.974121,4123.077148,4133.333496,4134.358887,4135.384766,4111.282227,4082.564209,4090.769287,4126.666504,4073.846191,4094.871826,0.000000,4.000000,,,,0.000000,4.000000,4.000000,4.000000,4.000000,4.000000,4.000000,4.000000,4.000000,4.000000,4.000000,4.000000,4.000000,4.000000,4.000000,100.000000
1602006344.217040,28.000000,0.000000,4181.025879,4152.820313,4125.641113,4141.025879,4131.794922,4137.436035,4135.897461,4136.410156,4117.948730,4096.922852,4102.051270,4136.410156,4078.461426,4095.384521,0.000000,4.000000,,,,0.000000,4.000000,4.000000,4.000000,4.000000,4.000000,4.000000,4.000000,4.000000,4.000000,4.000000,4.000000,4.000000,4.000000,4.000000,100.000000
1602006344.224922,29.000000,0.000000,4185.128418,4149.230957,4130.256348,4142.051270,4138.461426,4137.436035,4137.948730,4135.897461,4111.282227,4111.282227,4112.307617,4142.563965,4085.641113,4103.077148,0.000000,4.000000,,,,0.000000,4.000000,4.000000,4.000000,4.000000,4.000000,4.000000,4.000000,4.000000,4.000000,4.000000,4.000000,4.000000,4.000000,4.000000,100.000000
1602006344.232703,30.000000,0.000000,4174.358887,4141.538574,4127.179688,4139.487305,4131.794922,4137.436035,4136.922852,4127.692383,4102.563965,4103.589844,4098.974121,4137.436035,4086.153809,4098.461426,0.000000,4.000000,,,,0.000000,4.000000,4.000000,4.000000,4.000000,4.000000,4.000000,4.000000,4.000000,4.000000,4.000000,4.000000,4.000000,4.000000,4.000000,100.000000
1602006344.240584,31.000000,0.000000,4168.717773,4137.948730,4121.538574,4137.436035,4122.051270,4136.410156,4136.922852,4121.025879,4107.179688,4097.436035,4085.641113,4136.922852,4076.923096,4089.743652,0.000000,4.000000,,,,0.000000,4.000000,4.000000,4.000000,4.000000,4.000000,4.000000,4.000000,4.000000,4.000000,4.000000,4.000000,4.000000,4.000000,4.000000,100.000000
1602006344.248465,32.000000,0.000000,4169.743652,4137.948730,4124.102539,4138.461426,4120.512695,4125.641113,4137.436035,4121.025879,4108.205078,4093.333252,4090.769287,4137.436035,4068.205078,4090.256348,0.000000,4.000000,,,,0.000000,4.000000,4.000000,4.000000,4.000000,4.000000,4.000000,4.000000,4.000000,4.000000,4.000000,4.000000,4.000000,4.000000,4.000000,100.000000
1602006344.256246,33.000000,0.000000,4164.102539,4135.897461,4125.128418,4136.922852,4121.025879,4122.051270,4137.948730,4122.051270,4104.102539,4086.666748,4094.358887,4134.871582,4068.718018,4091.794922,0.000000,4.000000,,,,0.000000,4.000000,4.000000,4.000000,4.000000,4.000000,4.000000,4.000000,4.000000,4.000000,4.000000,4.000000,4.000000,4.000000,4.000000,100.000000
1602006344.264127,34.000000,0.000000,4160.512695,4136.922852,4122.051270,4135.384766,4120.512695,4132.820313,4137.948730,4122.563965,4113.333496,4097.436035,4090.769287,4136.410156,4077.948730,4090.769287,0.000000,4.000000,,,,0.000000,4.000000,4.000000,4.000000,4.000000,4.000000,4.000000,4.000000,4.000000,4.000000,4.000000,4.000000,4.000000,4.000000,4.000000,100.000000
1602006344.271908,35.000000,0.000000,4168.717773,4141.538574,4131.794922,4141.025879,4129.230957,4138.974121,4136.922852,4128.205078,4126.666504,4116.410156,4097.436035,4142.563965,4089.230713,4097.948730,0.000000,4.000000,,,,0.000000,4.000000,4.000000,4.000000,4.000000,4.000000,4.000000,4.000000,4.000000,4.000000,4.000000,4.000000,4.000000,4.000000,4.000000,100.000000
1602006344.279689,36.000000,0.000000,4177.948730,4143.589844,4139.487305,4141.538574,4137.436035,4140.512695,4135.897461,4134.871582,4129.230957,4110.769043,4107.692383,4146.153809,4092.307617,4107.179688,0.000000,4.000000,,,,0.000000,4.000000,4.000000,4.000000,4.000000,4.000000,4.000000,4.000000,4.000000,4.000000,4.000000,4.000000,4.000000,4.000000,4.000000,100.000000
1602006344.287570,37.000000,0.000000,4174.358887,4140.512695,4129.743652,4130.769043,4129.230957,4138.461426,4132.307617,4134.871582,4123.077148,4097.436035,4108.717773,4142.051270,4085.128174,4100.512695,0.000000,4.000000,,,,0.000000,4.000000,4.000000,4.000000,4.000000,4.000000,4.000000,4.000000,4.000000,4.000000,4.000000,4.000000,4.000000,4.000000,4.000000,100.000000
1602006344.295451,38.000000,0.000000,4168.717773,4134.358887,4119.487305,4127.692383,4117.436035,4124.615234,4125.641113,4128.205078,4120.512695,4099.487305,4102.563965,4136.410156,4082.051270,4088.205078,0.000000,4.000000,,,,0.000000,4.000000,4.000000,4.000000,4.000000,4.000000,4.000000,4.000000,4.000000,4.000000,4.000000,4.000000,4.000000,4.000000,4.000000,100.000000
1602006344.303332,39.000000,0.000000,4164.615234,4133.846191,4120.000000,4135.897461,4124.102539,4118.461426,4120.512695,4125.641113,4126.666504,4104.615234,4100.512695,4134.871582,4086.666748,4088.205078,0.000000,4.000000,,,,0.000000,4.000000,4.000000,4.000000,4.000000,4.000000,4.000000,4.000000,4.000000,4.000000,4.000000,4.000000,4.000000,4.000000,4.000000,100.000000
1602006344.311214,40.000000,0.000000,4157.948730,4137.948730,4120.000000,4138.461426,4136.410156,4127.692383,4120.000000,4132.307617,4130.256348,4113.846191,4105.128418,4134.871582,4093.846191,4097.436035,0.000000,4.000000,,,,0.000000,4.000000,4.000000,4.000000,4.000000,4.000000,4.000000,4.000000,4.000000,4.000000,4.000000,4.000000,4.000000,4.000000,4.000000,100.000000
1602006344.319095,41.000000,0.000000,4153.846191,4136.922852,4118.974121,4135.897461,4136.410156,4127.179688,4121.538574,4134.871582,4127.692383,4124.102539,4107.692383,4133.333496,4095.897461,4096.410156,0.000000,4.000000,,,,0.000000,4.000000,4.000000,4.000000,4.000000,4.000000,4.000000,4.000000,4.000000,4.000000,4.000000,4.000000,4.000000,4.000000,4.000000,100.000000
1602006344.326876,42.000000,0.000000,4153.333496,4136.410156,4119.487305,4136.922852,4134.358887,4127.179688,4126.666504,4135.384766,4133.333496,4123.077148,4107.692383,4136.922852,4097.436035,4090.256348,0.000000,4.000000,,,,0.000000,4.000000,4.000000,4.000000,4.000000,4.000000,4.000000,4.000000,4.000000,4.000000,4.000000,4.000000,4.000000,4.000000,4.000000,100.000000
1602006344.334757,43.000000,0.000000,4157.436035,4137.948730,4121.538574,4139.487305,4130.769043,4134.871582,4129.743652,4137.948730,4142.051270,4125.128418,4107.179688,4141.025879,4103.077148,4096.922852,0.000000,4.000000,,,,0.000000,4.000000,4.000000,4.000000,4.000000,4.000000,4.000000,4.000000,4.000000,4.000000,4.000000,4.000000,4.000000,4.000000,4.000000,100.000000
1602006344.342638,44.000000,0.000000,4163.077148,4136.922852,4130.256348,4138.974121,4122.051270,4129.743652,4125.641113,4133.846191,4133.333496,4123.589844,4104.615234,4144.615234,4103.589844,4107.692383,0.000000,4.000000,,,,0.000000,4.000000,4.000000,4.000000,4.000000,4.000000,4.000000,4.000000,4.000000,4.000000,4.000000,4.000000,4.000000,4.000000,4.000000,100.000000
1602006344.350519,45.000000,0.000000,4177.436035,4145.641113,4141.025879,4147.179688,4126.666504,4126.153809,4127.179688,4130.769043,4122.051270,4108.205078,4111.282227,4158.974121,4111.282227,4116.410156,0.000000,4.000000,,,,0.000000,4.000000,4.000000,4.000000,4.000000,4.000000,4.000000,4.000000,4.000000,4.000000,4.000000,4.000000,4.000000,4.000000,4.000000,100.000000
1602006344.358401,46.000000,0.000000,4191.794922,4159.487305,4144.615234,4158.461426,4140.000000,4135.384766,4136.410156,4135.384766,4122.563965,4113.846191,4127.179688,4174.358887,4126.153809,4126.666504,0.000000,4.000000,,,,0.000000,4.000000,4.000000,4.000000,4.000000,4.000000,4.000000,4.000000,4.000000,4.000000,4.000000,4.000000,4.000000,4.000000,4.000000,100.000000
1602006344.366282,47.000000,0.000000,4182.563965,4151.282227,4143.077148,4150.769043,4141.025879,4138.461426,4139.487305,4138.461426,4129.230957,4138.974121,4124.615234,4168.717773,4114.871582,4117.436035,0.000000,4.000000,,,,0.000000,4.000000,4.000000,4.000000,4.000000,4.000000,4.000000,4.000000,4.000000,4.000000,4.000000,4.000000,4.000000,4.000000,4.000000,100.000000
1602006344.374064,48.000000,0.000000,4173.846191,4142.051270,4146.666504,4142.051270,4135.897461,4136.922852,4136.922852,4137.948730,4135.384766,4142.563965,4116.410156,4156.410156,4102.051270,4104.615234,0.000000,4.000000,,,,0.000000,4.000000,4.000000,4.000000,4.000000,4.000000,4.000000,4.000000,4.000000,4.000000,4.000000,4.000000,4.000000,4.000000,4.000000,100.000000
1602006344.381945,49.000000,0.000000,4186.153809,4149.743652,4151.794922,4150.256348,4137.948730,4141.025879,4137.436035,4140.000000,4135.897461,4136.410156,4127.692383,4162.563965,4127.179688,4127.179688,0.000000,4.000000,,,,0.000000,4.000000,4.000000,4.000000,4.000000,4.000000,4.000000,4.000000,4.000000,4.000000,4.000000,4.000000,4.000000,4.000000,4.000000,100.000000
1602006344.389827,50.000000,0.000000,4186.666504,4143.589844,4148.205078,4149.230957,4140.000000,4138.461426,4137.948730,4142.563965,4137.436035,4128.717773,4139.487305,4170.256348,4154.358887,4149.743652,0.000000,4.000000,,,,0.000000,4.000000,4.000000,4.000000,4.000000,4.000000,4.000000,4.000000,4.000000,4.000000,4.000000,4.000000,4.000000,4.000000,4.000000,100.000000
1602006344.397708,51.000000,0.000000,4165.128418,4125.128418,4140.000000,4135.897461,4135.384766,4134.871582,4136.922852,4145.641113,4143.077148,4108.205078,4143.589844,4165.128418,4159.487305,4142.563965,0.000000,4.000000,,,,0.000000,4.000000,4.000000,4.000000,4.000000,4.000000,4.000000,4.000000,4.000000,4.000000,4.000000,4.000000,4.000000,4.000000,4.000000,100.000000
1602006344.405590,52.000000,0.000000,4147.692383,4115.384766,4133.846191,4129.743652,4130.256348,4137.948730,4131.282227,4145.128418,4134.871582,4103.589844,4155.384766,4158.974121,4168.717773,4140.000000,0.000000,4.000000,,,,0.000000,4.000000,4.000000,4.000000,4.000000,4.000000,4.000000,4.000000,4.000000,4.000000,4.000000,4.000000,4.000000,4.000000,4.000000,100.000000
1602006344.413472,53.000000,0.000000,4135.897461,4107.692383,4134.871582,4128.717773,4131.794922,4135.897461,4124.615234,4131.282227,4126.153809,4130.769043,4154.871582,4155.897461,4174.871582,4144.102539,0.000000,4.000000,,,,0.000000,4.000000,4.000000,4.000000,4.000000,4.000000,4.000000,4.000000,4.000000,4.000000,4.000000,4.000000,4.000000,4.000000,4.000000,100.000000
1602006344.421353,54.000000,0.000000,4132.307617,4108.205078,4137.436035,4132.307617,4137.948730,4137.436035,4127.179688,4122.051270,4137.436035,4152.307617,4138.974121,4155.384766,4168.717773,4140.512695,0.000000,4.000000,,,,0.000000,4.000000,4.000000,4.000000,4.000000,4.000000,4.000000,4.000000,4.000000,4.000000,4.000000,4.000000,4.000000,4.000000,4.000000,100.000000
1602006344.429235,55.000000,0.000000,4142.563965,4120.000000,4137.948730,4138.974121,4141.025879,4140.512695,4126.153809,4129.230957,4141.538574,4152.820313,4133.846191,4158.974121,4167.692383,4138.974121,0.000000,4.000000,,,,0.000000,4.000000,4.000000,4.000000,4.000000,4.000000,4.000000,4.000000,4.000000,4.000000,4.000000,4.000000,4.000000,4.000000,4.000000,100.000000
1602006344.437117,56.000000,0.000000,4157.948730,4123.589844,4142.563965,4136.410156,4142.563965,4126.153809,4122.051270,4137.436035,4134.358887,4153.333496,4146.153809,4166.666504,4175.384766,4147.179688,0.000000,4.000000,,,,0.000000,4.000000,4.000000,4.000000,4.000000,4.000000,4.000000,4.000000,4.000000,4.000000,4.000000,4.000000,4.000000,4.000000,4.000000,100.000000
1602006344.445098,57.000000,0.000000,4172.307617,4125.128418,4155.897461,4136.922852,4143.589844,4118.461426,4131.282227,4142.563965,4142.563965,4155.897461,4163.589844,4177.436035,4188.717773,4163.077148,0.000000,4.000000,,,,0.000000,4.000000,4.000000,4.000000,4.000000,4.000000,4.000000,4.000000,4.000000,4.000000,4.000000,4.000000,4.000000,4.000000,4.000000,100.000000
1602006344.452979,58.000000,0.000000,4170.769043,4127.692383,4161.025879,4141.025879,4142.051270,4133.333496,4139.487305,4143.589844,4147.179688,4145.641113,4165.641113,4180.512695,4188.205078,4168.717773,0.000000,4.000000,,,,0.000000,4.000000,4.000000,4.000000,4.000000,4.000000,4.000000,4.000000,4.000000,4.000000,4.000000,4.000000,4.000000,4.000000,4.000000,100.000000
1602006344.460860,59.000000,0.000000,4153.333496,4122.051270,4148.717773,4135.384766,4139.487305,4133.333496,4134.358887,4140.000000,4132.820313,4127.179688,4152.307617,4171.794922,4169.230957,4155.384766,0.000000,4.000000,,,,0.000000,4.000000,4.000000,4.000000,4.000000,4.000000,4.000000,4.000000,4.000000,4.000000,4.000000,4.000000,4.000000,4.000000,4.000000,100.000000
1602006344.468741,60.000000,0.000000,4149.743652,4120.512695,4139.487305,4135.897461,4137.948730,4121.025879,4135.384766,4138.974121,4122.563965,4127.692383,4148.717773,4167.179688,4163.077148,4149.743652,0.000000,4.000000,,,,0.000000,4.000000,4.000000,4.000000,4.000000,4.000000,4.000000,4.000000,4.000000,4.000000,4.000000,4.000000,4.000000,4.000000,4.000000,100.000000
1602006344.476622,61.000000,0.000000,4156.410156,4124.615234,4138.974121,4142.051270,4135.897461,4127.692383,4141.538574,4140.512695,4124.102539,4147.179688,4158.461426,4170.256348,4173.333496,4154.871582,0.000000,4.000000,,,,0.000000,4.000000,4.000000,4.000000,4.000000,4.000000,4.000000,4.000000,4.000000,4.000000,4.000000,4.000000,4.000000,4.000000,4.000000,100.000000
1602006344.484504,62.000000,0.000000,4150.769043,4121.538574,4138.461426,4140.512695,4138.461426,4139.487305,4136.922852,4138.974121,4127.179688,4162.051270,4158.974121,4167.692383,4173.333496,4149.743652,0.000000,4.000000,,,,0.000000,4.000000,4.000000,4.000000,4.000000,4.000000,4.000000,4.000000,4.000000,4.000000,4.000000,4.000000,4.000000,4.000000,4.000000,100.000000
1602006344.492285,63.000000,0.000000,4135.897461,4115.384766,4135.897461,4135.384766,4139.487305,4136.410156,4128.717773,4137.436035,4128.205078,4150.769043,4147.692383,4157.948730,4158.461426,4140.512695,0.000000,4.000000,,,,0.000000,4.000000,4.000000,4.000000,4.000000,4.000000,4.000000,4.000000,4.000000,4.000000,4.000000,4.000000,4.000000,4.000000,4.000000,100.000000
1602006344.500167,64.000000,0.000000,4121.538574,4110.256348,4126.666504,4129.230957,4133.846191,4131.282227,4124.615234,4137.436035,4123.589844,4118.974121,4135.384766,4149.230957,4144.102539,4130.769043,793.000000,4.000000,,,,0.000000,4.000000,4.000000,4.000000,4.000000,4.000000,4.000000,4.000000,4.000000,4.000000,4.000000,4.000000,4.000000,4.000000,4.000000,100.000000
1602006344.508049,65.000000,0.000000,4112.820313,4111.794922,4121.025879,4126.153809,4131.282227,4132.820313,4124.102539,4135.897461,4120.512695,4105.641113,4132.307617,4146.666504,4136.410156,4123.077148,789.000000,4.000000,,,,0.000000,4.000000,4.000000,4.000000,4.000000,4.000000,4.000000,4.000000,4.000000,4.000000,4.000000,4.000000,4.000000,4.000000,4.000000,100.000000
1602006344.515930,66.000000,0.000000,4121.025879,4121.538574,4129.743652,4134.358887,4135.384766,4136.410156,4129.743652,4137.436035,4129.230957,4126.666504,4145.128418,4149.230957,4143.589844,4129.743652,852.000000,4.000000,,,,0.000000,4.000000,4.000000,4.000000,4.000000,4.000000,4.000000,4.000000,4.000000,4.000000,4.000000,4.000000,4.000000,4.000000,4.000000,100.000000
1602006344.523812,67.000000,0.000000,4135.897461,4129.230957,4138.974121,4142.563965,4138.461426,4137.436035,4135.897461,4141.538574,4139.487305,4151.794922,4158.974121,4152.820313,4160.000000,4140.000000,866.000000,4.000000,,,,0.000000,4.000000,4.000000,4.000000,4.000000,4.000000,4.000000,4.000000,4.000000,4.000000,4.000000,4.000000,4.000000,4.000000,4.000000,100.000000
1602006344.531694,68.000000,0.000000,4141.025879,4128.717773,4138.461426,4142.563965,4138.461426,4135.897461,4137.436035,4142.051270,4141.025879,4154.871582,4157.436035,4158.974121,4168.205078,4142.563965,812.000000,4.000000,,,,0.000000,4.000000,4.000000,4.000000,4.000000,4.000000,4.000000,4.000000,4.000000,4.000000,4.000000,4.000000,4.000000,4.000000,4.000000,100.000000
1602006344.539575,69.000000,0.000000,4144.102539,4125.128418,4142.563965,4143.077148,4137.948730,4136.410156,4137.436035,4140.512695,4139.487305,4153.333496,4153.333496,4168.205078,4168.717773,4151.282227,823.000000,4.000000,,,,0.000000,4.000000,4.000000,4.000000,4.000000,4.000000,4.000000,4.000000,4.000000,4.000000,4.000000,4.000000,4.000000,4.000000,4.000000,100.000000
1602006344.547457,70.000000,0.000000,4153.333496,4124.102539,4151.794922,4143.589844,4139.487305,4137.436035,4140.512695,4140.000000,4140.000000,4143.589844,4165.641113,4173.846191,4173.846191,4160.512695,762.000000,4.000000,,,,0.000000,4.000000,4.000000,4.000000,4.000000,4.000000,4.000000,4.000000,4.000000,4.000000,4.000000,4.000000,4.000000,4.000000,4.000000,100.000000
1602006344.555338,71.000000,0.000000,4160.000000,4123.589844,4151.282227,4141.025879,4138.461426,4136.410156,4142.563965,4141.025879,4140.000000,4122.563965,4174.358887,4172.307617,4177.948730,4154.871582,668.000000,4.000000,,,,0.000000,4.000000,4.000000,4.000000,4.000000,4.000000,4.000000,4.000000,4.000000,4.000000,4.000000,4.000000,4.000000,4.000000,4.000000,100.000000
1602006344.563120,72.000000,0.000000,4164.102539,4121.538574,4151.794922,4137.948730,4135.897461,4134.871582,4140.000000,4140.000000,4144.102539,4131.282227,4155.384766,4170.769043,4175.897461,4152.820313,787.000000,4.000000,,,,0.000000,4.000000,4.000000,4.000000,4.000000,4.000000,4.000000,4.000000,4.000000,4.000000,4.000000,4.000000,4.000000,4.000000,4.000000,100.000000
1602006344.571001,73.000000,0.000000,4158.461426,4111.282227,4155.897461,4128.205078,4135.384766,4134.871582,4137.436035,4137.436035,4150.769043,4163.077148,4140.512695,4167.179688,4170.769043,4156.410156,833.000000,4.000000,,,,0.000000,4.000000,4.000000,4.000000,4.000000,4.000000,4.000000,4.000000,4.000000,4.000000,4.000000,4.000000,4.000000,4.000000,4.000000,100.000000
1602006344.578882,74.000000,0.000000,4138.461426,4101.025879,4146.666504,4117.436035,4132.820313,4145.641113,4141.538574,4136.922852,4149.230957,4162.051270,4143.077148,4152.820313,4161.025879,4146.153809,870.000000,4.000000,,,,0.000000,4.000000,4.000000,4.000000,4.000000,4.000000,4.000000,4.000000,4.000000,4.000000,4.000000,4.000000,4.000000,4.000000,4.000000,100.000000
1602006344.586763,75.000000,0.000000,4130.256348,4107.179688,4124.615234,4122.051270,4131.282227,4155.897461,4144.615234,4137.436035,4138.461426,4135.897461,4143.077148,4136.410156,4146.153809,4131.794922,844.000000,4.000000,,,,0.000000,4.000000,4.000000,4.000000,4.000000,4.000000,4.000000,4.000000,4.000000,4.000000,4.000000,4.000000,4.000000,4.000000,4.000000,100.000000
1602006344.594644,76.000000,0.000000,4145.641113,4123.077148,4116.410156,4136.922852,4144.102539,4148.717773,4138.974121,4134.871582,4128.205078,4127.692383,4142.563965,4138.461426,4144.102539,4134.358887,769.000000,4.000000,,,,0.000000,4.000000,4.000000,4.000000,4.000000,4.000000,4.000000,4.000000,4.000000,4.000000,4.000000,4.000000,4.000000,4.000000,4.000000,100.000000
1602006344.602526,77.000000,0.000000,4158.974121,4132.307617,4130.769043,4142.563965,4155.897461,4144.615234,4134.871582,4133.846191,4127.179688,4116.922852,4151.282227,4154.358887,4153.846191,4144.615234,738.000000,4.000000,,,,0.000000,4.000000,4.000000,4.000000,4.000000,4.000000,4.000000,4.000000,4.000000,4.000000,4.000000,4.000000,4.000000,4.000000,4.000000,100.000000
1602006344.610306,78.000000,0.000000,4155.897461,4134.358887,4141.025879,4138.461426,4146.153809,4149.230957,4136.922852,4135.384766,4136.410156,4102.051270,4155.384766,4157.436035,4152.307617,4143.077148,870.000000,4.000000,,,,0.000000,4.000000,4.000000,4.000000,4.000000,4.000000,4.000000,4.000000,4.000000,4.000000,4.000000,4.000000,4.000000,4.000000,4.000000,100.000000
1602006344.618288,79.000000,0.000000,4146.153809,4135.384766,4136.410156,4136.922852,4140.000000,4143.077148,4136.410156,4134.871582,4139.487305,4122.051270,4151.282227,4150.256348,4143.589844,4133.846191,844.000000,4.000000,,,,0.000000,4.000000,4.000000,4.000000,4.000000,4.000000,4.000000,4.000000,4.000000,4.000000,4.000000,4.000000,4.000000,4.000000,4.000000,100.000000
1602006344.626169,80.000000,0.000000,4146.666504,4137.948730,4133.846191,4139.487305,4146.153809,4136.410156,4134.871582,4136.410156,4136.410156,4157.948730,4154.358887,4149.743652,4148.717773,4135.384766,769.000000,4.000000,,,,0.000000,4.000000,4.000000,4.000000,4.000000,4.000000,4.000000,4.000000,4.000000,4.000000,4.000000,4.000000,4.000000,4.000000,4.000000,100.000000
1602006344.634050,81.000000,0.000000,4151.794922,4142.051270,4133.333496,4141.538574,4147.692383,4143.589844,4137.436035,4141.025879,4144.615234,4165.128418,4157.948730,4150.256348,4154.871582,4142.051270,738.000000,4.000000,,,,0.000000,4.000000,4.000000,4.000000,4.000000,4.000000,4.000000,4.000000,4.000000,4.000000,4.000000,4.000000,4.000000,4.000000,4.000000,100.000000
1602006344.641932,82.000000,0.000000,4146.666504,4134.871582,4126.153809,4136.922852,4134.871582,4138.461426,4134.358887,4140.512695,4154.358887,4144.102539,4151.282227,4148.717773,4150.256348,4139.487305,870.000000,4.000000,,,,0.000000,4.000000,4.000000,4.000000,4.000000,4.000000,4.000000,4.000000,4.000000,4.000000,4.000000,4.000000,4.000000,4.000000,4.000000,100.000000
1602006344.649813,83.000000,0.000000,4143.077148,4123.077148,4126.666504,4130.256348,4122.051270,4126.666504,4128.717773,4141.538574,4153.846191,4133.846191,4153.846191,4159.487305,4153.846191,4135.384766,844.000000,4.000000,,,,0.000000,4.000000,4.000000,4.000000,4.000000,4.000000,4.000000,4.000000,4.000000,4.000000,4.000000,4.000000,4.000000,4.000000,4.000000,100.000000
1602006344.657695,84.000000,0.000000,4155.897461,4129.743652,4138.974121,4131.282227,4126.153809,4140.000000,4135.384766,4153.333496,4160.512695,4143.077148,4173.846191,4182.563965,4168.717773,4152.820313,769.000000,4.000000,,,,0.000000,4.000000,4.000000,4.000000,4.000000,4.000000,4.000000,4.000000,4.000000,4.000000,4.000000,4.000000,4.000000,4.000000,4.000000,100.000000
1602006344.665576,85.000000,0.000000,4167.179688,4140.512695,4145.128418,4140.000000,4133.333496,4157.436035,4146.153809,4162.051270,4176.922852,4159.487305,4190.256348,4197.436035,4182.563965,4171.794922,738.000000,4.000000,,,,0.000000,4.000000,4.000000,4.000000,4.000000,4.000000,4.000000,4.000000,4.000000,4.000000,4.000000,4.000000,4.000000,4.000000,4.000000,100.000000
1602006344.673457,86.000000,0.000000,4158.461426,4132.307617,4144.102539,4142.051270,4129.230957,4148.205078,4144.615234,4154.871582,4170.769043,4171.282227,4183.589844,4190.769043,4180.512695,4160.512695,870.000000,4.000000,,,,0.000000,4.000000,4.000000,4.000000,4.000000,4.000000,4.000000,4.000000,4.000000,4.000000,4.000000,4.000000,4.000000,4.000000,4.000000,100.000000
1602006344.681439,87.000000,0.000000,4138.974121,4121.538574,4143.077148,4135.384766,4123.077148,4134.871582,4139.487305,4141.538574,4143.589844,4168.205078,4163.589844,4172.307617,4161.538574,4140.512695,844.000000,4.000000,,,,0.000000,4.000000,4.000000,4.000000,4.000000,4.000000,4.000000,4.000000,4.000000,4.000000,4.000000,4.000000,4.000000,4.000000,4.000000,100.000000
1602006344.689321,88.000000,0.000000,4122.563965,4122.051270,4135.897461,4135.384766,4123.589844,4135.384766,4139.487305,4134.358887,4128.717773,4147.179688,4153.333496,4155.897461,4143.589844,4138.974121,769.000000,4.000000,,,,0.000000,4.000000,4.000000,4.000000,4.000000,4.000000,4.000000,4.000000,4.000000,4.000000,4.000000,4.000000,4.000000,4.000000,4.000000,100.000000
1602006344.697202,89.000000,0.000000,4123.589844,4124.615234,4126.666504,4140.000000,4124.615234,4137.436035,4132.307617,4128.717773,4122.051270,4124.102539,4153.333496,4149.743652,4138.461426,4135.384766,738.000000,4.000000,,,,0.000000,4.000000,4.000000,4.000000,4.000000,4.000000,4.000000,4.000000,4.000000,4.000000,4.000000,4.000000,4.000000,4.000000,4.000000,100.000000
1602006344.705084,90.000000,0.000000,4133.846191,4124.102539,4123.077148,4137.436035,4128.717773,4135.897461,4121.538574,4124.615234,4113.333496,4116.922852,4150.256348,4150.769043,4143.077148,4120.512695,870.000000,4.000000,,,,0.000000,4.000000,4.000000,4.000000,4.000000,4.000000,4.000000,4.000000,4.000000,4.000000,4.000000,4.000000,4.000000,4.000000,4.000000,100.000000
1602006344.712966,91.000000,0.000000,4134.871582,4126.666504,4122.563965,4133.333496,4135.897461,4134.871582,4118.461426,4127.179688,4113.846191,4116.922852,4151.282227,4149.743652,4148.717773,4122.051270,844.000000,4.000000,,,,0.000000,4.000000,4.000000,4.000000,4.000000,4.000000,4.000000,4.000000,4.000000,4.000000,4.000000,4.000000,4.000000,4.000000,4.000000,100.000000
1602006344.720847,92.000000,0.000000,4133.846191,4128.205078,4121.025879,4136.410156,4136.922852,4135.384766,4125.641113,4137.436035,4126.666504,4128.717773,4164.615234,4148.205078,4152.820313,4136.922852,769.000000,4.000000,,,,0.000000,4.000000,4.000000,4.000000,4.000000,4.000000,4.000000,4.000000,4.000000,4.000000,4.000000,4.000000,4.000000,4.000000,4.000000,100.000000
1602006344.728729,93.000000,0.000000,4137.436035,4129.230957,4119.487305,4136.410156,4138.974121,4137.436035,4129.743652,4144.102539,4143.077148,4155.384766,4167.692383,4153.846191,4154.871582,4141.025879,738.000000,4.000000,,,,0.000000,4.000000,4.000000,4.000000,4.000000,4.000000,4.000000,4.000000,4.000000,4.000000,4.000000,4.000000,4.000000,4.000000,4.000000,100.000000
1602006344.736610,94.000000,0.000000,4137.948730,4125.128418,4123.077148,4126.153809,4139.487305,4140.512695,4124.102539,4140.512695,4152.307617,4161.025879,4162.051270,4157.436035,4154.358887,4138.461426,870.000000,4.000000,,,,0.000000,4.000000,4.000000,4.000000,4.000000,4.000000,4.000000,4.000000,4.000000,4.000000,4.000000,4.000000,4.000000,4.000000,4.000000,100.000000
1602006344.744492,95.000000,0.000000,4141.025879,4120.000000,4132.820313,4124.102539,4134.871582,4137.948730,4122.563965,4135.897461,4146.153809,4145.128418,4167.179688,4153.333496,4150.256348,4140.000000,844.000000,4.000000,,,,0.000000,4.000000,4.000000,4.000000,4.000000,4.000000,4.000000,4.000000,4.000000,4.000000,4.000000,4.000000,4.000000,4.000000,4.000000,100.000000
1602006344.752273,96.000000,0.000000,4151.794922,4129.230957,4148.205078,4137.948730,4135.897461,4136.410156,4134.358887,4137.948730,4138.974121,4150.769043,4173.846191,4160.000000,4157.436035,4143.077148,769.000000,4.000000,,,,0.000000,4.000000,4.000000,4.000000,4.000000,4.000000,4.000000,4.000000,4.000000,4.000000,4.000000,4.000000,4.000000,4.000000,4.000000,100.000000
1602006344.760155,97.000000,0.000000,4162.051270,4143.077148,4157.436035,4148.205078,4135.384766,4147.179688,4144.615234,4141.025879,4142.563965,4155.897461,4175.384766,4175.897461,4172.820313,4143.077148,738.000000,4.000000,,,,0.000000,4.000000,4.000000,4.000000,4.000000,4.000000,4.000000,4.000000,4.000000,4.000000,4.000000,4.000000,4.000000,4.000000,4.000000,100.000000
1602006344.768036,98.000000,0.000000,4155.897461,4135.384766,4146.666504,4140.000000,4129.230957,4157.948730,4142.563965,4140.512695,4135.897461,4131.282227,4167.692383,4169.230957,4164.102539,4142.563965,870.000000,4.000000,,,,0.000000,4.000000,4.000000,4.000000,4.000000,4.000000,4.000000,4.000000,4.000000,4.000000,4.000000,4.000000,4.000000,4.000000,4.000000,100.000000
1602006344.775917,99.000000,0.000000,4133.846191,4120.512695,4126.153809,4127.692383,4131.282227,4151.794922,4138.974121,4134.871582,4118.974121,4122.051270,4147.692383,4144.615234,4136.410156,4136.410156,844.000000,4.000000,,,,0.000000,4.000000,4.000000,4.000000,4.000000,4.000000,4.000000,4.000000,4.000000,4.000000,4.000000,4.000000,4.000000,4.000000,4.000000,100.000000
1602006344.783798,100.000000,0.000000,4117.948730,4121.025879,4115.384766,4126.666504,4135.897461,4143.589844,4138.461426,4128.717773,4115.384766,4139.487305,4134.358887,4134.871582,4127.179688,4125.128418,769.000000,4.000000,,,,0.000000,4.000000,4.000000,4.000000,4.000000,4.000000,4.000000,4.000000,4.000000,4.000000,4.000000,4.000000,4.000000,4.000000,4.000000,100.000000
1602006344.791580,101.000000,0.000000,4124.102539,4121.025879,4115.897461,4123.589844,4131.282227,4142.563965,4136.922852,4128.205078,4124.102539,4138.974121,4137.436035,4136.410156,4133.333496,4116.410156,738.000000,4.000000,,,,0.000000,4.000000,4.000000,4.000000,4.000000,4.000000,4.000000,4.000000,4.000000,4.000000,4.000000,4.000000,4.000000,4.000000,4.000000,100.000000
1602006344.799461,102.000000,0.000000,4133.333496,4116.922852,4116.922852,4122.051270,4128.717773,4139.487305,4129.743652,4134.358887,4133.846191,4133.846191,4144.102539,4134.871582,4133.846191,4118.461426,870.000000,4.000000,,,,0.000000,4.000000,4.000000,4.000000,4.000000,4.000000,4.000000,4.000000,4.000000,4.000000,4.000000,4.000000,4.000000,4.000000,4.000000,100.000000
1602006344.807343,103.000000,0.000000,4132.307617,4126.666504,4119.487305,4134.358887,4135.897461,4135.897461,4124.102539,4142.051270,4145.641113,4143.077148,4151.282227,4137.436035,4135.897461,4124.102539,844.000000,4.000000,,,,0.000000,4.000000,4.000000,4.000000,4.000000,4.000000,4.000000,4.000000,4.000000,4.000000,4.000000,4.000000,4.000000,4.000000,4.000000,100.000000
1602006344.815225,104.000000,0.000000,4139.487305,4137.948730,4122.563965,4142.563965,4148.205078,4138.461426,4129.230957,4145.641113,4156.922852,4138.974121,4155.897461,4143.077148,4141.025879,4124.102539,769.000000,4.000000,,,,0.000000,4.000000,4.000000,4.000000,4.000000,4.000000,4.000000,4.000000,4.000000,4.000000,4.000000,4.000000,4.000000,4.000000,4.000000,100.000000
1602006344.823106,105.000000,0.000000,4149.743652,4131.794922,4127.179688,4135.897461,4149.230957,4138.974121,4136.410156,4142.051270,4154.358887,4131.794922,4152.820313,4148.717773,4140.000000,4128.717773,738.000000,4.000000,,,,0.000000,4.000000,4.000000,4.000000,4.000000,4.000000,4.000000,4.000000,4.000000,4.000000,4.000000,4.000000,4.000000,4.000000,4.000000,100.000000
1602006344.830988,106.000000,0.000000,4154.871582,4122.563965,4145.641113,4131.794922,4143.589844,4137.436035,4137.436035,4139.487305,4140.000000,4140.000000,4159.487305,4162.563965,4141.025879,4148.717773,870.000000,4.000000,,,,0.000000,4.000000,4.000000,4.000000,4.000000,4.000000,4.000000,4.000000,4.000000,4.000000,4.000000,4.000000,4.000000,4.000000,4.000000,100.000000
1602006344.838870,107.000000,0.000000,4167.692383,4125.641113,4170.256348,4136.410156,4145.128418,4146.666504,4139.487305,4142.051270,4134.871582,4155.897461,4174.358887,4177.436035,4152.820313,4164.615234,844.000000,4.000000,,,,0.000000,4.000000,4.000000,4.000000,4.000000,4.000000,4.000000,4.000000,4.000000,4.000000,4.000000,4.000000,4.000000,4.000000,4.000000,100.000000
1602006344.846751,108.000000,0.000000,4178.974121,4128.205078,4175.897461,4140.512695,4148.205078,4156.922852,4141.538574,4140.512695,4139.487305,4171.794922,4174.871582,4172.820313,4161.538574,4162.563965,769.000000,4.000000,,,,0.000000,4.000000,4.000000,4.000000,4.000000,4.000000,4.000000,4.000000,4.000000,4.000000,4.000000,4.000000,4.000000,4.000000,4.000000,100.000000
1602006344.854633,109.000000,0.000000,4170.769043,4123.589844,4157.948730,4138.974121,4138.974121,4152.307617,4138.461426,4136.922852,4134.871582,4166.153809,4161.025879,4155.897461,4153.333496,4151.282227,738.000000,4.000000,,,,0.000000,4.000000,4.000000,4.000000,4.000000,4.000000,4.000000,4.000000,4.000000,4.000000,4.000000,4.000000,4.000000,4.000000,4.000000,100.000000
1602006344.862614,110.000000,0.000000,4151.282227,4120.000000,4138.461426,4126.666504,4134.358887,4138.461426,4138.974121,4136.410156,4126.153809,4139.487305,4148.717773,4147.692383,4139.487305,4140.512695,870.000000,4.000000,,,,0.000000,4.000000,4.000000,4.000000,4.000000,4.000000,4.000000,4.000000,4.000000,4.000000,4.000000,4.000000,4.000000,4.000000,4.000000,100.000000
1602006344.870495,111.000000,0.000000,4141.025879,4120.512695,4127.179688,4120.000000,4137.948730,4131.282227,4140.512695,4138.974121,4129.230957,4132.307617,4144.102539,4145.641113,4136.922852,4134.871582,844.000000,4.000000,,,,0.000000,4.000000,4.000000,4.000000,4.000000,4.000000,4.000000,4.000000,4.000000,4.000000,4.000000,4.000000,4.000000,4.000000,4.000000,100.000000
1602006344.878376,112.000000,0.000000,4138.974121,4123.589844,4120.512695,4126.666504,4137.436035,4135.897461,4140.000000,4145.641113,4138.461426,4140.512695,4142.051270,4137.948730,4141.025879,4138.461426,769.000000,4.000000,,,,0.000000,4.000000,4.000000,4.000000,4.000000,4.000000,4.000000,4.000000,4.000000,4.000000,4.000000,4.000000,4.000000,4.000000,4.000000,100.000000
1602006344.886257,113.000000,0.000000,4138.974121,4126.153809,4120.512695,4129.743652,4144.102539,4144.102539,4146.153809,4151.794922,4144.615234,4138.461426,4144.102539,4138.461426,4140.512695,4138.461426,738.000000,4.000000,,,,0.000000,4.000000,4.000000,4.000000,4.000000,4.000000,4.000000,4.000000,4.000000,4.000000,4.000000,4.000000,4.000000,4.000000,4.000000,100.000000
1602006344.894139,114.000000,0.000000,4137.436035,4125.641113,4123.589844,4128.205078,4153.333496,4145.641113,4151.282227,4152.820313,4143.077148,4142.051270,4155.384766,4146.153809,4140.000000,4130.769043,870.000000,4.000000,,,,0.000000,4.000000,4.000000,4.000000,4.000000,4.000000,4.000000,4.000000,4.000000,4.000000,4.000000,4.000000,4.000000,4.000000,4.000000,100.000000
1602006344.902020,115.000000,0.000000,4133.846191,4123.077148,4125.128418,4128.205078,4152.307617,4139.487305,4142.563965,4152.820313,4136.410156,4140.000000,4156.922852,4146.153809,4135.384766,4122.051270,844.000000,4.000000,,,,0.000000,4.000000,4.000000,4.000000,4.000000,4.000000,4.000000,4.000000,4.000000,4.000000,4.000000,4.000000,4.000000,4.000000,4.000000,100.000000
1602006344.909802,116.000000,0.000000,4132.307617,4122.563965,4127.179688,4125.641113,4150.256348,4134.871582,4132.820313,4151.794922,4131.794922,4125.128418,4142.051270,4139.487305,4119.487305,4118.461426,769.000000,4.000000,,,,0.000000,4.000000,4.000000,4.000000,4.000000,4.000000,4.000000,4.000000,4.000000,4.000000,4.000000,4.000000,4.000000,4.000000,4.000000,100.000000
1602006344.917683,117.000000,0.000000,4135.384766,4125.641113,4130.769043,4128.717773,4144.102539,4138.461426,4134.358887,4147.179688,4135.384766,4127.179688,4137.948730,4142.563965,4123.077148,4130.256348,738.000000,4.000000,,,,0.000000,4.000000,4.000000,4.000000,4.000000,4.000000,4.000000,4.000000,4.000000,4.000000,4.000000,4.000000,4.000000,4.000000,4.000000,100.000000
1602006344.925565,118.000000,0.000000,4136.410156,4118.974121,4126.153809,4130.256348,4128.205078,4141.025879,4136.922852,4140.000000,4135.384766,4129.743652,4142.563965,4145.641113,4137.948730,4141.025879,870.000000,4.000000,,,,0.000000,4.000000,4.000000,4.000000,4.000000,4.000000,4.000000,4.000000,4.000000,4.000000,4.000000,4.000000,4.000000,4.000000,4.000000,100.000000
1602006344.933446,119.000000,0.000000,4126.153809,4100.000000,4109.743652,4113.333496,4116.410156,4130.256348,4130.769043,4130.769043,4120.000000,4115.897461,4129.230957,4130.769043,4125.641113,4124.102539,844.000000,4.000000,,,,0.000000,4.000000,4.000000,4.000000,4.000000,4.000000,4.000000,4.000000,4.000000,4.000000,4.000000,4.000000,4.000000,4.000000,4.000000,100.000000
1602006344.941328,120.000000,0.000000,4126.153809,4096.410156,4112.820313,4104.615234,4117.948730,4118.974121,4129.743652,4130.769043,4118.461426,4125.128418,4125.128418,4128.205078,4118.974121,4106.666504,769.000000,4.000000,,,,0.000000,4.000000,4.000000,4.000000,4.000000,4.000000,4.000000,4.000000,4.000000,4.000000,4.000000,4.000000,4.000000,4.000000,4.000000,100.000000
1602006344.949210,121.000000,0.000000,4149.743652,4121.538574,4142.563965,4128.205078,4122.563965,4126.666504,4132.307617,4143.077148,4142.563965,4151.794922,4152.307617,4153.333496,4146.666504,4132.307617,738.000000,4.000000,,,,0.000000,4.000000,4.000000,4.000000,4.000000,4.000000,4.000000,4.000000,4.000000,4.000000,4.000000,4.000000,4.000000,4.000000,4.000000,100.000000
1602006344.957091,122.000000,0.000000,4176.922852,4147.179688,4162.051270,4149.743652,4129.743652,4135.897461,4129.743652,4153.333496,4158.974121,4157.948730,4173.846191,4175.897461,4171.794922,4164.615234,870.000000,4.000000,,,,0.000000,4.000000,4.000000,4.000000,4.000000,4.000000,4.000000,4.000000,4.000000,4.000000,4.000000,4.000000,4.000000,4.000000,4.000000,100.000000
1602006344.964973,123.000000,0.000000,4190.769043,4157.948730,4157.436035,4146.153809,4138.461426,4128.717773,4127.179688,4153.846191,4153.846191,4157.436035,4170.256348,4175.384766,4174.358887,4161.025879,844.000000,4.000000,,,,0.000000,4.000000,4.000000,4.000000,4.000000,4.000000,4.000000,4.000000,4.000000,4.000000,4.000000,4.000000,4.000000,4.000000,4.000000,100.000000
1602006344.972855,124.000000,0.000000,4185.128418,4154.871582,4151.794922,4138.974121,4141.025879,4121.538574,4126.666504,4153.333496,4147.179688,4151.282227,4158.974121,4162.563965,4162.051270,4149.743652,769.000000,4.000000,,,,0.000000,4.000000,4.000000,4.000000,4.000000,4.000000,4.000000,4.000000,4.000000,4.000000,4.000000,4.000000,4.000000,4.000000,4.000000,100.000000
1602006344.980636,125.000000,0.000000,4169.230957,4144.615234,4152.820313,4140.512695,4140.512695,4131.282227,4126.666504,4151.282227,4142.051270,4135.897461,4146.666504,4160.512695,4146.666504,4151.282227,738.000000,4.000000,,,,0.000000,4.000000,4.000000,4.000000,4.000000,4.000000,4.000000,4.000000,4.000000,4.000000,4.000000,4.000000,4.000000,4.000000,4.000000,100.000000
1602006344.988517,126.000000,0.000000,4166.666504,4140.000000,4154.871582,4142.051270,4141.025879,4141.538574,4130.256348,4146.666504,4135.897461,4135.384766,4143.589844,4164.102539,4147.692383,4148.717773,870.000000,4.000000,,,,0.000000,4.000000,4.000000,4.000000,4.000000,4.000000,4.000000,4.000000,4.000000,4.000000,4.000000,4.000000,4.000000,4.000000,4.000000,100.000000
1602006344.996398,127.000000,0.000000,4175.897461,4143.077148,4155.384766,4140.000000,4140.512695,4142.563965,4137.948730,4142.563965,4135.897461,4144.615234,4151.794922,4161.025879,4152.820313,4138.974121,844.000000,4.000000,,,,0.000000,4.000000,4.000000,4.000000,4.000000,4.000000,4.000000,4.000000,4.000000,4.000000,4.000000,4.000000,4.000000,4.000000,4.000000,100.000000
1602006345.004279,128.000000,0.000000,4167.692383,4140.000000,4146.666504,4138.461426,4141.025879,4140.000000,4135.897461,4135.384766,4132.307617,4139.487305,4150.769043,4148.205078,4143.589844,4138.461426,769.000000,4.000000,,,,0.000000,4.000000,4.000000,4.000000,4.000000,4.000000,4.000000,4.000000,4.000000,4.000000,4.000000,4.000000,4.000000,4.000000,4.000000,100.000000
1602006345.012161,0.000000,0.000000,4152.820313,4128.205078,4135.897461,4138.461426,4139.487305,4135.897461,4130.256348,4128.205078,4125.128418,4125.641113,4141.025879,4143.077148,4136.922852,4137.948730,793.000000,4.000000,,,,0.000000,4.000000,4.000000,4.000000,4.000000,4.000000,4.000000,4.000000,4.000000,4.000000,4.000000,4.000000,4.000000,4.000000,4.000000,100.000000
1602006345.020042,1.000000,0.000000,4155.897461,4121.538574,4133.333496,4136.410156,4131.282227,4128.717773,4126.666504,4127.179688,4124.615234,4107.692383,4133.333496,4148.717773,4140.000000,4126.153809,789.000000,4.000000,,,,0.000000,4.000000,4.000000,4.000000,4.000000,4.000000,4.000000,4.000000,4.000000,4.000000,4.000000,4.000000,4.000000,4.000000,4.000000,100.000000
1602006345.027823,2.000000,0.000000,4158.974121,4120.512695,4135.384766,4129.230957,4123.077148,4120.512695,4124.102539,4128.717773,4125.128418,4101.025879,4132.307617,4151.282227,4136.922852,4125.641113,852.000000,4.000000,,,,0.000000,4.000000,4.000000,4.000000,4.000000,4.000000,4.000000,4.000000,4.000000,4.000000,4.000000,4.000000,4.000000,4.000000,4.000000,100.000000
1602006345.035704,3.000000,0.000000,4151.282227,4120.000000,4138.974121,4124.102539,4123.077148,4120.000000,4130.769043,4131.794922,4123.077148,4131.794922,4142.563965,4158.974121,4135.897461,4143.589844,866.000000,4.000000,,,,0.000000,4.000000,4.000000,4.000000,4.000000,4.000000,4.000000,4.000000,4.000000,4.000000,4.000000,4.000000,4.000000,4.000000,4.000000,100.000000
1602006345.043585,4.000000,0.000000,4149.743652,4118.974121,4141.025879,4123.589844,4122.051270,4124.102539,4137.948730,4138.461426,4126.666504,4161.025879,4152.820313,4164.102539,4145.128418,4149.230957,812.000000,4.000000,,,,0.000000,4.000000,4.000000,4.000000,4.000000,4.000000,4.000000,4.000000,4.000000,4.000000,4.000000,4.000000,4.000000,4.000000,4.000000,100.000000
1602006345.051467,5.000000,0.000000,4155.384766,4117.948730,4144.615234,4120.512695,4113.846191,4122.051270,4132.307617,4141.538574,4138.974121,4150.769043,4149.743652,4162.563965,4152.820313,4137.948730,823.000000,4.000000,,,,0.000000,4.000000,4.000000,4.000000,4.000000,4.000000,4.000000,4.000000,4.000000,4.000000,4.000000,4.000000,4.000000,4.000000,4.000000,100.000000
1602006345.059348,6.000000,0.000000,4165.128418,4121.025879,4152.307617,4126.153809,4116.922852,4116.922852,4123.589844,4140.000000,4146.666504,4140.000000,4152.820313,4173.333496,4156.410156,4143.589844,762.000000,4.000000,,,,0.000000,4.000000,4.000000,4.000000,4.000000,4.000000,4.000000,4.000000,4.000000,4.000000,4.000000,4.000000,4.000000,4.000000,4.000000,100.000000
1602006345.067129,7.000000,0.000000,4170.769043,4124.102539,4160.000000,4137.948730,4123.589844,4120.000000,4123.077148,4141.538574,4144.615234,4143.589844,4164.102539,4185.128418,4158.974121,4154.358887,668.000000,4.000000,,,,0.000000,4.000000,4.000000,4.000000,4.000000,4.000000,4.000000,4.000000,4.000000,4.000000,4.000000,4.000000,4.000000,4.000000,4.000000,100.000000
1602006345.075011,8.000000,0.000000,4161.538574,4124.615234,4155.384766,4133.333496,4118.461426,4123.589844,4124.102539,4138.974121,4137.436035,4131.282227,4155.384766,4173.333496,4149.743652,4147.179688,787.000000,4.000000,,,,0.000000,4.000000,4.000000,4.000000,4.000000,4.000000,4.000000,4.000000,4.000000,4.000000,4.000000,4.000000,4.000000,4.000000,4.000000,100.000000
1602006345.082892,9.000000,0.000000,4152.307617,4118.461426,4144.102539,4123.589844,4114.871582,4118.461426,4122.051270,4127.692383,4128.717773,4116.922852,4134.871582,4151.282227,4136.410156,4132.307617,833.000000,4.000000,,,,0.000000,4.000000,4.000000,4.000000,4.000000,4.000000,4.000000,4.000000,4.000000,4.000000,4.000000,4.000000,4.000000,4.000000,4.000000,100.000000
1602006345.090773,10.000000,0.000000,4149.230957,4111.282227,4133.333496,4125.641113,4124.102539,4115.897461,4120.512695,4119.487305,4122.563965,4121.538574,4126.666504,4143.589844,4136.410156,4123.589844,870.000000,4.000000,,,,0.000000,4.000000,4.000000,4.000000,4.000000,4.000000,4.000000,4.000000,4.000000,4.000000,4.000000,4.000000,4.000000,4.000000,4.000000,100.000000
