Timestamp,EEG.Counter,EEG.Interpolated,EEG.AF3,EEG.F7,EEG.F3,EEG.FC5,EEG.T7,EEG.P7,EEG.O1,EEG.O2,EEG.P8,EEG.T8,EEG.FC6,EEG.F4,EEG.F8,EEG.AF4,EEG.RawCq,EEG.Battery,MarkerIndex,MarkerType,MarkerValueInt,EEG.MarkerHardware,CQ.AF3,CQ.F7,CQ.F3,CQ.FC5,CQ.T7,CQ.P7,CQ.O1,CQ.O2,CQ.P8,CQ.T8,CQ.FC6,CQ.F4,CQ.F8,CQ.AF4,CQ.Overall
1602006380.765660,21.000000,0.000000,4140.512695,4138.974121,4144.102539,4144.615234,4141.025879,4138.461426,4137.948730,4134.871582,4138.461426,4154.358887,4135.897461,4156.922852,4140.000000,4140.512695,0.000000,4.000000,,,,0.000000,4.000000,4.000000,4.000000,4.000000,4.000000,4.000000,4.000000,4.000000,4.000000,4.000000,4.000000,4.000000,4.000000,4.000000,100.000000
1602006380.773641,22.000000,0.000000,4154.358887,4141.538574,4143.589844,4151.794922,4140.512695,4140.512695,4137.948730,4128.205078,4138.461426,4141.538574,4139.487305,4157.436035,4137.948730,4142.051270,0.000000,4.000000,,,,0.000000,4.000000,4.000000,4.000000,4.000000,4.000000,4.000000,4.000000,4.000000,4.000000,4.000000,4.000000,4.000000,4.000000,4.000000,100.000000
1602006380.781523,23.000000,0.000000,4154.871582,4142.051270,4146.666504,4153.846191,4140.512695,4138.974121,4134.358887,4121.538574,4136.410156,4134.871582,4140.000000,4158.461426,4137.436035,4138.461426,0.000000,4.000000,,,,0.000000,4.000000,4.000000,4.000000,4.000000,4.000000,4.000000,4.000000,4.000000,4.000000,4.000000,4.000000,4.000000,4.000000,4.000000,100.000000
1602006380.789405,24.000000,0.000000,4152.820313,4148.717773,4152.307617,4151.282227,4138.974121,4138.461426,4131.794922,4122.563965,4137.948730,4138.461426,4137.436035,4161.538574,4139.487305,4142.563965,0.000000,4.000000,,,,0.000000,4.000000,4.000000,4.000000,4.000000,4.000000,4.000000,4.000000,4.000000,4.000000,4.000000,4.000000,4.000000,4.000000,4.000000,100.000000
1602006380.797286,25.000000,0.000000,4163.589844,4152.307617,4153.333496,4153.846191,4137.948730,4138.974121,4133.846191,4133.846191,4144.615234,4138.974121,4136.410156,4163.077148,4144.102539,4145.128418,0.000000,4.000000,,,,0.000000,4.000000,4.000000,4.000000,4.000000,4.000000,4.000000,4.000000,4.000000,4.000000,4.000000,4.000000,4.000000,4.000000,4.000000,100.000000
1602006380.805168,26.000000,0.000000,4164.102539,4145.128418,4143.589844,4150.769043,4135.897461,4135.897461,4135.897461,4137.436035,4143.589844,4137.948730,4139.487305,4157.948730,4138.461426,4140.512695,0.000000,4.000000,,,,0.000000,4.000000,4.000000,4.000000,4.000000,4.000000,4.000000,4.000000,4.000000,4.000000,4.000000,4.000000,4.000000,4.000000,4.000000,100.000000
1602006380.813050,27.000000,0.000000,4146.666504,4136.922852,4129.743652,4138.974121,4135.384766,4135.897461,4135.897461,4132.820313,4141.538574,4143.589844,4142.051270,4146.666504,4125.641113,4140.000000,0.000000,4.000000,,,,0.000000,4.000000,4.000000,4.000000,4.000000,4.000000,4.000000,4.000000,4.000000,4.000000,4.000000,4.000000,4.000000,4.000000,4.000000,100.000000
1602006380.820931,28.000000,0.000000,4138.461426,4137.436035,4125.641113,4138.974121,4135.897461,4141.538574,4136.410156,4134.871582,4143.589844,4136.410156,4131.282227,4142.563965,4122.563965,4135.897461,0.000000,4.000000,,,,0.000000,4.000000,4.000000,4.000000,4.000000,4.000000,4.000000,4.000000,4.000000,4.000000,4.000000,4.000000,4.000000,4.000000,4.000000,100.000000
1602006380.828813,29.000000,0.000000,4139.487305,4138.974121,4126.153809,4140.512695,4132.820313,4138.461426,4136.922852,4137.436035,4135.897461,4120.512695,4125.128418,4138.974121,4124.102539,4125.128418,0.000000,4.000000,,,,0.000000,4.000000,4.000000,4.000000,4.000000,4.000000,4.000000,4.000000,4.000000,4.000000,4.000000,4.000000,4.000000,4.000000,4.000000,100.000000
1602006380.836695,30.000000,0.000000,4136.410156,4134.358887,4119.487305,4126.666504,4127.179688,4133.333496,4135.897461,4131.282227,4125.128418,4125.641113,4129.230957,4125.128418,4121.025879,4118.974121,0.000000,4.000000,,,,0.000000,4.000000,4.000000,4.000000,4.000000,4.000000,4.000000,4.000000,4.000000,4.000000,4.000000,4.000000,4.000000,4.000000,4.000000,100.000000
1602006380.844476,31.000000,0.000000,4137.436035,4130.769043,4116.922852,4125.128418,4128.205078,4136.922852,4137.436035,4128.205078,4127.179688,4146.666504,4125.641113,4118.974121,4121.538574,4121.538574,0.000000,4.000000,,,,0.000000,4.000000,4.000000,4.000000,4.000000,4.000000,4.000000,4.000000,4.000000,4.000000,4.000000,4.000000,4.000000,4.000000,4.000000,100.000000
1602006380.852357,32.000000,0.000000,4138.461426,4136.410156,4127.179688,4142.051270,4135.384766,4135.384766,4133.333496,4128.717773,4124.102539,4145.641113,4122.051270,4131.794922,4128.205078,4129.230957,0.000000,4.000000,,,,0.000000,4.000000,4.000000,4.000000,4.000000,4.000000,4.000000,4.000000,4.000000,4.000000,4.000000,4.000000,4.000000,4.000000,4.000000,100.000000
1602006380.860239,33.000000,0.000000,4141.538574,4143.077148,4138.461426,4145.641113,4137.948730,4123.589844,4124.102539,4126.153809,4112.820313,4121.025879,4136.410156,4141.025879,4133.846191,4137.436035,0.000000,4.000000,,,,0.000000,4.000000,4.000000,4.000000,4.000000,4.000000,4.000000,4.000000,4.000000,4.000000,4.000000,4.000000,4.000000,4.000000,4.000000,100.000000
1602006380.868120,34.000000,0.000000,4151.282227,4142.563965,4140.512695,4138.974121,4133.846191,4116.922852,4121.538574,4127.692383,4116.410156,4120.512695,4148.205078,4138.461426,4139.487305,4138.461426,0.000000,4.000000,,,,0.000000,4.000000,4.000000,4.000000,4.000000,4.000000,4.000000,4.000000,4.000000,4.000000,4.000000,4.000000,4.000000,4.000000,4.000000,100.000000
1602006380.876002,35.000000,0.000000,4150.769043,4140.000000,4132.307617,4141.025879,4133.333496,4122.563965,4123.077148,4128.717773,4123.077148,4141.025879,4135.384766,4138.461426,4135.897461,4136.922852,0.000000,4.000000,,,,0.000000,4.000000,4.000000,4.000000,4.000000,4.000000,4.000000,4.000000,4.000000,4.000000,4.000000,4.000000,4.000000,4.000000,4.000000,100.000000
1602006380.883883,36.000000,0.000000,4140.512695,4140.000000,4124.615234,4143.589844,4137.436035,4132.820313,4124.102539,4127.692383,4122.563965,4137.948730,4123.077148,4138.461426,4126.666504,4139.487305,0.000000,4.000000,,,,0.000000,4.000000,4.000000,4.000000,4.000000,4.000000,4.000000,4.000000,4.000000,4.000000,4.000000,4.000000,4.000000,4.000000,4.000000,100.000000
1602006380.891764,37.000000,0.000000,4134.358887,4136.922852,4122.563965,4135.384766,4138.461426,4140.000000,4128.205078,4127.179688,4124.102539,4124.102539,4124.615234,4127.692383,4121.025879,4128.205078,0.000000,4.000000,,,,0.000000,4.000000,4.000000,4.000000,4.000000,4.000000,4.000000,4.000000,4.000000,4.000000,4.000000,4.000000,4.000000,4.000000,4.000000,100.000000
1602006380.899546,38.000000,0.000000,4131.282227,4133.333496,4121.025879,4132.307617,4136.922852,4136.922852,4135.384766,4128.205078,4128.717773,4130.256348,4122.563965,4119.487305,4119.487305,4104.102539,0.000000,4.000000,,,,0.000000,4.000000,4.000000,4.000000,4.000000,4.000000,4.000000,4.000000,4.000000,4.000000,4.000000,4.000000,4.000000,4.000000,4.000000,100.000000
1602006380.907428,39.000000,0.000000,4131.282227,4142.051270,4125.128418,4143.589844,4140.512695,4135.897461,4140.512695,4135.384766,4135.384766,4153.846191,4116.922852,4128.205078,4126.666504,4104.102539,0.000000,4.000000,,,,0.000000,4.000000,4.000000,4.000000,4.000000,4.000000,4.000000,4.000000,4.000000,4.000000,4.000000,4.000000,4.000000,4.000000,4.000000,100.000000
1602006380.915309,40.000000,0.000000,4138.974121,4157.436035,4134.871582,4155.897461,4147.692383,4140.512695,4137.948730,4137.948730,4137.948730,4166.153809,4122.563965,4140.512695,4139.487305,4132.820313,0.000000,4.000000,,,,0.000000,4.000000,4.000000,4.000000,4.000000,4.000000,4.000000,4.000000,4.000000,4.000000,4.000000,4.000000,4.000000,4.000000,4.000000,100.000000
1602006380.923191,41.000000,0.000000,4145.641113,4158.974121,4138.974121,4152.307617,4149.230957,4132.820313,4123.077148,4123.589844,4124.615234,4143.077148,4135.897461,4141.025879,4144.102539,4144.615234,0.000000,4.000000,,,,0.000000,4.000000,4.000000,4.000000,4.000000,4.000000,4.000000,4.000000,4.000000,4.000000,4.000000,4.000000,4.000000,4.000000,4.000000,100.000000
1602006380.931073,42.000000,0.000000,4152.307617,4151.794922,4135.897461,4141.025879,4143.589844,4120.512695,4111.282227,4109.743652,4106.153809,4110.769043,4139.487305,4136.410156,4139.487305,4124.102539,0.000000,4.000000,,,,0.000000,4.000000,4.000000,4.000000,4.000000,4.000000,4.000000,4.000000,4.000000,4.000000,4.000000,4.000000,4.000000,4.000000,4.000000,100.000000
1602006380.938954,43.000000,0.000000,4155.897461,4153.333496,4138.974121,4142.051270,4139.487305,4122.051270,4115.897461,4113.846191,4104.102539,4112.307617,4134.358887,4137.436035,4136.922852,4122.563965,0.000000,4.000000,,,,0.000000,4.000000,4.000000,4.000000,4.000000,4.000000,4.000000,4.000000,4.000000,4.000000,4.000000,4.000000,4.000000,4.000000,4.000000,100.000000
1602006380.946836,44.000000,0.000000,4145.128418,4154.358887,4137.948730,4145.128418,4138.461426,4124.615234,4123.077148,4122.563965,4112.307617,4132.307617,4124.615234,4138.974121,4125.128418,4138.461426,0.000000,4.000000,,,,0.000000,4.000000,4.000000,4.000000,4.000000,4.000000,4.000000,4.000000,4.000000,4.000000,4.000000,4.000000,4.000000,4.000000,4.000000,100.000000
1602006380.954718,45.000000,0.000000,4133.846191,4143.077148,4125.128418,4140.000000,4132.820313,4121.538574,4120.000000,4123.077148,4118.974121,4137.436035,4112.307617,4134.871582,4109.743652,4122.051270,0.000000,4.000000,,,,0.000000,4.000000,4.000000,4.000000,4.000000,4.000000,4.000000,4.000000,4.000000,4.000000,4.000000,4.000000,4.000000,4.000000,4.000000,100.000000
1602006380.962699,46.000000,0.000000,4137.436035,4136.410156,4125.128418,4138.974121,4125.641113,4127.179688,4119.487305,4120.512695,4120.000000,4141.025879,4101.538574,4132.820313,4109.230957,4103.077148,0.000000,4.000000,,,,0.000000,4.000000,4.000000,4.000000,4.000000,4.000000,4.000000,4.000000,4.000000,4.000000,4.000000,4.000000,4.000000,4.000000,4.000000,100.000000
1602006380.970581,47.000000,0.000000,4142.563965,4142.563965,4135.897461,4142.051270,4129.743652,4136.922852,4131.282227,4125.128418,4118.974121,4139.487305,4108.205078,4136.922852,4112.820313,4126.153809,0.000000,4.000000,,,,0.000000,4.000000,4.000000,4.000000,4.000000,4.000000,4.000000,4.000000,4.000000,4.000000,4.000000,4.000000,4.000000,4.000000,4.000000,100.000000
1602006380.978463,48.000000,0.000000,4139.487305,4145.641113,4132.820313,4141.025879,4136.922852,4137.948730,4135.384766,4137.436035,4127.692383,4129.230957,4131.794922,4138.974121,4112.820313,4141.025879,0.000000,4.000000,,,,0.000000,4.000000,4.000000,4.000000,4.000000,4.000000,4.000000,4.000000,4.000000,4.000000,4.000000,4.000000,4.000000,4.000000,4.000000,100.000000
1602006380.986344,49.000000,0.000000,4137.436035,4141.025879,4123.589844,4137.948730,4138.461426,4137.436035,4130.256348,4137.948730,4136.410156,4132.820313,4140.000000,4137.948730,4118.461426,4117.436035,0.000000,4.000000,,,,0.000000,4.000000,4.000000,4.000000,4.000000,4.000000,4.000000,4.000000,4.000000,4.000000,4.000000,4.000000,4.000000,4.000000,4.000000,100.000000
1602006380.994226,50.000000,0.000000,4141.025879,4138.974121,4126.666504,4137.948730,4140.512695,4138.974121,4129.230957,4129.743652,4128.717773,4126.666504,4129.743652,4142.051270,4128.717773,4113.846191,0.000000,4.000000,,,,0.000000,4.000000,4.000000,4.000000,4.000000,4.000000,4.000000,4.000000,4.000000,4.000000,4.000000,4.000000,4.000000,4.000000,4.000000,100.000000
1602006381.002107,51.000000,0.000000,4140.000000,4141.025879,4131.794922,4138.974121,4142.563965,4136.410156,4130.769043,4127.179688,4120.000000,4106.666504,4133.333496,4150.769043,4131.282227,4133.846191,0.000000,4.000000,,,,0.000000,4.000000,4.000000,4.000000,4.000000,4.000000,4.000000,4.000000,4.000000,4.000000,4.000000,4.000000,4.000000,4.000000,4.000000,100.000000
1602006381.009989,52.000000,0.000000,4142.051270,4143.589844,4134.358887,4140.000000,4140.000000,4134.358887,4126.666504,4125.641113,4122.563965,4112.307617,4143.589844,4151.794922,4126.153809,4132.820313,0.000000,4.000000,,,,0.000000,4.000000,4.000000,4.000000,4.000000,4.000000,4.000000,4.000000,4.000000,4.000000,4.000000,4.000000,4.000000,4.000000,4.000000,100.000000
1602006381.017871,53.000000,0.000000,4152.307617,4144.615234,4141.025879,4140.512695,4137.948730,4134.871582,4125.641113,4121.025879,4123.077148,4140.000000,4133.333496,4149.743652,4121.538574,4125.128418,0.000000,4.000000,,,,0.000000,4.000000,4.000000,4.000000,4.000000,4.000000,4.000000,4.000000,4.000000,4.000000,4.000000,4.000000,4.000000,4.000000,4.000000,100.000000
1602006381.025752,54.000000,0.000000,4154.358887,4143.077148,4143.077148,4139.487305,4140.000000,4137.436035,4128.205078,4121.538574,4121.538574,4145.641113,4127.179688,4155.384766,4127.179688,4136.410156,0.000000,4.000000,,,,0.000000,4.000000,4.000000,4.000000,4.000000,4.000000,4.000000,4.000000,4.000000,4.000000,4.000000,4.000000,4.000000,4.000000,4.000000,100.000000
1602006381.033534,55.000000,0.000000,4146.666504,4142.563965,4139.487305,4144.102539,4141.538574,4135.384766,4126.153809,4125.128418,4123.077148,4138.461426,4140.000000,4155.897461,4139.487305,4142.051270,0.000000,4.000000,,,,0.000000,4.000000,4.000000,4.000000,4.000000,4.000000,4.000000,4.000000,4.000000,4.000000,4.000000,4.000000,4.000000,4.000000,4.000000,100.000000
1602006381.041416,56.000000,0.000000,4143.589844,4139.487305,4137.948730,4140.000000,4134.358887,4126.153809,4122.051270,4124.615234,4122.563965,4141.025879,4142.051270,4142.563965,4132.820313,4124.615234,0.000000,4.000000,,,,0.000000,4.000000,4.000000,4.000000,4.000000,4.000000,4.000000,4.000000,4.000000,4.000000,4.000000,4.000000,4.000000,4.000000,4.000000,100.000000
1602006381.049297,57.000000,0.000000,4140.000000,4134.871582,4137.436035,4126.666504,4125.641113,4117.948730,4119.487305,4124.102539,4123.077148,4129.230957,4133.846191,4136.410156,4118.974121,4121.538574,0.000000,4.000000,,,,0.000000,4.000000,4.000000,4.000000,4.000000,4.000000,4.000000,4.000000,4.000000,4.000000,4.000000,4.000000,4.000000,4.000000,4.000000,100.000000
1602006381.057179,58.000000,0.000000,4139.487305,4138.461426,4138.974121,4131.794922,4131.282227,4121.025879,4122.563965,4131.282227,4133.846191,4124.102539,4134.871582,4151.794922,4123.589844,4137.948730,0.000000,4.000000,,,,0.000000,4.000000,4.000000,4.000000,4.000000,4.000000,4.000000,4.000000,4.000000,4.000000,4.000000,4.000000,4.000000,4.000000,4.000000,100.000000
1602006381.065061,59.000000,0.000000,4140.000000,4137.436035,4136.922852,4142.051270,4133.846191,4124.615234,4126.153809,4136.922852,4141.538574,4140.512695,4142.051270,4158.974121,4129.230957,4127.692383,0.000000,4.000000,,,,0.000000,4.000000,4.000000,4.000000,4.000000,4.000000,4.000000,4.000000,4.000000,4.000000,4.000000,4.000000,4.000000,4.000000,4.000000,100.000000
1602006381.072942,60.000000,0.000000,4132.307617,4124.615234,4127.692383,4128.205078,4122.051270,4113.846191,4126.153809,4133.846191,4133.846191,4140.512695,4135.897461,4147.179688,4122.563965,4113.846191,0.000000,4.000000,,,,0.000000,4.000000,4.000000,4.000000,4.000000,4.000000,4.000000,4.000000,4.000000,4.000000,4.000000,4.000000,4.000000,4.000000,4.000000,100.000000
1602006381.080824,61.000000,0.000000,4128.205078,4125.641113,4121.538574,4121.025879,4122.563965,4107.692383,4126.153809,4127.179688,4122.051270,4129.230957,4118.974121,4145.641113,4121.538574,4128.205078,0.000000,4.000000,,,,0.000000,4.000000,4.000000,4.000000,4.000000,4.000000,4.000000,4.000000,4.000000,4.000000,4.000000,4.000000,4.000000,4.000000,4.000000,100.000000
1602006381.088706,62.000000,0.000000,4138.461426,4140.512695,4123.077148,4134.358887,4130.769043,4116.410156,4125.641113,4123.589844,4121.025879,4134.358887,4120.000000,4153.846191,4125.641113,4134.871582,0.000000,4.000000,,,,0.000000,4.000000,4.000000,4.000000,4.000000,4.000000,4.000000,4.000000,4.000000,4.000000,4.000000,4.000000,4.000000,4.000000,4.000000,100.000000
1602006381.096687,63.000000,0.000000,4144.615234,4143.589844,4125.128418,4138.461426,4125.128418,4122.563965,4122.563965,4123.077148,4121.538574,4138.461426,4137.948730,4151.794922,4125.128418,4122.563965,0.000000,4.000000,,,,0.000000,4.000000,4.000000,4.000000,4.000000,4.000000,4.000000,4.000000,4.000000,4.000000,4.000000,4.000000,4.000000,4.000000,4.000000,100.000000
1602006381.104569,64.000000,0.000000,4140.000000,4134.871582,4123.077148,4134.358887,4122.563965,4124.102539,4124.102539,4125.128418,4118.974121,4116.922852,4134.871582,4148.717773,4124.102539,4129.230957,791.000000,4.000000,,,,0.000000,4.000000,4.000000,4.000000,4.000000,4.000000,4.000000,4.000000,4.000000,4.000000,4.000000,4.000000,4.000000,4.000000,4.000000,100.000000
1602006381.112450,65.000000,0.000000,4136.922852,4133.846191,4125.128418,4133.846191,4132.820313,4134.871582,4129.743652,4130.256348,4120.512695,4100.512695,4126.153809,4154.871582,4123.589844,4142.563965,788.000000,4.000000,,,,0.000000,4.000000,4.000000,4.000000,4.000000,4.000000,4.000000,4.000000,4.000000,4.000000,4.000000,4.000000,4.000000,4.000000,4.000000,100.000000
1602006381.120332,66.000000,0.000000,4139.487305,4140.512695,4129.230957,4130.769043,4138.974121,4140.000000,4129.743652,4134.358887,4125.128418,4110.769043,4134.871582,4152.307617,4125.641113,4137.948730,850.000000,4.000000,,,,0.000000,4.000000,4.000000,4.000000,4.000000,4.000000,4.000000,4.000000,4.000000,4.000000,4.000000,4.000000,4.000000,4.000000,4.000000,100.000000
1602006381.128214,67.000000,0.000000,4133.333496,4131.282227,4124.102539,4123.589844,4131.794922,4129.743652,4127.179688,4135.384766,4124.615234,4133.846191,4135.897461,4141.025879,4126.153809,4125.641113,867.000000,4.000000,,,,0.000000,4.000000,4.000000,4.000000,4.000000,4.000000,4.000000,4.000000,4.000000,4.000000,4.000000,4.000000,4.000000,4.000000,4.000000,100.000000
1602006381.136095,68.000000,0.000000,4119.487305,4111.794922,4121.025879,4116.922852,4126.666504,4128.717773,4131.794922,4136.922852,4121.025879,4146.153809,4128.717773,4144.102539,4122.051270,4120.000000,809.000000,4.000000,,,,0.000000,4.000000,4.000000,4.000000,4.000000,4.000000,4.000000,4.000000,4.000000,4.000000,4.000000,4.000000,4.000000,4.000000,4.000000,100.000000
1602006381.143977,69.000000,0.000000,4128.205078,4120.512695,4130.256348,4122.051270,4132.820313,4138.461426,4137.948730,4138.974121,4122.563965,4139.487305,4136.410156,4154.358887,4128.205078,4129.230957,824.000000,4.000000,,,,0.000000,4.000000,4.000000,4.000000,4.000000,4.000000,4.000000,4.000000,4.000000,4.000000,4.000000,4.000000,4.000000,4.000000,4.000000,100.000000
1602006381.151859,70.000000,0.000000,4162.051270,4153.333496,4142.051270,4137.436035,4137.436035,4136.410156,4135.897461,4139.487305,4126.153809,4132.820313,4147.179688,4157.436035,4140.000000,4141.538574,769.000000,4.000000,,,,0.000000,4.000000,4.000000,4.000000,4.000000,4.000000,4.000000,4.000000,4.000000,4.000000,4.000000,4.000000,4.000000,4.000000,4.000000,100.000000
1602006381.159740,71.000000,0.000000,4183.077148,4169.230957,4144.102539,4145.128418,4134.871582,4125.641113,4127.692383,4133.846191,4123.589844,4136.410156,4143.077148,4156.410156,4135.897461,4141.538574,672.000000,4.000000,,,,0.000000,4.000000,4.000000,4.000000,4.000000,4.000000,4.000000,4.000000,4.000000,4.000000,4.000000,4.000000,4.000000,4.000000,4.000000,100.000000
1602006381.167722,72.000000,0.000000,4185.641113,4173.846191,4143.077148,4148.205078,4135.384766,4120.512695,4122.563965,4125.128418,4120.000000,4139.487305,4136.922852,4150.256348,4120.512695,4135.897461,789.000000,4.000000,,,,0.000000,4.000000,4.000000,4.000000,4.000000,4.000000,4.000000,4.000000,4.000000,4.000000,4.000000,4.000000,4.000000,4.000000,4.000000,100.000000
1602006381.175603,73.000000,0.000000,4189.230957,4187.692383,4142.563965,4158.461426,4141.025879,4124.615234,4125.128418,4122.563965,4125.641113,4130.256348,4129.743652,4140.512695,4109.230957,4127.179688,840.000000,4.000000,,,,0.000000,4.000000,4.000000,4.000000,4.000000,4.000000,4.000000,4.000000,4.000000,4.000000,4.000000,4.000000,4.000000,4.000000,4.000000,100.000000
1602006381.183485,74.000000,0.000000,4185.128418,4193.333496,4139.487305,4159.487305,4142.563965,4132.820313,4126.153809,4123.077148,4121.538574,4112.820313,4117.948730,4133.846191,4091.281982,4113.333496,874.000000,4.000000,,,,0.000000,4.000000,4.000000,4.000000,4.000000,4.000000,4.000000,4.000000,4.000000,4.000000,4.000000,4.000000,4.000000,4.000000,4.000000,100.000000
1602006381.191367,75.000000,0.000000,4177.436035,4187.179688,4131.794922,4151.282227,4140.512695,4135.384766,4120.000000,4119.487305,4108.205078,4103.077148,4106.153809,4125.641113,4072.307617,4099.487305,841.000000,4.000000,,,,0.000000,4.000000,4.000000,4.000000,4.000000,4.000000,4.000000,4.000000,4.000000,4.000000,4.000000,4.000000,4.000000,4.000000,4.000000,100.000000
1602006381.199248,76.000000,0.000000,4184.615234,4183.589844,4124.615234,4152.820313,4141.538574,4135.897461,4112.307617,4117.436035,4106.666504,4109.230957,4100.512695,4118.974121,4074.871826,4092.820557,768.000000,4.000000,,,,0.000000,4.000000,4.000000,4.000000,4.000000,4.000000,4.000000,4.000000,4.000000,4.000000,4.000000,4.000000,4.000000,4.000000,4.000000,100.000000
1602006381.207130,77.000000,0.000000,4186.666504,4179.487305,4124.102539,4151.282227,4143.077148,4140.512695,4111.282227,4121.025879,4112.307617,4119.487305,4103.077148,4121.538574,4084.102539,4090.769287,739.000000,4.000000,,,,0.000000,4.000000,4.000000,4.000000,4.000000,4.000000,4.000000,4.000000,4.000000,4.000000,4.000000,4.000000,4.000000,4.000000,4.000000,100.000000
1602006381.215012,78.000000,0.000000,4168.717773,4172.820313,4122.051270,4137.948730,4135.384766,4133.846191,4116.410156,4121.538574,4113.846191,4124.615234,4101.538574,4124.102539,4084.615479,4089.230713,874.000000,4.000000,,,,0.000000,4.000000,4.000000,4.000000,4.000000,4.000000,4.000000,4.000000,4.000000,4.000000,4.000000,4.000000,4.000000,4.000000,4.000000,100.000000
1602006381.222893,79.000000,0.000000,4154.871582,4162.051270,4116.922852,4132.307617,4123.077148,4117.436035,4121.025879,4121.538574,4112.820313,4117.948730,4091.281982,4120.000000,4073.333252,4089.743652,841.000000,4.000000,,,,0.000000,4.000000,4.000000,4.000000,4.000000,4.000000,4.000000,4.000000,4.000000,4.000000,4.000000,4.000000,4.000000,4.000000,4.000000,100.000000
1602006381.230775,80.000000,0.000000,4154.358887,4155.897461,4118.974121,4138.974121,4120.512695,4116.410156,4123.589844,4123.589844,4105.128418,4099.487305,4092.820557,4124.615234,4066.153809,4089.230713,768.000000,4.000000,,,,0.000000,4.000000,4.000000,4.000000,4.000000,4.000000,4.000000,4.000000,4.000000,4.000000,4.000000,4.000000,4.000000,4.000000,4.000000,100.000000
1602006381.238556,81.000000,0.000000,4153.333496,4154.358887,4124.102539,4135.897461,4124.615234,4125.128418,4122.051270,4120.512695,4094.871826,4081.025635,4111.282227,4135.897461,4071.281982,4091.281982,739.000000,4.000000,,,,0.000000,4.000000,4.000000,4.000000,4.000000,4.000000,4.000000,4.000000,4.000000,4.000000,4.000000,4.000000,4.000000,4.000000,4.000000,100.000000
1602006381.246437,82.000000,0.000000,4158.974121,4153.333496,4126.666504,4126.666504,4127.179688,4124.102539,4121.538574,4122.563965,4102.051270,4084.102539,4124.102539,4138.461426,4075.384521,4102.051270,874.000000,4.000000,,,,0.000000,4.000000,4.000000,4.000000,4.000000,4.000000,4.000000,4.000000,4.000000,4.000000,4.000000,4.000000,4.000000,4.000000,4.000000,100.000000
1602006381.254218,83.000000,0.000000,4171.794922,4159.487305,4131.794922,4132.307617,4127.179688,4124.102539,4129.743652,4133.846191,4118.974121,4118.461426,4122.051270,4138.461426,4080.512939,4109.743652,841.000000,4.000000,,,,0.000000,4.000000,4.000000,4.000000,4.000000,4.000000,4.000000,4.000000,4.000000,4.000000,4.000000,4.000000,4.000000,4.000000,4.000000,100.000000
1602006381.262099,84.000000,0.000000,4171.282227,4167.692383,4140.512695,4140.512695,4128.717773,4133.846191,4137.436035,4140.512695,4125.128418,4146.153809,4125.128418,4144.102539,4091.794922,4107.179688,768.000000,4.000000,,,,0.000000,4.000000,4.000000,4.000000,4.000000,4.000000,4.000000,4.000000,4.000000,4.000000,4.000000,4.000000,4.000000,4.000000,4.000000,100.000000
1602006381.269980,85.000000,0.000000,4165.128418,4172.820313,4143.589844,4140.512695,4133.846191,4142.051270,4136.922852,4135.384766,4122.051270,4141.025879,4125.641113,4147.179688,4095.897461,4113.333496,739.000000,4.000000,,,,0.000000,4.000000,4.000000,4.000000,4.000000,4.000000,4.000000,4.000000,4.000000,4.000000,4.000000,4.000000,4.000000,4.000000,4.000000,100.000000
1602006381.277862,86.000000,0.000000,4170.769043,4170.769043,4133.333496,4138.461426,4139.487305,4144.615234,4138.461426,4127.179688,4119.487305,4124.102539,4105.128418,4138.461426,4084.102539,4114.358887,874.000000,4.000000,,,,0.000000,4.000000,4.000000,4.000000,4.000000,4.000000,4.000000,4.000000,4.000000,4.000000,4.000000,4.000000,4.000000,4.000000,4.000000,100.000000
1602006381.285843,87.000000,0.000000,4170.769043,4165.128418,4119.487305,4134.871582,4134.358887,4137.436035,4135.384766,4123.077148,4120.512695,4109.743652,4091.794922,4125.128418,4072.820557,4092.820557,841.000000,4.000000,,,,0.000000,4.000000,4.000000,4.000000,4.000000,4.000000,4.000000,4.000000,4.000000,4.000000,4.000000,4.000000,4.000000,4.000000,4.000000,100.000000
1602006381.293724,88.000000,0.000000,4156.922852,4162.563965,4116.922852,4131.794922,4128.205078,4127.179688,4123.589844,4123.077148,4120.000000,4108.205078,4102.051270,4120.000000,4073.333252,4084.102539,768.000000,4.000000,,,,0.000000,4.000000,4.000000,4.000000,4.000000,4.000000,4.000000,4.000000,4.000000,4.000000,4.000000,4.000000,4.000000,4.000000,4.000000,100.000000
1602006381.301606,89.000000,0.000000,4158.974121,4168.205078,4124.615234,4140.000000,4134.358887,4132.820313,4120.512695,4127.179688,4124.102539,4127.692383,4110.769043,4124.615234,4080.000000,4102.563965,739.000000,4.000000,,,,0.000000,4.000000,4.000000,4.000000,4.000000,4.000000,4.000000,4.000000,4.000000,4.000000,4.000000,4.000000,4.000000,4.000000,4.000000,100.000000
1602006381.309487,90.000000,0.000000,4172.307617,4172.820313,4122.051270,4141.025879,4139.487305,4140.000000,4124.102539,4126.666504,4126.666504,4136.410156,4106.153809,4125.128418,4082.564209,4108.205078,874.000000,4.000000,,,,0.000000,4.000000,4.000000,4.000000,4.000000,4.000000,4.000000,4.000000,4.000000,4.000000,4.000000,4.000000,4.000000,4.000000,4.000000,100.000000
1602006381.317369,91.000000,0.000000,4164.615234,4166.666504,4107.179688,4125.128418,4129.743652,4124.102539,4113.333496,4118.461426,4114.871582,4106.666504,4102.563965,4112.307617,4075.384521,4091.794922,841.000000,4.000000,,,,0.000000,4.000000,4.000000,4.000000,4.000000,4.000000,4.000000,4.000000,4.000000,4.000000,4.000000,4.000000,4.000000,4.000000,4.000000,100.000000
1602006381.325250,92.000000,0.000000,4152.307617,4165.128418,4104.102539,4119.487305,4122.563965,4112.307617,4107.179688,4115.384766,4109.230957,4087.692383,4106.153809,4105.128418,4072.820557,4088.205078,768.000000,4.000000,,,,0.000000,4.000000,4.000000,4.000000,4.000000,4.000000,4.000000,4.000000,4.000000,4.000000,4.000000,4.000000,4.000000,4.000000,4.000000,100.000000
1602006381.333131,93.000000,0.000000,4156.922852,4170.769043,4114.871582,4128.205078,4127.179688,4127.692383,4115.897461,4120.512695,4116.410156,4097.436035,4110.769043,4113.333496,4077.435791,4097.436035,739.000000,4.000000,,,,0.000000,4.000000,4.000000,4.000000,4.000000,4.000000,4.000000,4.000000,4.000000,4.000000,4.000000,4.000000,4.000000,4.000000,4.000000,100.000000
1602006381.340913,94.000000,0.000000,4162.051270,4167.179688,4117.948730,4131.282227,4129.230957,4139.487305,4122.563965,4122.563965,4117.436035,4111.282227,4112.307617,4123.077148,4082.051270,4095.897461,874.000000,4.000000,,,,0.000000,4.000000,4.000000,4.000000,4.000000,4.000000,4.000000,4.000000,4.000000,4.000000,4.000000,4.000000,4.000000,4.000000,4.000000,100.000000
1602006381.348794,95.000000,0.000000,4154.358887,4155.897461,4109.230957,4123.589844,4126.153809,4131.794922,4122.563965,4122.051270,4117.436035,4127.692383,4107.692383,4120.000000,4082.564209,4091.794922,841.000000,4.000000,,,,0.000000,4.000000,4.000000,4.000000,4.000000,4.000000,4.000000,4.000000,4.000000,4.000000,4.000000,4.000000,4.000000,4.000000,4.000000,100.000000
1602006381.356675,96.000000,0.000000,4143.077148,4149.743652,4104.102539,4117.436035,4123.589844,4122.563965,4121.538574,4122.563965,4123.589844,4133.846191,4103.589844,4107.692383,4078.974365,4089.743652,768.000000,4.000000,,,,0.000000,4.000000,4.000000,4.000000,4.000000,4.000000,4.000000,4.000000,4.000000,4.000000,4.000000,4.000000,4.000000,4.000000,4.000000,100.000000
1602006381.364556,97.000000,0.000000,4143.077148,4151.282227,4103.077148,4118.461426,4125.128418,4120.000000,4120.000000,4122.563965,4116.922852,4118.974121,4103.589844,4102.051270,4074.358887,4083.589844,739.000000,4.000000,,,,0.000000,4.000000,4.000000,4.000000,4.000000,4.000000,4.000000,4.000000,4.000000,4.000000,4.000000,4.000000,4.000000,4.000000,4.000000,100.000000
1602006381.372437,98.000000,0.000000,4152.307617,4156.922852,4106.153809,4125.641113,4132.307617,4123.077148,4123.077148,4124.102539,4105.641113,4104.102539,4106.666504,4111.282227,4073.333252,4087.179443,874.000000,4.000000,,,,0.000000,4.000000,4.000000,4.000000,4.000000,4.000000,4.000000,4.000000,4.000000,4.000000,4.000000,4.000000,4.000000,4.000000,4.000000,100.000000
1602006381.380419,99.000000,0.000000,4157.948730,4162.563965,4111.794922,4125.641113,4138.461426,4129.743652,4127.692383,4126.153809,4116.922852,4104.102539,4109.230957,4125.128418,4081.025635,4098.974121,841.000000,4.000000,,,,0.000000,4.000000,4.000000,4.000000,4.000000,4.000000,4.000000,4.000000,4.000000,4.000000,4.000000,4.000000,4.000000,4.000000,4.000000,100.000000
1602006381.388300,100.000000,0.000000,4152.820313,4160.000000,4111.794922,4123.589844,4137.436035,4131.282227,4126.153809,4123.077148,4131.282227,4112.820313,4110.769043,4126.153809,4090.256348,4094.358887,768.000000,4.000000,,,,0.000000,4.000000,4.000000,4.000000,4.000000,4.000000,4.000000,4.000000,4.000000,4.000000,4.000000,4.000000,4.000000,4.000000,4.000000,100.000000
1602006381.396182,101.000000,0.000000,4153.333496,4158.461426,4112.820313,4131.794922,4136.922852,4126.153809,4123.589844,4122.051270,4130.256348,4114.871582,4108.205078,4122.051270,4091.281982,4092.820557,739.000000,4.000000,,,,0.000000,4.000000,4.000000,4.000000,4.000000,4.000000,4.000000,4.000000,4.000000,4.000000,4.000000,4.000000,4.000000,4.000000,4.000000,100.000000
1602006381.404064,102.000000,0.000000,4165.128418,4166.666504,4119.487305,4137.948730,4138.974121,4123.077148,4126.153809,4122.051270,4120.512695,4102.051270,4103.589844,4129.743652,4091.794922,4107.179688,874.000000,4.000000,,,,0.000000,4.000000,4.000000,4.000000,4.000000,4.000000,4.000000,4.000000,4.000000,4.000000,4.000000,4.000000,4.000000,4.000000,4.000000,100.000000
1602006381.411945,103.000000,0.000000,4171.794922,4171.282227,4123.077148,4130.256348,4137.436035,4125.641113,4125.641113,4120.512695,4119.487305,4097.948730,4104.102539,4137.436035,4092.820557,4104.102539,841.000000,4.000000,,,,0.000000,4.000000,4.000000,4.000000,4.000000,4.000000,4.000000,4.000000,4.000000,4.000000,4.000000,4.000000,4.000000,4.000000,4.000000,100.000000
1602006381.419827,104.000000,0.000000,4169.743652,4168.717773,4118.974121,4125.128418,4134.358887,4122.051270,4123.077148,4121.538574,4128.717773,4117.948730,4109.230957,4135.897461,4090.769287,4092.820557,768.000000,4.000000,,,,0.000000,4.000000,4.000000,4.000000,4.000000,4.000000,4.000000,4.000000,4.000000,4.000000,4.000000,4.000000,4.000000,4.000000,4.000000,100.000000
1602006381.427709,105.000000,0.000000,4170.256348,4170.256348,4116.410156,4133.333496,4134.871582,4114.871582,4122.563965,4123.589844,4134.871582,4133.846191,4110.256348,4135.897461,4097.436035,4101.538574,739.000000,4.000000,,,,0.000000,4.000000,4.000000,4.000000,4.000000,4.000000,4.000000,4.000000,4.000000,4.000000,4.000000,4.000000,4.000000,4.000000,4.000000,100.000000
1602006381.435590,106.000000,0.000000,4174.358887,4173.333496,4120.000000,4140.512695,4136.410156,4115.384766,4120.512695,4123.589844,4142.563965,4133.846191,4113.846191,4138.974121,4108.205078,4110.769043,874.000000,4.000000,,,,0.000000,4.000000,4.000000,4.000000,4.000000,4.000000,4.000000,4.000000,4.000000,4.000000,4.000000,4.000000,4.000000,4.000000,4.000000,100.000000
1602006381.443472,107.000000,0.000000,4166.153809,4170.769043,4123.077148,4135.897461,4136.922852,4113.846191,4115.897461,4124.615234,4159.487305,4141.025879,4122.051270,4136.922852,4107.179688,4108.717773,841.000000,4.000000,,,,0.000000,4.000000,4.000000,4.000000,4.000000,4.000000,4.000000,4.000000,4.000000,4.000000,4.000000,4.000000,4.000000,4.000000,4.000000,100.000000
1602006381.451453,108.000000,0.000000,4156.922852,4170.256348,4125.641113,4137.948730,4141.025879,4110.256348,4117.436035,4127.692383,4165.128418,4149.743652,4122.563965,4136.922852,4105.128418,4106.666504,768.000000,4.000000,,,,0.000000,4.000000,4.000000,4.000000,4.000000,4.000000,4.000000,4.000000,4.000000,4.000000,4.000000,4.000000,4.000000,4.000000,4.000000,100.000000
1602006381.459335,109.000000,0.000000,4157.436035,4172.307617,4125.128418,4144.102539,4145.641113,4117.948730,4121.025879,4123.589844,4147.179688,4131.794922,4108.717773,4141.025879,4102.563965,4098.974121,739.000000,4.000000,,,,0.000000,4.000000,4.000000,4.000000,4.000000,4.000000,4.000000,4.000000,4.000000,4.000000,4.000000,4.000000,4.000000,4.000000,4.000000,100.000000
1602006381.467216,110.000000,0.000000,4155.897461,4164.615234,4122.563965,4132.307617,4141.025879,4126.666504,4116.410156,4114.358887,4132.820313,4103.077148,4091.281982,4130.769043,4089.743652,4092.820557,874.000000,4.000000,,,,0.000000,4.000000,4.000000,4.000000,4.000000,4.000000,4.000000,4.000000,4.000000,4.000000,4.000000,4.000000,4.000000,4.000000,4.000000,100.000000
1602006381.475097,111.000000,0.000000,4152.820313,4153.846191,4128.717773,4119.487305,4136.922852,4118.974121,4111.794922,4114.358887,4135.384766,4106.153809,4090.769287,4122.563965,4083.589844,4102.051270,841.000000,4.000000,,,,0.000000,4.000000,4.000000,4.000000,4.000000,4.000000,4.000000,4.000000,4.000000,4.000000,4.000000,4.000000,4.000000,4.000000,4.000000,100.000000
1602006381.482979,112.000000,0.000000,4157.436035,4156.410156,4138.461426,4131.282227,4140.512695,4114.358887,4116.922852,4123.077148,4146.153809,4131.794922,4106.153809,4133.333496,4097.948730,4109.230957,768.000000,4.000000,,,,0.000000,4.000000,4.000000,4.000000,4.000000,4.000000,4.000000,4.000000,4.000000,4.000000,4.000000,4.000000,4.000000,4.000000,4.000000,100.000000
1602006381.490860,113.000000,0.000000,4161.025879,4160.512695,4136.410156,4135.897461,4138.974121,4122.051270,4123.589844,4123.589844,4149.743652,4127.692383,4114.358887,4143.589844,4107.179688,4105.128418,739.000000,4.000000,,,,0.000000,4.000000,4.000000,4.000000,4.000000,4.000000,4.000000,4.000000,4.000000,4.000000,4.000000,4.000000,4.000000,4.000000,4.000000,100.000000
1602006381.498842,114.000000,0.000000,4155.384766,4155.897461,4134.871582,4123.589844,4135.384766,4125.641113,4124.615234,4119.487305,4142.563965,4110.769043,4108.717773,4141.538574,4105.128418,4111.794922,874.000000,4.000000,,,,0.000000,4.000000,4.000000,4.000000,4.000000,4.000000,4.000000,4.000000,4.000000,4.000000,4.000000,4.000000,4.000000,4.000000,4.000000,100.000000
1602006381.506723,115.000000,0.000000,4156.922852,4154.871582,4136.922852,4122.563965,4139.487305,4123.077148,4123.589844,4122.563965,4138.974121,4118.974121,4108.717773,4141.538574,4105.641113,4121.025879,841.000000,4.000000,,,,0.000000,4.000000,4.000000,4.000000,4.000000,4.000000,4.000000,4.000000,4.000000,4.000000,4.000000,4.000000,4.000000,4.000000,4.000000,100.000000
1602006381.514605,116.000000,0.000000,4161.025879,4158.461426,4130.256348,4128.717773,4141.025879,4125.641113,4125.128418,4125.641113,4139.487305,4129.743652,4116.410156,4146.153809,4106.666504,4110.256348,768.000000,4.000000,,,,0.000000,4.000000,4.000000,4.000000,4.000000,4.000000,4.000000,4.000000,4.000000,4.000000,4.000000,4.000000,4.000000,4.000000,4.000000,100.000000
1602006381.522487,117.000000,0.000000,4155.897461,4155.897461,4129.743652,4124.615234,4136.922852,4133.333496,4128.717773,4123.589844,4136.922852,4128.205078,4121.025879,4150.769043,4109.743652,4105.128418,739.000000,4.000000,,,,0.000000,4.000000,4.000000,4.000000,4.000000,4.000000,4.000000,4.000000,4.000000,4.000000,4.000000,4.000000,4.000000,4.000000,4.000000,100.000000
1602006381.530368,118.000000,0.000000,4154.358887,4156.410156,4136.410156,4123.077148,4135.384766,4131.794922,4127.692383,4124.102539,4141.538574,4137.948730,4126.666504,4155.897461,4120.512695,4121.538574,874.000000,4.000000,,,,0.000000,4.000000,4.000000,4.000000,4.000000,4.000000,4.000000,4.000000,4.000000,4.000000,4.000000,4.000000,4.000000,4.000000,4.000000,100.000000
1602006381.538250,119.000000,0.000000,4158.461426,4158.974121,4128.205078,4124.102539,4134.358887,4126.153809,4123.077148,4125.128418,4143.589844,4149.230957,4123.077148,4150.256348,4124.102539,4129.743652,841.000000,4.000000,,,,0.000000,4.000000,4.000000,4.000000,4.000000,4.000000,4.000000,4.000000,4.000000,4.000000,4.000000,4.000000,4.000000,4.000000,4.000000,100.000000
1602006381.546132,120.000000,0.000000,4149.743652,4149.743652,4115.384766,4116.922852,4129.743652,4122.563965,4121.025879,4117.436035,4131.794922,4136.922852,4106.666504,4138.461426,4105.641113,4111.794922,768.000000,4.000000,,,,0.000000,4.000000,4.000000,4.000000,4.000000,4.000000,4.000000,4.000000,4.000000,4.000000,4.000000,4.000000,4.000000,4.000000,4.000000,100.000000
1602006381.554013,121.000000,0.000000,4133.846191,4136.922852,4115.897461,4111.282227,4126.666504,4114.358887,4120.000000,4108.205078,4123.077148,4128.205078,4098.461426,4135.384766,4092.820557,4093.333252,739.000000,4.000000,,,,0.000000,4.000000,4.000000,4.000000,4.000000,4.000000,4.000000,4.000000,4.000000,4.000000,4.000000,4.000000,4.000000,4.000000,4.000000,100.000000
1602006381.561895,122.000000,0.000000,4131.282227,4135.897461,4114.358887,4111.794922,4129.230957,4112.307617,4118.461426,4111.282227,4125.641113,4121.025879,4103.077148,4136.922852,4100.000000,4094.358887,874.000000,4.000000,,,,0.000000,4.000000,4.000000,4.000000,4.000000,4.000000,4.000000,4.000000,4.000000,4.000000,4.000000,4.000000,4.000000,4.000000,4.000000,100.000000
1602006381.569676,123.000000,0.000000,4137.948730,4140.512695,4106.666504,4113.333496,4137.436035,4123.077148,4122.563965,4123.589844,4130.769043,4098.461426,4107.179688,4140.000000,4105.128418,4108.717773,841.000000,4.000000,,,,0.000000,4.000000,4.000000,4.000000,4.000000,4.000000,4.000000,4.000000,4.000000,4.000000,4.000000,4.000000,4.000000,4.000000,4.000000,100.000000
1602006381.577558,124.000000,0.000000,4136.922852,4138.974121,4107.179688,4115.897461,4136.922852,4121.538574,4125.641113,4126.153809,4134.871582,4099.487305,4108.717773,4140.000000,4105.128418,4108.717773,768.000000,4.000000,,,,0.000000,4.000000,4.000000,4.000000,4.000000,4.000000,4.000000,4.000000,4.000000,4.000000,4.000000,4.000000,4.000000,4.000000,4.000000,100.000000
1602006381.585439,125.000000,0.000000,4134.358887,4136.410156,4115.897461,4120.000000,4129.230957,4110.769043,4121.538574,4120.000000,4136.410156,4130.769043,4108.717773,4136.922852,4105.128418,4098.461426,739.000000,4.000000,,,,0.000000,4.000000,4.000000,4.000000,4.000000,4.000000,4.000000,4.000000,4.000000,4.000000,4.000000,4.000000,4.000000,4.000000,4.000000,100.000000
1602006381.593321,126.000000,0.000000,4144.615234,4144.615234,4123.077148,4124.615234,4130.769043,4118.461426,4125.641113,4127.692383,4142.051270,4152.820313,4105.641113,4139.487305,4108.717773,4113.333496,874.000000,4.000000,,,,0.000000,4.000000,4.000000,4.000000,4.000000,4.000000,4.000000,4.000000,4.000000,4.000000,4.000000,4.000000,4.000000,4.000000,4.000000,100.000000
1602006381.601202,127.000000,0.000000,4157.436035,4150.256348,4124.102539,4123.589844,4132.820313,4127.179688,4135.897461,4140.000000,4152.307617,4151.282227,4111.282227,4146.153809,4115.897461,4126.153809,841.000000,4.000000,,,,0.000000,4.000000,4.000000,4.000000,4.000000,4.000000,4.000000,4.000000,4.000000,4.000000,4.000000,4.000000,4.000000,4.000000,4.000000,100.000000
1602006381.609083,128.000000,0.000000,4155.897461,4144.615234,4125.128418,4120.512695,4125.128418,4121.025879,4136.922852,4135.384766,4157.948730,4151.794922,4125.128418,4144.615234,4122.563965,4112.307617,768.000000,4.000000,,,,0.000000,4.000000,4.000000,4.000000,4.000000,4.000000,4.000000,4.000000,4.000000,4.000000,4.000000,4.000000,4.000000,4.000000,4.000000,100.000000
1602006381.617065,0.000000,0.000000,4152.307617,4137.948730,4126.153809,4121.538574,4120.000000,4120.000000,4130.769043,4123.589844,4155.897461,4156.410156,4123.589844,4141.538574,4124.102539,4110.769043,791.000000,4.000000,,,,0.000000,4.000000,4.000000,4.000000,4.000000,4.000000,4.000000,4.000000,4.000000,4.000000,4.000000,4.000000,4.000000,4.000000,4.000000,100.000000
1602006381.624947,1.000000,0.000000,4152.820313,4140.512695,4124.615234,4123.077148,4124.102539,4118.461426,4125.128418,4121.538574,4150.256348,4144.615234,4118.461426,4143.589844,4125.128418,4129.230957,788.000000,4.000000,,,,0.000000,4.000000,4.000000,4.000000,4.000000,4.000000,4.000000,4.000000,4.000000,4.000000,4.000000,4.000000,4.000000,4.000000,4.000000,100.000000
1602006381.632828,2.000000,0.000000,4147.692383,4143.077148,4126.153809,4121.538574,4126.666504,4107.692383,4122.051270,4123.589844,4139.487305,4121.025879,4127.692383,4142.563965,4122.051270,4128.205078,850.000000,4.000000,,,,0.000000,4.000000,4.000000,4.000000,4.000000,4.000000,4.000000,4.000000,4.000000,4.000000,4.000000,4.000000,4.000000,4.000000,4.000000,100.000000
1602006381.640710,3.000000,0.000000,4138.461426,4137.948730,4127.179688,4120.512695,4125.641113,4108.205078,4122.051270,4123.589844,4125.128418,4101.025879,4126.153809,4137.436035,4106.666504,4113.333496,867.000000,4.000000,,,,0.000000,4.000000,4.000000,4.000000,4.000000,4.000000,4.000000,4.000000,4.000000,4.000000,4.000000,4.000000,4.000000,4.000000,4.000000,100.000000
1602006381.648592,4.000000,0.000000,4136.922852,4138.461426,4124.615234,4117.948730,4127.692383,4120.512695,4124.102539,4123.077148,4121.538574,4103.589844,4107.179688,4135.384766,4097.436035,4111.794922,809.000000,4.000000,,,,0.000000,4.000000,4.000000,4.000000,4.000000,4.000000,4.000000,4.000000,4.000000,4.000000,4.000000,4.000000,4.000000,4.000000,4.000000,100.000000
1602006381.656473,5.000000,0.000000,4143.589844,4149.230957,4123.589844,4116.410156,4134.358887,4123.589844,4125.641113,4123.589844,4128.205078,4121.025879,4109.230957,4138.461426,4103.077148,4114.871582,824.000000,4.000000,,,,0.000000,4.000000,4.000000,4.000000,4.000000,4.000000,4.000000,4.000000,4.000000,4.000000,4.000000,4.000000,4.000000,4.000000,4.000000,100.000000
1602006381.664355,6.000000,0.000000,4141.025879,4154.871582,4118.974121,4122.563965,4142.051270,4122.051270,4128.205078,4124.615234,4126.153809,4123.589844,4123.589844,4140.000000,4111.282227,4113.333496,769.000000,4.000000,,,,0.000000,4.000000,4.000000,4.000000,4.000000,4.000000,4.000000,4.000000,4.000000,4.000000,4.000000,4.000000,4.000000,4.000000,4.000000,100.000000
1602006381.672236,7.000000,0.000000,4125.641113,4145.641113,4107.179688,4121.538574,4138.461426,4123.077148,4126.153809,4123.077148,4114.871582,4111.282227,4113.333496,4134.871582,4106.153809,4109.743652,672.000000,4.000000,,,,0.000000,4.000000,4.000000,4.000000,4.000000,4.000000,4.000000,4.000000,4.000000,4.000000,4.000000,4.000000,4.000000,4.000000,4.000000,100.000000
1602006381.680118,8.000000,0.000000,4125.641113,4136.922852,4103.077148,4111.282227,4128.205078,4117.948730,4119.487305,4118.974121,4115.897461,4105.128418,4100.000000,4132.307617,4093.846191,4103.589844,789.000000,4.000000,,,,0.000000,4.000000,4.000000,4.000000,4.000000,4.000000,4.000000,4.000000,4.000000,4.000000,4.000000,4.000000,4.000000,4.000000,4.000000,100.000000
1602006381.687899,9.000000,0.000000,4141.025879,4137.948730,4110.256348,4111.282227,4130.256348,4123.589844,4124.102539,4122.051270,4124.615234,4104.615234,4107.179688,4137.436035,4096.410156,4103.077148,840.000000,4.000000,,,,0.000000,4.000000,4.000000,4.000000,4.000000,4.000000,4.000000,4.000000,4.000000,4.000000,4.000000,4.000000,4.000000,4.000000,4.000000,100.000000
1602006381.695781,10.000000,0.000000,4136.922852,4140.512695,4114.871582,4114.358887,4136.922852,4139.487305,4136.410156,4125.128418,4123.077148,4109.743652,4112.307617,4141.538574,4107.692383,4106.666504,874.000000,4.000000,,,,0.000000,4.000000,4.000000,4.000000,4.000000,4.000000,4.000000,4.000000,4.000000,4.000000,4.000000,4.000000,4.000000,4.000000,4.000000,100.000000
1602006381.703662,11.000000,0.000000,4120.000000,4131.794922,4110.769043,4108.717773,4129.743652,4134.358887,4133.846191,4118.461426,4120.512695,4115.897461,4104.102539,4138.461426,4101.538574,4100.000000,841.000000,4.000000,,,,0.000000,4.000000,4.000000,4.000000,4.000000,4.000000,4.000000,4.000000,4.000000,4.000000,4.000000,4.000000,4.000000,4.000000,4.000000,100.000000
1602006381.711543,12.000000,0.000000,4120.000000,4119.487305,4106.153809,4104.615234,4120.000000,4118.461426,4121.025879,4114.871582,4125.641113,4112.820313,4101.538574,4134.358887,4091.281982,4092.307617,768.000000,4.000000,,,,0.000000,4.000000,4.000000,4.000000,4.000000,4.000000,4.000000,4.000000,4.000000,4.000000,4.000000,4.000000,4.000000,4.000000,4.000000,100.000000
1602006381.719424,13.000000,0.000000,4123.589844,4123.589844,4106.666504,4106.153809,4127.692383,4120.000000,4122.563965,4122.051270,4135.384766,4115.384766,4112.307617,4135.384766,4100.512695,4101.025879,739.000000,4.000000,,,,0.000000,4.000000,4.000000,4.000000,4.000000,4.000000,4.000000,4.000000,4.000000,4.000000,4.000000,4.000000,4.000000,4.000000,4.000000,100.000000
1602006381.727405,14.000000,0.000000,4121.538574,4137.436035,4107.179688,4109.743652,4137.436035,4129.743652,4133.846191,4128.205078,4148.205078,4135.384766,4125.641113,4145.128418,4111.794922,4114.871582,874.000000,4.000000,,,,0.000000,4.000000,4.000000,4.000000,4.000000,4.000000,4.000000,4.000000,4.000000,4.000000,4.000000,4.000000,4.000000,4.000000,4.000000,100.000000
1602006381.735287,15.000000,0.000000,4128.205078,4140.512695,4106.153809,4113.846191,4138.461426,4127.179688,4132.307617,4127.692383,4153.333496,4155.897461,4127.692383,4155.384766,4114.358887,4122.563965,841.000000,4.000000,,,,0.000000,4.000000,4.000000,4.000000,4.000000,4.000000,4.000000,4.000000,4.000000,4.000000,4.000000,4.000000,4.000000,4.000000,4.000000,100.000000
1602006381.743168,16.000000,0.000000,4136.922852,4136.410156,4111.282227,4111.794922,4138.461426,4123.589844,4123.077148,4125.641113,4145.128418,4150.256348,4120.000000,4150.769043,4112.307617,4121.538574,0.000000,4.000000,,,,0.000000,4.000000,4.000000,4.000000,4.000000,4.000000,4.000000,4.000000,4.000000,4.000000,4.000000,4.000000,4.000000,4.000000,4.000000,100.000000
1602006381.751050,17.000000,0.000000,4138.461426,4136.922852,4120.512695,4108.205078,4137.948730,4131.282227,4121.538574,4121.025879,4130.256348,4111.282227,4110.769043,4145.641113,4101.538574,4111.282227,0.000000,4.000000,,,,0.000000,4.000000,4.000000,4.000000,4.000000,4.000000,4.000000,4.000000,4.000000,4.000000,4.000000,4.000000,4.000000,4.000000,4.000000,100.000000
1602006381.758931,18.000000,0.000000,4137.436035,4137.948730,4126.666504,4111.794922,4137.948730,4136.922852,4120.000000,4116.922852,4122.563965,4087.179443,4105.128418,4151.282227,4093.333252,4105.641113,0.000000,4.000000,,,,0.000000,4.000000,4.000000,4.000000,4.000000,4.000000,4.000000,4.000000,4.000000,4.000000,4.000000,4.000000,4.000000,4.000000,4.000000,100.000000
1602006381.766812,19.000000,0.000000,4134.358887,4136.410156,4122.563965,4111.282227,4138.461426,4129.743652,4111.282227,4117.948730,4129.743652,4112.307617,4108.205078,4150.256348,4100.512695,4113.333496,0.000000,4.000000,,,,0.000000,4.000000,4.000000,4.000000,4.000000,4.000000,4.000000,4.000000,4.000000,4.000000,4.000000,4.000000,4.000000,4.000000,4.000000,100.000000
1602006381.774694,20.000000,0.000000,4133.846191,4135.897461,4109.743652,4107.179688,4141.025879,4121.538574,4108.717773,4119.487305,4134.358887,4132.307617,4117.436035,4137.436035,4109.743652,4113.846191,0.000000,4.000000,,,,0.000000,4.000000,4.000000,4.000000,4.000000,4.000000,4.000000,4.000000,4.000000,4.000000,4.000000,4.000000,4.000000,4.000000,4.000000,100.000000
1602006381.782575,21.000000,0.000000,4140.000000,4140.512695,4102.563965,4114.358887,4143.589844,4122.563965,4118.461426,4118.974121,4126.666504,4120.512695,4123.589844,4132.307617,4110.256348,4105.128418,0.000000,4.000000,,,,0.000000,4.000000,4.000000,4.000000,4.000000,4.000000,4.000000,4.000000,4.000000,4.000000,4.000000,4.000000,4.000000,4.000000,4.000000,100.000000
1602006381.790357,22.000000,0.000000,4144.615234,4142.563965,4105.128418,4125.128418,4142.051270,4124.102539,4120.000000,4114.358887,4122.051270,4118.974121,4116.922852,4136.410156,4107.692383,4102.563965,0.000000,4.000000,,,,0.000000,4.000000,4.000000,4.000000,4.000000,4.000000,4.000000,4.000000,4.000000,4.000000,4.000000,4.000000,4.000000,4.000000,4.000000,100.000000
1602006381.798239,23.000000,0.000000,4136.922852,4140.000000,4104.615234,4120.512695,4137.436035,4122.051270,4113.333496,4111.282227,4123.077148,4125.641113,4105.128418,4134.871582,4103.589844,4111.794922,0.000000,4.000000,,,,0.000000,4.000000,4.000000,4.000000,4.000000,4.000000,4.000000,4.000000,4.000000,4.000000,4.000000,4.000000,4.000000,4.000000,4.000000,100.000000
1602006381.806120,24.000000,0.000000,4134.871582,4140.000000,4106.666504,4109.743652,4136.922852,4121.025879,4114.871582,4115.897461,4122.563965,4121.025879,4109.743652,4136.410156,4109.230957,4122.051270,0.000000,4.000000,,,,0.000000,4.000000,4.000000,4.000000,4.000000,4.000000,4.000000,4.000000,4.000000,4.000000,4.000000,4.000000,4.000000,4.000000,4.000000,100.000000
1602006381.814002,25.000000,0.000000,4145.641113,4144.615234,4118.974121,4106.153809,4139.487305,4121.025879,4121.538574,4121.538574,4126.666504,4121.025879,4125.641113,4146.666504,4123.589844,4124.102539,0.000000,4.000000,,,,0.000000,4.000000,4.000000,4.000000,4.000000,4.000000,4.000000,4.000000,4.000000,4.000000,4.000000,4.000000,4.000000,4.000000,4.000000,100.000000
1602006381.821883,26.000000,0.000000,4146.153809,4143.077148,4118.461426,4109.743652,4139.487305,4120.512695,4120.512695,4122.563965,4129.743652,4130.769043,4129.743652,4149.230957,4128.205078,4120.000000,0.000000,4.000000,,,,0.000000,4.000000,4.000000,4.000000,4.000000,4.000000,4.000000,4.000000,4.000000,4.000000,4.000000,4.000000,4.000000,4.000000,4.000000,100.000000
1602006381.829765,27.000000,0.000000,4139.487305,4140.000000,4110.769043,4117.948730,4138.974121,4121.538574,4117.948730,4121.025879,4125.128418,4137.948730,4122.563965,4138.461426,4123.077148,4121.025879,0.000000,4.000000,,,,0.000000,4.000000,4.000000,4.000000,4.000000,4.000000,4.000000,4.000000,4.000000,4.000000,4.000000,4.000000,4.000000,4.000000,4.000000,100.000000
1602006381.837647,28.000000,0.000000,4141.538574,4147.692383,4111.794922,4122.563965,4139.487305,4125.128418,4120.000000,4121.538574,4126.153809,4137.436035,4123.589844,4136.922852,4124.615234,4131.794922,0.000000,4.000000,,,,0.000000,4.000000,4.000000,4.000000,4.000000,4.000000,4.000000,4.000000,4.000000,4.000000,4.000000,4.000000,4.000000,4.000000,4.000000,100.000000
1602006381.845528,29.000000,0.000000,4144.102539,4151.794922,4112.820313,4121.025879,4141.025879,4126.666504,4122.051270,4122.563965,4131.794922,4133.333496,4130.256348,4143.589844,4127.692383,4137.948730,0.000000,4.000000,,,,0.000000,4.000000,4.000000,4.000000,4.000000,4.000000,4.000000,4.000000,4.000000,4.000000,4.000000,4.000000,4.000000,4.000000,4.000000,100.000000
1602006381.853510,30.000000,0.000000,4145.128418,4142.563965,4113.333496,4118.974121,4140.512695,4122.563965,4120.000000,4115.384766,4122.563965,4124.615234,4117.948730,4141.025879,4115.897461,4129.230957,0.000000,4.000000,,,,0.000000,4.000000,4.000000,4.000000,4.000000,4.000000,4.000000,4.000000,4.000000,4.000000,4.000000,4.000000,4.000000,4.000000,4.000000,100.000000
1602006381.861392,31.000000,0.000000,4152.307617,4134.358887,4122.051270,4120.000000,4135.384766,4119.487305,4118.974121,4104.102539,4105.128418,4099.487305,4101.025879,4137.948730,4101.538574,4118.461426,0.000000,4.000000,,,,0.000000,4.000000,4.000000,4.000000,4.000000,4.000000,4.000000,4.000000,4.000000,4.000000,4.000000,4.000000,4.000000,4.000000,4.000000,100.000000
1602006381.869273,32.000000,0.000000,4152.820313,4138.461426,4128.205078,4120.000000,4134.871582,4119.487305,4120.512695,4107.179688,4107.179688,4085.128174,4110.256348,4143.077148,4104.615234,4124.615234,0.000000,4.000000,,,,0.000000,4.000000,4.000000,4.000000,4.000000,4.000000,4.000000,4.000000,4.000000,4.000000,4.000000,4.000000,4.000000,4.000000,4.000000,100.000000
1602006381.877155,33.000000,0.000000,4142.051270,4140.512695,4126.153809,4118.974121,4136.922852,4119.487305,4121.538574,4120.000000,4129.230957,4105.128418,4125.128418,4144.102539,4110.769043,4135.384766,0.000000,4.000000,,,,0.000000,4.000000,4.000000,4.000000,4.000000,4.000000,4.000000,4.000000,4.000000,4.000000,4.000000,4.000000,4.000000,4.000000,4.000000,100.000000
1602006381.885037,34.000000,0.000000,4137.436035,4138.974121,4123.077148,4121.025879,4134.871582,4118.974121,4121.025879,4124.615234,4141.538574,4127.692383,4122.563965,4139.487305,4110.256348,4136.410156,0.000000,4.000000,,,,0.000000,4.000000,4.000000,4.000000,4.000000,4.000000,4.000000,4.000000,4.000000,4.000000,4.000000,4.000000,4.000000,4.000000,4.000000,100.000000
1602006381.892918,35.000000,0.000000,4138.974121,4144.102539,4114.358887,4121.025879,4133.846191,4117.436035,4122.563965,4123.589844,4136.922852,4128.717773,4119.487305,4137.948730,4117.436035,4134.358887,0.000000,4.000000,,,,0.000000,4.000000,4.000000,4.000000,4.000000,4.000000,4.000000,4.000000,4.000000,4.000000,4.000000,4.000000,4.000000,4.000000,4.000000,100.000000
1602006381.900800,36.000000,0.000000,4140.000000,4146.666504,4110.256348,4115.384766,4140.000000,4121.025879,4123.589844,4126.153809,4133.846191,4127.692383,4122.563965,4138.974121,4127.179688,4136.922852,0.000000,4.000000,,,,0.000000,4.000000,4.000000,4.000000,4.000000,4.000000,4.000000,4.000000,4.000000,4.000000,4.000000,4.000000,4.000000,4.000000,4.000000,100.000000
1602006381.908681,37.000000,0.000000,4140.512695,4143.589844,4111.282227,4110.769043,4140.512695,4125.641113,4122.051270,4126.666504,4138.461426,4138.974121,4126.666504,4136.922852,4126.153809,4137.436035,0.000000,4.000000,,,,0.000000,4.000000,4.000000,4.000000,4.000000,4.000000,4.000000,4.000000,4.000000,4.000000,4.000000,4.000000,4.000000,4.000000,4.000000,100.000000
1602006381.916563,38.000000,0.000000,4138.461426,4138.461426,4107.692383,4111.282227,4129.743652,4122.563965,4122.563965,4123.589844,4138.461426,4146.153809,4135.897461,4135.897461,4125.128418,4130.769043,0.000000,4.000000,,,,0.000000,4.000000,4.000000,4.000000,4.000000,4.000000,4.000000,4.000000,4.000000,4.000000,4.000000,4.000000,4.000000,4.000000,4.000000,100.000000
1602006381.924345,39.000000,0.000000,4137.436035,4138.974121,4114.358887,4114.871582,4125.641113,4122.051270,4127.179688,4122.051270,4126.666504,4132.820313,4138.461426,4137.948730,4125.641113,4125.641113,0.000000,4.000000,,,,0.000000,4.000000,4.000000,4.000000,4.000000,4.000000,4.000000,4.000000,4.000000,4.000000,4.000000,4.000000,4.000000,4.000000,4.000000,100.000000
1602006381.932226,40.000000,0.000000,4140.512695,4143.077148,4125.641113,4118.974121,4135.384766,4131.282227,4126.666504,4121.025879,4120.000000,4109.230957,4128.717773,4140.512695,4123.077148,4124.615234,0.000000,4.000000,,,,0.000000,4.000000,4.000000,4.000000,4.000000,4.000000,4.000000,4.000000,4.000000,4.000000,4.000000,4.000000,4.000000,4.000000,4.000000,100.000000
1602006381.940108,41.000000,0.000000,4146.153809,4142.051270,4126.153809,4121.025879,4137.948730,4131.794922,4126.153809,4120.000000,4126.666504,4107.179688,4125.641113,4145.128418,4120.512695,4126.666504,0.000000,4.000000,,,,0.000000,4.000000,4.000000,4.000000,4.000000,4.000000,4.000000,4.000000,4.000000,4.000000,4.000000,4.000000,4.000000,4.000000,4.000000,100.000000
1602006381.947990,42.000000,0.000000,4151.282227,4139.487305,4123.589844,4119.487305,4134.871582,4123.589844,4133.846191,4122.051270,4135.897461,4130.769043,4131.794922,4153.333496,4122.563965,4134.871582,0.000000,4.000000,,,,0.000000,4.000000,4.000000,4.000000,4.000000,4.000000,4.000000,4.000000,4.000000,4.000000,4.000000,4.000000,4.000000,4.000000,4.000000,100.000000
1602006381.955871,43.000000,0.000000,4150.769043,4140.512695,4128.205078,4114.358887,4137.948730,4123.589844,4134.871582,4124.615234,4146.666504,4147.692383,4132.307617,4157.436035,4128.717773,4144.615234,0.000000,4.000000,,,,0.000000,4.000000,4.000000,4.000000,4.000000,4.000000,4.000000,4.000000,4.000000,4.000000,4.000000,4.000000,4.000000,4.000000,4.000000,100.000000
1602006381.963753,44.000000,0.000000,4142.051270,4135.897461,4122.563965,4107.179688,4133.333496,4121.025879,4124.102539,4125.641113,4151.794922,4142.563965,4123.077148,4149.230957,4125.641113,4142.563965,0.000000,4.000000,,,,0.000000,4.000000,4.000000,4.000000,4.000000,4.000000,4.000000,4.000000,4.000000,4.000000,4.000000,4.000000,4.000000,4.000000,4.000000,100.000000
1602006381.971635,45.000000,0.000000,4133.333496,4127.179688,4113.333496,4105.641113,4124.102539,4112.307617,4120.512695,4123.589844,4138.461426,4121.025879,4110.769043,4140.000000,4110.256348,4129.743652,0.000000,4.000000,,,,0.000000,4.000000,4.000000,4.000000,4.000000,4.000000,4.000000,4.000000,4.000000,4.000000,4.000000,4.000000,4.000000,4.000000,4.000000,100.000000
1602006381.979516,46.000000,0.000000,4135.897461,4131.282227,4115.384766,4108.717773,4130.256348,4115.384766,4119.487305,4114.871582,4117.948730,4104.102539,4105.128418,4138.461426,4101.538574,4122.563965,0.000000,4.000000,,,,0.000000,4.000000,4.000000,4.000000,4.000000,4.000000,4.000000,4.000000,4.000000,4.000000,4.000000,4.000000,4.000000,4.000000,4.000000,100.000000
1602006381.987497,47.000000,0.000000,4149.743652,4139.487305,4120.512695,4110.256348,4138.461426,4123.589844,4110.256348,4108.205078,4111.282227,4109.743652,4110.769043,4138.461426,4104.615234,4125.641113,0.000000,4.000000,,,,0.000000,4.000000,4.000000,4.000000,4.000000,4.000000,4.000000,4.000000,4.000000,4.000000,4.000000,4.000000,4.000000,4.000000,4.000000,100.000000
1602006381.995379,48.000000,0.000000,4159.487305,4141.025879,4121.538574,4116.922852,4136.922852,4125.128418,4110.256348,4112.307617,4111.282227,4112.307617,4121.538574,4138.974121,4106.153809,4128.717773,0.000000,4.000000,,,,0.000000,4.000000,4.000000,4.000000,4.000000,4.000000,4.000000,4.000000,4.000000,4.000000,4.000000,4.000000,4.000000,4.000000,4.000000,100.000000
1602006382.003260,49.000000,0.000000,4148.205078,4140.512695,4116.922852,4122.563965,4135.384766,4120.000000,4118.974121,4112.307617,4104.615234,4102.563965,4124.615234,4137.948730,4103.077148,4120.000000,0.000000,4.000000,,,,0.000000,4.000000,4.000000,4.000000,4.000000,4.000000,4.000000,4.000000,4.000000,4.000000,4.000000,4.000000,4.000000,4.000000,4.000000,100.000000
1602006382.011141,50.000000,0.000000,4137.436035,4141.538574,4113.333496,4120.512695,4137.436035,4118.974121,4121.538574,4104.102539,4107.179688,4117.436035,4121.538574,4135.384766,4108.205078,4119.487305,0.000000,4.000000,,,,0.000000,4.000000,4.000000,4.000000,4.000000,4.000000,4.000000,4.000000,4.000000,4.000000,4.000000,4.000000,4.000000,4.000000,4.000000,100.000000
1602006382.019022,51.000000,0.000000,4146.153809,4141.538574,4118.461426,4120.000000,4141.538574,4129.743652,4122.051270,4112.307617,4129.230957,4151.794922,4124.102539,4136.922852,4121.538574,4133.333496,0.000000,4.000000,,,,0.000000,4.000000,4.000000,4.000000,4.000000,4.000000,4.000000,4.000000,4.000000,4.000000,4.000000,4.000000,4.000000,4.000000,4.000000,100.000000
1602006382.027003,52.000000,0.000000,4154.871582,4142.051270,4123.077148,4116.922852,4143.077148,4135.384766,4123.589844,4121.538574,4140.000000,4148.717773,4125.641113,4140.000000,4123.077148,4133.846191,0.000000,4.000000,,,,0.000000,4.000000,4.000000,4.000000,4.000000,4.000000,4.000000,4.000000,4.000000,4.000000,4.000000,4.000000,4.000000,4.000000,4.000000,100.000000
1602006382.034885,53.000000,0.000000,4151.794922,4139.487305,4120.512695,4108.717773,4134.358887,4122.051270,4121.025879,4113.333496,4126.666504,4116.922852,4117.436035,4136.410156,4116.410156,4125.641113,0.000000,4.000000,,,,0.000000,4.000000,4.000000,4.000000,4.000000,4.000000,4.000000,4.000000,4.000000,4.000000,4.000000,4.000000,4.000000,4.000000,4.000000,100.000000
1602006382.042766,54.000000,0.000000,4149.743652,4136.410156,4123.077148,4110.256348,4128.205078,4117.948730,4121.025879,4111.282227,4120.512695,4117.948730,4112.307617,4137.948730,4117.948730,4133.333496,0.000000,4.000000,,,,0.000000,4.000000,4.000000,4.000000,4.000000,4.000000,4.000000,4.000000,4.000000,4.000000,4.000000,4.000000,4.000000,4.000000,4.000000,100.000000
1602006382.050648,55.000000,0.000000,4153.846191,4137.436035,4131.794922,4110.769043,4135.897461,4135.897461,4125.641113,4120.000000,4127.692383,4145.128418,4118.461426,4145.128418,4122.563965,4143.077148,0.000000,4.000000,,,,0.000000,4.000000,4.000000,4.000000,4.000000,4.000000,4.000000,4.000000,4.000000,4.000000,4.000000,4.000000,4.000000,4.000000,4.000000,100.000000
1602006382.058529,56.000000,0.000000,4153.333496,4136.922852,4130.769043,4105.128418,4138.974121,4142.051270,4126.666504,4122.051270,4127.692383,4137.436035,4125.128418,4145.128418,4123.077148,4139.487305,0.000000,4.000000,,,,0.000000,4.000000,4.000000,4.000000,4.000000,4.000000,4.000000,4.000000,4.000000,4.000000,4.000000,4.000000,4.000000,4.000000,4.000000,100.000000
1602006382.066410,57.000000,0.000000,4151.282227,4134.358887,4124.102539,4105.128418,4133.333496,4129.743652,4121.025879,4117.948730,4120.000000,4101.538574,4124.102539,4140.000000,4121.025879,4137.436035,0.000000,4.000000,,,,0.000000,4.000000,4.000000,4.000000,4.000000,4.000000,4.000000,4.000000,4.000000,4.000000,4.000000,4.000000,4.000000,4.000000,4.000000,100.000000
1602006382.074292,58.000000,0.000000,4152.307617,4134.871582,4121.025879,4108.205078,4133.846191,4120.512695,4111.794922,4112.820313,4109.230957,4102.563965,4121.025879,4135.897461,4114.871582,4140.000000,0.000000,4.000000,,,,0.000000,4.000000,4.000000,4.000000,4.000000,4.000000,4.000000,4.000000,4.000000,4.000000,4.000000,4.000000,4.000000,4.000000,4.000000,100.000000
1602006382.082173,59.000000,0.000000,4155.897461,4140.000000,4127.692383,4113.846191,4138.461426,4118.974121,4105.641113,4110.769043,4102.051270,4129.743652,4124.102539,4138.974121,4116.410156,4143.077148,0.000000,4.000000,,,,0.000000,4.000000,4.000000,4.000000,4.000000,4.000000,4.000000,4.000000,4.000000,4.000000,4.000000,4.000000,4.000000,4.000000,4.000000,100.000000
1602006382.089954,60.000000,0.000000,4162.563965,4143.589844,4138.461426,4119.487305,4137.948730,4120.512695,4105.128418,4116.922852,4108.205078,4130.769043,4134.871582,4149.743652,4132.307617,4153.333496,0.000000,4.000000,,,,0.000000,4.000000,4.000000,4.000000,4.000000,4.000000,4.000000,4.000000,4.000000,4.000000,4.000000,4.000000,4.000000,4.000000,4.000000,100.000000
1602006382.097836,61.000000,0.000000,4167.179688,4142.563965,4135.897461,4115.384766,4137.436035,4118.461426,4109.743652,4122.051270,4122.051270,4125.128418,4142.563965,4154.871582,4143.077148,4156.922852,0.000000,4.000000,,,,0.000000,4.000000,4.000000,4.000000,4.000000,4.000000,4.000000,4.000000,4.000000,4.000000,4.000000,4.000000,4.000000,4.000000,4.000000,100.000000
1602006382.105717,62.000000,0.000000,4168.717773,4141.538574,4127.179688,4110.769043,4140.512695,4120.512695,4118.461426,4126.666504,4125.128418,4147.179688,4142.051270,4152.307617,4144.102539,4155.384766,0.000000,4.000000,,,,0.000000,4.000000,4.000000,4.000000,4.000000,4.000000,4.000000,4.000000,4.000000,4.000000,4.000000,4.000000,4.000000,4.000000,4.000000,100.000000
1602006382.113598,63.000000,0.000000,4164.615234,4140.000000,4127.692383,4113.333496,4136.410156,4130.256348,4127.692383,4133.846191,4120.512695,4159.487305,4146.666504,4152.307617,4141.538574,4158.461426,0.000000,4.000000,,,,0.000000,4.000000,4.000000,4.000000,4.000000,4.000000,4.000000,4.000000,4.000000,4.000000,4.000000,4.000000,4.000000,4.000000,4.000000,100.000000
1602006382.121479,64.000000,0.000000,4161.025879,4137.948730,4132.307617,4111.794922,4126.153809,4136.410156,4136.922852,4137.436035,4135.384766,4152.820313,4154.358887,4156.410156,4141.025879,4150.256348,793.000000,4.000000,,,,0.000000,4.000000,4.000000,4.000000,4.000000,4.000000,4.000000,4.000000,4.000000,4.000000,4.000000,4.000000,4.000000,4.000000,4.000000,100.000000
1602006382.129460,65.000000,0.000000,4155.897461,4136.410156,4128.205078,4109.743652,4127.179688,4137.948730,4143.589844,4141.025879,4157.948730,4158.461426,4152.820313,4156.922852,4143.077148,4140.000000,788.000000,4.000000,,,,0.000000,4.000000,4.000000,4.000000,4.000000,4.000000,4.000000,4.000000,4.000000,4.000000,4.000000,4.000000,4.000000,4.000000,4.000000,100.000000
1602006382.137341,66.000000,0.000000,4142.051270,4130.256348,4121.538574,4108.717773,4130.256348,4136.410156,4135.897461,4141.025879,4150.256348,4156.410156,4139.487305,4147.179688,4132.307617,4136.922852,850.000000,4.000000,,,,0.000000,4.000000,4.000000,4.000000,4.000000,4.000000,4.000000,4.000000,4.000000,4.000000,4.000000,4.000000,4.000000,4.000000,4.000000,100.000000
1602006382.145222,67.000000,0.000000,4135.897461,4122.563965,4117.948730,4103.589844,4125.128418,4131.282227,4123.077148,4136.410156,4133.333496,4137.948730,4128.717773,4137.436035,4117.948730,4127.179688,867.000000,4.000000,,,,0.000000,4.000000,4.000000,4.000000,4.000000,4.000000,4.000000,4.000000,4.000000,4.000000,4.000000,4.000000,4.000000,4.000000,4.000000,100.000000
1602006382.153104,68.000000,0.000000,4140.000000,4121.025879,4118.461426,4106.153809,4127.179688,4126.153809,4121.538574,4134.871582,4140.512695,4130.256348,4125.641113,4138.974121,4118.974121,4117.948730,809.000000,4.000000,,,,0.000000,4.000000,4.000000,4.000000,4.000000,4.000000,4.000000,4.000000,4.000000,4.000000,4.000000,4.000000,4.000000,4.000000,4.000000,100.000000
1602006382.161085,69.000000,0.000000,4142.051270,4125.128418,4123.077148,4113.333496,4136.922852,4125.128418,4123.589844,4134.358887,4143.589844,4138.974121,4125.128418,4141.025879,4122.563965,4118.974121,824.000000,4.000000,,,,0.000000,4.000000,4.000000,4.000000,4.000000,4.000000,4.000000,4.000000,4.000000,4.000000,4.000000,4.000000,4.000000,4.000000,4.000000,100.000000
1602006382.168966,70.000000,0.000000,4143.077148,4129.230957,4122.563965,4108.717773,4136.922852,4122.051270,4119.487305,4126.666504,4126.666504,4139.487305,4122.563965,4142.051270,4114.871582,4125.641113,769.000000,4.000000,,,,0.000000,4.000000,4.000000,4.000000,4.000000,4.000000,4.000000,4.000000,4.000000,4.000000,4.000000,4.000000,4.000000,4.000000,4.000000,100.000000
1602006382.176848,71.000000,0.000000,4155.384766,4135.897461,4126.153809,4108.205078,4134.358887,4117.948730,4119.487305,4124.102539,4116.410156,4123.077148,4125.641113,4148.717773,4117.436035,4134.358887,672.000000,4.000000,,,,0.000000,4.000000,4.000000,4.000000,4.000000,4.000000,4.000000,4.000000,4.000000,4.000000,4.000000,4.000000,4.000000,4.000000,4.000000,100.000000
1602006382.184729,72.000000,0.000000,4164.615234,4143.077148,4137.948730,4122.051270,4137.948730,4121.538574,4125.128418,4131.794922,4120.512695,4117.436035,4133.846191,4153.333496,4130.769043,4140.512695,789.000000,4.000000,,,,0.000000,4.000000,4.000000,4.000000,4.000000,4.000000,4.000000,4.000000,4.000000,4.000000,4.000000,4.000000,4.000000,4.000000,4.000000,100.000000
1602006382.192611,73.000000,0.000000,4160.000000,4142.051270,4137.948730,4123.589844,4138.461426,4122.563965,4128.205078,4136.410156,4125.128418,4131.794922,4134.358887,4153.333496,4132.307617,4140.512695,840.000000,4.000000,,,,0.000000,4.000000,4.000000,4.000000,4.000000,4.000000,4.000000,4.000000,4.000000,4.000000,4.000000,4.000000,4.000000,4.000000,4.000000,100.000000
1602006382.200492,74.000000,0.000000,4149.743652,4132.820313,4134.358887,4110.769043,4135.384766,4121.025879,4127.179688,4134.871582,4129.743652,4138.461426,4131.794922,4153.333496,4123.077148,4138.461426,874.000000,4.000000,,,,0.000000,4.000000,4.000000,4.000000,4.000000,4.000000,4.000000,4.000000,4.000000,4.000000,4.000000,4.000000,4.000000,4.000000,4.000000,100.000000
1602006382.208273,75.000000,0.000000,4142.563965,4125.641113,4135.384766,4109.743652,4131.282227,4121.025879,4123.589844,4134.871582,4134.871582,4126.153809,4135.897461,4154.358887,4120.000000,4134.358887,841.000000,4.000000,,,,0.000000,4.000000,4.000000,4.000000,4.000000,4.000000,4.000000,4.000000,4.000000,4.000000,4.000000,4.000000,4.000000,4.000000,4.000000,100.000000
1602006382.216154,76.000000,0.000000,4141.025879,4122.563965,4127.692383,4111.794922,4123.589844,4118.461426,4125.128418,4134.871582,4136.922852,4123.589844,4133.846191,4151.794922,4116.410156,4122.051270,768.000000,4.000000,,,,0.000000,4.000000,4.000000,4.000000,4.000000,4.000000,4.000000,4.000000,4.000000,4.000000,4.000000,4.000000,4.000000,4.000000,4.000000,100.000000
1602006382.224035,77.000000,0.000000,4131.794922,4115.384766,4118.974121,4100.000000,4124.615234,4122.051270,4132.820313,4137.436035,4137.948730,4132.820313,4121.538574,4145.641113,4101.025879,4107.692383,739.000000,4.000000,,,,0.000000,4.000000,4.000000,4.000000,4.000000,4.000000,4.000000,4.000000,4.000000,4.000000,4.000000,4.000000,4.000000,4.000000,4.000000,100.000000
1602006382.232016,78.000000,0.000000,4130.256348,4117.436035,4126.666504,4104.615234,4135.897461,4136.922852,4141.025879,4142.563965,4151.282227,4136.410156,4127.692383,4148.205078,4106.666504,4112.307617,874.000000,4.000000,,,,0.000000,4.000000,4.000000,4.000000,4.000000,4.000000,4.000000,4.000000,4.000000,4.000000,4.000000,4.000000,4.000000,4.000000,4.000000,100.000000
1602006382.239897,79.000000,0.000000,4140.000000,4128.205078,4130.769043,4120.000000,4140.512695,4143.077148,4138.974121,4142.563965,4155.384766,4135.384766,4147.692383,4160.512695,4137.948730,4137.948730,841.000000,4.000000,,,,0.000000,4.000000,4.000000,4.000000,4.000000,4.000000,4.000000,4.000000,4.000000,4.000000,4.000000,4.000000,4.000000,4.000000,4.000000,100.000000
1602006382.247678,80.000000,0.000000,4132.307617,4124.102539,4120.000000,4110.769043,4134.871582,4134.358887,4128.205078,4136.922852,4140.512695,4133.333496,4150.769043,4156.922852,4152.820313,4150.256348,768.000000,4.000000,,,,0.000000,4.000000,4.000000,4.000000,4.000000,4.000000,4.000000,4.000000,4.000000,4.000000,4.000000,4.000000,4.000000,4.000000,4.000000,100.000000
1602006382.255559,81.000000,0.000000,4120.000000,4111.794922,4118.461426,4097.948730,4135.384766,4130.256348,4128.205078,4136.410156,4140.000000,4144.615234,4154.871582,4149.743652,4159.487305,4149.230957,739.000000,4.000000,,,,0.000000,4.000000,4.000000,4.000000,4.000000,4.000000,4.000000,4.000000,4.000000,4.000000,4.000000,4.000000,4.000000,4.000000,4.000000,100.000000
1602006382.263439,82.000000,0.000000,4120.000000,4109.230957,4123.077148,4101.025879,4140.512695,4135.897461,4137.948730,4140.000000,4156.410156,4159.487305,4167.179688,4162.563965,4179.487305,4163.589844,874.000000,4.000000,,,,0.000000,4.000000,4.000000,4.000000,4.000000,4.000000,4.000000,4.000000,4.000000,4.000000,4.000000,4.000000,4.000000,4.000000,4.000000,100.000000
1602006382.271421,83.000000,0.000000,4113.846191,4102.563965,4122.051270,4099.487305,4138.461426,4141.025879,4143.589844,4141.538574,4158.461426,4154.358887,4163.589844,4170.769043,4187.179688,4168.717773,841.000000,4.000000,,,,0.000000,4.000000,4.000000,4.000000,4.000000,4.000000,4.000000,4.000000,4.000000,4.000000,4.000000,4.000000,4.000000,4.000000,4.000000,100.000000
1602006382.279303,84.000000,0.000000,4103.077148,4090.769287,4120.000000,4089.743652,4135.897461,4136.410156,4138.461426,4142.051270,4150.769043,4141.025879,4151.794922,4158.974121,4175.897461,4146.153809,768.000000,4.000000,,,,0.000000,4.000000,4.000000,4.000000,4.000000,4.000000,4.000000,4.000000,4.000000,4.000000,4.000000,4.000000,4.000000,4.000000,4.000000,100.000000
1602006382.287184,85.000000,0.000000,4106.666504,4089.230713,4115.897461,4089.230713,4132.307617,4125.128418,4128.717773,4138.461426,4152.307617,4141.538574,4149.230957,4146.153809,4165.641113,4135.384766,739.000000,4.000000,,,,0.000000,4.000000,4.000000,4.000000,4.000000,4.000000,4.000000,4.000000,4.000000,4.000000,4.000000,4.000000,4.000000,4.000000,4.000000,100.000000
1602006382.295066,86.000000,0.000000,4102.051270,4090.256348,4114.871582,4090.769287,4125.128418,4119.487305,4127.692383,4136.410156,4153.846191,4144.615234,4145.128418,4144.615234,4155.897461,4142.051270,874.000000,4.000000,,,,0.000000,4.000000,4.000000,4.000000,4.000000,4.000000,4.000000,4.000000,4.000000,4.000000,4.000000,4.000000,4.000000,4.000000,4.000000,100.000000
1602006382.302948,87.000000,0.000000,4084.615479,4088.718018,4117.948730,4088.718018,4123.589844,4121.538574,4134.358887,4145.641113,4154.358887,4141.025879,4142.051270,4149.743652,4153.846191,4136.410156,841.000000,4.000000,,,,0.000000,4.000000,4.000000,4.000000,4.000000,4.000000,4.000000,4.000000,4.000000,4.000000,4.000000,4.000000,4.000000,4.000000,4.000000,100.000000
1602006382.310829,88.000000,0.000000,4090.256348,4090.769287,4117.436035,4090.769287,4126.666504,4125.641113,4138.974121,4155.384766,4156.410156,4152.820313,4148.205078,4151.282227,4163.589844,4128.717773,768.000000,4.000000,,,,0.000000,4.000000,4.000000,4.000000,4.000000,4.000000,4.000000,4.000000,4.000000,4.000000,4.000000,4.000000,4.000000,4.000000,4.000000,100.000000
1602006382.318711,89.000000,0.000000,4110.256348,4097.436035,4116.922852,4098.461426,4130.769043,4134.871582,4137.948730,4150.769043,4155.897461,4166.153809,4155.897461,4152.307617,4171.794922,4143.077148,739.000000,4.000000,,,,0.000000,4.000000,4.000000,4.000000,4.000000,4.000000,4.000000,4.000000,4.000000,4.000000,4.000000,4.000000,4.000000,4.000000,4.000000,100.000000
1602006382.326592,90.000000,0.000000,4112.820313,4097.436035,4122.563965,4101.538574,4135.384766,4143.589844,4138.974121,4141.025879,4151.282227,4157.948730,4160.000000,4154.871582,4171.282227,4152.307617,874.000000,4.000000,,,,0.000000,4.000000,4.000000,4.000000,4.000000,4.000000,4.000000,4.000000,4.000000,4.000000,4.000000,4.000000,4.000000,4.000000,4.000000,100.000000
1602006382.334474,91.000000,0.000000,4104.102539,4094.358887,4123.077148,4101.025879,4131.794922,4138.461426,4136.410156,4136.410156,4143.589844,4152.307617,4150.256348,4147.179688,4162.051270,4140.000000,841.000000,4.000000,,,,0.000000,4.000000,4.000000,4.000000,4.000000,4.000000,4.000000,4.000000,4.000000,4.000000,4.000000,4.000000,4.000000,4.000000,4.000000,100.000000
1602006382.342255,92.000000,0.000000,4105.641113,4101.025879,4120.000000,4103.077148,4130.256348,4133.846191,4134.871582,4137.436035,4140.512695,4154.358887,4139.487305,4139.487305,4151.794922,4134.358887,768.000000,4.000000,,,,0.000000,4.000000,4.000000,4.000000,4.000000,4.000000,4.000000,4.000000,4.000000,4.000000,4.000000,4.000000,4.000000,4.000000,4.000000,100.000000
1602006382.350137,93.000000,0.000000,4109.230957,4107.692383,4123.077148,4101.538574,4137.436035,4141.025879,4140.512695,4140.512695,4146.153809,4140.000000,4148.717773,4148.717773,4158.974121,4143.589844,739.000000,4.000000,,,,0.000000,4.000000,4.000000,4.000000,4.000000,4.000000,4.000000,4.000000,4.000000,4.000000,4.000000,4.000000,4.000000,4.000000,4.000000,100.000000
1602006382.358018,94.000000,0.000000,4097.948730,4098.974121,4123.077148,4092.820557,4132.820313,4138.461426,4137.436035,4141.025879,4154.358887,4130.256348,4157.436035,4155.897461,4169.230957,4144.615234,874.000000,4.000000,,,,0.000000,4.000000,4.000000,4.000000,4.000000,4.000000,4.000000,4.000000,4.000000,4.000000,4.000000,4.000000,4.000000,4.000000,4.000000,100.000000
1602006382.365899,95.000000,0.000000,4088.718018,4090.256348,4120.512695,4090.769287,4125.128418,4124.615234,4123.589844,4136.410156,4150.769043,4137.436035,4153.333496,4149.743652,4163.077148,4138.461426,841.000000,4.000000,,,,0.000000,4.000000,4.000000,4.000000,4.000000,4.000000,4.000000,4.000000,4.000000,4.000000,4.000000,4.000000,4.000000,4.000000,4.000000,100.000000
1602006382.373780,96.000000,0.000000,4091.794922,4095.384521,4124.102539,4101.025879,4133.333496,4127.179688,4119.487305,4134.358887,4138.461426,4134.871582,4151.794922,4149.743652,4154.871582,4137.436035,768.000000,4.000000,,,,0.000000,4.000000,4.000000,4.000000,4.000000,4.000000,4.000000,4.000000,4.000000,4.000000,4.000000,4.000000,4.000000,4.000000,4.000000,100.000000
1602006382.381562,97.000000,0.000000,4093.333252,4097.948730,4122.563965,4104.615234,4139.487305,4141.025879,4131.282227,4133.846191,4135.384766,4133.333496,4154.358887,4154.871582,4155.897461,4135.897461,739.000000,4.000000,,,,0.000000,4.000000,4.000000,4.000000,4.000000,4.000000,4.000000,4.000000,4.000000,4.000000,4.000000,4.000000,4.000000,4.000000,4.000000,100.000000
1602006382.389443,98.000000,0.000000,4095.384521,4092.307617,4119.487305,4098.461426,4135.384766,4141.025879,4139.487305,4129.230957,4136.922852,4141.538574,4152.307617,4153.846191,4155.384766,4137.948730,874.000000,4.000000,,,,0.000000,4.000000,4.000000,4.000000,4.000000,4.000000,4.000000,4.000000,4.000000,4.000000,4.000000,4.000000,4.000000,4.000000,4.000000,100.000000
1602006382.397324,99.000000,0.000000,4103.589844,4094.871826,4129.743652,4097.436035,4136.410156,4133.846191,4132.820313,4125.641113,4128.205078,4141.025879,4156.922852,4155.384766,4155.384766,4147.692383,841.000000,4.000000,,,,0.000000,4.000000,4.000000,4.000000,4.000000,4.000000,4.000000,4.000000,4.000000,4.000000,4.000000,4.000000,4.000000,4.000000,4.000000,100.000000
1602006382.405206,100.000000,0.000000,4110.769043,4102.563965,4140.000000,4107.179688,4136.410156,4134.871582,4125.128418,4129.230957,4127.692383,4144.102539,4158.974121,4163.077148,4158.461426,4154.358887,768.000000,4.000000,,,,0.000000,4.000000,4.000000,4.000000,4.000000,4.000000,4.000000,4.000000,4.000000,4.000000,4.000000,4.000000,4.000000,4.000000,4.000000,100.000000
1602006382.413087,101.000000,0.000000,4108.717773,4103.589844,4132.307617,4107.692383,4128.205078,4135.897461,4130.769043,4136.410156,4140.000000,4147.692383,4149.230957,4170.256348,4157.948730,4153.846191,739.000000,4.000000,,,,0.000000,4.000000,4.000000,4.000000,4.000000,4.000000,4.000000,4.000000,4.000000,4.000000,4.000000,4.000000,4.000000,4.000000,4.000000,100.000000
1602006382.420969,102.000000,0.000000,4100.512695,4097.948730,4122.051270,4093.333252,4123.077148,4135.897461,4136.922852,4141.025879,4142.563965,4124.102539,4147.179688,4168.717773,4156.410156,4153.846191,874.000000,4.000000,,,,0.000000,4.000000,4.000000,4.000000,4.000000,4.000000,4.000000,4.000000,4.000000,4.000000,4.000000,4.000000,4.000000,4.000000,4.000000,100.000000
1602006382.428850,103.000000,0.000000,4098.461426,4097.948730,4123.077148,4088.718018,4126.666504,4134.871582,4132.307617,4141.025879,4144.615234,4116.410156,4158.461426,4160.000000,4158.461426,4155.384766,841.000000,4.000000,,,,0.000000,4.000000,4.000000,4.000000,4.000000,4.000000,4.000000,4.000000,4.000000,4.000000,4.000000,4.000000,4.000000,4.000000,4.000000,100.000000
1602006382.436831,104.000000,0.000000,4096.922852,4101.025879,4118.461426,4093.333252,4129.230957,4127.692383,4129.230957,4138.974121,4151.282227,4144.615234,4153.333496,4152.307617,4150.769043,4147.179688,768.000000,4.000000,,,,0.000000,4.000000,4.000000,4.000000,4.000000,4.000000,4.000000,4.000000,4.000000,4.000000,4.000000,4.000000,4.000000,4.000000,4.000000,100.000000
1602006382.444713,105.000000,0.000000,4089.230713,4096.922852,4106.666504,4096.410156,4128.205078,4118.461426,4129.230957,4137.948730,4145.128418,4146.666504,4134.871582,4145.128418,4138.974121,4128.717773,739.000000,4.000000,,,,0.000000,4.000000,4.000000,4.000000,4.000000,4.000000,4.000000,4.000000,4.000000,4.000000,4.000000,4.000000,4.000000,4.000000,4.000000,100.000000
1602006382.452594,106.000000,0.000000,4090.256348,4100.000000,4106.153809,4101.538574,4132.307617,4114.871582,4122.051270,4135.384766,4135.897461,4134.871582,4136.410156,4138.974121,4144.615234,4122.563965,874.000000,4.000000,,,,0.000000,4.000000,4.000000,4.000000,4.000000,4.000000,4.000000,4.000000,4.000000,4.000000,4.000000,4.000000,4.000000,4.000000,4.000000,100.000000
1602006382.460475,107.000000,0.000000,4106.153809,4109.743652,4116.922852,4107.179688,4139.487305,4123.589844,4122.563965,4131.794922,4136.410156,4152.307617,4140.000000,4137.948730,4155.384766,4133.333496,841.000000,4.000000,,,,0.000000,4.000000,4.000000,4.000000,4.000000,4.000000,4.000000,4.000000,4.000000,4.000000,4.000000,4.000000,4.000000,4.000000,4.000000,100.000000
1602006382.468357,108.000000,0.000000,4108.205078,4111.794922,4117.948730,4107.179688,4139.487305,4135.384766,4131.282227,4127.179688,4128.717773,4146.153809,4137.948730,4138.461426,4150.256348,4140.512695,768.000000,4.000000,,,,0.000000,4.000000,4.000000,4.000000,4.000000,4.000000,4.000000,4.000000,4.000000,4.000000,4.000000,4.000000,4.000000,4.000000,4.000000,100.000000
1602006382.476238,109.000000,0.000000,4100.512695,4110.256348,4108.205078,4106.153809,4138.461426,4133.846191,4131.282227,4124.102539,4116.410156,4120.000000,4152.307617,4139.487305,4146.153809,4135.897461,739.000000,4.000000,,,,0.000000,4.000000,4.000000,4.000000,4.000000,4.000000,4.000000,4.000000,4.000000,4.000000,4.000000,4.000000,4.000000,4.000000,4.000000,100.000000
1602006382.484120,110.000000,0.000000,4105.128418,4112.820313,4106.153809,4109.230957,4135.897461,4123.077148,4128.717773,4124.102539,4115.897461,4132.307617,4155.897461,4142.563965,4154.358887,4136.410156,874.000000,4.000000,,,,0.000000,4.000000,4.000000,4.000000,4.000000,4.000000,4.000000,4.000000,4.000000,4.000000,4.000000,4.000000,4.000000,4.000000,4.000000,100.000000
1602006382.491901,111.000000,0.000000,4102.563965,4108.205078,4107.179688,4108.205078,4131.794922,4124.615234,4135.384766,4129.743652,4125.641113,4147.692383,4136.410156,4140.000000,4147.179688,4134.871582,841.000000,4.000000,,,,0.000000,4.000000,4.000000,4.000000,4.000000,4.000000,4.000000,4.000000,4.000000,4.000000,4.000000,4.000000,4.000000,4.000000,4.000000,100.000000
1602006382.499782,112.000000,0.000000,4091.281982,4106.666504,4103.077148,4106.153809,4132.307617,4132.820313,4144.102539,4142.051270,4141.538574,4136.410156,4141.538574,4137.948730,4136.410156,4132.820313,768.000000,4.000000,,,,0.000000,4.000000,4.000000,4.000000,4.000000,4.000000,4.000000,4.000000,4.000000,4.000000,4.000000,4.000000,4.000000,4.000000,4.000000,100.000000
1602006382.507663,113.000000,0.000000,4100.000000,4118.461426,4110.256348,4106.153809,4136.922852,4130.256348,4143.589844,4152.307617,4151.282227,4138.461426,4162.563965,4150.256348,4148.205078,4152.820313,739.000000,4.000000,,,,0.000000,4.000000,4.000000,4.000000,4.000000,4.000000,4.000000,4.000000,4.000000,4.000000,4.000000,4.000000,4.000000,4.000000,4.000000,100.000000
1602006382.515544,114.000000,0.000000,4124.102539,4120.512695,4132.820313,4107.692383,4137.436035,4130.256348,4139.487305,4154.871582,4152.820313,4149.743652,4158.461426,4168.717773,4167.179688,4174.871582,874.000000,4.000000,,,,0.000000,4.000000,4.000000,4.000000,4.000000,4.000000,4.000000,4.000000,4.000000,4.000000,4.000000,4.000000,4.000000,4.000000,4.000000,100.000000
1602006382.523426,115.000000,0.000000,4130.769043,4116.922852,4141.538574,4111.282227,4137.436035,4134.358887,4138.461426,4156.922852,4160.000000,4151.282227,4157.436035,4175.897461,4168.717773,4177.948730,841.000000,4.000000,,,,0.000000,4.000000,4.000000,4.000000,4.000000,4.000000,4.000000,4.000000,4.000000,4.000000,4.000000,4.000000,4.000000,4.000000,4.000000,100.000000
1602006382.531407,116.000000,0.000000,4115.897461,4118.461426,4127.179688,4111.282227,4140.000000,4131.282227,4133.333496,4153.333496,4159.487305,4154.871582,4166.666504,4163.589844,4159.487305,4165.128418,768.000000,4.000000,,,,0.000000,4.000000,4.000000,4.000000,4.000000,4.000000,4.000000,4.000000,4.000000,4.000000,4.000000,4.000000,4.000000,4.000000,4.000000,100.000000
1602006382.539288,117.000000,0.000000,4104.615234,4111.794922,4110.769043,4105.641113,4142.051270,4130.769043,4125.128418,4141.538574,4142.051270,4150.256348,4157.948730,4144.102539,4155.384766,4145.641113,739.000000,4.000000,,,,0.000000,4.000000,4.000000,4.000000,4.000000,4.000000,4.000000,4.000000,4.000000,4.000000,4.000000,4.000000,4.000000,4.000000,4.000000,100.000000
1602006382.547170,118.000000,0.000000,4103.077148,4103.589844,4108.717773,4104.102539,4141.538574,4133.333496,4121.025879,4135.384766,4136.922852,4145.641113,4150.256348,4132.307617,4151.282227,4136.410156,874.000000,4.000000,,,,0.000000,4.000000,4.000000,4.000000,4.000000,4.000000,4.000000,4.000000,4.000000,4.000000,4.000000,4.000000,4.000000,4.000000,4.000000,100.000000
1602006382.555051,119.000000,0.000000,4095.384521,4105.641113,4104.615234,4106.153809,4140.000000,4127.692383,4123.077148,4130.769043,4144.615234,4154.358887,4154.358887,4123.589844,4141.025879,4132.307617,841.000000,4.000000,,,,0.000000,4.000000,4.000000,4.000000,4.000000,4.000000,4.000000,4.000000,4.000000,4.000000,4.000000,4.000000,4.000000,4.000000,4.000000,100.000000
1602006382.562933,120.000000,0.000000,4085.128174,4105.641113,4090.256348,4107.179688,4137.948730,4124.102539,4123.589844,4124.102539,4131.282227,4142.563965,4143.077148,4117.436035,4133.846191,4126.666504,768.000000,4.000000,,,,0.000000,4.000000,4.000000,4.000000,4.000000,4.000000,4.000000,4.000000,4.000000,4.000000,4.000000,4.000000,4.000000,4.000000,4.000000,100.000000
1602006382.570814,121.000000,0.000000,4091.281982,4108.205078,4092.307617,4106.153809,4139.487305,4130.769043,4123.589844,4128.717773,4120.512695,4112.307617,4133.333496,4130.256348,4141.025879,4131.794922,739.000000,4.000000,,,,0.000000,4.000000,4.000000,4.000000,4.000000,4.000000,4.000000,4.000000,4.000000,4.000000,4.000000,4.000000,4.000000,4.000000,4.000000,100.000000
1602006382.578695,122.000000,0.000000,4110.256348,4119.487305,4116.922852,4106.666504,4142.563965,4132.820313,4130.256348,4137.948730,4142.051270,4121.025879,4154.871582,4151.794922,4155.384766,4151.794922,874.000000,4.000000,,,,0.000000,4.000000,4.000000,4.000000,4.000000,4.000000,4.000000,4.000000,4.000000,4.000000,4.000000,4.000000,4.000000,4.000000,4.000000,100.000000
1602006382.586677,123.000000,0.000000,4125.641113,4125.128418,4132.307617,4116.922852,4144.615234,4133.333496,4134.871582,4140.000000,4160.512695,4155.384766,4178.974121,4159.487305,4166.153809,4167.692383,841.000000,4.000000,,,,0.000000,4.000000,4.000000,4.000000,4.000000,4.000000,4.000000,4.000000,4.000000,4.000000,4.000000,4.000000,4.000000,4.000000,4.000000,100.000000
1602006382.594558,124.000000,0.000000,4125.128418,4124.615234,4127.692383,4123.589844,4144.102539,4140.512695,4129.230957,4142.563965,4149.230957,4154.358887,4173.333496,4158.974121,4165.641113,4165.128418,768.000000,4.000000,,,,0.000000,4.000000,4.000000,4.000000,4.000000,4.000000,4.000000,4.000000,4.000000,4.000000,4.000000,4.000000,4.000000,4.000000,4.000000,100.000000
1602006382.602439,125.000000,0.000000,4110.769043,4121.538574,4121.538574,4112.307617,4140.512695,4140.512695,4124.102539,4142.563965,4135.897461,4134.358887,4153.333496,4156.410156,4154.871582,4147.692383,739.000000,4.000000,,,,0.000000,4.000000,4.000000,4.000000,4.000000,4.000000,4.000000,4.000000,4.000000,4.000000,4.000000,4.000000,4.000000,4.000000,4.000000,100.000000
1602006382.610321,126.000000,0.000000,4107.692383,4117.948730,4120.512695,4104.615234,4138.974121,4137.436035,4132.307617,4141.538574,4142.051270,4141.538574,4149.230957,4152.820313,4149.230957,4142.563965,874.000000,4.000000,,,,0.000000,4.000000,4.000000,4.000000,4.000000,4.000000,4.000000,4.000000,4.000000,4.000000,4.000000,4.000000,4.000000,4.000000,4.000000,100.000000
1602006382.618202,127.000000,0.000000,4123.589844,4119.487305,4126.666504,4112.820313,4141.538574,4136.410156,4138.974121,4149.743652,4156.410156,4159.487305,4157.436035,4153.333496,4152.820313,4156.922852,841.000000,4.000000,,,,0.000000,4.000000,4.000000,4.000000,4.000000,4.000000,4.000000,4.000000,4.000000,4.000000,4.000000,4.000000,4.000000,4.000000,4.000000,100.000000
1602006382.626084,128.000000,0.000000,4123.077148,4125.128418,4127.692383,4113.846191,4143.589844,4137.948730,4137.948730,4157.948730,4164.615234,4156.410156,4155.897461,4156.922852,4156.410156,4156.922852,768.000000,4.000000,,,,0.000000,4.000000,4.000000,4.000000,4.000000,4.000000,4.000000,4.000000,4.000000,4.000000,4.000000,4.000000,4.000000,4.000000,4.000000,100.000000
1602006382.633965,0.000000,0.000000,4109.230957,4125.128418,4115.384766,4106.153809,4141.025879,4139.487305,4138.974121,4153.846191,4158.974121,4145.641113,4153.333496,4156.410156,4156.410156,4150.769043,765.000000,4.000000,,,,0.000000,4.000000,4.000000,4.000000,4.000000,4.000000,4.000000,4.000000,4.000000,4.000000,4.000000,4.000000,4.000000,4.000000,4.000000,100.000000
1602006382.641747,1.000000,0.000000,4106.666504,4116.410156,4105.128418,4104.102539,4138.461426,4137.948730,4134.358887,4145.128418,4145.128418,4143.077148,4158.974121,4149.230957,4152.820313,4159.487305,788.000000,4.000000,,,,0.000000,4.000000,4.000000,4.000000,4.000000,4.000000,4.000000,4.000000,4.000000,4.000000,4.000000,4.000000,4.000000,4.000000,4.000000,100.000000
1602006382.649628,2.000000,0.000000,4098.461426,4106.666504,4102.051270,4100.000000,4139.487305,4137.948730,4130.256348,4138.461426,4137.436035,4133.333496,4153.846191,4135.897461,4140.512695,4150.256348,852.000000,4.000000,,,,0.000000,4.000000,4.000000,4.000000,4.000000,4.000000,4.000000,4.000000,4.000000,4.000000,4.000000,4.000000,4.000000,4.000000,4.000000,100.000000
1602006382.657510,3.000000,0.000000,4084.102539,4102.051270,4101.025879,4095.897461,4139.487305,4138.974121,4135.384766,4134.358887,4137.436035,4117.948730,4140.512695,4125.128418,4131.282227,4125.128418,867.000000,4.000000,,,,0.000000,4.000000,4.000000,4.000000,4.000000,4.000000,4.000000,4.000000,4.000000,4.000000,4.000000,4.000000,4.000000,4.000000,4.000000,100.000000
1602006382.665392,4.000000,0.000000,4086.666748,4104.102539,4101.538574,4101.538574,4138.974121,4140.512695,4138.974121,4133.846191,4139.487305,4125.128418,4139.487305,4125.641113,4140.512695,4123.077148,809.000000,4.000000,,,,0.000000,4.000000,4.000000,4.000000,4.000000,4.000000,4.000000,4.000000,4.000000,4.000000,4.000000,4.000000,4.000000,4.000000,4.000000,100.000000
1602006382.673273,5.000000,0.000000,4095.384521,4109.743652,4107.692383,4107.692383,4141.538574,4145.128418,4139.487305,4137.436035,4143.589844,4150.769043,4146.153809,4134.871582,4155.384766,4142.563965,824.000000,4.000000,,,,0.000000,4.000000,4.000000,4.000000,4.000000,4.000000,4.000000,4.000000,4.000000,4.000000,4.000000,4.000000,4.000000,4.000000,4.000000,100.000000
1602006382.681155,6.000000,0.000000,4097.948730,4111.282227,4116.410156,4105.128418,4142.051270,4142.563965,4140.000000,4138.974121,4150.769043,4161.025879,4150.769043,4144.102539,4156.922852,4154.358887,769.000000,4.000000,,,,0.000000,4.000000,4.000000,4.000000,4.000000,4.000000,4.000000,4.000000,4.000000,4.000000,4.000000,4.000000,4.000000,4.000000,4.000000,100.000000
1602006382.689037,7.000000,0.000000,4102.563965,4107.179688,4121.538574,4102.051270,4137.948730,4128.717773,4131.794922,4135.897461,4156.410156,4153.846191,4152.307617,4151.282227,4153.846191,4150.769043,628.000000,4.000000,,,,0.000000,4.000000,4.000000,4.000000,4.000000,4.000000,4.000000,4.000000,4.000000,4.000000,4.000000,4.000000,4.000000,4.000000,4.000000,100.000000
1602006382.696918,8.000000,0.000000,4110.256348,4108.717773,4122.563965,4108.717773,4136.922852,4125.128418,4124.615234,4134.358887,4153.333496,4153.333496,4153.333496,4154.871582,4158.461426,4151.282227,789.000000,4.000000,,,,0.000000,4.000000,4.000000,4.000000,4.000000,4.000000,4.000000,4.000000,4.000000,4.000000,4.000000,4.000000,4.000000,4.000000,4.000000,100.000000
1602006382.704800,9.000000,0.000000,4118.974121,4114.358887,4124.102539,4110.769043,4138.974121,4135.897461,4125.641113,4140.512695,4144.615234,4151.794922,4152.307617,4154.358887,4162.051270,4163.589844,840.000000,4.000000,,,,0.000000,4.000000,4.000000,4.000000,4.000000,4.000000,4.000000,4.000000,4.000000,4.000000,4.000000,4.000000,4.000000,4.000000,4.000000,100.000000
1602006382.712581,10.000000,0.000000,4121.538574,4116.410156,4129.743652,4105.128418,4138.974121,4138.974121,4124.102539,4145.128418,4144.615234,4143.077148,4156.922852,4155.897461,4163.077148,4172.820313,874.000000,4.000000,,,,0.000000,4.000000,4.000000,4.000000,4.000000,4.000000,4.000000,4.000000,4.000000,4.000000,4.000000,4.000000,4.000000,4.000000,4.000000,100.000000
1602006382.720463,11.000000,0.000000,4120.512695,4120.512695,4136.410156,4111.794922,4138.461426,4135.897461,4126.153809,4143.589844,4151.794922,4137.948730,4164.102539,4162.051270,4168.205078,4171.794922,768.000000,4.000000,,,,0.000000,4.000000,4.000000,4.000000,4.000000,4.000000,4.000000,4.000000,4.000000,4.000000,4.000000,4.000000,4.000000,4.000000,4.000000,100.000000
1602006382.728344,12.000000,0.000000,4129.743652,4126.666504,4138.461426,4121.025879,4141.538574,4138.974121,4135.897461,4142.563965,4151.794922,4140.000000,4158.461426,4163.077148,4169.230957,4166.666504,768.000000,4.000000,,,,0.000000,4.000000,4.000000,4.000000,4.000000,4.000000,4.000000,4.000000,4.000000,4.000000,4.000000,4.000000,4.000000,4.000000,4.000000,100.000000
1602006382.736226,13.000000,0.000000,4124.102539,4118.461426,4126.666504,4113.333496,4140.512695,4143.077148,4138.974121,4135.384766,4143.589844,4150.769043,4142.563965,4151.282227,4152.820313,4151.282227,739.000000,4.000000,,,,0.000000,4.000000,4.000000,4.000000,4.000000,4.000000,4.000000,4.000000,4.000000,4.000000,4.000000,4.000000,4.000000,4.000000,4.000000,100.000000
1602006382.744107,14.000000,0.000000,4095.384521,4104.615234,4112.307617,4103.077148,4135.384766,4137.436035,4135.384766,4123.589844,4139.487305,4154.358887,4134.358887,4136.410156,4133.846191,4127.692383,874.000000,4.000000,,,,0.000000,4.000000,4.000000,4.000000,4.000000,4.000000,4.000000,4.000000,4.000000,4.000000,4.000000,4.000000,4.000000,4.000000,4.000000,100.000000
1602006382.751988,15.000000,0.000000,4091.281982,4108.717773,4113.333496,4108.717773,4136.410156,4133.333496,4134.871582,4127.179688,4136.922852,4148.717773,4142.563965,4133.846191,4140.512695,4122.563965,768.000000,4.000000,,,,0.000000,4.000000,4.000000,4.000000,4.000000,4.000000,4.000000,4.000000,4.000000,4.000000,4.000000,4.000000,4.000000,4.000000,4.000000,100.000000
1602006382.759870,16.000000,0.000000,4110.256348,4121.538574,4122.051270,4113.846191,4142.051270,4144.615234,4136.410156,4140.000000,4134.358887,4155.897461,4161.025879,4140.000000,4158.974121,4143.077148,0.000000,4.000000,,,,0.000000,4.000000,4.000000,4.000000,4.000000,4.000000,4.000000,4.000000,4.000000,4.000000,4.000000,4.000000,4.000000,4.000000,4.000000,100.000000
1602006382.767751,17.000000,0.000000,4116.922852,4125.641113,4126.153809,4112.820313,4142.563965,4152.307617,4139.487305,4142.051270,4138.461426,4166.666504,4169.743652,4143.077148,4160.000000,4159.487305,0.000000,4.000000,,,,0.000000,4.000000,4.000000,4.000000,4.000000,4.000000,4.000000,4.000000,4.000000,4.000000,4.000000,4.000000,4.000000,4.000000,4.000000,100.000000
1602006382.775733,18.000000,0.000000,4115.384766,4121.538574,4123.589844,4115.384766,4137.948730,4140.512695,4136.922852,4136.922852,4131.794922,4146.153809,4153.846191,4142.051270,4150.256348,4155.897461,0.000000,4.000000,,,,0.000000,4.000000,4.000000,4.000000,4.000000,4.000000,4.000000,4.000000,4.000000,4.000000,4.000000,4.000000,4.000000,4.000000,4.000000,100.000000
1602006382.783614,19.000000,0.000000,4122.563965,4121.538574,4123.077148,4124.102539,4136.922852,4134.358887,4133.846191,4137.948730,4119.487305,4126.153809,4144.102539,4141.025879,4151.282227,4149.743652,0.000000,4.000000,,,,0.000000,4.000000,4.000000,4.000000,4.000000,4.000000,4.000000,4.000000,4.000000,4.000000,4.000000,4.000000,4.000000,4.000000,4.000000,100.000000
1602006382.791496,20.000000,0.000000,4122.563965,4125.641113,4127.692383,4127.179688,4141.025879,4144.102539,4137.436035,4142.051270,4132.820313,4144.615234,4157.436035,4142.051270,4159.487305,4157.948730,0.000000,4.000000,,,,0.000000,4.000000,4.000000,4.000000,4.000000,4.000000,4.000000,4.000000,4.000000,4.000000,4.000000,4.000000,4.000000,4.000000,4.000000,100.000000
1602006382.799378,21.000000,0.000000,4110.769043,4117.436035,4125.128418,4113.846191,4135.897461,4141.025879,4135.384766,4136.410156,4144.102539,4161.538574,4153.846191,4136.922852,4156.922852,4155.897461,0.000000,4.000000,,,,0.000000,4.000000,4.000000,4.000000,4.000000,4.000000,4.000000,4.000000,4.000000,4.000000,4.000000,4.000000,4.000000,4.000000,4.000000,100.000000
1602006382.807259,22.000000,0.000000,4105.128418,4100.000000,4119.487305,4102.051270,4123.589844,4127.179688,4124.102539,4123.589844,4129.743652,4149.230957,4138.461426,4131.794922,4143.077148,4138.461426,0.000000,4.000000,,,,0.000000,4.000000,4.000000,4.000000,4.000000,4.000000,4.000000,4.000000,4.000000,4.000000,4.000000,4.000000,4.000000,4.000000,4.000000,100.000000
1602006382.815141,23.000000,0.000000,4106.666504,4096.410156,4122.563965,4104.615234,4120.000000,4122.563965,4121.025879,4120.000000,4123.589844,4135.897461,4137.948730,4134.358887,4133.333496,4141.025879,0.000000,4.000000,,,,0.000000,4.000000,4.000000,4.000000,4.000000,4.000000,4.000000,4.000000,4.000000,4.000000,4.000000,4.000000,4.000000,4.000000,4.000000,100.000000
1602006382.823023,24.000000,0.000000,4106.153809,4105.641113,4127.179688,4107.179688,4124.102539,4122.051270,4128.717773,4131.282227,4137.436035,4140.000000,4144.102539,4137.436035,4135.897461,4152.307617,0.000000,4.000000,,,,0.000000,4.000000,4.000000,4.000000,4.000000,4.000000,4.000000,4.000000,4.000000,4.000000,4.000000,4.000000,4.000000,4.000000,4.000000,100.000000
1602006382.830904,25.000000,0.000000,4105.128418,4107.179688,4124.102539,4104.615234,4125.128418,4124.615234,4136.410156,4140.000000,4144.615234,4146.666504,4143.077148,4137.948730,4139.487305,4145.641113,0.000000,4.000000,,,,0.000000,4.000000,4.000000,4.000000,4.000000,4.000000,4.000000,4.000000,4.000000,4.000000,4.000000,4.000000,4.000000,4.000000,4.000000,100.000000
1602006382.838885,26.000000,0.000000,4108.717773,4104.615234,4121.025879,4105.128418,4123.077148,4128.205078,4136.922852,4138.461426,4134.871582,4137.948730,4140.000000,4139.487305,4138.974121,4137.948730,0.000000,4.000000,,,,0.000000,4.000000,4.000000,4.000000,4.000000,4.000000,4.000000,4.000000,4.000000,4.000000,4.000000,4.000000,4.000000,4.000000,4.000000,100.000000
1602006382.846767,27.000000,0.000000,4110.256348,4106.153809,4124.102539,4108.717773,4122.563965,4128.205078,4130.769043,4134.871582,4123.077148,4129.743652,4139.487305,4142.051270,4138.974121,4144.615234,0.000000,4.000000,,,,0.000000,4.000000,4.000000,4.000000,4.000000,4.000000,4.000000,4.000000,4.000000,4.000000,4.000000,4.000000,4.000000,4.000000,4.000000,100.000000
1602006382.854648,28.000000,0.000000,4113.333496,4106.666504,4131.282227,4110.769043,4127.179688,4130.769043,4126.666504,4133.333496,4125.641113,4144.615234,4139.487305,4146.666504,4141.025879,4149.230957,0.000000,4.000000,,,,0.000000,4.000000,4.000000,4.000000,4.000000,4.000000,4.000000,4.000000,4.000000,4.000000,4.000000,4.000000,4.000000,4.000000,4.000000,100.000000
1602006382.862529,29.000000,0.000000,4125.128418,4115.897461,4137.436035,4110.769043,4137.436035,4138.461426,4131.794922,4135.384766,4134.358887,4153.333496,4139.487305,4152.820313,4143.077148,4152.307617,0.000000,4.000000,,,,0.000000,4.000000,4.000000,4.000000,4.000000,4.000000,4.000000,4.000000,4.000000,4.000000,4.000000,4.000000,4.000000,4.000000,4.000000,100.000000
1602006382.870310,30.000000,0.000000,4128.717773,4124.615234,4142.051270,4114.871582,4140.000000,4135.897461,4138.461426,4137.436035,4132.307617,4137.436035,4138.974121,4156.922852,4141.538574,4155.384766,0.000000,4.000000,,,,0.000000,4.000000,4.000000,4.000000,4.000000,4.000000,4.000000,4.000000,4.000000,4.000000,4.000000,4.000000,4.000000,4.000000,4.000000,100.000000
1602006382.878192,31.000000,0.000000,4114.871582,4119.487305,4139.487305,4121.538574,4133.846191,4123.589844,4133.333496,4135.897461,4129.230957,4134.871582,4143.077148,4156.410156,4141.025879,4148.205078,0.000000,4.000000,,,,0.000000,4.000000,4.000000,4.000000,4.000000,4.000000,4.000000,4.000000,4.000000,4.000000,4.000000,4.000000,4.000000,4.000000,4.000000,100.000000
1602006382.886073,32.000000,0.000000,4095.897461,4105.128418,4121.538574,4114.358887,4124.102539,4116.410156,4123.077148,4128.717773,4127.692383,4146.153809,4140.000000,4142.051270,4136.922852,4137.948730,0.000000,4.000000,,,,0.000000,4.000000,4.000000,4.000000,4.000000,4.000000,4.000000,4.000000,4.000000,4.000000,4.000000,4.000000,4.000000,4.000000,4.000000,100.000000
1602006382.893955,33.000000,0.000000,4088.205078,4089.743652,4102.563965,4095.897461,4115.384766,4111.282227,4117.948730,4120.512695,4113.846191,4133.333496,4118.974121,4121.025879,4116.410156,4121.538574,0.000000,4.000000,,,,0.000000,4.000000,4.000000,4.000000,4.000000,4.000000,4.000000,4.000000,4.000000,4.000000,4.000000,4.000000,4.000000,4.000000,4.000000,100.000000
1602006382.901836,34.000000,0.000000,4089.743652,4089.743652,4105.641113,4092.307617,4116.410156,4107.692383,4113.846191,4119.487305,4109.743652,4115.384766,4111.282227,4120.512695,4103.589844,4107.692383,0.000000,4.000000,,,,0.000000,4.000000,4.000000,4.000000,4.000000,4.000000,4.000000,4.000000,4.000000,4.000000,4.000000,4.000000,4.000000,4.000000,4.000000,100.000000
1602006382.909717,35.000000,0.000000,4092.820557,4103.589844,4120.512695,4104.615234,4122.563965,4112.820313,4110.256348,4121.538574,4124.102539,4127.179688,4128.717773,4136.410156,4121.025879,4126.666504,0.000000,4.000000,,,,0.000000,4.000000,4.000000,4.000000,4.000000,4.000000,4.000000,4.000000,4.000000,4.000000,4.000000,4.000000,4.000000,4.000000,4.000000,100.000000
1602006382.917599,36.000000,0.000000,4100.512695,4108.717773,4125.128418,4107.179688,4124.102539,4123.077148,4114.358887,4126.666504,4126.666504,4137.436035,4142.051270,4145.128418,4137.948730,4154.358887,0.000000,4.000000,,,,0.000000,4.000000,4.000000,4.000000,4.000000,4.000000,4.000000,4.000000,4.000000,4.000000,4.000000,4.000000,4.000000,4.000000,4.000000,100.000000
1602006382.925480,37.000000,0.000000,4116.410156,4109.743652,4126.153809,4104.615234,4128.717773,4130.769043,4126.153809,4136.922852,4120.512695,4136.922852,4146.666504,4148.717773,4141.538574,4154.358887,0.000000,4.000000,,,,0.000000,4.000000,4.000000,4.000000,4.000000,4.000000,4.000000,4.000000,4.000000,4.000000,4.000000,4.000000,4.000000,4.000000,4.000000,100.000000
1602006382.933461,38.000000,0.000000,4129.230957,4123.589844,4130.769043,4113.333496,4138.974121,4137.436035,4136.922852,4141.025879,4124.615234,4148.717773,4154.358887,4155.897461,4149.743652,4151.282227,0.000000,4.000000,,,,0.000000,4.000000,4.000000,4.000000,4.000000,4.000000,4.000000,4.000000,4.000000,4.000000,4.000000,4.000000,4.000000,4.000000,4.000000,100.000000
1602006382.941342,39.000000,0.000000,4121.538574,4126.153809,4127.179688,4116.410156,4142.051270,4140.000000,4141.025879,4133.333496,4131.282227,4154.871582,4146.153809,4153.846191,4148.205078,4156.922852,0.000000,4.000000,,,,0.000000,4.000000,4.000000,4.000000,4.000000,4.000000,4.000000,4.000000,4.000000,4.000000,4.000000,4.000000,4.000000,4.000000,4.000000,100.000000
1602006382.949224,40.000000,0.000000,4107.179688,4109.230957,4115.384766,4107.179688,4137.436035,4138.461426,4145.641113,4130.256348,4124.102539,4143.077148,4122.563965,4141.538574,4129.743652,4144.615234,0.000000,4.000000,,,,0.000000,4.000000,4.000000,4.000000,4.000000,4.000000,4.000000,4.000000,4.000000,4.000000,4.000000,4.000000,4.000000,4.000000,4.000000,100.000000
1602006382.957105,41.000000,0.000000,4106.666504,4103.589844,4114.358887,4107.179688,4131.794922,4139.487305,4152.820313,4135.897461,4118.974121,4135.384766,4119.487305,4135.897461,4118.461426,4130.769043,0.000000,4.000000,,,,0.000000,4.000000,4.000000,4.000000,4.000000,4.000000,4.000000,4.000000,4.000000,4.000000,4.000000,4.000000,4.000000,4.000000,4.000000,100.000000
1602006382.964986,42.000000,0.000000,4112.820313,4114.871582,4122.051270,4111.794922,4127.179688,4137.436035,4149.743652,4137.948730,4126.153809,4135.384766,4126.153809,4138.461426,4125.128418,4136.922852,0.000000,4.000000,,,,0.000000,4.000000,4.000000,4.000000,4.000000,4.000000,4.000000,4.000000,4.000000,4.000000,4.000000,4.000000,4.000000,4.000000,4.000000,100.000000
1602006382.972868,43.000000,0.000000,4116.922852,4121.025879,4124.615234,4107.692383,4132.307617,4130.256348,4140.512695,4138.974121,4130.256348,4129.743652,4124.615234,4141.025879,4135.897461,4143.077148,0.000000,4.000000,,,,0.000000,4.000000,4.000000,4.000000,4.000000,4.000000,4.000000,4.000000,4.000000,4.000000,4.000000,4.000000,4.000000,4.000000,4.000000,100.000000
1602006382.980750,44.000000,0.000000,4122.051270,4121.538574,4124.615234,4108.717773,4135.897461,4123.589844,4134.871582,4136.922852,4125.128418,4133.846191,4129.230957,4142.051270,4139.487305,4138.974121,0.000000,4.000000,,,,0.000000,4.000000,4.000000,4.000000,4.000000,4.000000,4.000000,4.000000,4.000000,4.000000,4.000000,4.000000,4.000000,4.000000,4.000000,100.000000
1602006382.988631,45.000000,0.000000,4118.461426,4122.051270,4122.563965,4112.307617,4130.256348,4111.282227,4122.563965,4127.692383,4125.128418,4147.179688,4135.897461,4145.128418,4134.871582,4138.461426,0.000000,4.000000,,,,0.000000,4.000000,4.000000,4.000000,4.000000,4.000000,4.000000,4.000000,4.000000,4.000000,4.000000,4.000000,4.000000,4.000000,4.000000,100.000000
1602006382.996513,46.000000,0.000000,4108.205078,4122.051270,4122.051270,4110.769043,4129.230957,4100.512695,4110.769043,4127.179688,4129.230957,4148.717773,4136.922852,4150.256348,4142.051270,4148.717773,0.000000,4.000000,,,,0.000000,4.000000,4.000000,4.000000,4.000000,4.000000,4.000000,4.000000,4.000000,4.000000,4.000000,4.000000,4.000000,4.000000,4.000000,100.000000
1602006383.004395,47.000000,0.000000,4106.666504,4123.077148,4123.077148,4111.794922,4136.410156,4106.153809,4113.846191,4136.922852,4127.692383,4141.538574,4136.922852,4154.358887,4156.922852,4160.512695,0.000000,4.000000,,,,0.000000,4.000000,4.000000,4.000000,4.000000,4.000000,4.000000,4.000000,4.000000,4.000000,4.000000,4.000000,4.000000,4.000000,4.000000,100.000000
1602006383.012276,48.000000,0.000000,4104.615234,4121.025879,4109.743652,4110.256348,4136.410156,4115.897461,4115.897461,4132.307617,4120.000000,4135.384766,4130.256348,4145.128418,4146.666504,4152.820313,0.000000,4.000000,,,,0.000000,4.000000,4.000000,4.000000,4.000000,4.000000,4.000000,4.000000,4.000000,4.000000,4.000000,4.000000,4.000000,4.000000,4.000000,100.000000
1602006383.020158,49.000000,0.000000,4092.820557,4112.820313,4091.794922,4102.563965,4126.153809,4115.897461,4115.384766,4113.333496,4111.282227,4123.589844,4113.846191,4128.717773,4124.102539,4128.205078,0.000000,4.000000,,,,0.000000,4.000000,4.000000,4.000000,4.000000,4.000000,4.000000,4.000000,4.000000,4.000000,4.000000,4.000000,4.000000,4.000000,4.000000,100.000000
1602006383.028040,50.000000,0.000000,4085.641113,4111.794922,4093.333252,4102.563965,4124.615234,4117.436035,4118.974121,4108.717773,4110.256348,4114.871582,4108.717773,4130.256348,4118.461426,4115.897461,0.000000,4.000000,,,,0.000000,4.000000,4.000000,4.000000,4.000000,4.000000,4.000000,4.000000,4.000000,4.000000,4.000000,4.000000,4.000000,4.000000,4.000000,100.000000
1602006383.036021,51.000000,0.000000,4094.358887,4121.025879,4107.179688,4108.205078,4133.333496,4130.256348,4127.179688,4117.948730,4115.897461,4124.102539,4125.641113,4139.487305,4127.692383,4124.615234,0.000000,4.000000,,,,0.000000,4.000000,4.000000,4.000000,4.000000,4.000000,4.000000,4.000000,4.000000,4.000000,4.000000,4.000000,4.000000,4.000000,4.000000,100.000000
1602006383.043902,52.000000,0.000000,4113.333496,4125.641113,4116.922852,4109.230957,4142.563965,4142.563965,4133.846191,4124.102539,4128.717773,4140.000000,4142.563965,4143.077148,4137.436035,4130.769043,0.000000,4.000000,,,,0.000000,4.000000,4.000000,4.000000,4.000000,4.000000,4.000000,4.000000,4.000000,4.000000,4.000000,4.000000,4.000000,4.000000,4.000000,100.000000
1602006383.051784,53.000000,0.000000,4119.487305,4123.589844,4115.384766,4107.179688,4140.512695,4137.436035,4130.769043,4126.666504,4137.436035,4146.153809,4139.487305,4147.179688,4141.025879,4120.512695,0.000000,4.000000,,,,0.000000,4.000000,4.000000,4.000000,4.000000,4.000000,4.000000,4.000000,4.000000,4.000000,4.000000,4.000000,4.000000,4.000000,4.000000,100.000000
1602006383.059665,54.000000,0.000000,4110.769043,4121.538574,4107.179688,4106.153809,4129.743652,4126.153809,4126.666504,4129.230957,4130.256348,4141.538574,4129.230957,4154.358887,4135.384766,4120.000000,0.000000,4.000000,,,,0.000000,4.000000,4.000000,4.000000,4.000000,4.000000,4.000000,4.000000,4.000000,4.000000,4.000000,4.000000,4.000000,4.000000,4.000000,100.000000
1602006383.067546,55.000000,0.000000,4103.077148,4118.461426,4103.589844,4105.641113,4124.102539,4123.077148,4130.256348,4131.282227,4122.051270,4121.538574,4126.153809,4152.820313,4129.743652,4132.820313,0.000000,4.000000,,,,0.000000,4.000000,4.000000,4.000000,4.000000,4.000000,4.000000,4.000000,4.000000,4.000000,4.000000,4.000000,4.000000,4.000000,4.000000,100.000000
1602006383.075428,56.000000,0.000000,4098.461426,4114.358887,4104.102539,4106.666504,4120.512695,4113.846191,4128.205078,4128.205078,4121.538574,4100.000000,4114.871582,4143.589844,4124.102539,4119.487305,0.000000,4.000000,,,,0.000000,4.000000,4.000000,4.000000,4.000000,4.000000,4.000000,4.000000,4.000000,4.000000,4.000000,4.000000,4.000000,4.000000,4.000000,100.000000
1602006383.083309,57.000000,0.000000,4093.846191,4114.358887,4107.692383,4111.794922,4118.974121,4106.666504,4118.461426,4124.615234,4115.897461,4104.102539,4107.179688,4140.000000,4115.897461,4101.025879,0.000000,4.000000,,,,0.000000,4.000000,4.000000,4.000000,4.000000,4.000000,4.000000,4.000000,4.000000,4.000000,4.000000,4.000000,4.000000,4.000000,4.000000,100.000000
1602006383.091091,58.000000,0.000000,4103.077148,4124.615234,4117.436035,4120.000000,4128.717773,4126.153809,4128.205078,4124.615234,4112.820313,4124.615234,4124.615234,4145.641113,4124.102539,4118.974121,0.000000,4.000000,,,,0.000000,4.000000,4.000000,4.000000,4.000000,4.000000,4.000000,4.000000,4.000000,4.000000,4.000000,4.000000,4.000000,4.000000,4.000000,100.000000
1602006383.098972,59.000000,0.000000,4128.717773,4138.974121,4129.743652,4124.102539,4141.538574,4143.589844,4141.538574,4126.153809,4123.589844,4128.205078,4140.512695,4150.769043,4142.051270,4144.615234,0.000000,4.000000,,,,0.000000,4.000000,4.000000,4.000000,4.000000,4.000000,4.000000,4.000000,4.000000,4.000000,4.000000,4.000000,4.000000,4.000000,4.000000,100.000000
1602006383.106854,60.000000,0.000000,4140.000000,4140.512695,4129.743652,4121.025879,4140.000000,4134.358887,4132.307617,4124.102539,4124.102539,4117.948730,4138.974121,4147.692383,4140.512695,4149.230957,0.000000,4.000000,,,,0.000000,4.000000,4.000000,4.000000,4.000000,4.000000,4.000000,4.000000,4.000000,4.000000,4.000000,4.000000,4.000000,4.000000,4.000000,100.000000
1602006383.114735,61.000000,0.000000,4132.820313,4136.922852,4126.153809,4121.538574,4134.358887,4129.230957,4128.205078,4121.538574,4121.538574,4123.589844,4138.974121,4152.820313,4137.436035,4152.307617,0.000000,4.000000,,,,0.000000,4.000000,4.000000,4.000000,4.000000,4.000000,4.000000,4.000000,4.000000,4.000000,4.000000,4.000000,4.000000,4.000000,4.000000,100.000000
1602006383.122616,62.000000,0.000000,4133.846191,4136.922852,4126.666504,4123.589844,4135.897461,4130.769043,4135.897461,4121.538574,4128.205078,4136.922852,4141.025879,4165.128418,4153.333496,4160.512695,0.000000,4.000000,,,,0.000000,4.000000,4.000000,4.000000,4.000000,4.000000,4.000000,4.000000,4.000000,4.000000,4.000000,4.000000,4.000000,4.000000,4.000000,100.000000
1602006383.130498,63.000000,0.000000,4142.051270,4130.256348,4127.692383,4116.410156,4132.307617,4125.128418,4138.974121,4123.589844,4125.641113,4138.461426,4135.384766,4163.589844,4156.410156,4156.410156,0.000000,4.000000,,,,0.000000,4.000000,4.000000,4.000000,4.000000,4.000000,4.000000,4.000000,4.000000,4.000000,4.000000,4.000000,4.000000,4.000000,4.000000,100.000000
1602006383.138479,64.000000,0.000000,4128.717773,4121.538574,4129.230957,4107.179688,4125.641113,4131.282227,4137.948730,4129.743652,4120.512695,4142.051270,4132.820313,4151.282227,4139.487305,4144.102539,779.000000,4.000000,,,,0.000000,4.000000,4.000000,4.000000,4.000000,4.000000,4.000000,4.000000,4.000000,4.000000,4.000000,4.000000,4.000000,4.000000,4.000000,100.000000
1602006383.146360,65.000000,0.000000,4101.538574,4114.871582,4122.051270,4104.102539,4123.077148,4136.410156,4133.846191,4129.743652,4124.102539,4138.974121,4132.307617,4133.846191,4125.641113,4128.717773,788.000000,4.000000,,,,0.000000,4.000000,4.000000,4.000000,4.000000,4.000000,4.000000,4.000000,4.000000,4.000000,4.000000,4.000000,4.000000,4.000000,4.000000,100.000000
1602006383.154242,66.000000,0.000000,4095.897461,4106.153809,4108.717773,4105.128418,4121.025879,4124.102539,4123.589844,4123.077148,4123.589844,4126.153809,4125.128418,4118.461426,4120.000000,4112.307617,852.000000,4.000000,,,,0.000000,4.000000,4.000000,4.000000,4.000000,4.000000,4.000000,4.000000,4.000000,4.000000,4.000000,4.000000,4.000000,4.000000,4.000000,100.000000
1602006383.162123,67.000000,0.000000,4105.641113,4107.179688,4109.743652,4104.615234,4123.077148,4126.666504,4122.563965,4123.077148,4117.948730,4136.410156,4115.384766,4122.563965,4117.948730,4101.025879,867.000000,4.000000,,,,0.000000,4.000000,4.000000,4.000000,4.000000,4.000000,4.000000,4.000000,4.000000,4.000000,4.000000,4.000000,4.000000,4.000000,4.000000,100.000000
1602006383.170005,68.000000,0.000000,4107.179688,4120.000000,4121.538574,4104.102539,4130.769043,4139.487305,4123.589844,4127.692383,4120.000000,4174.358887,4115.384766,4144.102539,4121.538574,4111.794922,809.000000,4.000000,,,,0.000000,4.000000,4.000000,4.000000,4.000000,4.000000,4.000000,4.000000,4.000000,4.000000,4.000000,4.000000,4.000000,4.000000,4.000000,100.000000
1602006383.177886,69.000000,0.000000,4111.794922,4126.666504,4126.153809,4112.820313,4137.436035,4131.282227,4114.358887,4129.230957,4130.256348,4197.436035,4129.230957,4156.410156,4130.256348,4137.948730,824.000000,4.000000,,,,0.000000,4.000000,4.000000,4.000000,4.000000,4.000000,4.000000,4.000000,4.000000,4.000000,4.000000,4.000000,4.000000,4.000000,4.000000,100.000000
1602006383.185667,70.000000,0.000000,4123.077148,4126.666504,4123.589844,4123.589844,4135.384766,4119.487305,4113.333496,4129.230957,4137.436035,4199.487305,4135.384766,4157.436035,4136.922852,4141.538574,769.000000,4.000000,,,,0.000000,4.000000,4.000000,4.000000,4.000000,4.000000,4.000000,4.000000,4.000000,4.000000,4.000000,4.000000,4.000000,4.000000,4.000000,100.000000
1602006383.193548,71.000000,0.000000,4126.666504,4127.179688,4120.000000,4119.487305,4129.743652,4124.615234,4120.512695,4127.179688,4137.948730,4210.256348,4126.666504,4154.871582,4138.461426,4133.333496,658.000000,4.000000,,,,0.000000,4.000000,4.000000,4.000000,4.000000,4.000000,4.000000,4.000000,4.000000,4.000000,4.000000,4.000000,4.000000,4.000000,4.000000,100.000000
1602006383.201429,72.000000,0.000000,4119.487305,4124.615234,4111.282227,4114.871582,4126.666504,4125.128418,4120.512695,4124.102539,4134.871582,4223.077148,4122.051270,4143.589844,4136.410156,4139.487305,787.000000,4.000000,,,,0.000000,4.000000,4.000000,4.000000,4.000000,4.000000,4.000000,4.000000,4.000000,4.000000,4.000000,4.000000,4.000000,4.000000,4.000000,100.000000
1602006383.209210,73.000000,0.000000,4113.846191,4124.102539,4111.282227,4117.948730,4126.666504,4120.000000,4118.974121,4130.769043,4130.769043,4223.077148,4127.692383,4133.333496,4137.436035,4141.538574,840.000000,4.000000,,,,0.000000,4.000000,4.000000,4.000000,4.000000,4.000000,4.000000,4.000000,4.000000,4.000000,4.000000,4.000000,4.000000,4.000000,4.000000,100.000000
1602006383.217091,74.000000,0.000000,4117.948730,4126.153809,4121.025879,4114.358887,4125.128418,4128.205078,4122.563965,4135.384766,4126.153809,4215.384766,4127.692383,4131.282227,4136.410156,4128.205078,874.000000,4.000000,,,,0.000000,4.000000,4.000000,4.000000,4.000000,4.000000,4.000000,4.000000,4.000000,4.000000,4.000000,4.000000,4.000000,4.000000,4.000000,100.000000
1602006383.224872,75.000000,0.000000,4121.538574,4123.589844,4119.487305,4106.666504,4123.077148,4139.487305,4130.769043,4127.692383,4124.102539,4215.384766,4123.077148,4130.769043,4126.666504,4119.487305,825.000000,4.000000,,,,0.000000,4.000000,4.000000,4.000000,4.000000,4.000000,4.000000,4.000000,4.000000,4.000000,4.000000,4.000000,4.000000,4.000000,4.000000,100.000000
1602006383.232753,76.000000,0.000000,4112.820313,4117.436035,4108.205078,4105.641113,4121.025879,4132.820313,4131.794922,4118.461426,4121.025879,4214.358887,4118.461426,4125.641113,4118.461426,4111.282227,768.000000,4.000000,,,,0.000000,4.000000,4.000000,4.000000,4.000000,4.000000,4.000000,4.000000,4.000000,4.000000,4.000000,4.000000,4.000000,4.000000,4.000000,100.000000
1602006383.240634,77.000000,0.000000,4100.000000,4116.410156,4104.102539,4108.717773,4121.025879,4121.025879,4123.077148,4118.461426,4121.025879,4213.846191,4120.000000,4122.563965,4118.974121,4102.051270,739.000000,4.000000,,,,0.000000,4.000000,4.000000,4.000000,4.000000,4.000000,4.000000,4.000000,4.000000,4.000000,4.000000,4.000000,4.000000,4.000000,4.000000,100.000000
1602006383.248415,78.000000,0.000000,4108.205078,4123.077148,4107.179688,4117.948730,4132.307617,4131.282227,4118.461426,4123.077148,4129.743652,4228.717773,4121.538574,4130.769043,4124.102539,4113.846191,874.000000,4.000000,,,,0.000000,4.000000,4.000000,4.000000,4.000000,4.000000,4.000000,4.000000,4.000000,4.000000,4.000000,4.000000,4.000000,4.000000,4.000000,100.000000
1602006383.256297,79.000000,0.000000,4121.025879,4129.743652,4107.692383,4123.077148,4141.538574,4142.051270,4121.538574,4118.461426,4129.230957,4230.256348,4109.230957,4141.025879,4123.589844,4126.153809,825.000000,4.000000,,,,0.000000,4.000000,4.000000,4.000000,4.000000,4.000000,4.000000,4.000000,4.000000,4.000000,4.000000,4.000000,4.000000,4.000000,4.000000,100.000000
1602006383.264178,80.000000,0.000000,4117.436035,4127.692383,4106.666504,4119.487305,4139.487305,4132.307617,4122.051270,4107.692383,4118.461426,4219.487305,4105.128418,4137.436035,4120.512695,4120.512695,768.000000,4.000000,,,,0.000000,4.000000,4.000000,4.000000,4.000000,4.000000,4.000000,4.000000,4.000000,4.000000,4.000000,4.000000,4.000000,4.000000,4.000000,100.000000
1602006383.272059,81.000000,0.000000,4105.641113,4122.563965,4103.077148,4119.487305,4136.410156,4123.077148,4115.897461,4108.717773,4117.436035,4235.384766,4120.512695,4126.153809,4119.487305,4118.461426,739.000000,4.000000,,,,0.000000,4.000000,4.000000,4.000000,4.000000,4.000000,4.000000,4.000000,4.000000,4.000000,4.000000,4.000000,4.000000,4.000000,4.000000,100.000000
1602006383.279941,82.000000,0.000000,4104.615234,4126.153809,4100.000000,4121.025879,4136.410156,4123.077148,4111.794922,4119.487305,4123.589844,4254.358887,4129.230957,4126.666504,4121.538574,4124.102539,874.000000,4.000000,,,,0.000000,4.000000,4.000000,4.000000,4.000000,4.000000,4.000000,4.000000,4.000000,4.000000,4.000000,4.000000,4.000000,4.000000,4.000000,100.000000
