Timestamp,EEG.Counter,EEG.Interpolated,EEG.AF3,EEG.F7,EEG.F3,EEG.FC5,EEG.T7,EEG.P7,EEG.O1,EEG.O2,EEG.P8,EEG.T8,EEG.FC6,EEG.F4,EEG.F8,EEG.AF4,EEG.RawCq,EEG.Battery,MarkerIndex,MarkerType,MarkerValueInt,EEG.MarkerHardware,CQ.AF3,CQ.F7,CQ.F3,CQ.FC5,CQ.T7,CQ.P7,CQ.O1,CQ.O2,CQ.P8,CQ.T8,CQ.FC6,CQ.F4,CQ.F8,CQ.AF4,CQ.Overall
1602006394.281929,59.000000,0.000000,4130.256348,4139.487305,4130.256348,4134.871582,4122.051270,4132.307617,4133.846191,4124.615234,4105.641113,4131.794922,4129.743652,4140.000000,4112.307617,4122.563965,0.000000,4.000000,,,,0.000000,4.000000,4.000000,4.000000,4.000000,4.000000,4.000000,4.000000,4.000000,4.000000,4.000000,4.000000,4.000000,4.000000,4.000000,100.000000
1602006394.289911,60.000000,0.000000,4121.538574,4135.897461,4126.666504,4129.230957,4112.307617,4122.563965,4124.102539,4128.717773,4126.153809,4119.487305,4123.589844,4140.000000,4117.436035,4128.205078,0.000000,4.000000,,,,0.000000,4.000000,4.000000,4.000000,4.000000,4.000000,4.000000,4.000000,4.000000,4.000000,4.000000,4.000000,4.000000,4.000000,4.000000,100.000000
1602006394.297792,61.000000,0.000000,4121.025879,4131.282227,4125.641113,4123.077148,4113.333496,4118.461426,4126.666504,4138.461426,4152.820313,4129.230957,4126.153809,4138.974121,4121.025879,4137.948730,0.000000,4.000000,,,,0.000000,4.000000,4.000000,4.000000,4.000000,4.000000,4.000000,4.000000,4.000000,4.000000,4.000000,4.000000,4.000000,4.000000,4.000000,100.000000
1602006394.305674,62.000000,0.000000,4127.179688,4128.205078,4123.589844,4122.051270,4122.563965,4125.641113,4135.897461,4140.000000,4156.410156,4143.077148,4136.410156,4142.563965,4123.077148,4122.563965,0.000000,4.000000,,,,0.000000,4.000000,4.000000,4.000000,4.000000,4.000000,4.000000,4.000000,4.000000,4.000000,4.000000,4.000000,4.000000,4.000000,4.000000,100.000000
1602006394.313556,63.000000,0.000000,4120.512695,4132.820313,4122.051270,4122.051270,4125.128418,4136.922852,4131.282227,4130.256348,4144.615234,4136.922852,4130.256348,4135.384766,4122.563965,4108.717773,0.000000,4.000000,,,,0.000000,4.000000,4.000000,4.000000,4.000000,4.000000,4.000000,4.000000,4.000000,4.000000,4.000000,4.000000,4.000000,4.000000,4.000000,100.000000
1602006394.321437,64.000000,0.000000,4106.666504,4131.794922,4122.051270,4120.512695,4123.077148,4143.077148,4121.538574,4122.563965,4134.358887,4123.589844,4117.436035,4129.230957,4112.820313,4116.410156,793.000000,4.000000,,,,0.000000,4.000000,4.000000,4.000000,4.000000,4.000000,4.000000,4.000000,4.000000,4.000000,4.000000,4.000000,4.000000,4.000000,4.000000,100.000000
1602006394.329319,65.000000,0.000000,4112.307617,4126.153809,4121.538574,4123.077148,4122.563965,4143.589844,4121.538574,4122.563965,4124.615234,4122.563965,4119.487305,4136.410156,4103.589844,4126.666504,788.000000,4.000000,,,,0.000000,4.000000,4.000000,4.000000,4.000000,4.000000,4.000000,4.000000,4.000000,4.000000,4.000000,4.000000,4.000000,4.000000,4.000000,100.000000
1602006394.337201,66.000000,0.000000,4124.615234,4129.743652,4123.589844,4128.717773,4123.077148,4142.051270,4124.615234,4121.025879,4114.358887,4122.563965,4126.666504,4140.000000,4105.128418,4124.615234,848.000000,4.000000,,,,0.000000,4.000000,4.000000,4.000000,4.000000,4.000000,4.000000,4.000000,4.000000,4.000000,4.000000,4.000000,4.000000,4.000000,4.000000,100.000000
1602006394.345082,67.000000,0.000000,4114.871582,4129.743652,4124.615234,4125.641113,4122.563965,4138.461426,4122.563965,4117.436035,4106.666504,4112.307617,4124.615234,4135.384766,4110.256348,4116.410156,867.000000,4.000000,,,,0.000000,4.000000,4.000000,4.000000,4.000000,4.000000,4.000000,4.000000,4.000000,4.000000,4.000000,4.000000,4.000000,4.000000,4.000000,100.000000
1602006394.352964,68.000000,0.000000,4105.641113,4127.692383,4121.538574,4122.563965,4123.077148,4134.358887,4126.666504,4120.000000,4110.769043,4113.333496,4122.563965,4134.871582,4120.000000,4116.410156,809.000000,4.000000,,,,0.000000,4.000000,4.000000,4.000000,4.000000,4.000000,4.000000,4.000000,4.000000,4.000000,4.000000,4.000000,4.000000,4.000000,4.000000,100.000000
1602006394.360946,69.000000,0.000000,4121.538574,4134.871582,4122.563965,4132.820313,4123.077148,4129.743652,4133.333496,4127.179688,4121.025879,4129.743652,4122.563965,4137.948730,4122.563965,4124.102539,824.000000,4.000000,,,,0.000000,4.000000,4.000000,4.000000,4.000000,4.000000,4.000000,4.000000,4.000000,4.000000,4.000000,4.000000,4.000000,4.000000,4.000000,100.000000
1602006394.368827,70.000000,0.000000,4135.384766,4136.410156,4129.743652,4135.897461,4122.563965,4121.538574,4130.256348,4129.230957,4123.589844,4137.436035,4128.205078,4135.897461,4113.846191,4123.589844,772.000000,4.000000,,,,0.000000,4.000000,4.000000,4.000000,4.000000,4.000000,4.000000,4.000000,4.000000,4.000000,4.000000,4.000000,4.000000,4.000000,4.000000,100.000000
1602006394.376709,71.000000,0.000000,4135.897461,4131.282227,4134.358887,4124.615234,4123.077148,4117.436035,4122.563965,4129.230957,4123.077148,4137.948730,4140.000000,4135.897461,4116.922852,4118.974121,675.000000,4.000000,,,,0.000000,4.000000,4.000000,4.000000,4.000000,4.000000,4.000000,4.000000,4.000000,4.000000,4.000000,4.000000,4.000000,4.000000,4.000000,100.000000
1602006394.384590,72.000000,0.000000,4138.461426,4134.871582,4137.948730,4125.641113,4124.102539,4116.410156,4122.051270,4127.179688,4125.641113,4133.846191,4134.871582,4142.563965,4126.666504,4129.743652,787.000000,4.000000,,,,0.000000,4.000000,4.000000,4.000000,4.000000,4.000000,4.000000,4.000000,4.000000,4.000000,4.000000,4.000000,4.000000,4.000000,4.000000,100.000000
1602006394.392472,73.000000,0.000000,4143.077148,4138.461426,4138.974121,4138.974121,4123.589844,4112.307617,4123.077148,4123.589844,4124.615234,4124.102539,4118.974121,4145.641113,4124.615234,4138.461426,834.000000,4.000000,,,,0.000000,4.000000,4.000000,4.000000,4.000000,4.000000,4.000000,4.000000,4.000000,4.000000,4.000000,4.000000,4.000000,4.000000,4.000000,100.000000
1602006394.400354,74.000000,0.000000,4136.922852,4134.871582,4128.717773,4140.512695,4119.487305,4114.358887,4120.512695,4119.487305,4120.512695,4120.512695,4125.641113,4142.051270,4122.051270,4132.307617,874.000000,4.000000,,,,0.000000,4.000000,4.000000,4.000000,4.000000,4.000000,4.000000,4.000000,4.000000,4.000000,4.000000,4.000000,4.000000,4.000000,4.000000,100.000000
1602006394.408235,75.000000,0.000000,4124.615234,4135.897461,4120.512695,4135.384766,4119.487305,4122.563965,4120.512695,4114.358887,4113.333496,4114.871582,4140.000000,4137.436035,4123.589844,4127.179688,841.000000,4.000000,,,,0.000000,4.000000,4.000000,4.000000,4.000000,4.000000,4.000000,4.000000,4.000000,4.000000,4.000000,4.000000,4.000000,4.000000,4.000000,100.000000
1602006394.416117,76.000000,0.000000,4121.538574,4137.948730,4123.077148,4132.307617,4123.589844,4125.128418,4121.025879,4111.282227,4107.179688,4108.205078,4128.717773,4136.410156,4121.025879,4124.615234,770.000000,4.000000,,,,0.000000,4.000000,4.000000,4.000000,4.000000,4.000000,4.000000,4.000000,4.000000,4.000000,4.000000,4.000000,4.000000,4.000000,4.000000,100.000000
1602006394.423999,77.000000,0.000000,4126.666504,4136.922852,4122.563965,4128.205078,4124.102539,4122.051270,4121.538574,4115.897461,4115.897461,4126.153809,4116.410156,4136.410156,4119.487305,4121.538574,740.000000,4.000000,,,,0.000000,4.000000,4.000000,4.000000,4.000000,4.000000,4.000000,4.000000,4.000000,4.000000,4.000000,4.000000,4.000000,4.000000,4.000000,100.000000
1602006394.431880,78.000000,0.000000,4122.563965,4135.384766,4118.974121,4125.641113,4124.102539,4121.025879,4122.563965,4125.128418,4129.230957,4144.615234,4123.589844,4136.922852,4122.051270,4122.563965,874.000000,4.000000,,,,0.000000,4.000000,4.000000,4.000000,4.000000,4.000000,4.000000,4.000000,4.000000,4.000000,4.000000,4.000000,4.000000,4.000000,4.000000,100.000000
1602006394.439661,79.000000,0.000000,4117.948730,4136.410156,4123.077148,4125.128418,4125.641113,4121.025879,4125.128418,4125.641113,4129.743652,4130.256348,4127.692383,4137.436035,4122.051270,4121.538574,841.000000,4.000000,,,,0.000000,4.000000,4.000000,4.000000,4.000000,4.000000,4.000000,4.000000,4.000000,4.000000,4.000000,4.000000,4.000000,4.000000,4.000000,100.000000
1602006394.447542,80.000000,0.000000,4126.153809,4137.948730,4124.102539,4126.153809,4125.128418,4121.025879,4126.666504,4120.512695,4123.077148,4120.512695,4122.563965,4136.922852,4121.538574,4120.000000,770.000000,4.000000,,,,0.000000,4.000000,4.000000,4.000000,4.000000,4.000000,4.000000,4.000000,4.000000,4.000000,4.000000,4.000000,4.000000,4.000000,4.000000,100.000000
1602006394.455324,81.000000,0.000000,4131.282227,4133.846191,4118.974121,4130.256348,4121.538574,4117.436035,4122.051270,4121.025879,4127.179688,4126.666504,4123.077148,4138.461426,4122.563965,4120.512695,740.000000,4.000000,,,,0.000000,4.000000,4.000000,4.000000,4.000000,4.000000,4.000000,4.000000,4.000000,4.000000,4.000000,4.000000,4.000000,4.000000,4.000000,100.000000
1602006394.463205,82.000000,0.000000,4123.589844,4131.794922,4117.436035,4132.307617,4120.512695,4111.794922,4117.948730,4122.563965,4136.410156,4125.128418,4125.128418,4141.538574,4122.051270,4122.051270,874.000000,4.000000,,,,0.000000,4.000000,4.000000,4.000000,4.000000,4.000000,4.000000,4.000000,4.000000,4.000000,4.000000,4.000000,4.000000,4.000000,4.000000,100.000000
1602006394.471087,83.000000,0.000000,4118.974121,4133.846191,4121.025879,4127.692383,4118.974121,4110.769043,4120.512695,4121.025879,4135.897461,4127.179688,4125.128418,4144.615234,4121.538574,4127.692383,841.000000,4.000000,,,,0.000000,4.000000,4.000000,4.000000,4.000000,4.000000,4.000000,4.000000,4.000000,4.000000,4.000000,4.000000,4.000000,4.000000,4.000000,100.000000
1602006394.478968,84.000000,0.000000,4125.128418,4128.205078,4129.743652,4125.128418,4112.820313,4107.692383,4122.051270,4122.051270,4128.205078,4138.974121,4125.641113,4140.512695,4123.589844,4132.307617,770.000000,4.000000,,,,0.000000,4.000000,4.000000,4.000000,4.000000,4.000000,4.000000,4.000000,4.000000,4.000000,4.000000,4.000000,4.000000,4.000000,4.000000,100.000000
1602006394.486849,85.000000,0.000000,4126.153809,4121.025879,4137.436035,4126.153809,4112.820313,4110.256348,4128.717773,4128.205078,4124.102539,4143.077148,4120.512695,4135.897461,4123.589844,4125.128418,740.000000,4.000000,,,,0.000000,4.000000,4.000000,4.000000,4.000000,4.000000,4.000000,4.000000,4.000000,4.000000,4.000000,4.000000,4.000000,4.000000,4.000000,100.000000
1602006394.494731,86.000000,0.000000,4120.512695,4129.743652,4137.436035,4125.128418,4122.563965,4123.077148,4140.000000,4132.820313,4129.230957,4132.820313,4119.487305,4137.948730,4121.538574,4122.051270,874.000000,4.000000,,,,0.000000,4.000000,4.000000,4.000000,4.000000,4.000000,4.000000,4.000000,4.000000,4.000000,4.000000,4.000000,4.000000,4.000000,4.000000,100.000000
1602006394.502512,87.000000,0.000000,4124.102539,4139.487305,4134.871582,4123.077148,4127.179688,4126.153809,4134.871582,4130.256348,4134.358887,4125.128418,4133.846191,4137.948730,4123.589844,4129.743652,841.000000,4.000000,,,,0.000000,4.000000,4.000000,4.000000,4.000000,4.000000,4.000000,4.000000,4.000000,4.000000,4.000000,4.000000,4.000000,4.000000,4.000000,100.000000
1602006394.510393,88.000000,0.000000,4137.436035,4141.538574,4136.922852,4133.333496,4126.153809,4122.051270,4124.615234,4128.205078,4140.512695,4130.256348,4142.051270,4142.051270,4133.333496,4136.410156,770.000000,4.000000,,,,0.000000,4.000000,4.000000,4.000000,4.000000,4.000000,4.000000,4.000000,4.000000,4.000000,4.000000,4.000000,4.000000,4.000000,4.000000,100.000000
1602006394.518274,89.000000,0.000000,4144.102539,4143.589844,4143.589844,4147.179688,4134.358887,4130.256348,4124.615234,4127.692383,4148.717773,4147.179688,4132.307617,4151.794922,4136.410156,4138.974121,740.000000,4.000000,,,,0.000000,4.000000,4.000000,4.000000,4.000000,4.000000,4.000000,4.000000,4.000000,4.000000,4.000000,4.000000,4.000000,4.000000,4.000000,100.000000
1602006394.526156,90.000000,0.000000,4132.820313,4144.615234,4140.512695,4140.000000,4139.487305,4132.307617,4119.487305,4117.948730,4138.974121,4145.641113,4124.102539,4147.692383,4127.179688,4130.769043,874.000000,4.000000,,,,0.000000,4.000000,4.000000,4.000000,4.000000,4.000000,4.000000,4.000000,4.000000,4.000000,4.000000,4.000000,4.000000,4.000000,4.000000,100.000000
1602006394.534137,91.000000,0.000000,4121.025879,4140.512695,4128.205078,4125.641113,4134.871582,4120.512695,4113.846191,4107.179688,4108.205078,4117.948730,4132.307617,4136.410156,4120.000000,4120.000000,841.000000,4.000000,,,,0.000000,4.000000,4.000000,4.000000,4.000000,4.000000,4.000000,4.000000,4.000000,4.000000,4.000000,4.000000,4.000000,4.000000,4.000000,100.000000
1602006394.542018,92.000000,0.000000,4121.025879,4136.410156,4120.512695,4123.077148,4134.358887,4117.436035,4121.538574,4105.128418,4092.820557,4109.743652,4134.358887,4135.897461,4122.563965,4126.153809,770.000000,4.000000,,,,0.000000,4.000000,4.000000,4.000000,4.000000,4.000000,4.000000,4.000000,4.000000,4.000000,4.000000,4.000000,4.000000,4.000000,4.000000,100.000000
1602006394.549900,93.000000,0.000000,4124.615234,4135.897461,4122.563965,4126.666504,4135.384766,4120.000000,4126.153809,4106.153809,4101.538574,4124.102539,4123.077148,4138.461426,4123.589844,4126.666504,740.000000,4.000000,,,,0.000000,4.000000,4.000000,4.000000,4.000000,4.000000,4.000000,4.000000,4.000000,4.000000,4.000000,4.000000,4.000000,4.000000,4.000000,100.000000
1602006394.557781,94.000000,0.000000,4123.589844,4136.922852,4129.743652,4126.666504,4130.769043,4121.025879,4123.077148,4112.307617,4109.743652,4128.205078,4115.384766,4135.384766,4120.512695,4116.922852,874.000000,4.000000,,,,0.000000,4.000000,4.000000,4.000000,4.000000,4.000000,4.000000,4.000000,4.000000,4.000000,4.000000,4.000000,4.000000,4.000000,4.000000,100.000000
1602006394.565662,95.000000,0.000000,4123.589844,4138.461426,4137.436035,4128.205078,4126.153809,4125.128418,4128.205078,4125.641113,4112.820313,4129.230957,4120.000000,4136.922852,4122.563965,4126.666504,841.000000,4.000000,,,,0.000000,4.000000,4.000000,4.000000,4.000000,4.000000,4.000000,4.000000,4.000000,4.000000,4.000000,4.000000,4.000000,4.000000,4.000000,100.000000
1602006394.573544,96.000000,0.000000,4130.256348,4136.922852,4139.487305,4128.717773,4127.179688,4124.615234,4130.256348,4129.743652,4126.153809,4145.128418,4123.077148,4144.102539,4129.743652,4140.512695,770.000000,4.000000,,,,0.000000,4.000000,4.000000,4.000000,4.000000,4.000000,4.000000,4.000000,4.000000,4.000000,4.000000,4.000000,4.000000,4.000000,4.000000,100.000000
1602006394.581425,97.000000,0.000000,4135.897461,4141.538574,4136.922852,4128.205078,4133.846191,4127.179688,4125.128418,4128.717773,4147.692383,4151.794922,4123.589844,4152.307617,4136.410156,4137.436035,740.000000,4.000000,,,,0.000000,4.000000,4.000000,4.000000,4.000000,4.000000,4.000000,4.000000,4.000000,4.000000,4.000000,4.000000,4.000000,4.000000,4.000000,100.000000
1602006394.589307,98.000000,0.000000,4138.461426,4153.846191,4138.974121,4134.871582,4141.538574,4143.589844,4126.153809,4130.769043,4153.333496,4138.974121,4133.846191,4151.794922,4140.512695,4140.512695,874.000000,4.000000,,,,0.000000,4.000000,4.000000,4.000000,4.000000,4.000000,4.000000,4.000000,4.000000,4.000000,4.000000,4.000000,4.000000,4.000000,4.000000,100.000000
1602006394.597088,99.000000,0.000000,4134.358887,4153.333496,4135.384766,4142.563965,4143.077148,4153.333496,4129.743652,4130.256348,4145.641113,4140.512695,4137.436035,4142.563965,4136.922852,4145.128418,841.000000,4.000000,,,,0.000000,4.000000,4.000000,4.000000,4.000000,4.000000,4.000000,4.000000,4.000000,4.000000,4.000000,4.000000,4.000000,4.000000,4.000000,100.000000
1602006394.604969,100.000000,0.000000,4125.641113,4141.025879,4123.077148,4138.461426,4138.974121,4142.563965,4124.615234,4121.025879,4143.589844,4145.128418,4125.641113,4135.384766,4127.692383,4130.256348,770.000000,4.000000,,,,0.000000,4.000000,4.000000,4.000000,4.000000,4.000000,4.000000,4.000000,4.000000,4.000000,4.000000,4.000000,4.000000,4.000000,4.000000,100.000000
1602006394.612850,101.000000,0.000000,4121.025879,4136.410156,4117.436035,4127.179688,4134.871582,4125.641113,4114.871582,4106.153809,4136.922852,4122.051270,4117.436035,4128.205078,4120.512695,4116.922852,740.000000,4.000000,,,,0.000000,4.000000,4.000000,4.000000,4.000000,4.000000,4.000000,4.000000,4.000000,4.000000,4.000000,4.000000,4.000000,4.000000,4.000000,100.000000
1602006394.620731,102.000000,0.000000,4120.000000,4137.436035,4121.538574,4127.692383,4134.358887,4122.563965,4116.922852,4101.538574,4120.000000,4104.615234,4121.538574,4125.641113,4119.487305,4118.974121,874.000000,4.000000,,,,0.000000,4.000000,4.000000,4.000000,4.000000,4.000000,4.000000,4.000000,4.000000,4.000000,4.000000,4.000000,4.000000,4.000000,4.000000,100.000000
1602006394.628613,103.000000,0.000000,4126.153809,4143.077148,4125.128418,4138.461426,4138.974121,4140.512695,4130.256348,4113.846191,4122.051270,4131.282227,4121.025879,4134.358887,4123.077148,4123.589844,841.000000,4.000000,,,,0.000000,4.000000,4.000000,4.000000,4.000000,4.000000,4.000000,4.000000,4.000000,4.000000,4.000000,4.000000,4.000000,4.000000,4.000000,100.000000
1602006394.636594,104.000000,0.000000,4128.717773,4142.563965,4124.102539,4136.410156,4141.538574,4154.358887,4141.538574,4125.641113,4136.922852,4160.000000,4110.769043,4136.922852,4127.179688,4124.102539,770.000000,4.000000,,,,0.000000,4.000000,4.000000,4.000000,4.000000,4.000000,4.000000,4.000000,4.000000,4.000000,4.000000,4.000000,4.000000,4.000000,4.000000,100.000000
1602006394.644475,105.000000,0.000000,4110.769043,4121.538574,4121.025879,4118.974121,4131.794922,4144.615234,4143.077148,4129.230957,4136.410156,4152.307617,4106.153809,4126.666504,4121.025879,4118.974121,740.000000,4.000000,,,,0.000000,4.000000,4.000000,4.000000,4.000000,4.000000,4.000000,4.000000,4.000000,4.000000,4.000000,4.000000,4.000000,4.000000,4.000000,100.000000
1602006394.652357,106.000000,0.000000,4101.538574,4114.358887,4121.538574,4115.384766,4122.051270,4131.794922,4140.000000,4134.358887,4133.846191,4143.077148,4107.692383,4124.102539,4110.769043,4116.922852,874.000000,4.000000,,,,0.000000,4.000000,4.000000,4.000000,4.000000,4.000000,4.000000,4.000000,4.000000,4.000000,4.000000,4.000000,4.000000,4.000000,4.000000,100.000000
1602006394.660238,107.000000,0.000000,4132.820313,4142.563965,4126.666504,4131.794922,4125.128418,4135.897461,4138.461426,4139.487305,4141.538574,4138.974121,4113.333496,4133.846191,4113.333496,4126.153809,841.000000,4.000000,,,,0.000000,4.000000,4.000000,4.000000,4.000000,4.000000,4.000000,4.000000,4.000000,4.000000,4.000000,4.000000,4.000000,4.000000,4.000000,100.000000
1602006394.668119,108.000000,0.000000,4158.461426,4161.025879,4127.692383,4141.538574,4129.230957,4140.000000,4135.897461,4135.384766,4135.897461,4125.641113,4115.897461,4136.922852,4113.846191,4126.153809,770.000000,4.000000,,,,0.000000,4.000000,4.000000,4.000000,4.000000,4.000000,4.000000,4.000000,4.000000,4.000000,4.000000,4.000000,4.000000,4.000000,4.000000,100.000000
1602006394.676001,109.000000,0.000000,4151.794922,4156.410156,4128.205078,4138.461426,4131.282227,4139.487305,4130.256348,4126.153809,4120.512695,4122.051270,4106.666504,4130.256348,4098.461426,4110.256348,740.000000,4.000000,,,,0.000000,4.000000,4.000000,4.000000,4.000000,4.000000,4.000000,4.000000,4.000000,4.000000,4.000000,4.000000,4.000000,4.000000,4.000000,100.000000
1602006394.683882,110.000000,0.000000,4148.717773,4155.384766,4133.846191,4136.922852,4132.820313,4134.871582,4124.102539,4121.025879,4117.948730,4117.948730,4092.307617,4127.179688,4089.230713,4101.025879,874.000000,4.000000,,,,0.000000,4.000000,4.000000,4.000000,4.000000,4.000000,4.000000,4.000000,4.000000,4.000000,4.000000,4.000000,4.000000,4.000000,4.000000,100.000000
1602006394.691764,111.000000,0.000000,4158.461426,4156.410156,4137.948730,4138.974121,4132.307617,4126.666504,4124.102539,4125.128418,4118.461426,4106.153809,4091.794922,4134.358887,4093.333252,4106.666504,841.000000,4.000000,,,,0.000000,4.000000,4.000000,4.000000,4.000000,4.000000,4.000000,4.000000,4.000000,4.000000,4.000000,4.000000,4.000000,4.000000,4.000000,100.000000
1602006394.699545,112.000000,0.000000,4157.948730,4154.871582,4135.897461,4140.512695,4132.820313,4126.666504,4123.589844,4127.692383,4107.179688,4110.769043,4100.512695,4140.000000,4092.307617,4113.333496,770.000000,4.000000,,,,0.000000,4.000000,4.000000,4.000000,4.000000,4.000000,4.000000,4.000000,4.000000,4.000000,4.000000,4.000000,4.000000,4.000000,4.000000,100.000000
1602006394.707427,113.000000,0.000000,4153.333496,4155.897461,4133.333496,4138.974121,4135.897461,4129.230957,4121.025879,4124.615234,4105.641113,4130.769043,4104.615234,4138.461426,4091.794922,4118.461426,740.000000,4.000000,,,,0.000000,4.000000,4.000000,4.000000,4.000000,4.000000,4.000000,4.000000,4.000000,4.000000,4.000000,4.000000,4.000000,4.000000,4.000000,100.000000
1602006394.715309,114.000000,0.000000,4154.871582,4156.410156,4136.922852,4137.948730,4135.897461,4124.615234,4126.153809,4131.282227,4122.563965,4142.051270,4107.179688,4140.000000,4102.563965,4126.153809,874.000000,4.000000,,,,0.000000,4.000000,4.000000,4.000000,4.000000,4.000000,4.000000,4.000000,4.000000,4.000000,4.000000,4.000000,4.000000,4.000000,4.000000,100.000000
1602006394.723190,115.000000,0.000000,4153.846191,4154.358887,4138.974121,4139.487305,4133.846191,4121.538574,4128.717773,4137.436035,4130.256348,4133.846191,4106.666504,4141.538574,4108.717773,4130.256348,841.000000,4.000000,,,,0.000000,4.000000,4.000000,4.000000,4.000000,4.000000,4.000000,4.000000,4.000000,4.000000,4.000000,4.000000,4.000000,4.000000,4.000000,100.000000
1602006394.731072,116.000000,0.000000,4149.743652,4154.871582,4131.794922,4142.563965,4134.871582,4126.153809,4124.615234,4136.922852,4124.615234,4125.128418,4104.615234,4135.384766,4104.102539,4125.641113,770.000000,4.000000,,,,0.000000,4.000000,4.000000,4.000000,4.000000,4.000000,4.000000,4.000000,4.000000,4.000000,4.000000,4.000000,4.000000,4.000000,4.000000,100.000000
1602006394.738954,117.000000,0.000000,4151.282227,4164.102539,4129.230957,4143.077148,4137.948730,4129.230957,4129.230957,4137.436035,4133.846191,4138.974121,4107.692383,4128.717773,4105.641113,4114.358887,740.000000,4.000000,,,,0.000000,4.000000,4.000000,4.000000,4.000000,4.000000,4.000000,4.000000,4.000000,4.000000,4.000000,4.000000,4.000000,4.000000,4.000000,100.000000
1602006394.746835,118.000000,0.000000,4151.282227,4167.692383,4136.410156,4141.025879,4138.974121,4128.717773,4134.358887,4133.333496,4142.563965,4161.538574,4106.666504,4125.641113,4107.179688,4110.256348,874.000000,4.000000,,,,0.000000,4.000000,4.000000,4.000000,4.000000,4.000000,4.000000,4.000000,4.000000,4.000000,4.000000,4.000000,4.000000,4.000000,4.000000,100.000000
1602006394.754717,119.000000,0.000000,4143.077148,4158.461426,4136.922852,4136.410156,4133.846191,4124.102539,4130.769043,4128.717773,4134.871582,4150.256348,4104.615234,4128.717773,4105.641113,4114.871582,841.000000,4.000000,,,,0.000000,4.000000,4.000000,4.000000,4.000000,4.000000,4.000000,4.000000,4.000000,4.000000,4.000000,4.000000,4.000000,4.000000,4.000000,100.000000
1602006394.762599,120.000000,0.000000,4143.589844,4152.307617,4132.820313,4135.384766,4128.205078,4121.025879,4133.333496,4136.410156,4131.794922,4131.282227,4117.436035,4141.025879,4114.871582,4120.512695,770.000000,4.000000,,,,0.000000,4.000000,4.000000,4.000000,4.000000,4.000000,4.000000,4.000000,4.000000,4.000000,4.000000,4.000000,4.000000,4.000000,4.000000,100.000000
1602006394.770380,121.000000,0.000000,4155.897461,4155.384766,4138.974121,4140.000000,4128.205078,4128.717773,4141.538574,4143.589844,4134.871582,4145.641113,4125.128418,4151.794922,4117.436035,4129.230957,740.000000,4.000000,,,,0.000000,4.000000,4.000000,4.000000,4.000000,4.000000,4.000000,4.000000,4.000000,4.000000,4.000000,4.000000,4.000000,4.000000,4.000000,100.000000
1602006394.778261,122.000000,0.000000,4167.692383,4161.025879,4145.128418,4144.615234,4127.692383,4137.436035,4140.512695,4140.512695,4132.307617,4157.436035,4114.871582,4153.333496,4113.333496,4138.461426,874.000000,4.000000,,,,0.000000,4.000000,4.000000,4.000000,4.000000,4.000000,4.000000,4.000000,4.000000,4.000000,4.000000,4.000000,4.000000,4.000000,4.000000,100.000000
1602006394.786143,123.000000,0.000000,4172.820313,4166.666504,4143.589844,4146.153809,4127.692383,4137.436035,4139.487305,4141.025879,4129.743652,4142.051270,4113.333496,4155.384766,4117.436035,4140.512695,841.000000,4.000000,,,,0.000000,4.000000,4.000000,4.000000,4.000000,4.000000,4.000000,4.000000,4.000000,4.000000,4.000000,4.000000,4.000000,4.000000,4.000000,100.000000
1602006394.794024,124.000000,0.000000,4166.666504,4164.615234,4143.077148,4145.128418,4127.692383,4133.333496,4142.051270,4144.615234,4128.205078,4131.282227,4124.615234,4160.000000,4116.922852,4138.974121,770.000000,4.000000,,,,0.000000,4.000000,4.000000,4.000000,4.000000,4.000000,4.000000,4.000000,4.000000,4.000000,4.000000,4.000000,4.000000,4.000000,4.000000,100.000000
1602006394.801906,125.000000,0.000000,4155.897461,4156.922852,4143.589844,4142.051270,4125.641113,4127.692383,4138.461426,4141.025879,4123.589844,4140.000000,4121.025879,4156.410156,4109.230957,4136.410156,740.000000,4.000000,,,,0.000000,4.000000,4.000000,4.000000,4.000000,4.000000,4.000000,4.000000,4.000000,4.000000,4.000000,4.000000,4.000000,4.000000,4.000000,100.000000
1602006394.809787,126.000000,0.000000,4149.743652,4156.410156,4141.538574,4139.487305,4123.589844,4122.051270,4134.358887,4132.307617,4121.538574,4146.666504,4109.743652,4144.615234,4107.692383,4127.692383,874.000000,4.000000,,,,0.000000,4.000000,4.000000,4.000000,4.000000,4.000000,4.000000,4.000000,4.000000,4.000000,4.000000,4.000000,4.000000,4.000000,4.000000,100.000000
1602006394.817668,127.000000,0.000000,4142.051270,4153.846191,4133.333496,4140.000000,4123.077148,4120.512695,4135.384766,4128.205078,4121.025879,4145.128418,4108.717773,4136.922852,4107.179688,4117.436035,841.000000,4.000000,,,,0.000000,4.000000,4.000000,4.000000,4.000000,4.000000,4.000000,4.000000,4.000000,4.000000,4.000000,4.000000,4.000000,4.000000,4.000000,100.000000
1602006394.825650,128.000000,0.000000,4138.461426,4146.666504,4125.128418,4140.000000,4122.051270,4124.102539,4136.410156,4132.820313,4121.025879,4136.410156,4107.692383,4135.897461,4103.077148,4116.410156,770.000000,4.000000,,,,0.000000,4.000000,4.000000,4.000000,4.000000,4.000000,4.000000,4.000000,4.000000,4.000000,4.000000,4.000000,4.000000,4.000000,4.000000,100.000000
1602006394.833531,0.000000,0.000000,4136.410156,4141.025879,4121.538574,4133.846191,4122.563965,4127.179688,4137.436035,4130.256348,4121.025879,4120.000000,4105.128418,4129.743652,4098.461426,4112.820313,793.000000,4.000000,,,,0.000000,4.000000,4.000000,4.000000,4.000000,4.000000,4.000000,4.000000,4.000000,4.000000,4.000000,4.000000,4.000000,4.000000,4.000000,100.000000
1602006394.841413,1.000000,0.000000,4122.563965,4134.871582,4120.512695,4125.641113,4121.025879,4121.025879,4136.410156,4121.025879,4118.461426,4111.282227,4103.589844,4124.102539,4089.743652,4104.102539,788.000000,4.000000,,,,0.000000,4.000000,4.000000,4.000000,4.000000,4.000000,4.000000,4.000000,4.000000,4.000000,4.000000,4.000000,4.000000,4.000000,4.000000,100.000000
1602006394.849294,2.000000,0.000000,4121.538574,4141.538574,4129.743652,4131.282227,4124.615234,4117.436035,4136.922852,4128.205078,4123.589844,4130.769043,4104.102539,4132.307617,4093.333252,4109.230957,849.000000,4.000000,,,,0.000000,4.000000,4.000000,4.000000,4.000000,4.000000,4.000000,4.000000,4.000000,4.000000,4.000000,4.000000,4.000000,4.000000,4.000000,100.000000
1602006394.857175,3.000000,0.000000,4145.128418,4158.461426,4143.077148,4147.692383,4134.358887,4131.794922,4138.974121,4139.487305,4129.743652,4154.358887,4112.820313,4142.563965,4107.692383,4122.051270,867.000000,4.000000,,,,0.000000,4.000000,4.000000,4.000000,4.000000,4.000000,4.000000,4.000000,4.000000,4.000000,4.000000,4.000000,4.000000,4.000000,4.000000,100.000000
1602006394.865057,4.000000,0.000000,4153.846191,4162.563965,4144.615234,4153.846191,4138.974121,4140.512695,4138.974121,4136.922852,4125.641113,4147.179688,4122.563965,4141.025879,4109.230957,4126.666504,809.000000,4.000000,,,,0.000000,4.000000,4.000000,4.000000,4.000000,4.000000,4.000000,4.000000,4.000000,4.000000,4.000000,4.000000,4.000000,4.000000,4.000000,100.000000
1602006394.872938,5.000000,0.000000,4140.512695,4154.871582,4141.538574,4144.102539,4136.410156,4131.794922,4134.358887,4134.358887,4124.102539,4141.538574,4121.025879,4138.974121,4107.692383,4124.615234,824.000000,4.000000,,,,0.000000,4.000000,4.000000,4.000000,4.000000,4.000000,4.000000,4.000000,4.000000,4.000000,4.000000,4.000000,4.000000,4.000000,4.000000,100.000000
1602006394.880719,6.000000,0.000000,4142.563965,4155.384766,4148.205078,4138.974121,4135.897461,4132.820313,4134.358887,4133.846191,4125.641113,4152.820313,4112.307617,4141.025879,4109.230957,4118.461426,771.000000,4.000000,,,,0.000000,4.000000,4.000000,4.000000,4.000000,4.000000,4.000000,4.000000,4.000000,4.000000,4.000000,4.000000,4.000000,4.000000,4.000000,100.000000
1602006394.888601,7.000000,0.000000,4156.410156,4164.102539,4153.333496,4148.205078,4139.487305,4141.538574,4137.436035,4128.205078,4116.410156,4139.487305,4109.743652,4140.000000,4107.179688,4117.436035,675.000000,4.000000,,,,0.000000,4.000000,4.000000,4.000000,4.000000,4.000000,4.000000,4.000000,4.000000,4.000000,4.000000,4.000000,4.000000,4.000000,4.000000,100.000000
1602006394.896482,8.000000,0.000000,4156.410156,4170.256348,4149.743652,4158.974121,4140.000000,4141.025879,4141.025879,4125.641113,4104.615234,4106.666504,4109.743652,4140.000000,4106.666504,4126.666504,787.000000,4.000000,,,,0.000000,4.000000,4.000000,4.000000,4.000000,4.000000,4.000000,4.000000,4.000000,4.000000,4.000000,4.000000,4.000000,4.000000,4.000000,100.000000
1602006394.904363,9.000000,0.000000,4143.589844,4167.692383,4146.153809,4152.307617,4136.922852,4138.461426,4142.563965,4126.666504,4108.717773,4107.692383,4108.205078,4140.512695,4108.717773,4124.102539,834.000000,4.000000,,,,0.000000,4.000000,4.000000,4.000000,4.000000,4.000000,4.000000,4.000000,4.000000,4.000000,4.000000,4.000000,4.000000,4.000000,4.000000,100.000000
1602006394.912244,10.000000,0.000000,4133.846191,4156.410156,4140.000000,4138.461426,4134.871582,4138.461426,4141.025879,4129.743652,4125.128418,4138.461426,4106.666504,4134.358887,4105.641113,4105.641113,874.000000,4.000000,,,,0.000000,4.000000,4.000000,4.000000,4.000000,4.000000,4.000000,4.000000,4.000000,4.000000,4.000000,4.000000,4.000000,4.000000,4.000000,100.000000
1602006394.920026,11.000000,0.000000,4136.410156,4150.769043,4134.358887,4136.410156,4133.333496,4135.384766,4144.102539,4135.384766,4138.461426,4152.820313,4104.102539,4126.153809,4104.615234,4104.102539,841.000000,4.000000,,,,0.000000,4.000000,4.000000,4.000000,4.000000,4.000000,4.000000,4.000000,4.000000,4.000000,4.000000,4.000000,4.000000,4.000000,4.000000,100.000000
1602006394.927908,12.000000,0.000000,4135.897461,4150.769043,4136.410156,4141.025879,4134.871582,4134.871582,4149.230957,4137.436035,4137.436035,4147.179688,4097.948730,4123.077148,4106.153809,4114.358887,770.000000,4.000000,,,,0.000000,4.000000,4.000000,4.000000,4.000000,4.000000,4.000000,4.000000,4.000000,4.000000,4.000000,4.000000,4.000000,4.000000,4.000000,100.000000
1602006394.935789,13.000000,0.000000,4120.512695,4142.563965,4133.333496,4138.974121,4136.410156,4137.436035,4143.077148,4128.717773,4127.179688,4137.436035,4092.307617,4120.000000,4096.410156,4105.128418,740.000000,4.000000,,,,0.000000,4.000000,4.000000,4.000000,4.000000,4.000000,4.000000,4.000000,4.000000,4.000000,4.000000,4.000000,4.000000,4.000000,4.000000,100.000000
1602006394.943671,14.000000,0.000000,4117.436035,4134.871582,4121.025879,4131.794922,4134.871582,4137.436035,4133.846191,4121.538574,4122.051270,4137.948730,4098.974121,4116.410156,4086.153809,4094.358887,874.000000,4.000000,,,,0.000000,4.000000,4.000000,4.000000,4.000000,4.000000,4.000000,4.000000,4.000000,4.000000,4.000000,4.000000,4.000000,4.000000,4.000000,100.000000
1602006394.951552,15.000000,0.000000,4135.384766,4141.025879,4122.563965,4134.358887,4136.410156,4140.000000,4140.512695,4122.563965,4125.128418,4137.436035,4110.256348,4120.512695,4095.897461,4103.077148,841.000000,4.000000,,,,0.000000,4.000000,4.000000,4.000000,4.000000,4.000000,4.000000,4.000000,4.000000,4.000000,4.000000,4.000000,4.000000,4.000000,4.000000,100.000000
1602006394.959434,16.000000,0.000000,4146.153809,4144.102539,4136.410156,4138.974121,4140.000000,4144.102539,4145.128418,4124.615234,4124.102539,4122.563965,4112.307617,4126.666504,4105.641113,4112.307617,0.000000,4.000000,,,,0.000000,4.000000,4.000000,4.000000,4.000000,4.000000,4.000000,4.000000,4.000000,4.000000,4.000000,4.000000,4.000000,4.000000,4.000000,100.000000
1602006394.967316,17.000000,0.000000,4136.922852,4135.897461,4135.897461,4132.307617,4135.897461,4139.487305,4138.461426,4126.153809,4119.487305,4121.025879,4110.769043,4127.179688,4102.563965,4114.358887,0.000000,4.000000,,,,0.000000,4.000000,4.000000,4.000000,4.000000,4.000000,4.000000,4.000000,4.000000,4.000000,4.000000,4.000000,4.000000,4.000000,4.000000,100.000000
1602006394.975197,18.000000,0.000000,4135.384766,4142.563965,4134.358887,4132.307617,4134.358887,4134.871582,4138.974121,4134.358887,4123.077148,4143.589844,4111.794922,4133.333496,4106.153809,4124.615234,0.000000,4.000000,,,,0.000000,4.000000,4.000000,4.000000,4.000000,4.000000,4.000000,4.000000,4.000000,4.000000,4.000000,4.000000,4.000000,4.000000,4.000000,100.000000
1602006394.983179,19.000000,0.000000,4149.230957,4156.922852,4147.179688,4145.128418,4140.000000,4134.871582,4145.128418,4145.128418,4133.333496,4160.000000,4112.307617,4142.051270,4116.922852,4131.282227,0.000000,4.000000,,,,0.000000,4.000000,4.000000,4.000000,4.000000,4.000000,4.000000,4.000000,4.000000,4.000000,4.000000,4.000000,4.000000,4.000000,4.000000,100.000000
1602006394.991061,20.000000,0.000000,4149.743652,4149.230957,4148.717773,4144.102539,4133.846191,4126.666504,4142.051270,4144.615234,4133.846191,4154.871582,4111.794922,4141.025879,4112.307617,4122.563965,0.000000,4.000000,,,,0.000000,4.000000,4.000000,4.000000,4.000000,4.000000,4.000000,4.000000,4.000000,4.000000,4.000000,4.000000,4.000000,4.000000,4.000000,100.000000
1602006394.998942,21.000000,0.000000,4131.794922,4135.384766,4137.436035,4134.871582,4124.615234,4117.948730,4137.436035,4137.948730,4124.102539,4151.794922,4111.282227,4137.948730,4105.128418,4122.051270,0.000000,4.000000,,,,0.000000,4.000000,4.000000,4.000000,4.000000,4.000000,4.000000,4.000000,4.000000,4.000000,4.000000,4.000000,4.000000,4.000000,4.000000,100.000000
1602006395.006824,22.000000,0.000000,4120.512695,4137.948730,4132.307617,4137.948730,4125.128418,4122.563965,4140.000000,4135.897461,4119.487305,4153.333496,4110.769043,4136.922852,4109.230957,4125.128418,0.000000,4.000000,,,,0.000000,4.000000,4.000000,4.000000,4.000000,4.000000,4.000000,4.000000,4.000000,4.000000,4.000000,4.000000,4.000000,4.000000,4.000000,100.000000
1602006395.014705,23.000000,0.000000,4123.589844,4139.487305,4131.794922,4138.461426,4126.153809,4128.717773,4142.051270,4136.922852,4119.487305,4132.820313,4111.282227,4131.282227,4105.641113,4115.897461,0.000000,4.000000,,,,0.000000,4.000000,4.000000,4.000000,4.000000,4.000000,4.000000,4.000000,4.000000,4.000000,4.000000,4.000000,4.000000,4.000000,4.000000,100.000000
1602006395.022587,24.000000,0.000000,4123.589844,4129.743652,4125.641113,4128.717773,4122.563965,4128.717773,4139.487305,4132.820313,4113.333496,4107.692383,4110.769043,4124.615234,4095.897461,4110.769043,0.000000,4.000000,,,,0.000000,4.000000,4.000000,4.000000,4.000000,4.000000,4.000000,4.000000,4.000000,4.000000,4.000000,4.000000,4.000000,4.000000,4.000000,100.000000
1602006395.030469,25.000000,0.000000,4121.025879,4123.077148,4123.589844,4126.153809,4122.051270,4124.615234,4134.871582,4125.641113,4109.230957,4109.743652,4103.589844,4122.563965,4090.256348,4112.307617,0.000000,4.000000,,,,0.000000,4.000000,4.000000,4.000000,4.000000,4.000000,4.000000,4.000000,4.000000,4.000000,4.000000,4.000000,4.000000,4.000000,4.000000,100.000000
1602006395.038350,26.000000,0.000000,4128.205078,4128.717773,4133.846191,4129.743652,4127.692383,4121.538574,4131.794922,4125.641113,4117.948730,4133.333496,4104.102539,4126.666504,4096.922852,4114.358887,0.000000,4.000000,,,,0.000000,4.000000,4.000000,4.000000,4.000000,4.000000,4.000000,4.000000,4.000000,4.000000,4.000000,4.000000,4.000000,4.000000,4.000000,100.000000
1602006395.046232,27.000000,0.000000,4135.384766,4138.461426,4143.589844,4136.410156,4136.922852,4130.256348,4134.358887,4134.358887,4126.666504,4153.846191,4118.461426,4136.410156,4117.436035,4120.000000,0.000000,4.000000,,,,0.000000,4.000000,4.000000,4.000000,4.000000,4.000000,4.000000,4.000000,4.000000,4.000000,4.000000,4.000000,4.000000,4.000000,4.000000,100.000000
1602006395.054114,28.000000,0.000000,4137.948730,4144.615234,4144.102539,4146.153809,4138.974121,4139.487305,4137.948730,4141.538574,4126.153809,4155.384766,4121.025879,4141.025879,4125.641113,4128.717773,0.000000,4.000000,,,,0.000000,4.000000,4.000000,4.000000,4.000000,4.000000,4.000000,4.000000,4.000000,4.000000,4.000000,4.000000,4.000000,4.000000,4.000000,100.000000
1602006395.061895,29.000000,0.000000,4136.410156,4142.051270,4141.538574,4145.128418,4128.717773,4124.102539,4130.769043,4134.358887,4115.384766,4141.025879,4108.205078,4130.769043,4105.641113,4123.589844,0.000000,4.000000,,,,0.000000,4.000000,4.000000,4.000000,4.000000,4.000000,4.000000,4.000000,4.000000,4.000000,4.000000,4.000000,4.000000,4.000000,4.000000,100.000000
1602006395.069777,30.000000,0.000000,4132.820313,4136.922852,4140.512695,4134.871582,4120.512695,4105.128418,4121.025879,4121.538574,4105.641113,4132.820313,4101.025879,4122.563965,4093.846191,4105.641113,0.000000,4.000000,,,,0.000000,4.000000,4.000000,4.000000,4.000000,4.000000,4.000000,4.000000,4.000000,4.000000,4.000000,4.000000,4.000000,4.000000,4.000000,100.000000
1602006395.077659,31.000000,0.000000,4128.717773,4138.461426,4141.538574,4136.410156,4123.589844,4113.333496,4125.128418,4120.000000,4106.153809,4136.922852,4104.615234,4132.820313,4107.179688,4105.641113,0.000000,4.000000,,,,0.000000,4.000000,4.000000,4.000000,4.000000,4.000000,4.000000,4.000000,4.000000,4.000000,4.000000,4.000000,4.000000,4.000000,4.000000,100.000000
1602006395.085540,32.000000,0.000000,4130.769043,4142.051270,4145.641113,4145.641113,4126.153809,4126.153809,4135.384766,4128.205078,4111.794922,4128.717773,4112.820313,4146.153809,4111.794922,4120.512695,0.000000,4.000000,,,,0.000000,4.000000,4.000000,4.000000,4.000000,4.000000,4.000000,4.000000,4.000000,4.000000,4.000000,4.000000,4.000000,4.000000,4.000000,100.000000
1602006395.093422,33.000000,0.000000,4137.436035,4140.512695,4153.333496,4143.077148,4122.563965,4126.153809,4136.922852,4134.871582,4116.922852,4114.871582,4121.538574,4144.615234,4105.641113,4128.205078,0.000000,4.000000,,,,0.000000,4.000000,4.000000,4.000000,4.000000,4.000000,4.000000,4.000000,4.000000,4.000000,4.000000,4.000000,4.000000,4.000000,4.000000,100.000000
1602006395.101304,34.000000,0.000000,4137.948730,4138.461426,4153.333496,4136.922852,4123.077148,4128.205078,4136.922852,4136.922852,4120.512695,4121.538574,4121.025879,4140.000000,4111.282227,4127.179688,0.000000,4.000000,,,,0.000000,4.000000,4.000000,4.000000,4.000000,4.000000,4.000000,4.000000,4.000000,4.000000,4.000000,4.000000,4.000000,4.000000,4.000000,100.000000
1602006395.109185,35.000000,0.000000,4136.410156,4138.974121,4145.128418,4138.974121,4130.256348,4130.256348,4138.974121,4139.487305,4119.487305,4129.743652,4108.205078,4144.102539,4110.769043,4124.102539,0.000000,4.000000,,,,0.000000,4.000000,4.000000,4.000000,4.000000,4.000000,4.000000,4.000000,4.000000,4.000000,4.000000,4.000000,4.000000,4.000000,4.000000,100.000000
1602006395.117067,36.000000,0.000000,4136.410156,4134.358887,4138.974121,4134.358887,4127.179688,4116.410156,4131.282227,4135.384766,4117.436035,4124.102539,4100.512695,4140.512695,4103.589844,4114.358887,0.000000,4.000000,,,,0.000000,4.000000,4.000000,4.000000,4.000000,4.000000,4.000000,4.000000,4.000000,4.000000,4.000000,4.000000,4.000000,4.000000,4.000000,100.000000
1602006395.124949,37.000000,0.000000,4137.436035,4132.307617,4135.897461,4125.641113,4119.487305,4106.153809,4122.563965,4129.743652,4127.179688,4125.128418,4108.717773,4131.794922,4108.717773,4112.820313,0.000000,4.000000,,,,0.000000,4.000000,4.000000,4.000000,4.000000,4.000000,4.000000,4.000000,4.000000,4.000000,4.000000,4.000000,4.000000,4.000000,4.000000,100.000000
1602006395.132930,38.000000,0.000000,4135.384766,4137.436035,4135.897461,4130.769043,4128.717773,4123.589844,4132.307617,4134.358887,4141.538574,4135.897461,4120.512695,4139.487305,4111.282227,4121.538574,0.000000,4.000000,,,,0.000000,4.000000,4.000000,4.000000,4.000000,4.000000,4.000000,4.000000,4.000000,4.000000,4.000000,4.000000,4.000000,4.000000,4.000000,100.000000
1602006395.140811,39.000000,0.000000,4136.922852,4143.077148,4138.974121,4141.025879,4142.051270,4137.948730,4144.102539,4137.436035,4147.692383,4149.230957,4124.102539,4154.871582,4113.333496,4121.538574,0.000000,4.000000,,,,0.000000,4.000000,4.000000,4.000000,4.000000,4.000000,4.000000,4.000000,4.000000,4.000000,4.000000,4.000000,4.000000,4.000000,4.000000,100.000000
1602006395.148693,40.000000,0.000000,4146.153809,4145.128418,4138.461426,4142.051270,4138.974121,4126.666504,4134.871582,4125.128418,4147.692383,4160.000000,4129.743652,4156.922852,4136.410156,4127.692383,0.000000,4.000000,,,,0.000000,4.000000,4.000000,4.000000,4.000000,4.000000,4.000000,4.000000,4.000000,4.000000,4.000000,4.000000,4.000000,4.000000,4.000000,100.000000
1602006395.156574,41.000000,0.000000,4144.102539,4139.487305,4130.256348,4133.846191,4135.384766,4111.794922,4120.512695,4116.922852,4147.179688,4151.282227,4137.436035,4148.205078,4156.922852,4148.205078,0.000000,4.000000,,,,0.000000,4.000000,4.000000,4.000000,4.000000,4.000000,4.000000,4.000000,4.000000,4.000000,4.000000,4.000000,4.000000,4.000000,4.000000,100.000000
1602006395.164455,42.000000,0.000000,4126.666504,4128.205078,4125.641113,4127.179688,4134.871582,4112.307617,4120.000000,4127.179688,4143.589844,4132.307617,4139.487305,4144.102539,4158.461426,4159.487305,0.000000,4.000000,,,,0.000000,4.000000,4.000000,4.000000,4.000000,4.000000,4.000000,4.000000,4.000000,4.000000,4.000000,4.000000,4.000000,4.000000,4.000000,100.000000
1602006395.172337,43.000000,0.000000,4108.205078,4115.384766,4125.128418,4122.563965,4130.256348,4112.820313,4125.641113,4136.922852,4134.358887,4132.820313,4141.025879,4143.589844,4161.025879,4151.794922,0.000000,4.000000,,,,0.000000,4.000000,4.000000,4.000000,4.000000,4.000000,4.000000,4.000000,4.000000,4.000000,4.000000,4.000000,4.000000,4.000000,4.000000,100.000000
1602006395.180218,44.000000,0.000000,4092.820557,4100.512695,4116.410156,4113.333496,4125.128418,4106.666504,4122.563965,4135.384766,4124.615234,4140.512695,4136.410156,4138.461426,4162.563965,4133.333496,0.000000,4.000000,,,,0.000000,4.000000,4.000000,4.000000,4.000000,4.000000,4.000000,4.000000,4.000000,4.000000,4.000000,4.000000,4.000000,4.000000,4.000000,100.000000
1602006395.187999,45.000000,0.000000,4084.615479,4091.281982,4111.794922,4106.153809,4124.615234,4105.128418,4117.948730,4134.358887,4128.205078,4137.436035,4125.641113,4135.897461,4155.897461,4126.153809,0.000000,4.000000,,,,0.000000,4.000000,4.000000,4.000000,4.000000,4.000000,4.000000,4.000000,4.000000,4.000000,4.000000,4.000000,4.000000,4.000000,4.000000,100.000000
1602006395.195880,46.000000,0.000000,4093.846191,4101.025879,4121.025879,4116.410156,4130.256348,4122.051270,4125.128418,4139.487305,4153.846191,4152.820313,4133.846191,4143.077148,4163.077148,4136.410156,0.000000,4.000000,,,,0.000000,4.000000,4.000000,4.000000,4.000000,4.000000,4.000000,4.000000,4.000000,4.000000,4.000000,4.000000,4.000000,4.000000,4.000000,100.000000
1602006395.203861,47.000000,0.000000,4097.436035,4108.205078,4127.179688,4123.077148,4137.948730,4136.410156,4136.410156,4142.563965,4167.179688,4183.589844,4145.128418,4150.256348,4177.948730,4143.589844,0.000000,4.000000,,,,0.000000,4.000000,4.000000,4.000000,4.000000,4.000000,4.000000,4.000000,4.000000,4.000000,4.000000,4.000000,4.000000,4.000000,4.000000,100.000000
1602006395.211742,48.000000,0.000000,4087.179443,4098.974121,4120.512695,4110.256348,4137.948730,4129.743652,4137.948730,4138.974121,4152.307617,4169.743652,4136.410156,4153.333496,4176.922852,4137.436035,0.000000,4.000000,,,,0.000000,4.000000,4.000000,4.000000,4.000000,4.000000,4.000000,4.000000,4.000000,4.000000,4.000000,4.000000,4.000000,4.000000,4.000000,100.000000
1602006395.219623,49.000000,0.000000,4091.281982,4099.487305,4118.974121,4109.743652,4134.871582,4125.641113,4136.922852,4135.897461,4149.230957,4136.922852,4140.000000,4155.897461,4172.307617,4137.436035,0.000000,4.000000,,,,0.000000,4.000000,4.000000,4.000000,4.000000,4.000000,4.000000,4.000000,4.000000,4.000000,4.000000,4.000000,4.000000,4.000000,4.000000,100.000000
1602006395.227404,50.000000,0.000000,4105.128418,4108.717773,4129.743652,4124.615234,4139.487305,4133.846191,4139.487305,4136.922852,4158.461426,4153.846191,4152.307617,4156.410156,4173.333496,4147.692383,0.000000,4.000000,,,,0.000000,4.000000,4.000000,4.000000,4.000000,4.000000,4.000000,4.000000,4.000000,4.000000,4.000000,4.000000,4.000000,4.000000,4.000000,100.000000
1602006395.235285,51.000000,0.000000,4113.846191,4112.820313,4140.000000,4128.205078,4144.615234,4132.307617,4136.410156,4134.358887,4148.205078,4177.948730,4142.563965,4157.436035,4174.871582,4156.922852,0.000000,4.000000,,,,0.000000,4.000000,4.000000,4.000000,4.000000,4.000000,4.000000,4.000000,4.000000,4.000000,4.000000,4.000000,4.000000,4.000000,4.000000,100.000000
1602006395.243066,52.000000,0.000000,4114.358887,4115.897461,4137.436035,4124.102539,4143.077148,4125.641113,4127.179688,4128.205078,4131.794922,4158.461426,4133.846191,4160.000000,4174.358887,4158.974121,0.000000,4.000000,,,,0.000000,4.000000,4.000000,4.000000,4.000000,4.000000,4.000000,4.000000,4.000000,4.000000,4.000000,4.000000,4.000000,4.000000,4.000000,100.000000
1602006395.250947,53.000000,0.000000,4110.769043,4114.871582,4127.179688,4127.179688,4141.025879,4125.641113,4122.051270,4130.769043,4134.358887,4143.589844,4139.487305,4156.922852,4168.205078,4150.256348,0.000000,4.000000,,,,0.000000,4.000000,4.000000,4.000000,4.000000,4.000000,4.000000,4.000000,4.000000,4.000000,4.000000,4.000000,4.000000,4.000000,4.000000,100.000000
1602006395.258728,54.000000,0.000000,4107.179688,4106.666504,4120.000000,4125.641113,4137.948730,4124.615234,4121.538574,4136.410156,4139.487305,4159.487305,4138.974121,4154.871582,4157.948730,4142.051270,0.000000,4.000000,,,,0.000000,4.000000,4.000000,4.000000,4.000000,4.000000,4.000000,4.000000,4.000000,4.000000,4.000000,4.000000,4.000000,4.000000,4.000000,100.000000
1602006395.266609,55.000000,0.000000,4104.615234,4106.153809,4121.025879,4114.871582,4136.922852,4123.077148,4123.077148,4135.897461,4135.897461,4155.384766,4137.436035,4155.897461,4160.000000,4142.563965,0.000000,4.000000,,,,0.000000,4.000000,4.000000,4.000000,4.000000,4.000000,4.000000,4.000000,4.000000,4.000000,4.000000,4.000000,4.000000,4.000000,4.000000,100.000000
1602006395.274390,56.000000,0.000000,4100.000000,4108.205078,4119.487305,4109.230957,4134.871582,4121.025879,4124.615234,4134.358887,4133.846191,4129.230957,4136.922852,4148.205078,4165.128418,4138.974121,0.000000,4.000000,,,,0.000000,4.000000,4.000000,4.000000,4.000000,4.000000,4.000000,4.000000,4.000000,4.000000,4.000000,4.000000,4.000000,4.000000,4.000000,100.000000
1602006395.282271,57.000000,0.000000,4089.230713,4099.487305,4112.307617,4108.717773,4127.179688,4109.230957,4123.077148,4135.384766,4134.871582,4127.179688,4131.282227,4143.077148,4153.333496,4131.282227,0.000000,4.000000,,,,0.000000,4.000000,4.000000,4.000000,4.000000,4.000000,4.000000,4.000000,4.000000,4.000000,4.000000,4.000000,4.000000,4.000000,4.000000,100.000000
1602006395.290252,58.000000,0.000000,4091.281982,4098.461426,4111.282227,4110.256348,4123.589844,4108.717773,4127.179688,4136.922852,4135.897461,4148.205078,4132.307617,4153.846191,4145.641113,4132.307617,0.000000,4.000000,,,,0.000000,4.000000,4.000000,4.000000,4.000000,4.000000,4.000000,4.000000,4.000000,4.000000,4.000000,4.000000,4.000000,4.000000,4.000000,100.000000
1602006395.298132,59.000000,0.000000,4104.615234,4107.179688,4122.563965,4118.974121,4130.256348,4128.205078,4138.461426,4138.974121,4141.025879,4155.384766,4140.000000,4160.512695,4157.436035,4142.051270,0.000000,4.000000,,,,0.000000,4.000000,4.000000,4.000000,4.000000,4.000000,4.000000,4.000000,4.000000,4.000000,4.000000,4.000000,4.000000,4.000000,4.000000,100.000000
1602006395.306013,60.000000,0.000000,4105.641113,4108.205078,4130.256348,4127.179688,4136.922852,4145.128418,4142.563965,4140.512695,4156.410156,4157.948730,4143.077148,4154.871582,4161.538574,4140.000000,0.000000,4.000000,,,,0.000000,4.000000,4.000000,4.000000,4.000000,4.000000,4.000000,4.000000,4.000000,4.000000,4.000000,4.000000,4.000000,4.000000,4.000000,100.000000
1602006395.313994,61.000000,0.000000,4099.487305,4102.563965,4125.128418,4122.563965,4136.410156,4146.153809,4137.948730,4138.974121,4171.282227,4176.410156,4151.282227,4153.333496,4156.410156,4136.922852,0.000000,4.000000,,,,0.000000,4.000000,4.000000,4.000000,4.000000,4.000000,4.000000,4.000000,4.000000,4.000000,4.000000,4.000000,4.000000,4.000000,4.000000,100.000000
1602006395.321975,62.000000,0.000000,4105.128418,4105.641113,4127.179688,4122.563965,4135.897461,4142.563965,4138.461426,4140.000000,4170.769043,4174.871582,4160.000000,4156.410156,4165.641113,4146.153809,0.000000,4.000000,,,,0.000000,4.000000,4.000000,4.000000,4.000000,4.000000,4.000000,4.000000,4.000000,4.000000,4.000000,4.000000,4.000000,4.000000,4.000000,100.000000
1602006395.329856,63.000000,0.000000,4112.820313,4109.743652,4134.358887,4127.179688,4136.922852,4138.974121,4140.512695,4141.025879,4159.487305,4153.333496,4154.358887,4156.410156,4169.743652,4153.333496,0.000000,4.000000,,,,0.000000,4.000000,4.000000,4.000000,4.000000,4.000000,4.000000,4.000000,4.000000,4.000000,4.000000,4.000000,4.000000,4.000000,4.000000,100.000000
1602006395.337737,64.000000,0.000000,4107.692383,4106.153809,4126.666504,4115.384766,4132.307617,4126.666504,4131.794922,4137.948730,4156.410156,4153.846191,4137.948730,4152.820313,4157.436035,4141.025879,793.000000,4.000000,,,,0.000000,4.000000,4.000000,4.000000,4.000000,4.000000,4.000000,4.000000,4.000000,4.000000,4.000000,4.000000,4.000000,4.000000,4.000000,100.000000
1602006395.345718,65.000000,0.000000,4102.563965,4104.615234,4116.410156,4106.666504,4122.563965,4116.410156,4121.538574,4136.922852,4156.410156,4164.615234,4131.282227,4149.743652,4151.794922,4129.743652,788.000000,4.000000,,,,0.000000,4.000000,4.000000,4.000000,4.000000,4.000000,4.000000,4.000000,4.000000,4.000000,4.000000,4.000000,4.000000,4.000000,4.000000,100.000000
1602006395.353599,66.000000,0.000000,4105.128418,4107.692383,4125.128418,4117.436035,4122.563965,4117.436035,4120.512695,4137.948730,4143.077148,4151.282227,4141.538574,4151.282227,4157.948730,4145.128418,849.000000,4.000000,,,,0.000000,4.000000,4.000000,4.000000,4.000000,4.000000,4.000000,4.000000,4.000000,4.000000,4.000000,4.000000,4.000000,4.000000,4.000000,100.000000
1602006395.361579,67.000000,0.000000,4108.205078,4109.743652,4140.512695,4124.102539,4135.384766,4124.615234,4122.051270,4132.820313,4127.692383,4136.922852,4146.153809,4154.871582,4157.436035,4155.384766,867.000000,4.000000,,,,0.000000,4.000000,4.000000,4.000000,4.000000,4.000000,4.000000,4.000000,4.000000,4.000000,4.000000,4.000000,4.000000,4.000000,4.000000,100.000000
1602006395.369460,68.000000,0.000000,4104.615234,4105.641113,4141.538574,4117.436035,4137.436035,4128.205078,4123.077148,4123.589844,4121.538574,4138.974121,4131.282227,4155.897461,4154.871582,4143.077148,809.000000,4.000000,,,,0.000000,4.000000,4.000000,4.000000,4.000000,4.000000,4.000000,4.000000,4.000000,4.000000,4.000000,4.000000,4.000000,4.000000,4.000000,100.000000
1602006395.377242,69.000000,0.000000,4101.025879,4095.897461,4131.282227,4109.230957,4126.666504,4124.102539,4126.666504,4115.384766,4112.307617,4123.077148,4125.641113,4153.846191,4148.717773,4136.410156,824.000000,4.000000,,,,0.000000,4.000000,4.000000,4.000000,4.000000,4.000000,4.000000,4.000000,4.000000,4.000000,4.000000,4.000000,4.000000,4.000000,4.000000,100.000000
1602006395.385123,70.000000,0.000000,4105.641113,4090.769287,4127.179688,4107.692383,4123.077148,4121.025879,4129.230957,4112.307617,4108.205078,4107.179688,4135.897461,4150.769043,4137.948730,4132.820313,769.000000,4.000000,,,,0.000000,4.000000,4.000000,4.000000,4.000000,4.000000,4.000000,4.000000,4.000000,4.000000,4.000000,4.000000,4.000000,4.000000,4.000000,100.000000
1602006395.393004,71.000000,0.000000,4108.205078,4095.384521,4135.384766,4116.922852,4125.128418,4116.410156,4125.128418,4115.897461,4116.922852,4127.179688,4138.974121,4147.692383,4134.358887,4121.538574,675.000000,4.000000,,,,0.000000,4.000000,4.000000,4.000000,4.000000,4.000000,4.000000,4.000000,4.000000,4.000000,4.000000,4.000000,4.000000,4.000000,4.000000,100.000000
1602006395.400885,72.000000,0.000000,4104.102539,4098.974121,4134.358887,4120.000000,4121.538574,4106.153809,4122.051270,4121.025879,4123.589844,4150.256348,4134.358887,4148.717773,4138.974121,4123.077148,787.000000,4.000000,,,,0.000000,4.000000,4.000000,4.000000,4.000000,4.000000,4.000000,4.000000,4.000000,4.000000,4.000000,4.000000,4.000000,4.000000,4.000000,100.000000
1602006395.408667,73.000000,0.000000,4104.615234,4099.487305,4123.077148,4110.769043,4126.153809,4107.692383,4123.589844,4128.717773,4127.692383,4147.179688,4133.846191,4151.282227,4144.102539,4138.974121,834.000000,4.000000,,,,0.000000,4.000000,4.000000,4.000000,4.000000,4.000000,4.000000,4.000000,4.000000,4.000000,4.000000,4.000000,4.000000,4.000000,4.000000,100.000000
1602006395.416548,74.000000,0.000000,4111.794922,4110.256348,4126.153809,4118.461426,4137.948730,4126.666504,4125.128418,4137.436035,4137.436035,4147.692383,4136.922852,4150.256348,4153.333496,4143.589844,874.000000,4.000000,,,,0.000000,4.000000,4.000000,4.000000,4.000000,4.000000,4.000000,4.000000,4.000000,4.000000,4.000000,4.000000,4.000000,4.000000,4.000000,100.000000
1602006395.424429,75.000000,0.000000,4127.179688,4130.256348,4148.717773,4140.000000,4144.102539,4139.487305,4125.641113,4140.512695,4148.717773,4153.846191,4146.666504,4157.436035,4169.743652,4151.282227,800.000000,4.000000,,,,0.000000,4.000000,4.000000,4.000000,4.000000,4.000000,4.000000,4.000000,4.000000,4.000000,4.000000,4.000000,4.000000,4.000000,4.000000,100.000000
1602006395.432311,76.000000,0.000000,4144.615234,4141.538574,4170.256348,4145.128418,4148.717773,4133.846191,4131.794922,4140.000000,4155.384766,4149.743652,4164.102539,4180.000000,4186.666504,4169.743652,770.000000,4.000000,,,,0.000000,4.000000,4.000000,4.000000,4.000000,4.000000,4.000000,4.000000,4.000000,4.000000,4.000000,4.000000,4.000000,4.000000,4.000000,100.000000
1602006395.440192,77.000000,0.000000,4147.179688,4138.461426,4173.333496,4142.563965,4150.256348,4129.230957,4138.974121,4142.563965,4153.846191,4161.538574,4171.794922,4190.256348,4191.794922,4172.820313,740.000000,4.000000,,,,0.000000,4.000000,4.000000,4.000000,4.000000,4.000000,4.000000,4.000000,4.000000,4.000000,4.000000,4.000000,4.000000,4.000000,4.000000,100.000000
1602006395.448074,78.000000,0.000000,4134.871582,4128.717773,4154.871582,4140.512695,4139.487305,4125.641113,4132.820313,4138.974121,4143.077148,4169.743652,4160.512695,4178.461426,4176.410156,4161.538574,874.000000,4.000000,,,,0.000000,4.000000,4.000000,4.000000,4.000000,4.000000,4.000000,4.000000,4.000000,4.000000,4.000000,4.000000,4.000000,4.000000,4.000000,100.000000
1602006395.455955,79.000000,0.000000,4120.000000,4115.384766,4136.922852,4127.692383,4126.666504,4115.384766,4124.615234,4131.794922,4133.333496,4148.205078,4140.000000,4165.128418,4155.897461,4152.307617,800.000000,4.000000,,,,0.000000,4.000000,4.000000,4.000000,4.000000,4.000000,4.000000,4.000000,4.000000,4.000000,4.000000,4.000000,4.000000,4.000000,4.000000,100.000000
1602006395.463936,80.000000,0.000000,4110.769043,4106.666504,4137.436035,4120.000000,4129.743652,4112.820313,4130.769043,4135.897461,4133.333496,4137.948730,4131.282227,4156.922852,4149.230957,4145.641113,770.000000,4.000000,,,,0.000000,4.000000,4.000000,4.000000,4.000000,4.000000,4.000000,4.000000,4.000000,4.000000,4.000000,4.000000,4.000000,4.000000,4.000000,100.000000
1602006395.471818,81.000000,0.000000,4108.205078,4111.794922,4134.871582,4124.102539,4137.436035,4121.025879,4138.974121,4148.205078,4135.384766,4151.794922,4136.410156,4150.256348,4152.307617,4139.487305,740.000000,4.000000,,,,0.000000,4.000000,4.000000,4.000000,4.000000,4.000000,4.000000,4.000000,4.000000,4.000000,4.000000,4.000000,4.000000,4.000000,4.000000,100.000000
1602006395.479699,82.000000,0.000000,4110.256348,4121.025879,4123.589844,4123.589844,4132.307617,4124.615234,4139.487305,4156.922852,4139.487305,4140.000000,4142.051270,4151.282227,4153.846191,4137.436035,874.000000,4.000000,,,,0.000000,4.000000,4.000000,4.000000,4.000000,4.000000,4.000000,4.000000,4.000000,4.000000,4.000000,4.000000,4.000000,4.000000,4.000000,100.000000
1602006395.487581,83.000000,0.000000,4111.282227,4121.025879,4120.000000,4121.538574,4127.179688,4126.666504,4135.897461,4153.333496,4144.102539,4114.358887,4142.051270,4153.333496,4154.358887,4136.410156,800.000000,4.000000,,,,0.000000,4.000000,4.000000,4.000000,4.000000,4.000000,4.000000,4.000000,4.000000,4.000000,4.000000,4.000000,4.000000,4.000000,4.000000,100.000000
1602006395.495462,84.000000,0.000000,4110.256348,4117.436035,4124.102539,4122.563965,4134.358887,4129.743652,4127.692383,4141.025879,4143.077148,4133.846191,4140.512695,4147.179688,4153.846191,4131.794922,770.000000,4.000000,,,,0.000000,4.000000,4.000000,4.000000,4.000000,4.000000,4.000000,4.000000,4.000000,4.000000,4.000000,4.000000,4.000000,4.000000,4.000000,100.000000
1602006395.503343,85.000000,0.000000,4107.692383,4117.948730,4130.769043,4124.102539,4140.512695,4124.615234,4121.538574,4134.358887,4134.871582,4165.641113,4140.512695,4153.846191,4153.846191,4139.487305,740.000000,4.000000,,,,0.000000,4.000000,4.000000,4.000000,4.000000,4.000000,4.000000,4.000000,4.000000,4.000000,4.000000,4.000000,4.000000,4.000000,4.000000,100.000000
1602006395.511325,86.000000,0.000000,4105.128418,4122.563965,4141.025879,4127.692383,4137.948730,4123.077148,4125.641113,4137.948730,4127.692383,4162.051270,4141.538574,4172.307617,4160.512695,4154.871582,874.000000,4.000000,,,,0.000000,4.000000,4.000000,4.000000,4.000000,4.000000,4.000000,4.000000,4.000000,4.000000,4.000000,4.000000,4.000000,4.000000,4.000000,100.000000
1602006395.519207,87.000000,0.000000,4110.769043,4122.051270,4144.102539,4127.179688,4138.461426,4127.692383,4125.641113,4138.974121,4126.666504,4145.128418,4140.000000,4169.230957,4158.974121,4154.358887,800.000000,4.000000,,,,0.000000,4.000000,4.000000,4.000000,4.000000,4.000000,4.000000,4.000000,4.000000,4.000000,4.000000,4.000000,4.000000,4.000000,4.000000,100.000000
1602006395.527088,88.000000,0.000000,4121.538574,4117.436035,4135.897461,4121.025879,4134.871582,4125.128418,4120.512695,4134.358887,4129.230957,4142.051270,4135.897461,4150.256348,4142.563965,4138.461426,770.000000,4.000000,,,,0.000000,4.000000,4.000000,4.000000,4.000000,4.000000,4.000000,4.000000,4.000000,4.000000,4.000000,4.000000,4.000000,4.000000,4.000000,100.000000
1602006395.534970,89.000000,0.000000,4125.641113,4117.948730,4134.358887,4128.717773,4126.153809,4126.666504,4126.153809,4141.025879,4135.384766,4143.589844,4135.384766,4146.153809,4135.384766,4135.384766,740.000000,4.000000,,,,0.000000,4.000000,4.000000,4.000000,4.000000,4.000000,4.000000,4.000000,4.000000,4.000000,4.000000,4.000000,4.000000,4.000000,4.000000,100.000000
1602006395.542851,90.000000,0.000000,4123.077148,4121.538574,4140.000000,4137.436035,4127.692383,4136.410156,4138.974121,4155.897461,4142.051270,4124.102539,4137.436035,4154.358887,4143.077148,4143.589844,874.000000,4.000000,,,,0.000000,4.000000,4.000000,4.000000,4.000000,4.000000,4.000000,4.000000,4.000000,4.000000,4.000000,4.000000,4.000000,4.000000,4.000000,100.000000
1602006395.550733,91.000000,0.000000,4118.461426,4118.974121,4140.000000,4127.179688,4136.410156,4138.974121,4148.205078,4157.948730,4138.461426,4104.615234,4138.461426,4154.871582,4141.538574,4141.025879,800.000000,4.000000,,,,0.000000,4.000000,4.000000,4.000000,4.000000,4.000000,4.000000,4.000000,4.000000,4.000000,4.000000,4.000000,4.000000,4.000000,4.000000,100.000000
1602006395.558615,92.000000,0.000000,4122.563965,4117.948730,4138.974121,4118.974121,4140.512695,4136.922852,4153.333496,4150.256348,4134.871582,4122.563965,4137.948730,4154.358887,4136.922852,4133.846191,770.000000,4.000000,,,,0.000000,4.000000,4.000000,4.000000,4.000000,4.000000,4.000000,4.000000,4.000000,4.000000,4.000000,4.000000,4.000000,4.000000,4.000000,100.000000
1602006395.566496,93.000000,0.000000,4125.128418,4120.000000,4137.948730,4122.563965,4138.461426,4138.974121,4155.897461,4150.769043,4145.128418,4157.436035,4140.000000,4153.333496,4148.205078,4135.384766,740.000000,4.000000,,,,0.000000,4.000000,4.000000,4.000000,4.000000,4.000000,4.000000,4.000000,4.000000,4.000000,4.000000,4.000000,4.000000,4.000000,4.000000,100.000000
1602006395.574378,94.000000,0.000000,4122.051270,4122.051270,4135.897461,4125.641113,4140.000000,4140.512695,4151.282227,4154.358887,4151.794922,4160.512695,4148.717773,4152.820313,4157.948730,4140.512695,874.000000,4.000000,,,,0.000000,4.000000,4.000000,4.000000,4.000000,4.000000,4.000000,4.000000,4.000000,4.000000,4.000000,4.000000,4.000000,4.000000,4.000000,100.000000
1602006395.582260,95.000000,0.000000,4125.128418,4130.256348,4140.512695,4131.282227,4141.538574,4139.487305,4140.000000,4146.153809,4142.051270,4148.205078,4152.820313,4160.512695,4156.922852,4149.230957,800.000000,4.000000,,,,0.000000,4.000000,4.000000,4.000000,4.000000,4.000000,4.000000,4.000000,4.000000,4.000000,4.000000,4.000000,4.000000,4.000000,4.000000,100.000000
1602006395.590041,96.000000,0.000000,4137.948730,4137.948730,4152.307617,4137.948730,4136.922852,4134.871582,4132.820313,4138.461426,4138.461426,4155.897461,4153.333496,4165.641113,4154.871582,4155.897461,770.000000,4.000000,,,,0.000000,4.000000,4.000000,4.000000,4.000000,4.000000,4.000000,4.000000,4.000000,4.000000,4.000000,4.000000,4.000000,4.000000,4.000000,100.000000
1602006395.597923,97.000000,0.000000,4153.333496,4141.025879,4161.025879,4141.538574,4143.077148,4133.333496,4132.307617,4146.153809,4142.563965,4155.384766,4160.512695,4168.205078,4162.051270,4161.538574,740.000000,4.000000,,,,0.000000,4.000000,4.000000,4.000000,4.000000,4.000000,4.000000,4.000000,4.000000,4.000000,4.000000,4.000000,4.000000,4.000000,4.000000,100.000000
1602006395.605805,98.000000,0.000000,4155.897461,4143.077148,4158.974121,4144.102539,4154.358887,4140.000000,4137.436035,4156.410156,4135.384766,4134.871582,4163.077148,4171.794922,4171.794922,4168.205078,874.000000,4.000000,,,,0.000000,4.000000,4.000000,4.000000,4.000000,4.000000,4.000000,4.000000,4.000000,4.000000,4.000000,4.000000,4.000000,4.000000,4.000000,100.000000
1602006395.613686,99.000000,0.000000,4132.820313,4132.820313,4146.153809,4135.384766,4146.666504,4142.051270,4139.487305,4148.205078,4123.589844,4122.563965,4155.897461,4159.487305,4162.563965,4164.102539,800.000000,4.000000,,,,0.000000,4.000000,4.000000,4.000000,4.000000,4.000000,4.000000,4.000000,4.000000,4.000000,4.000000,4.000000,4.000000,4.000000,4.000000,100.000000
1602006395.621568,100.000000,0.000000,4111.282227,4115.897461,4134.358887,4119.487305,4132.307617,4135.384766,4138.974121,4140.000000,4123.077148,4132.820313,4147.692383,4136.410156,4145.128418,4144.102539,770.000000,4.000000,,,,0.000000,4.000000,4.000000,4.000000,4.000000,4.000000,4.000000,4.000000,4.000000,4.000000,4.000000,4.000000,4.000000,4.000000,4.000000,100.000000
1602006395.629450,101.000000,0.000000,4122.563965,4117.948730,4134.871582,4120.000000,4135.384766,4132.820313,4145.128418,4149.743652,4134.871582,4149.230957,4141.538574,4137.436035,4147.692383,4136.410156,740.000000,4.000000,,,,0.000000,4.000000,4.000000,4.000000,4.000000,4.000000,4.000000,4.000000,4.000000,4.000000,4.000000,4.000000,4.000000,4.000000,4.000000,100.000000
1602006395.637331,102.000000,0.000000,4142.051270,4127.179688,4146.666504,4131.282227,4138.974121,4137.436035,4155.384766,4158.974121,4148.205078,4160.000000,4136.922852,4155.384766,4160.000000,4148.205078,874.000000,4.000000,,,,0.000000,4.000000,4.000000,4.000000,4.000000,4.000000,4.000000,4.000000,4.000000,4.000000,4.000000,4.000000,4.000000,4.000000,4.000000,100.000000
1602006395.645213,103.000000,0.000000,4139.487305,4125.128418,4156.410156,4129.230957,4133.333496,4138.974121,4151.794922,4155.897461,4147.692383,4160.000000,4142.051270,4158.974121,4157.948730,4157.436035,800.000000,4.000000,,,,0.000000,4.000000,4.000000,4.000000,4.000000,4.000000,4.000000,4.000000,4.000000,4.000000,4.000000,4.000000,4.000000,4.000000,4.000000,100.000000
1602006395.653194,104.000000,0.000000,4127.692383,4122.051270,4153.333496,4121.538574,4133.333496,4135.897461,4141.538574,4147.692383,4138.461426,4144.102539,4146.666504,4151.282227,4153.846191,4155.897461,770.000000,4.000000,,,,0.000000,4.000000,4.000000,4.000000,4.000000,4.000000,4.000000,4.000000,4.000000,4.000000,4.000000,4.000000,4.000000,4.000000,4.000000,100.000000
1602006395.661075,105.000000,0.000000,4115.384766,4114.358887,4137.436035,4120.000000,4135.897461,4137.436035,4140.512695,4141.538574,4133.846191,4130.256348,4143.589844,4142.563965,4153.333496,4142.563965,740.000000,4.000000,,,,0.000000,4.000000,4.000000,4.000000,4.000000,4.000000,4.000000,4.000000,4.000000,4.000000,4.000000,4.000000,4.000000,4.000000,4.000000,100.000000
1602006395.668956,106.000000,0.000000,4113.846191,4108.205078,4128.717773,4120.512695,4134.871582,4138.974121,4140.512695,4137.948730,4129.230957,4130.256348,4140.000000,4135.384766,4149.230957,4130.769043,874.000000,4.000000,,,,0.000000,4.000000,4.000000,4.000000,4.000000,4.000000,4.000000,4.000000,4.000000,4.000000,4.000000,4.000000,4.000000,4.000000,4.000000,100.000000
1602006395.676837,107.000000,0.000000,4131.794922,4118.974121,4136.410156,4121.538574,4136.410156,4137.436035,4136.922852,4136.922852,4123.077148,4137.948730,4139.487305,4137.436035,4150.256348,4139.487305,800.000000,4.000000,,,,0.000000,4.000000,4.000000,4.000000,4.000000,4.000000,4.000000,4.000000,4.000000,4.000000,4.000000,4.000000,4.000000,4.000000,4.000000,100.000000
1602006395.684719,108.000000,0.000000,4142.563965,4127.692383,4147.692383,4126.666504,4136.922852,4137.436035,4136.922852,4134.871582,4122.051270,4148.717773,4140.000000,4147.692383,4153.333496,4155.384766,770.000000,4.000000,,,,0.000000,4.000000,4.000000,4.000000,4.000000,4.000000,4.000000,4.000000,4.000000,4.000000,4.000000,4.000000,4.000000,4.000000,4.000000,100.000000
1602006395.692500,109.000000,0.000000,4138.461426,4123.589844,4151.794922,4135.897461,4135.384766,4137.948730,4137.436035,4134.871582,4123.077148,4155.897461,4136.410156,4152.820313,4150.256348,4154.358887,740.000000,4.000000,,,,0.000000,4.000000,4.000000,4.000000,4.000000,4.000000,4.000000,4.000000,4.000000,4.000000,4.000000,4.000000,4.000000,4.000000,4.000000,100.000000
1602006395.700382,110.000000,0.000000,4138.974121,4126.666504,4150.769043,4140.512695,4136.922852,4140.000000,4137.436035,4136.922852,4121.538574,4156.922852,4137.948730,4151.282227,4151.282227,4153.333496,874.000000,4.000000,,,,0.000000,4.000000,4.000000,4.000000,4.000000,4.000000,4.000000,4.000000,4.000000,4.000000,4.000000,4.000000,4.000000,4.000000,4.000000,100.000000
1602006395.708263,111.000000,0.000000,4142.051270,4130.769043,4151.794922,4137.948730,4139.487305,4139.487305,4140.000000,4140.512695,4125.641113,4154.871582,4150.256348,4152.820313,4157.436035,4162.563965,800.000000,4.000000,,,,0.000000,4.000000,4.000000,4.000000,4.000000,4.000000,4.000000,4.000000,4.000000,4.000000,4.000000,4.000000,4.000000,4.000000,4.000000,100.000000
1602006395.716144,112.000000,0.000000,4140.512695,4124.102539,4153.333496,4134.358887,4135.897461,4131.282227,4140.512695,4148.717773,4135.384766,4149.230957,4153.846191,4157.948730,4160.512695,4169.230957,770.000000,4.000000,,,,0.000000,4.000000,4.000000,4.000000,4.000000,4.000000,4.000000,4.000000,4.000000,4.000000,4.000000,4.000000,4.000000,4.000000,4.000000,100.000000
1602006395.724026,113.000000,0.000000,4144.102539,4128.717773,4153.333496,4136.922852,4133.846191,4124.102539,4138.974121,4155.384766,4138.974121,4155.384766,4140.000000,4157.948730,4163.589844,4167.179688,740.000000,4.000000,,,,0.000000,4.000000,4.000000,4.000000,4.000000,4.000000,4.000000,4.000000,4.000000,4.000000,4.000000,4.000000,4.000000,4.000000,4.000000,100.000000
1602006395.731907,114.000000,0.000000,4154.358887,4142.051270,4150.256348,4142.563965,4138.461426,4124.615234,4140.000000,4158.461426,4137.948730,4171.794922,4142.563965,4151.794922,4166.153809,4161.025879,874.000000,4.000000,,,,0.000000,4.000000,4.000000,4.000000,4.000000,4.000000,4.000000,4.000000,4.000000,4.000000,4.000000,4.000000,4.000000,4.000000,4.000000,100.000000
1602006395.739789,115.000000,0.000000,4152.820313,4143.077148,4143.589844,4142.051270,4139.487305,4123.077148,4138.461426,4153.333496,4137.948730,4164.615234,4156.410156,4144.102539,4160.512695,4158.974121,800.000000,4.000000,,,,0.000000,4.000000,4.000000,4.000000,4.000000,4.000000,4.000000,4.000000,4.000000,4.000000,4.000000,4.000000,4.000000,4.000000,4.000000,100.000000
1602006395.747770,116.000000,0.000000,4142.051270,4131.794922,4131.794922,4133.846191,4135.384766,4124.102539,4136.922852,4140.512695,4135.897461,4148.717773,4149.230957,4138.974121,4155.384766,4156.922852,770.000000,4.000000,,,,0.000000,4.000000,4.000000,4.000000,4.000000,4.000000,4.000000,4.000000,4.000000,4.000000,4.000000,4.000000,4.000000,4.000000,4.000000,100.000000
1602006395.755651,117.000000,0.000000,4136.410156,4127.179688,4123.589844,4128.205078,4137.948730,4135.897461,4137.436035,4135.897461,4133.846191,4158.974121,4138.461426,4138.974121,4158.461426,4151.794922,740.000000,4.000000,,,,0.000000,4.000000,4.000000,4.000000,4.000000,4.000000,4.000000,4.000000,4.000000,4.000000,4.000000,4.000000,4.000000,4.000000,4.000000,100.000000
1602006395.763533,118.000000,0.000000,4136.410156,4129.230957,4118.974121,4125.128418,4142.051270,4142.051270,4130.769043,4138.974121,4137.948730,4159.487305,4141.025879,4138.461426,4160.000000,4149.230957,874.000000,4.000000,,,,0.000000,4.000000,4.000000,4.000000,4.000000,4.000000,4.000000,4.000000,4.000000,4.000000,4.000000,4.000000,4.000000,4.000000,4.000000,100.000000
1602006395.771414,119.000000,0.000000,4137.436035,4129.743652,4117.436035,4126.153809,4142.051270,4139.487305,4124.615234,4136.922852,4140.000000,4141.538574,4143.589844,4137.436035,4156.922852,4154.358887,800.000000,4.000000,,,,0.000000,4.000000,4.000000,4.000000,4.000000,4.000000,4.000000,4.000000,4.000000,4.000000,4.000000,4.000000,4.000000,4.000000,4.000000,100.000000
1602006395.779295,120.000000,0.000000,4138.974121,4128.717773,4126.666504,4133.333496,4139.487305,4141.025879,4125.641113,4135.897461,4140.512695,4145.128418,4144.615234,4140.000000,4157.948730,4157.436035,770.000000,4.000000,,,,0.000000,4.000000,4.000000,4.000000,4.000000,4.000000,4.000000,4.000000,4.000000,4.000000,4.000000,4.000000,4.000000,4.000000,4.000000,100.000000
1602006395.787177,121.000000,0.000000,4134.358887,4122.563965,4136.922852,4131.282227,4131.282227,4132.307617,4124.102539,4139.487305,4142.051270,4153.333496,4144.102539,4139.487305,4151.282227,4147.179688,740.000000,4.000000,,,,0.000000,4.000000,4.000000,4.000000,4.000000,4.000000,4.000000,4.000000,4.000000,4.000000,4.000000,4.000000,4.000000,4.000000,4.000000,100.000000
1602006395.795058,122.000000,0.000000,4124.615234,4114.358887,4136.410156,4121.025879,4124.615234,4121.025879,4127.179688,4140.000000,4135.384766,4141.025879,4134.358887,4133.333496,4138.461426,4139.487305,874.000000,4.000000,,,,0.000000,4.000000,4.000000,4.000000,4.000000,4.000000,4.000000,4.000000,4.000000,4.000000,4.000000,4.000000,4.000000,4.000000,4.000000,100.000000
1602006395.802840,123.000000,0.000000,4120.512695,4110.769043,4128.205078,4116.410156,4123.589844,4126.666504,4139.487305,4140.000000,4122.563965,4130.256348,4124.615234,4125.128418,4133.846191,4139.487305,800.000000,4.000000,,,,0.000000,4.000000,4.000000,4.000000,4.000000,4.000000,4.000000,4.000000,4.000000,4.000000,4.000000,4.000000,4.000000,4.000000,4.000000,100.000000
1602006395.810721,124.000000,0.000000,4123.589844,4106.666504,4123.589844,4114.871582,4121.538574,4126.666504,4138.461426,4141.025879,4115.897461,4127.179688,4128.205078,4120.512695,4134.358887,4138.461426,770.000000,4.000000,,,,0.000000,4.000000,4.000000,4.000000,4.000000,4.000000,4.000000,4.000000,4.000000,4.000000,4.000000,4.000000,4.000000,4.000000,4.000000,100.000000
1602006395.818602,125.000000,0.000000,4136.410156,4104.615234,4123.077148,4114.358887,4124.102539,4116.410156,4127.179688,4138.974121,4122.051270,4129.743652,4138.974121,4127.692383,4135.384766,4142.563965,740.000000,4.000000,,,,0.000000,4.000000,4.000000,4.000000,4.000000,4.000000,4.000000,4.000000,4.000000,4.000000,4.000000,4.000000,4.000000,4.000000,4.000000,100.000000
1602006395.826483,126.000000,0.000000,4148.717773,4114.871582,4126.153809,4122.563965,4137.948730,4126.666504,4129.230957,4138.461426,4135.384766,4148.205078,4142.051270,4139.487305,4142.051270,4153.333496,874.000000,4.000000,,,,0.000000,4.000000,4.000000,4.000000,4.000000,4.000000,4.000000,4.000000,4.000000,4.000000,4.000000,4.000000,4.000000,4.000000,4.000000,100.000000
1602006395.834364,127.000000,0.000000,4142.563965,4124.615234,4123.589844,4126.666504,4146.153809,4142.051270,4130.769043,4139.487305,4143.077148,4158.461426,4135.897461,4138.461426,4145.128418,4156.410156,800.000000,4.000000,,,,0.000000,4.000000,4.000000,4.000000,4.000000,4.000000,4.000000,4.000000,4.000000,4.000000,4.000000,4.000000,4.000000,4.000000,4.000000,100.000000
1602006395.842245,128.000000,0.000000,4133.333496,4127.179688,4109.743652,4122.051270,4142.563965,4139.487305,4122.563965,4137.436035,4144.102539,4148.205078,4135.897461,4134.871582,4147.179688,4150.256348,770.000000,4.000000,,,,0.000000,4.000000,4.000000,4.000000,4.000000,4.000000,4.000000,4.000000,4.000000,4.000000,4.000000,4.000000,4.000000,4.000000,4.000000,100.000000
1602006395.850027,0.000000,0.000000,4137.948730,4135.384766,4106.666504,4128.717773,4138.974121,4138.461426,4118.974121,4132.820313,4147.692383,4151.282227,4141.538574,4133.333496,4155.897461,4151.282227,793.000000,4.000000,,,,0.000000,4.000000,4.000000,4.000000,4.000000,4.000000,4.000000,4.000000,4.000000,4.000000,4.000000,4.000000,4.000000,4.000000,4.000000,100.000000
1602006395.857908,1.000000,0.000000,4146.153809,4138.974121,4119.487305,4140.512695,4139.487305,4142.051270,4120.512695,4126.666504,4150.256348,4155.384766,4141.025879,4127.179688,4152.820313,4152.307617,788.000000,4.000000,,,,0.000000,4.000000,4.000000,4.000000,4.000000,4.000000,4.000000,4.000000,4.000000,4.000000,4.000000,4.000000,4.000000,4.000000,4.000000,100.000000
1602006395.865789,2.000000,0.000000,4142.051270,4129.230957,4124.615234,4135.897461,4138.974121,4137.436035,4118.974121,4122.051270,4141.025879,4131.282227,4133.846191,4117.948730,4135.897461,4140.000000,849.000000,4.000000,,,,0.000000,4.000000,4.000000,4.000000,4.000000,4.000000,4.000000,4.000000,4.000000,4.000000,4.000000,4.000000,4.000000,4.000000,4.000000,100.000000
1602006395.873670,3.000000,0.000000,4131.282227,4124.102539,4121.025879,4123.589844,4132.307617,4136.922852,4119.487305,4121.025879,4128.717773,4118.461426,4123.077148,4120.000000,4126.666504,4134.358887,867.000000,4.000000,,,,0.000000,4.000000,4.000000,4.000000,4.000000,4.000000,4.000000,4.000000,4.000000,4.000000,4.000000,4.000000,4.000000,4.000000,4.000000,100.000000
1602006395.881551,4.000000,0.000000,4124.102539,4121.025879,4124.102539,4123.077148,4126.153809,4142.051270,4132.820313,4124.102539,4127.179688,4141.538574,4114.871582,4131.282227,4124.102539,4140.512695,809.000000,4.000000,,,,0.000000,4.000000,4.000000,4.000000,4.000000,4.000000,4.000000,4.000000,4.000000,4.000000,4.000000,4.000000,4.000000,4.000000,4.000000,100.000000
1602006395.889533,5.000000,0.000000,4120.512695,4108.205078,4124.102539,4118.974121,4124.615234,4136.922852,4143.077148,4130.256348,4122.563965,4141.538574,4117.436035,4136.410156,4119.487305,4134.871582,824.000000,4.000000,,,,0.000000,4.000000,4.000000,4.000000,4.000000,4.000000,4.000000,4.000000,4.000000,4.000000,4.000000,4.000000,4.000000,4.000000,4.000000,100.000000
1602006395.897414,6.000000,0.000000,4124.102539,4102.051270,4120.000000,4108.717773,4121.025879,4123.589844,4143.077148,4135.897461,4120.000000,4122.051270,4128.717773,4142.051270,4123.589844,4127.692383,768.000000,4.000000,,,,0.000000,4.000000,4.000000,4.000000,4.000000,4.000000,4.000000,4.000000,4.000000,4.000000,4.000000,4.000000,4.000000,4.000000,4.000000,100.000000
1602006395.905295,7.000000,0.000000,4136.922852,4114.358887,4131.282227,4114.358887,4123.589844,4120.000000,4141.025879,4139.487305,4132.820313,4142.563965,4137.436035,4155.897461,4139.487305,4144.615234,673.000000,4.000000,,,,0.000000,4.000000,4.000000,4.000000,4.000000,4.000000,4.000000,4.000000,4.000000,4.000000,4.000000,4.000000,4.000000,4.000000,4.000000,100.000000
1602006395.913177,8.000000,0.000000,4145.128418,4125.641113,4142.563965,4128.205078,4130.256348,4125.128418,4135.384766,4142.563965,4143.077148,4157.948730,4140.000000,4164.615234,4148.205078,4154.358887,787.000000,4.000000,,,,0.000000,4.000000,4.000000,4.000000,4.000000,4.000000,4.000000,4.000000,4.000000,4.000000,4.000000,4.000000,4.000000,4.000000,4.000000,100.000000
1602006395.921058,9.000000,0.000000,4138.974121,4121.025879,4129.743652,4127.692383,4128.205078,4123.077148,4123.077148,4137.948730,4140.512695,4135.384766,4140.000000,4153.333496,4140.512695,4140.512695,834.000000,4.000000,,,,0.000000,4.000000,4.000000,4.000000,4.000000,4.000000,4.000000,4.000000,4.000000,4.000000,4.000000,4.000000,4.000000,4.000000,4.000000,100.000000
1602006395.928940,10.000000,0.000000,4128.205078,4111.794922,4117.436035,4119.487305,4121.025879,4116.922852,4116.922852,4125.128418,4137.436035,4126.666504,4137.436035,4140.000000,4134.871582,4134.358887,874.000000,4.000000,,,,0.000000,4.000000,4.000000,4.000000,4.000000,4.000000,4.000000,4.000000,4.000000,4.000000,4.000000,4.000000,4.000000,4.000000,4.000000,100.000000
1602006395.936821,11.000000,0.000000,4126.666504,4114.358887,4121.538574,4120.000000,4121.538574,4125.128418,4120.000000,4122.563965,4138.974121,4141.538574,4128.717773,4137.948730,4138.461426,4140.000000,826.000000,4.000000,,,,0.000000,4.000000,4.000000,4.000000,4.000000,4.000000,4.000000,4.000000,4.000000,4.000000,4.000000,4.000000,4.000000,4.000000,4.000000,100.000000
1602006395.944603,12.000000,0.000000,4133.846191,4123.077148,4118.974121,4125.128418,4130.769043,4145.641113,4123.077148,4128.205078,4137.948730,4143.589844,4124.615234,4140.000000,4140.000000,4140.000000,770.000000,4.000000,,,,0.000000,4.000000,4.000000,4.000000,4.000000,4.000000,4.000000,4.000000,4.000000,4.000000,4.000000,4.000000,4.000000,4.000000,4.000000,100.000000
1602006395.952484,13.000000,0.000000,4134.871582,4122.563965,4108.717773,4120.512695,4139.487305,4155.384766,4129.230957,4129.230957,4137.436035,4138.461426,4132.820313,4144.615234,4137.436035,4134.358887,738.000000,4.000000,,,,0.000000,4.000000,4.000000,4.000000,4.000000,4.000000,4.000000,4.000000,4.000000,4.000000,4.000000,4.000000,4.000000,4.000000,4.000000,100.000000
1602006395.960366,14.000000,0.000000,4126.153809,4118.461426,4111.794922,4112.307617,4140.512695,4150.769043,4134.871582,4128.205078,4138.461426,4142.563965,4136.922852,4151.282227,4139.487305,4129.743652,874.000000,4.000000,,,,0.000000,4.000000,4.000000,4.000000,4.000000,4.000000,4.000000,4.000000,4.000000,4.000000,4.000000,4.000000,4.000000,4.000000,4.000000,100.000000
1602006395.968248,15.000000,0.000000,4128.205078,4122.563965,4120.512695,4116.410156,4136.410156,4151.794922,4139.487305,4136.410156,4139.487305,4142.051270,4135.897461,4157.436035,4150.769043,4136.922852,826.000000,4.000000,,,,0.000000,4.000000,4.000000,4.000000,4.000000,4.000000,4.000000,4.000000,4.000000,4.000000,4.000000,4.000000,4.000000,4.000000,4.000000,100.000000
1602006395.976129,16.000000,0.000000,4138.461426,4123.077148,4125.128418,4123.589844,4135.897461,4153.333496,4145.641113,4141.538574,4138.974121,4134.871582,4142.051270,4155.897461,4157.436035,4144.615234,0.000000,4.000000,,,,0.000000,4.000000,4.000000,4.000000,4.000000,4.000000,4.000000,4.000000,4.000000,4.000000,4.000000,4.000000,4.000000,4.000000,4.000000,100.000000
1602006395.984011,17.000000,0.000000,4136.922852,4120.512695,4132.307617,4124.615234,4137.948730,4140.000000,4146.153809,4139.487305,4140.000000,4134.871582,4143.589844,4153.846191,4153.333496,4137.948730,0.000000,4.000000,,,,0.000000,4.000000,4.000000,4.000000,4.000000,4.000000,4.000000,4.000000,4.000000,4.000000,4.000000,4.000000,4.000000,4.000000,4.000000,100.000000
1602006395.991893,18.000000,0.000000,4141.538574,4131.282227,4142.563965,4133.333496,4138.974121,4119.487305,4141.025879,4142.051270,4139.487305,4148.717773,4138.974121,4160.000000,4154.358887,4144.615234,0.000000,4.000000,,,,0.000000,4.000000,4.000000,4.000000,4.000000,4.000000,4.000000,4.000000,4.000000,4.000000,4.000000,4.000000,4.000000,4.000000,4.000000,100.000000
1602006395.999774,19.000000,0.000000,4157.436035,4138.461426,4145.128418,4141.025879,4131.282227,4105.641113,4133.333496,4138.974121,4130.769043,4149.743652,4140.512695,4163.077148,4154.358887,4156.410156,0.000000,4.000000,,,,0.000000,4.000000,4.000000,4.000000,4.000000,4.000000,4.000000,4.000000,4.000000,4.000000,4.000000,4.000000,4.000000,4.000000,4.000000,100.000000
1602006396.007756,20.000000,0.000000,4156.922852,4128.205078,4139.487305,4129.743652,4121.538574,4105.641113,4123.589844,4122.563965,4118.461426,4128.717773,4136.410156,4155.384766,4140.512695,4143.589844,0.000000,4.000000,,,,0.000000,4.000000,4.000000,4.000000,4.000000,4.000000,4.000000,4.000000,4.000000,4.000000,4.000000,4.000000,4.000000,4.000000,4.000000,100.000000
1602006396.015637,21.000000,0.000000,4143.589844,4121.538574,4137.436035,4119.487305,4124.615234,4117.436035,4121.025879,4120.000000,4122.563965,4124.102539,4123.077148,4152.820313,4133.846191,4133.846191,0.000000,4.000000,,,,0.000000,4.000000,4.000000,4.000000,4.000000,4.000000,4.000000,4.000000,4.000000,4.000000,4.000000,4.000000,4.000000,4.000000,4.000000,100.000000
1602006396.023519,22.000000,0.000000,4138.461426,4121.538574,4134.871582,4123.077148,4129.230957,4130.256348,4127.179688,4136.410156,4138.461426,4136.922852,4120.512695,4160.000000,4138.461426,4138.461426,0.000000,4.000000,,,,0.000000,4.000000,4.000000,4.000000,4.000000,4.000000,4.000000,4.000000,4.000000,4.000000,4.000000,4.000000,4.000000,4.000000,4.000000,100.000000
1602006396.031401,23.000000,0.000000,4138.461426,4110.769043,4124.615234,4120.000000,4124.102539,4133.333496,4127.692383,4137.436035,4139.487305,4137.436035,4126.153809,4156.410156,4130.769043,4129.230957,0.000000,4.000000,,,,0.000000,4.000000,4.000000,4.000000,4.000000,4.000000,4.000000,4.000000,4.000000,4.000000,4.000000,4.000000,4.000000,4.000000,4.000000,100.000000
1602006396.039282,24.000000,0.000000,4133.846191,4103.589844,4117.948730,4109.230957,4123.077148,4135.897461,4122.051270,4122.051270,4125.128418,4123.077148,4123.077148,4140.512695,4118.974121,4113.846191,0.000000,4.000000,,,,0.000000,4.000000,4.000000,4.000000,4.000000,4.000000,4.000000,4.000000,4.000000,4.000000,4.000000,4.000000,4.000000,4.000000,4.000000,100.000000
1602006396.047164,25.000000,0.000000,4132.307617,4113.846191,4121.538574,4111.282227,4132.820313,4141.538574,4121.538574,4119.487305,4120.000000,4112.820313,4121.025879,4134.358887,4122.563965,4121.538574,0.000000,4.000000,,,,0.000000,4.000000,4.000000,4.000000,4.000000,4.000000,4.000000,4.000000,4.000000,4.000000,4.000000,4.000000,4.000000,4.000000,4.000000,100.000000
1602006396.055046,26.000000,0.000000,4142.563965,4123.077148,4124.615234,4122.051270,4138.974121,4142.563965,4127.692383,4123.589844,4125.128418,4118.461426,4126.153809,4145.641113,4123.589844,4135.897461,0.000000,4.000000,,,,0.000000,4.000000,4.000000,4.000000,4.000000,4.000000,4.000000,4.000000,4.000000,4.000000,4.000000,4.000000,4.000000,4.000000,4.000000,100.000000
1602006396.062927,27.000000,0.000000,4152.307617,4123.077148,4127.179688,4125.641113,4139.487305,4140.000000,4135.897461,4121.538574,4125.641113,4127.179688,4123.589844,4156.922852,4121.538574,4136.410156,0.000000,4.000000,,,,0.000000,4.000000,4.000000,4.000000,4.000000,4.000000,4.000000,4.000000,4.000000,4.000000,4.000000,4.000000,4.000000,4.000000,4.000000,100.000000
1602006396.070809,28.000000,0.000000,4156.410156,4123.077148,4130.769043,4125.128418,4138.974121,4134.358887,4141.025879,4125.128418,4122.051270,4117.948730,4120.512695,4153.333496,4126.666504,4137.948730,0.000000,4.000000,,,,0.000000,4.000000,4.000000,4.000000,4.000000,4.000000,4.000000,4.000000,4.000000,4.000000,4.000000,4.000000,4.000000,4.000000,4.000000,100.000000
1602006396.078691,29.000000,0.000000,4153.846191,4124.102539,4126.153809,4126.153809,4133.846191,4129.230957,4141.538574,4131.282227,4125.128418,4113.333496,4125.128418,4150.769043,4131.282227,4142.051270,0.000000,4.000000,,,,0.000000,4.000000,4.000000,4.000000,4.000000,4.000000,4.000000,4.000000,4.000000,4.000000,4.000000,4.000000,4.000000,4.000000,4.000000,100.000000
1602006396.086472,30.000000,0.000000,4137.436035,4118.461426,4113.846191,4122.051270,4125.641113,4121.538574,4141.538574,4128.205078,4126.666504,4133.846191,4119.487305,4152.307617,4128.205078,4133.846191,0.000000,4.000000,,,,0.000000,4.000000,4.000000,4.000000,4.000000,4.000000,4.000000,4.000000,4.000000,4.000000,4.000000,4.000000,4.000000,4.000000,4.000000,100.000000
1602006396.094354,31.000000,0.000000,4123.077148,4107.692383,4109.230957,4114.358887,4120.512695,4115.384766,4138.461426,4128.205078,4121.025879,4137.948730,4109.743652,4144.615234,4124.615234,4121.025879,0.000000,4.000000,,,,0.000000,4.000000,4.000000,4.000000,4.000000,4.000000,4.000000,4.000000,4.000000,4.000000,4.000000,4.000000,4.000000,4.000000,4.000000,100.000000
1602006396.102236,32.000000,0.000000,4137.948730,4111.794922,4122.563965,4114.358887,4121.538574,4113.846191,4132.307617,4137.436035,4124.615234,4128.717773,4126.153809,4145.641113,4130.256348,4126.153809,0.000000,4.000000,,,,0.000000,4.000000,4.000000,4.000000,4.000000,4.000000,4.000000,4.000000,4.000000,4.000000,4.000000,4.000000,4.000000,4.000000,4.000000,100.000000
1602006396.110117,33.000000,0.000000,4159.487305,4133.333496,4140.512695,4127.692383,4130.769043,4124.102539,4128.717773,4143.077148,4138.461426,4143.077148,4154.358887,4166.666504,4149.743652,4145.641113,0.000000,4.000000,,,,0.000000,4.000000,4.000000,4.000000,4.000000,4.000000,4.000000,4.000000,4.000000,4.000000,4.000000,4.000000,4.000000,4.000000,4.000000,100.000000
1602006396.117999,34.000000,0.000000,4160.000000,4141.025879,4147.179688,4138.974121,4138.461426,4138.974121,4125.128418,4137.436035,4140.512695,4149.230957,4157.436035,4179.487305,4167.179688,4161.025879,0.000000,4.000000,,,,0.000000,4.000000,4.000000,4.000000,4.000000,4.000000,4.000000,4.000000,4.000000,4.000000,4.000000,4.000000,4.000000,4.000000,4.000000,100.000000
1602006396.125881,35.000000,0.000000,4151.282227,4129.230957,4138.974121,4133.333496,4132.307617,4135.897461,4120.512695,4127.692383,4128.205078,4128.717773,4141.538574,4170.256348,4160.000000,4159.487305,0.000000,4.000000,,,,0.000000,4.000000,4.000000,4.000000,4.000000,4.000000,4.000000,4.000000,4.000000,4.000000,4.000000,4.000000,4.000000,4.000000,4.000000,100.000000
1602006396.133762,36.000000,0.000000,4144.615234,4120.000000,4125.128418,4123.077148,4121.538574,4131.282227,4122.051270,4122.051270,4121.025879,4129.743652,4124.615234,4154.871582,4138.461426,4142.563965,0.000000,4.000000,,,,0.000000,4.000000,4.000000,4.000000,4.000000,4.000000,4.000000,4.000000,4.000000,4.000000,4.000000,4.000000,4.000000,4.000000,4.000000,100.000000
1602006396.141644,37.000000,0.000000,4135.897461,4116.410156,4120.512695,4120.512695,4120.000000,4137.948730,4130.256348,4121.538574,4130.256348,4145.128418,4110.769043,4142.563965,4123.077148,4135.384766,0.000000,4.000000,,,,0.000000,4.000000,4.000000,4.000000,4.000000,4.000000,4.000000,4.000000,4.000000,4.000000,4.000000,4.000000,4.000000,4.000000,4.000000,100.000000
1602006396.149525,38.000000,0.000000,4125.128418,4109.743652,4117.436035,4121.025879,4122.051270,4135.897461,4136.922852,4122.563965,4136.410156,4123.589844,4106.666504,4132.307617,4112.307617,4132.307617,0.000000,4.000000,,,,0.000000,4.000000,4.000000,4.000000,4.000000,4.000000,4.000000,4.000000,4.000000,4.000000,4.000000,4.000000,4.000000,4.000000,4.000000,100.000000
1602006396.157507,39.000000,0.000000,4114.358887,4102.563965,4111.282227,4119.487305,4120.000000,4128.717773,4137.948730,4120.000000,4126.666504,4095.897461,4110.256348,4125.128418,4107.179688,4117.436035,0.000000,4.000000,,,,0.000000,4.000000,4.000000,4.000000,4.000000,4.000000,4.000000,4.000000,4.000000,4.000000,4.000000,4.000000,4.000000,4.000000,4.000000,100.000000
1602006396.165388,40.000000,0.000000,4121.538574,4109.743652,4114.871582,4119.487305,4121.538574,4131.794922,4137.436035,4121.538574,4123.589844,4105.641113,4120.000000,4126.153809,4116.410156,4108.205078,0.000000,4.000000,,,,0.000000,4.000000,4.000000,4.000000,4.000000,4.000000,4.000000,4.000000,4.000000,4.000000,4.000000,4.000000,4.000000,4.000000,4.000000,100.000000
1602006396.173270,41.000000,0.000000,4147.179688,4121.025879,4132.307617,4127.179688,4127.179688,4131.282227,4138.461426,4133.846191,4141.025879,4122.563965,4132.820313,4144.102539,4132.820313,4123.589844,0.000000,4.000000,,,,0.000000,4.000000,4.000000,4.000000,4.000000,4.000000,4.000000,4.000000,4.000000,4.000000,4.000000,4.000000,4.000000,4.000000,4.000000,100.000000
1602006396.181151,42.000000,0.000000,4160.000000,4127.179688,4147.692383,4135.897461,4127.692383,4121.538574,4139.487305,4144.102539,4148.205078,4125.641113,4146.153809,4165.641113,4145.128418,4150.769043,0.000000,4.000000,,,,0.000000,4.000000,4.000000,4.000000,4.000000,4.000000,4.000000,4.000000,4.000000,4.000000,4.000000,4.000000,4.000000,4.000000,4.000000,100.000000
1602006396.189032,43.000000,0.000000,4155.897461,4132.307617,4155.897461,4139.487305,4130.256348,4118.461426,4135.384766,4142.051270,4140.000000,4139.487305,4154.871582,4172.307617,4150.256348,4161.025879,0.000000,4.000000,,,,0.000000,4.000000,4.000000,4.000000,4.000000,4.000000,4.000000,4.000000,4.000000,4.000000,4.000000,4.000000,4.000000,4.000000,4.000000,100.000000
1602006396.196914,44.000000,0.000000,4162.563965,4137.436035,4159.487305,4140.512695,4135.897461,4121.025879,4129.230957,4140.512695,4146.666504,4160.000000,4148.205078,4168.205078,4147.692383,4151.282227,0.000000,4.000000,,,,0.000000,4.000000,4.000000,4.000000,4.000000,4.000000,4.000000,4.000000,4.000000,4.000000,4.000000,4.000000,4.000000,4.000000,4.000000,100.000000
1602006396.204795,45.000000,0.000000,4167.179688,4132.307617,4151.282227,4137.948730,4131.282227,4121.025879,4125.128418,4140.512695,4147.179688,4155.897461,4117.948730,4159.487305,4140.000000,4141.025879,0.000000,4.000000,,,,0.000000,4.000000,4.000000,4.000000,4.000000,4.000000,4.000000,4.000000,4.000000,4.000000,4.000000,4.000000,4.000000,4.000000,4.000000,100.000000
1602006396.212677,46.000000,0.000000,4145.641113,4115.897461,4138.461426,4125.641113,4121.538574,4116.410156,4122.051270,4127.692383,4120.000000,4127.179688,4096.922852,4144.615234,4128.205078,4135.897461,0.000000,4.000000,,,,0.000000,4.000000,4.000000,4.000000,4.000000,4.000000,4.000000,4.000000,4.000000,4.000000,4.000000,4.000000,4.000000,4.000000,4.000000,100.000000
1602006396.220458,47.000000,0.000000,4122.051270,4107.692383,4134.358887,4116.410156,4120.512695,4106.666504,4115.897461,4113.333496,4098.974121,4101.538574,4113.846191,4132.820313,4113.846191,4120.512695,0.000000,4.000000,,,,0.000000,4.000000,4.000000,4.000000,4.000000,4.000000,4.000000,4.000000,4.000000,4.000000,4.000000,4.000000,4.000000,4.000000,4.000000,100.000000
1602006396.228339,48.000000,0.000000,4124.615234,4111.794922,4137.948730,4122.051270,4124.102539,4107.179688,4114.871582,4111.794922,4106.153809,4096.922852,4132.820313,4134.358887,4106.666504,4105.128418,0.000000,4.000000,,,,0.000000,4.000000,4.000000,4.000000,4.000000,4.000000,4.000000,4.000000,4.000000,4.000000,4.000000,4.000000,4.000000,4.000000,4.000000,100.000000
1602006396.236219,49.000000,0.000000,4129.230957,4112.820313,4133.333496,4125.641113,4122.051270,4114.871582,4118.461426,4111.282227,4107.179688,4104.615234,4118.974121,4138.461426,4104.615234,4105.128418,0.000000,4.000000,,,,0.000000,4.000000,4.000000,4.000000,4.000000,4.000000,4.000000,4.000000,4.000000,4.000000,4.000000,4.000000,4.000000,4.000000,4.000000,100.000000
1602006396.244000,50.000000,0.000000,4123.077148,4104.615234,4123.077148,4120.000000,4120.512695,4122.051270,4121.025879,4105.641113,4094.358887,4107.179688,4104.102539,4134.871582,4097.948730,4103.077148,0.000000,4.000000,,,,0.000000,4.000000,4.000000,4.000000,4.000000,4.000000,4.000000,4.000000,4.000000,4.000000,4.000000,4.000000,4.000000,4.000000,4.000000,100.000000
1602006396.251881,51.000000,0.000000,4120.512695,4102.051270,4121.025879,4117.948730,4121.538574,4129.743652,4128.717773,4107.692383,4096.410156,4103.077148,4113.846191,4133.333496,4100.000000,4101.025879,0.000000,4.000000,,,,0.000000,4.000000,4.000000,4.000000,4.000000,4.000000,4.000000,4.000000,4.000000,4.000000,4.000000,4.000000,4.000000,4.000000,4.000000,100.000000
1602006396.259762,52.000000,0.000000,4122.563965,4111.282227,4121.025879,4118.974121,4122.051270,4129.743652,4136.410156,4116.922852,4104.102539,4100.000000,4124.615234,4133.846191,4111.282227,4113.846191,0.000000,4.000000,,,,0.000000,4.000000,4.000000,4.000000,4.000000,4.000000,4.000000,4.000000,4.000000,4.000000,4.000000,4.000000,4.000000,4.000000,4.000000,100.000000
1602006396.267544,53.000000,0.000000,4123.589844,4120.000000,4118.461426,4118.974121,4127.179688,4121.538574,4134.871582,4125.128418,4106.153809,4109.230957,4126.666504,4134.358887,4112.820313,4119.487305,0.000000,4.000000,,,,0.000000,4.000000,4.000000,4.000000,4.000000,4.000000,4.000000,4.000000,4.000000,4.000000,4.000000,4.000000,4.000000,4.000000,4.000000,100.000000
1602006396.275425,54.000000,0.000000,4131.282227,4126.666504,4121.538574,4127.692383,4135.384766,4121.538574,4135.897461,4135.897461,4122.563965,4127.692383,4130.769043,4145.128418,4117.436035,4117.436035,0.000000,4.000000,,,,0.000000,4.000000,4.000000,4.000000,4.000000,4.000000,4.000000,4.000000,4.000000,4.000000,4.000000,4.000000,4.000000,4.000000,4.000000,100.000000
1602006396.283307,55.000000,0.000000,4147.179688,4136.922852,4136.410156,4138.974121,4140.512695,4126.666504,4138.974121,4143.589844,4142.051270,4133.846191,4142.563965,4156.410156,4133.846191,4130.769043,0.000000,4.000000,,,,0.000000,4.000000,4.000000,4.000000,4.000000,4.000000,4.000000,4.000000,4.000000,4.000000,4.000000,4.000000,4.000000,4.000000,4.000000,100.000000
1602006396.291188,56.000000,0.000000,4162.563965,4150.769043,4153.846191,4144.615234,4139.487305,4121.025879,4127.179688,4143.077148,4141.538574,4132.307617,4153.846191,4163.077148,4144.102539,4147.179688,0.000000,4.000000,,,,0.000000,4.000000,4.000000,4.000000,4.000000,4.000000,4.000000,4.000000,4.000000,4.000000,4.000000,4.000000,4.000000,4.000000,4.000000,100.000000
1602006396.299069,57.000000,0.000000,4170.256348,4157.436035,4161.025879,4148.717773,4140.000000,4117.948730,4118.974121,4144.615234,4141.538574,4143.589844,4153.333496,4168.205078,4145.641113,4148.717773,0.000000,4.000000,,,,0.000000,4.000000,4.000000,4.000000,4.000000,4.000000,4.000000,4.000000,4.000000,4.000000,4.000000,4.000000,4.000000,4.000000,4.000000,100.000000
1602006396.306951,58.000000,0.000000,4157.948730,4144.615234,4146.153809,4142.563965,4138.974121,4124.615234,4129.230957,4141.538574,4137.948730,4147.179688,4140.512695,4159.487305,4137.436035,4132.307617,0.000000,4.000000,,,,0.000000,4.000000,4.000000,4.000000,4.000000,4.000000,4.000000,4.000000,4.000000,4.000000,4.000000,4.000000,4.000000,4.000000,4.000000,100.000000
1602006396.314932,59.000000,0.000000,4134.358887,4125.641113,4125.641113,4124.615234,4130.769043,4126.153809,4136.410156,4126.153809,4113.333496,4122.051270,4122.051270,4137.948730,4115.897461,4112.820313,0.000000,4.000000,,,,0.000000,4.000000,4.000000,4.000000,4.000000,4.000000,4.000000,4.000000,4.000000,4.000000,4.000000,4.000000,4.000000,4.000000,4.000000,100.000000
1602006396.322814,60.000000,0.000000,4130.769043,4117.948730,4120.000000,4117.436035,4124.102539,4127.179688,4138.974121,4119.487305,4100.000000,4102.563965,4109.230957,4131.282227,4102.563965,4113.846191,0.000000,4.000000,,,,0.000000,4.000000,4.000000,4.000000,4.000000,4.000000,4.000000,4.000000,4.000000,4.000000,4.000000,4.000000,4.000000,4.000000,4.000000,100.000000
1602006396.330696,61.000000,0.000000,4136.922852,4118.974121,4122.563965,4122.051270,4123.589844,4135.897461,4148.717773,4124.102539,4104.102539,4103.077148,4107.179688,4137.436035,4106.153809,4122.051270,0.000000,4.000000,,,,0.000000,4.000000,4.000000,4.000000,4.000000,4.000000,4.000000,4.000000,4.000000,4.000000,4.000000,4.000000,4.000000,4.000000,4.000000,100.000000
1602006396.338577,62.000000,0.000000,4133.846191,4120.000000,4124.615234,4122.563965,4126.153809,4141.025879,4156.410156,4124.615234,4109.743652,4106.153809,4116.922852,4135.897461,4109.230957,4115.897461,0.000000,4.000000,,,,0.000000,4.000000,4.000000,4.000000,4.000000,4.000000,4.000000,4.000000,4.000000,4.000000,4.000000,4.000000,4.000000,4.000000,4.000000,100.000000
1602006396.346459,63.000000,0.000000,4140.512695,4122.051270,4135.384766,4124.102539,4127.179688,4137.948730,4154.871582,4126.666504,4120.000000,4112.820313,4130.769043,4140.512695,4110.256348,4121.538574,0.000000,4.000000,,,,0.000000,4.000000,4.000000,4.000000,4.000000,4.000000,4.000000,4.000000,4.000000,4.000000,4.000000,4.000000,4.000000,4.000000,4.000000,100.000000
1602006396.354341,64.000000,0.000000,4154.358887,4126.153809,4146.153809,4129.230957,4129.743652,4135.384766,4148.205078,4134.871582,4127.179688,4120.000000,4135.384766,4153.333496,4119.487305,4147.179688,793.000000,4.000000,,,,0.000000,4.000000,4.000000,4.000000,4.000000,4.000000,4.000000,4.000000,4.000000,4.000000,4.000000,4.000000,4.000000,4.000000,4.000000,100.000000
1602006396.362222,65.000000,0.000000,4153.846191,4133.333496,4142.563965,4135.897461,4136.410156,4136.410156,4141.538574,4138.974121,4129.743652,4119.487305,4140.512695,4158.974121,4132.307617,4156.922852,788.000000,4.000000,,,,0.000000,4.000000,4.000000,4.000000,4.000000,4.000000,4.000000,4.000000,4.000000,4.000000,4.000000,4.000000,4.000000,4.000000,4.000000,100.000000
1602006396.370104,66.000000,0.000000,4150.769043,4140.512695,4137.436035,4140.000000,4139.487305,4137.436035,4138.461426,4140.000000,4144.102539,4131.794922,4147.692383,4156.410156,4141.025879,4146.153809,849.000000,4.000000,,,,0.000000,4.000000,4.000000,4.000000,4.000000,4.000000,4.000000,4.000000,4.000000,4.000000,4.000000,4.000000,4.000000,4.000000,4.000000,100.000000
1602006396.377986,67.000000,0.000000,4155.897461,4140.512695,4140.512695,4137.948730,4136.922852,4135.897461,4137.436035,4139.487305,4151.282227,4152.820313,4144.102539,4154.871582,4141.025879,4142.563965,867.000000,4.000000,,,,0.000000,4.000000,4.000000,4.000000,4.000000,4.000000,4.000000,4.000000,4.000000,4.000000,4.000000,4.000000,4.000000,4.000000,4.000000,100.000000
1602006396.385767,68.000000,0.000000,4155.384766,4136.922852,4142.051270,4135.384766,4134.358887,4133.846191,4135.897461,4138.461426,4136.410156,4144.102539,4137.436035,4156.922852,4137.436035,4150.256348,809.000000,4.000000,,,,0.000000,4.000000,4.000000,4.000000,4.000000,4.000000,4.000000,4.000000,4.000000,4.000000,4.000000,4.000000,4.000000,4.000000,4.000000,100.000000
1602006396.393648,69.000000,0.000000,4151.282227,4137.436035,4140.000000,4136.410156,4135.384766,4137.948730,4139.487305,4141.025879,4137.948730,4132.820313,4141.025879,4156.922852,4141.538574,4152.307617,824.000000,4.000000,,,,0.000000,4.000000,4.000000,4.000000,4.000000,4.000000,4.000000,4.000000,4.000000,4.000000,4.000000,4.000000,4.000000,4.000000,4.000000,100.000000
1602006396.401529,70.000000,0.000000,4147.179688,4139.487305,4139.487305,4137.948730,4135.384766,4141.538574,4143.077148,4145.128418,4155.897461,4155.897461,4142.051270,4155.384766,4144.615234,4142.563965,768.000000,4.000000,,,,0.000000,4.000000,4.000000,4.000000,4.000000,4.000000,4.000000,4.000000,4.000000,4.000000,4.000000,4.000000,4.000000,4.000000,4.000000,100.000000
1602006396.409410,71.000000,0.000000,4138.461426,4136.922852,4140.512695,4136.922852,4135.384766,4138.974121,4140.512695,4140.512695,4152.820313,4157.948730,4136.410156,4153.333496,4134.871582,4137.948730,673.000000,4.000000,,,,0.000000,4.000000,4.000000,4.000000,4.000000,4.000000,4.000000,4.000000,4.000000,4.000000,4.000000,4.000000,4.000000,4.000000,4.000000,100.000000
1602006396.417291,72.000000,0.000000,4136.410156,4128.717773,4140.512695,4134.358887,4135.384766,4136.410156,4136.410156,4128.205078,4128.717773,4113.333496,4135.384766,4149.230957,4122.051270,4135.384766,787.000000,4.000000,,,,0.000000,4.000000,4.000000,4.000000,4.000000,4.000000,4.000000,4.000000,4.000000,4.000000,4.000000,4.000000,4.000000,4.000000,4.000000,100.000000
1602006396.425173,73.000000,0.000000,4140.512695,4123.589844,4141.538574,4135.897461,4134.358887,4136.410156,4136.410156,4127.179688,4121.025879,4102.563965,4135.384766,4144.615234,4118.461426,4127.692383,834.000000,4.000000,,,,0.000000,4.000000,4.000000,4.000000,4.000000,4.000000,4.000000,4.000000,4.000000,4.000000,4.000000,4.000000,4.000000,4.000000,4.000000,100.000000
1602006396.433054,74.000000,0.000000,4133.846191,4124.615234,4144.102539,4139.487305,4136.922852,4138.974121,4142.051270,4137.948730,4134.358887,4135.384766,4137.436035,4141.538574,4124.615234,4124.615234,874.000000,4.000000,,,,0.000000,4.000000,4.000000,4.000000,4.000000,4.000000,4.000000,4.000000,4.000000,4.000000,4.000000,4.000000,4.000000,4.000000,4.000000,100.000000
1602006396.440936,75.000000,0.000000,4124.102539,4125.641113,4141.538574,4136.922852,4137.436035,4140.512695,4144.102539,4136.922852,4130.256348,4141.025879,4135.384766,4137.436035,4124.102539,4124.102539,832.000000,4.000000,,,,0.000000,4.000000,4.000000,4.000000,4.000000,4.000000,4.000000,4.000000,4.000000,4.000000,4.000000,4.000000,4.000000,4.000000,4.000000,100.000000
1602006396.448817,76.000000,0.000000,4127.692383,4124.102539,4137.436035,4133.846191,4131.794922,4134.871582,4140.000000,4123.077148,4109.230957,4126.153809,4122.563965,4135.384766,4114.871582,4129.230957,770.000000,4.000000,,,,0.000000,4.000000,4.000000,4.000000,4.000000,4.000000,4.000000,4.000000,4.000000,4.000000,4.000000,4.000000,4.000000,4.000000,4.000000,100.000000
1602006396.456698,77.000000,0.000000,4138.461426,4122.563965,4138.974121,4136.410156,4127.179688,4126.666504,4136.410156,4120.512695,4106.666504,4124.102539,4116.410156,4138.974121,4109.230957,4136.922852,738.000000,4.000000,,,,0.000000,4.000000,4.000000,4.000000,4.000000,4.000000,4.000000,4.000000,4.000000,4.000000,4.000000,4.000000,4.000000,4.000000,4.000000,100.000000
1602006396.464580,78.000000,0.000000,4136.922852,4120.512695,4138.974121,4131.282227,4127.179688,4125.128418,4130.256348,4121.538574,4111.282227,4119.487305,4122.051270,4137.436035,4106.666504,4128.205078,874.000000,4.000000,,,,0.000000,4.000000,4.000000,4.000000,4.000000,4.000000,4.000000,4.000000,4.000000,4.000000,4.000000,4.000000,4.000000,4.000000,4.000000,100.000000
1602006396.472461,79.000000,0.000000,4124.615234,4120.512695,4134.871582,4125.128418,4128.717773,4129.743652,4122.563965,4113.846191,4103.589844,4107.692383,4123.077148,4127.692383,4104.102539,4117.948730,832.000000,4.000000,,,,0.000000,4.000000,4.000000,4.000000,4.000000,4.000000,4.000000,4.000000,4.000000,4.000000,4.000000,4.000000,4.000000,4.000000,4.000000,100.000000
1602006396.480243,80.000000,0.000000,4120.512695,4123.077148,4133.846191,4132.307617,4131.794922,4135.897461,4121.538574,4115.384766,4109.230957,4100.000000,4123.077148,4123.589844,4111.794922,4123.589844,770.000000,4.000000,,,,0.000000,4.000000,4.000000,4.000000,4.000000,4.000000,4.000000,4.000000,4.000000,4.000000,4.000000,4.000000,4.000000,4.000000,4.000000,100.000000
1602006396.488125,81.000000,0.000000,4130.256348,4125.128418,4137.436035,4140.000000,4133.846191,4136.922852,4122.563965,4123.077148,4125.128418,4097.948730,4125.641113,4127.179688,4118.974121,4122.563965,738.000000,4.000000,,,,0.000000,4.000000,4.000000,4.000000,4.000000,4.000000,4.000000,4.000000,4.000000,4.000000,4.000000,4.000000,4.000000,4.000000,4.000000,100.000000
1602006396.496006,82.000000,0.000000,4137.948730,4130.256348,4139.487305,4136.922852,4134.358887,4136.410156,4127.179688,4123.077148,4124.615234,4113.333496,4122.563965,4131.282227,4111.282227,4117.436035,874.000000,4.000000,,,,0.000000,4.000000,4.000000,4.000000,4.000000,4.000000,4.000000,4.000000,4.000000,4.000000,4.000000,4.000000,4.000000,4.000000,4.000000,100.000000
1602006396.503888,83.000000,0.000000,4135.897461,4138.461426,4142.051270,4139.487305,4137.436035,4140.000000,4136.410156,4129.230957,4128.205078,4137.948730,4120.000000,4137.436035,4108.717773,4132.820313,832.000000,4.000000,,,,0.000000,4.000000,4.000000,4.000000,4.000000,4.000000,4.000000,4.000000,4.000000,4.000000,4.000000,4.000000,4.000000,4.000000,4.000000,100.000000
1602006396.511770,84.000000,0.000000,4135.384766,4140.000000,4147.179688,4145.641113,4140.512695,4142.051270,4143.589844,4141.025879,4145.128418,4143.589844,4127.692383,4144.102539,4122.051270,4147.179688,770.000000,4.000000,,,,0.000000,4.000000,4.000000,4.000000,4.000000,4.000000,4.000000,4.000000,4.000000,4.000000,4.000000,4.000000,4.000000,4.000000,4.000000,100.000000
1602006396.519651,85.000000,0.000000,4141.538574,4137.436035,4145.128418,4142.051270,4138.974121,4140.000000,4149.743652,4142.051270,4145.641113,4134.871582,4131.794922,4149.743652,4128.717773,4141.538574,738.000000,4.000000,,,,0.000000,4.000000,4.000000,4.000000,4.000000,4.000000,4.000000,4.000000,4.000000,4.000000,4.000000,4.000000,4.000000,4.000000,4.000000,100.000000
1602006396.527533,86.000000,0.000000,4138.974121,4134.871582,4140.512695,4135.897461,4136.922852,4140.512695,4152.307617,4138.461426,4135.384766,4132.820313,4125.641113,4151.794922,4124.615234,4138.461426,874.000000,4.000000,,,,0.000000,4.000000,4.000000,4.000000,4.000000,4.000000,4.000000,4.000000,4.000000,4.000000,4.000000,4.000000,4.000000,4.000000,4.000000,100.000000
1602006396.535415,87.000000,0.000000,4125.128418,4128.205078,4141.025879,4137.436035,4132.820313,4141.538574,4144.102539,4137.436035,4132.307617,4136.410156,4123.589844,4145.641113,4119.487305,4141.025879,832.000000,4.000000,,,,0.000000,4.000000,4.000000,4.000000,4.000000,4.000000,4.000000,4.000000,4.000000,4.000000,4.000000,4.000000,4.000000,4.000000,4.000000,100.000000
1602006396.543296,88.000000,0.000000,4118.974121,4118.461426,4134.871582,4137.948730,4133.333496,4135.897461,4132.307617,4128.205078,4126.153809,4128.205078,4124.615234,4137.436035,4110.256348,4129.743652,770.000000,4.000000,,,,0.000000,4.000000,4.000000,4.000000,4.000000,4.000000,4.000000,4.000000,4.000000,4.000000,4.000000,4.000000,4.000000,4.000000,4.000000,100.000000
1602006396.551278,89.000000,0.000000,4121.025879,4115.384766,4125.641113,4129.230957,4135.897461,4129.230957,4125.641113,4117.948730,4117.948730,4109.743652,4113.333496,4134.871582,4104.615234,4110.769043,738.000000,4.000000,,,,0.000000,4.000000,4.000000,4.000000,4.000000,4.000000,4.000000,4.000000,4.000000,4.000000,4.000000,4.000000,4.000000,4.000000,4.000000,100.000000
1602006396.559159,90.000000,0.000000,4120.000000,4118.974121,4131.794922,4125.641113,4132.820313,4125.641113,4121.538574,4118.461426,4118.461426,4105.128418,4109.230957,4135.897461,4105.128418,4111.794922,874.000000,4.000000,,,,0.000000,4.000000,4.000000,4.000000,4.000000,4.000000,4.000000,4.000000,4.000000,4.000000,4.000000,4.000000,4.000000,4.000000,4.000000,100.000000
1602006396.567041,91.000000,0.000000,4119.487305,4125.641113,4140.000000,4135.897461,4126.153809,4122.563965,4119.487305,4126.153809,4119.487305,4122.563965,4121.538574,4140.000000,4105.128418,4130.769043,832.000000,4.000000,,,,0.000000,4.000000,4.000000,4.000000,4.000000,4.000000,4.000000,4.000000,4.000000,4.000000,4.000000,4.000000,4.000000,4.000000,4.000000,100.000000
1602006396.574923,92.000000,0.000000,4130.256348,4133.846191,4138.461426,4142.051270,4129.743652,4120.000000,4120.512695,4129.230957,4118.974121,4132.820313,4128.205078,4146.153809,4112.820313,4143.077148,770.000000,4.000000,,,,0.000000,4.000000,4.000000,4.000000,4.000000,4.000000,4.000000,4.000000,4.000000,4.000000,4.000000,4.000000,4.000000,4.000000,4.000000,100.000000
1602006396.582804,93.000000,0.000000,4143.077148,4140.000000,4145.128418,4138.974121,4137.436035,4124.615234,4121.025879,4128.205078,4123.589844,4115.897461,4125.641113,4152.820313,4126.153809,4144.102539,738.000000,4.000000,,,,0.000000,4.000000,4.000000,4.000000,4.000000,4.000000,4.000000,4.000000,4.000000,4.000000,4.000000,4.000000,4.000000,4.000000,4.000000,100.000000
1602006396.590686,94.000000,0.000000,4142.051270,4138.461426,4151.794922,4139.487305,4133.333496,4126.153809,4127.692383,4126.153809,4121.538574,4105.128418,4127.179688,4153.846191,4127.179688,4144.615234,874.000000,4.000000,,,,0.000000,4.000000,4.000000,4.000000,4.000000,4.000000,4.000000,4.000000,4.000000,4.000000,4.000000,4.000000,4.000000,4.000000,4.000000,100.000000
1602006396.598568,95.000000,0.000000,4135.384766,4136.922852,4145.128418,4142.563965,4131.282227,4121.025879,4135.897461,4125.641113,4110.256348,4125.641113,4125.128418,4148.717773,4118.974121,4142.563965,832.000000,4.000000,,,,0.000000,4.000000,4.000000,4.000000,4.000000,4.000000,4.000000,4.000000,4.000000,4.000000,4.000000,4.000000,4.000000,4.000000,4.000000,100.000000
1602006396.606449,96.000000,0.000000,4137.436035,4138.974121,4138.974121,4138.974121,4134.871582,4126.666504,4140.512695,4124.102539,4110.256348,4136.410156,4121.025879,4143.589844,4118.974121,4138.461426,770.000000,4.000000,,,,0.000000,4.000000,4.000000,4.000000,4.000000,4.000000,4.000000,4.000000,4.000000,4.000000,4.000000,4.000000,4.000000,4.000000,4.000000,100.000000
1602006396.614331,97.000000,0.000000,4142.051270,4133.846191,4138.461426,4134.358887,4130.769043,4138.461426,4140.000000,4123.589844,4118.974121,4114.871582,4124.102539,4141.538574,4123.077148,4137.948730,738.000000,4.000000,,,,0.000000,4.000000,4.000000,4.000000,4.000000,4.000000,4.000000,4.000000,4.000000,4.000000,4.000000,4.000000,4.000000,4.000000,4.000000,100.000000
1602006396.622112,98.000000,0.000000,4138.974121,4127.179688,4136.410156,4134.871582,4122.563965,4141.025879,4137.436035,4126.153809,4113.333496,4106.153809,4125.641113,4137.948730,4119.487305,4136.922852,874.000000,4.000000,,,,0.000000,4.000000,4.000000,4.000000,4.000000,4.000000,4.000000,4.000000,4.000000,4.000000,4.000000,4.000000,4.000000,4.000000,4.000000,100.000000
1602006396.629994,99.000000,0.000000,4134.871582,4132.307617,4131.794922,4138.974121,4125.641113,4136.410156,4131.282227,4124.615234,4107.692383,4120.512695,4121.025879,4135.897461,4110.256348,4133.846191,832.000000,4.000000,,,,0.000000,4.000000,4.000000,4.000000,4.000000,4.000000,4.000000,4.000000,4.000000,4.000000,4.000000,4.000000,4.000000,4.000000,4.000000,100.000000
1602006396.637875,100.000000,0.000000,4134.871582,4139.487305,4130.256348,4140.000000,4133.846191,4130.256348,4121.538574,4116.922852,4116.410156,4113.846191,4119.487305,4135.384766,4104.615234,4136.410156,770.000000,4.000000,,,,0.000000,4.000000,4.000000,4.000000,4.000000,4.000000,4.000000,4.000000,4.000000,4.000000,4.000000,4.000000,4.000000,4.000000,4.000000,100.000000
1602006396.645757,101.000000,0.000000,4133.846191,4138.974121,4132.820313,4136.922852,4136.410156,4124.615234,4112.307617,4110.769043,4122.563965,4098.974121,4123.077148,4134.871582,4107.692383,4140.000000,738.000000,4.000000,,,,0.000000,4.000000,4.000000,4.000000,4.000000,4.000000,4.000000,4.000000,4.000000,4.000000,4.000000,4.000000,4.000000,4.000000,4.000000,100.000000
1602006396.653638,102.000000,0.000000,4133.846191,4136.922852,4137.436035,4136.410156,4136.410156,4121.538574,4107.179688,4112.307617,4118.461426,4113.846191,4123.077148,4136.410156,4112.307617,4140.512695,874.000000,4.000000,,,,0.000000,4.000000,4.000000,4.000000,4.000000,4.000000,4.000000,4.000000,4.000000,4.000000,4.000000,4.000000,4.000000,4.000000,4.000000,100.000000
1602006396.661519,103.000000,0.000000,4130.769043,4136.410156,4138.461426,4136.410156,4135.384766,4123.077148,4105.128418,4110.256348,4111.282227,4129.230957,4114.871582,4132.820313,4108.717773,4141.025879,832.000000,4.000000,,,,0.000000,4.000000,4.000000,4.000000,4.000000,4.000000,4.000000,4.000000,4.000000,4.000000,4.000000,4.000000,4.000000,4.000000,4.000000,100.000000
1602006396.669401,104.000000,0.000000,4123.077148,4137.436035,4137.948730,4136.410156,4135.384766,4122.563965,4107.692383,4106.153809,4104.615234,4121.025879,4109.743652,4124.102539,4104.615234,4137.436035,770.000000,4.000000,,,,0.000000,4.000000,4.000000,4.000000,4.000000,4.000000,4.000000,4.000000,4.000000,4.000000,4.000000,4.000000,4.000000,4.000000,4.000000,100.000000
1602006396.677282,105.000000,0.000000,4118.974121,4137.948730,4137.436035,4136.922852,4136.922852,4121.025879,4119.487305,4112.820313,4109.230957,4118.461426,4116.410156,4124.102539,4113.333496,4133.846191,738.000000,4.000000,,,,0.000000,4.000000,4.000000,4.000000,4.000000,4.000000,4.000000,4.000000,4.000000,4.000000,4.000000,4.000000,4.000000,4.000000,4.000000,100.000000
1602006396.685263,106.000000,0.000000,4123.589844,4130.769043,4132.820313,4133.333496,4137.948730,4128.205078,4126.153809,4121.538574,4114.871582,4122.563965,4123.589844,4129.743652,4125.128418,4137.948730,874.000000,4.000000,,,,0.000000,4.000000,4.000000,4.000000,4.000000,4.000000,4.000000,4.000000,4.000000,4.000000,4.000000,4.000000,4.000000,4.000000,4.000000,100.000000
1602006396.693145,107.000000,0.000000,4128.205078,4121.025879,4126.666504,4122.563965,4133.846191,4138.974121,4124.615234,4120.512695,4110.769043,4113.333496,4123.077148,4127.179688,4121.025879,4142.051270,832.000000,4.000000,,,,0.000000,4.000000,4.000000,4.000000,4.000000,4.000000,4.000000,4.000000,4.000000,4.000000,4.000000,4.000000,4.000000,4.000000,4.000000,100.000000
1602006396.701026,108.000000,0.000000,4123.077148,4120.512695,4126.153809,4118.974121,4126.153809,4139.487305,4131.282227,4122.563965,4120.512695,4114.871582,4123.589844,4127.179688,4113.333496,4137.436035,770.000000,4.000000,,,,0.000000,4.000000,4.000000,4.000000,4.000000,4.000000,4.000000,4.000000,4.000000,4.000000,4.000000,4.000000,4.000000,4.000000,4.000000,100.000000
1602006396.708908,109.000000,0.000000,4117.948730,4125.641113,4128.205078,4124.615234,4122.563965,4137.436035,4140.000000,4130.256348,4133.333496,4133.846191,4123.589844,4129.230957,4116.410156,4132.820313,738.000000,4.000000,,,,0.000000,4.000000,4.000000,4.000000,4.000000,4.000000,4.000000,4.000000,4.000000,4.000000,4.000000,4.000000,4.000000,4.000000,4.000000,100.000000
1602006396.716789,110.000000,0.000000,4126.666504,4124.615234,4123.589844,4126.153809,4125.641113,4139.487305,4138.974121,4135.384766,4127.692383,4143.077148,4121.025879,4123.589844,4118.974121,4135.897461,874.000000,4.000000,,,,0.000000,4.000000,4.000000,4.000000,4.000000,4.000000,4.000000,4.000000,4.000000,4.000000,4.000000,4.000000,4.000000,4.000000,4.000000,100.000000
1602006396.724670,111.000000,0.000000,4137.948730,4126.666504,4120.000000,4127.692383,4132.820313,4136.922852,4137.948730,4137.948730,4128.205078,4143.589844,4129.743652,4125.641113,4125.641113,4138.461426,832.000000,4.000000,,,,0.000000,4.000000,4.000000,4.000000,4.000000,4.000000,4.000000,4.000000,4.000000,4.000000,4.000000,4.000000,4.000000,4.000000,4.000000,100.000000
1602006396.732552,112.000000,0.000000,4136.410156,4138.974121,4129.230957,4135.384766,4137.948730,4134.871582,4139.487305,4141.538574,4144.615234,4152.820313,4137.948730,4139.487305,4137.948730,4140.512695,770.000000,4.000000,,,,0.000000,4.000000,4.000000,4.000000,4.000000,4.000000,4.000000,4.000000,4.000000,4.000000,4.000000,4.000000,4.000000,4.000000,4.000000,100.000000
1602006396.740433,113.000000,0.000000,4140.000000,4144.615234,4138.974121,4141.025879,4138.461426,4134.358887,4135.384766,4141.025879,4143.589844,4157.948730,4138.974121,4142.563965,4140.512695,4151.282227,738.000000,4.000000,,,,0.000000,4.000000,4.000000,4.000000,4.000000,4.000000,4.000000,4.000000,4.000000,4.000000,4.000000,4.000000,4.000000,4.000000,4.000000,100.000000
1602006396.748215,114.000000,0.000000,4151.794922,4141.025879,4142.563965,4140.512695,4137.436035,4132.820313,4134.871582,4134.358887,4127.179688,4137.948730,4149.743652,4138.461426,4136.922852,4163.077148,874.000000,4.000000,,,,0.000000,4.000000,4.000000,4.000000,4.000000,4.000000,4.000000,4.000000,4.000000,4.000000,4.000000,4.000000,4.000000,4.000000,4.000000,100.000000
1602006396.756097,115.000000,0.000000,4149.743652,4140.512695,4143.077148,4138.974121,4140.000000,4135.897461,4136.410156,4127.692383,4124.615234,4118.461426,4152.307617,4143.589844,4136.922852,4161.025879,832.000000,4.000000,,,,0.000000,4.000000,4.000000,4.000000,4.000000,4.000000,4.000000,4.000000,4.000000,4.000000,4.000000,4.000000,4.000000,4.000000,4.000000,100.000000
1602006396.763978,116.000000,0.000000,4139.487305,4140.000000,4143.077148,4137.948730,4140.512695,4142.563965,4129.230957,4124.102539,4130.769043,4128.717773,4133.333496,4143.589844,4128.205078,4148.205078,770.000000,4.000000,,,,0.000000,4.000000,4.000000,4.000000,4.000000,4.000000,4.000000,4.000000,4.000000,4.000000,4.000000,4.000000,4.000000,4.000000,4.000000,100.000000
1602006396.771860,117.000000,0.000000,4127.179688,4132.307617,4137.436035,4134.871582,4134.871582,4143.077148,4121.538574,4121.538574,4127.179688,4135.384766,4124.102539,4127.692383,4114.871582,4137.436035,738.000000,4.000000,,,,0.000000,4.000000,4.000000,4.000000,4.000000,4.000000,4.000000,4.000000,4.000000,4.000000,4.000000,4.000000,4.000000,4.000000,4.000000,100.000000
1602006396.779742,118.000000,0.000000,4110.769043,4120.512695,4122.563965,4127.179688,4125.641113,4131.794922,4120.000000,4118.974121,4112.820313,4121.538574,4126.666504,4110.256348,4107.179688,4121.538574,874.000000,4.000000,,,,0.000000,4.000000,4.000000,4.000000,4.000000,4.000000,4.000000,4.000000,4.000000,4.000000,4.000000,4.000000,4.000000,4.000000,4.000000,100.000000
1602006396.787623,119.000000,0.000000,4102.563965,4108.205078,4107.179688,4118.974121,4118.974121,4120.000000,4118.461426,4118.974121,4106.153809,4122.563965,4117.948730,4103.589844,4096.922852,4102.563965,832.000000,4.000000,,,,0.000000,4.000000,4.000000,4.000000,4.000000,4.000000,4.000000,4.000000,4.000000,4.000000,4.000000,4.000000,4.000000,4.000000,4.000000,100.000000
1602006396.795505,120.000000,0.000000,4104.615234,4108.717773,4103.077148,4119.487305,4118.461426,4120.000000,4120.000000,4123.589844,4116.922852,4132.307617,4115.384766,4109.743652,4094.871826,4107.692383,770.000000,4.000000,,,,0.000000,4.000000,4.000000,4.000000,4.000000,4.000000,4.000000,4.000000,4.000000,4.000000,4.000000,4.000000,4.000000,4.000000,4.000000,100.000000
