Timestamp,EEG.Counter,EEG.Interpolated,EEG.AF3,EEG.F7,EEG.F3,EEG.FC5,EEG.T7,EEG.P7,EEG.O1,EEG.O2,EEG.P8,EEG.T8,EEG.FC6,EEG.F4,EEG.F8,EEG.AF4,EEG.RawCq,EEG.Battery,MarkerIndex,MarkerType,MarkerValueInt,EEG.MarkerHardware,CQ.AF3,CQ.F7,CQ.F3,CQ.FC5,CQ.T7,CQ.P7,CQ.O1,CQ.O2,CQ.P8,CQ.T8,CQ.FC6,CQ.F4,CQ.F8,CQ.AF4,CQ.Overall
1602006566.502680,113.000000,0.000000,4138.974121,4161.025879,4137.436035,4132.307617,4115.384766,4112.307617,4141.538574,4144.102539,4140.512695,4161.025879,4130.769043,4143.589844,4107.179688,4108.205078,731.000000,4.000000,,,,0.000000,4.000000,4.000000,4.000000,4.000000,4.000000,4.000000,4.000000,4.000000,4.000000,4.000000,4.000000,4.000000,4.000000,4.000000,100.000000
1602006566.510461,114.000000,0.000000,4147.179688,4154.358887,4137.948730,4132.820313,4111.282227,4105.128418,4137.436035,4138.461426,4125.641113,4153.846191,4135.897461,4140.000000,4109.743652,4114.871582,876.000000,4.000000,,,,0.000000,4.000000,4.000000,4.000000,4.000000,4.000000,4.000000,4.000000,4.000000,4.000000,4.000000,4.000000,4.000000,4.000000,4.000000,100.000000
1602006566.518342,115.000000,0.000000,4153.846191,4153.333496,4138.974121,4136.922852,4119.487305,4119.487305,4133.846191,4131.282227,4111.794922,4129.743652,4141.538574,4138.974121,4111.794922,4124.102539,848.000000,4.000000,,,,0.000000,4.000000,4.000000,4.000000,4.000000,4.000000,4.000000,4.000000,4.000000,4.000000,4.000000,4.000000,4.000000,4.000000,4.000000,100.000000
1602006566.526223,116.000000,0.000000,4156.922852,4164.615234,4138.974121,4141.025879,4125.128418,4140.000000,4138.461426,4132.820313,4116.922852,4118.461426,4139.487305,4142.051270,4107.179688,4124.102539,774.000000,4.000000,,,,0.000000,4.000000,4.000000,4.000000,4.000000,4.000000,4.000000,4.000000,4.000000,4.000000,4.000000,4.000000,4.000000,4.000000,4.000000,100.000000
1602006566.534104,117.000000,0.000000,4156.410156,4169.230957,4135.384766,4140.512695,4124.102539,4147.179688,4141.538574,4135.384766,4125.641113,4124.102539,4135.897461,4135.384766,4106.153809,4106.666504,731.000000,4.000000,,,,0.000000,4.000000,4.000000,4.000000,4.000000,4.000000,4.000000,4.000000,4.000000,4.000000,4.000000,4.000000,4.000000,4.000000,4.000000,100.000000
1602006566.541986,118.000000,0.000000,4148.205078,4161.025879,4129.230957,4137.948730,4129.230957,4138.461426,4132.820313,4126.666504,4114.871582,4112.820313,4127.692383,4123.589844,4107.179688,4093.333252,876.000000,4.000000,,,,0.000000,4.000000,4.000000,4.000000,4.000000,4.000000,4.000000,4.000000,4.000000,4.000000,4.000000,4.000000,4.000000,4.000000,4.000000,100.000000
1602006566.549867,119.000000,0.000000,4136.922852,4154.358887,4123.589844,4135.384766,4135.384766,4129.743652,4122.051270,4119.487305,4103.589844,4102.051270,4127.692383,4119.487305,4104.615234,4100.000000,848.000000,4.000000,,,,0.000000,4.000000,4.000000,4.000000,4.000000,4.000000,4.000000,4.000000,4.000000,4.000000,4.000000,4.000000,4.000000,4.000000,4.000000,100.000000
1602006566.557748,120.000000,0.000000,4140.512695,4164.102539,4129.743652,4135.384766,4137.948730,4134.358887,4122.051270,4123.589844,4115.897461,4124.102539,4133.333496,4125.641113,4111.282227,4113.333496,774.000000,4.000000,,,,0.000000,4.000000,4.000000,4.000000,4.000000,4.000000,4.000000,4.000000,4.000000,4.000000,4.000000,4.000000,4.000000,4.000000,4.000000,100.000000
1602006566.565629,121.000000,0.000000,4152.820313,4168.717773,4140.000000,4141.025879,4139.487305,4135.897461,4127.179688,4125.128418,4128.717773,4152.307617,4130.256348,4133.846191,4117.948730,4112.820313,731.000000,4.000000,,,,0.000000,4.000000,4.000000,4.000000,4.000000,4.000000,4.000000,4.000000,4.000000,4.000000,4.000000,4.000000,4.000000,4.000000,4.000000,100.000000
1602006566.573510,122.000000,0.000000,4146.153809,4158.974121,4139.487305,4143.589844,4136.922852,4124.102539,4130.256348,4120.512695,4123.589844,4156.410156,4129.230957,4137.436035,4113.846191,4102.051270,876.000000,4.000000,,,,0.000000,4.000000,4.000000,4.000000,4.000000,4.000000,4.000000,4.000000,4.000000,4.000000,4.000000,4.000000,4.000000,4.000000,4.000000,100.000000
1602006566.581291,123.000000,0.000000,4135.384766,4161.538574,4138.461426,4142.563965,4135.897461,4124.102539,4135.897461,4127.692383,4129.230957,4148.205078,4140.000000,4136.922852,4116.410156,4111.282227,848.000000,4.000000,,,,0.000000,4.000000,4.000000,4.000000,4.000000,4.000000,4.000000,4.000000,4.000000,4.000000,4.000000,4.000000,4.000000,4.000000,4.000000,100.000000
1602006566.589172,124.000000,0.000000,4142.051270,4166.153809,4141.538574,4141.025879,4136.410156,4131.282227,4138.461426,4138.974121,4137.436035,4145.641113,4136.922852,4137.436035,4118.461426,4125.128418,774.000000,4.000000,,,,0.000000,4.000000,4.000000,4.000000,4.000000,4.000000,4.000000,4.000000,4.000000,4.000000,4.000000,4.000000,4.000000,4.000000,4.000000,100.000000
1602006566.597053,125.000000,0.000000,4147.692383,4154.871582,4140.512695,4139.487305,4134.358887,4128.205078,4130.256348,4138.461426,4122.563965,4134.871582,4123.077148,4138.461426,4106.153809,4111.794922,731.000000,4.000000,,,,0.000000,4.000000,4.000000,4.000000,4.000000,4.000000,4.000000,4.000000,4.000000,4.000000,4.000000,4.000000,4.000000,4.000000,4.000000,100.000000
1602006566.604934,126.000000,0.000000,4147.179688,4151.794922,4138.974121,4140.512695,4134.871582,4130.256348,4127.179688,4137.948730,4113.846191,4107.179688,4129.743652,4135.897461,4104.615234,4101.538574,876.000000,4.000000,,,,0.000000,4.000000,4.000000,4.000000,4.000000,4.000000,4.000000,4.000000,4.000000,4.000000,4.000000,4.000000,4.000000,4.000000,4.000000,100.000000
1602006566.612815,127.000000,0.000000,4155.384766,4161.538574,4141.538574,4144.102539,4136.922852,4142.563965,4136.410156,4144.615234,4126.153809,4098.974121,4138.461426,4137.436035,4116.410156,4112.307617,848.000000,4.000000,,,,0.000000,4.000000,4.000000,4.000000,4.000000,4.000000,4.000000,4.000000,4.000000,4.000000,4.000000,4.000000,4.000000,4.000000,4.000000,100.000000
1602006566.620696,128.000000,0.000000,4154.358887,4157.436035,4140.000000,4142.051270,4130.769043,4137.436035,4135.897461,4138.461426,4123.589844,4119.487305,4126.666504,4136.410156,4106.153809,4110.769043,774.000000,4.000000,,,,0.000000,4.000000,4.000000,4.000000,4.000000,4.000000,4.000000,4.000000,4.000000,4.000000,4.000000,4.000000,4.000000,4.000000,4.000000,100.000000
1602006566.628577,0.000000,0.000000,4136.922852,4148.205078,4132.820313,4131.282227,4122.563965,4118.974121,4124.615234,4122.051270,4102.051270,4127.179688,4108.717773,4122.563965,4087.692383,4097.436035,789.000000,4.000000,,,,0.000000,4.000000,4.000000,4.000000,4.000000,4.000000,4.000000,4.000000,4.000000,4.000000,4.000000,4.000000,4.000000,4.000000,4.000000,100.000000
1602006566.636358,1.000000,0.000000,4136.410156,4155.384766,4134.871582,4140.000000,4124.615234,4121.025879,4129.230957,4122.051270,4094.871826,4114.358887,4106.153809,4118.461426,4092.820557,4097.948730,790.000000,4.000000,,,,0.000000,4.000000,4.000000,4.000000,4.000000,4.000000,4.000000,4.000000,4.000000,4.000000,4.000000,4.000000,4.000000,4.000000,4.000000,100.000000
1602006566.644238,2.000000,0.000000,4153.846191,4167.692383,4144.102539,4156.410156,4133.846191,4138.974121,4141.025879,4136.922852,4111.794922,4121.538574,4122.051270,4136.922852,4110.256348,4114.358887,850.000000,4.000000,,,,0.000000,4.000000,4.000000,4.000000,4.000000,4.000000,4.000000,4.000000,4.000000,4.000000,4.000000,4.000000,4.000000,4.000000,4.000000,100.000000
1602006566.652119,3.000000,0.000000,4149.230957,4164.615234,4143.077148,4147.692383,4134.871582,4136.410156,4133.846191,4142.051270,4122.051270,4129.743652,4125.641113,4144.615234,4111.794922,4122.563965,868.000000,4.000000,,,,0.000000,4.000000,4.000000,4.000000,4.000000,4.000000,4.000000,4.000000,4.000000,4.000000,4.000000,4.000000,4.000000,4.000000,4.000000,100.000000
1602006566.660000,4.000000,0.000000,4131.282227,4149.743652,4135.384766,4133.846191,4125.641113,4118.461426,4121.025879,4130.256348,4112.820313,4106.153809,4112.307617,4127.179688,4094.871826,4110.769043,809.000000,4.000000,,,,0.000000,4.000000,4.000000,4.000000,4.000000,4.000000,4.000000,4.000000,4.000000,4.000000,4.000000,4.000000,4.000000,4.000000,4.000000,100.000000
1602006566.667781,5.000000,0.000000,4134.871582,4150.769043,4136.922852,4137.948730,4122.051270,4119.487305,4121.538574,4127.692383,4111.794922,4096.922852,4107.179688,4117.436035,4087.692383,4105.128418,824.000000,4.000000,,,,0.000000,4.000000,4.000000,4.000000,4.000000,4.000000,4.000000,4.000000,4.000000,4.000000,4.000000,4.000000,4.000000,4.000000,4.000000,100.000000
1602006566.675662,6.000000,0.000000,4142.563965,4159.487305,4138.974121,4140.000000,4125.641113,4130.769043,4125.128418,4134.358887,4126.153809,4110.256348,4106.666504,4122.563965,4089.230713,4107.179688,762.000000,4.000000,,,,0.000000,4.000000,4.000000,4.000000,4.000000,4.000000,4.000000,4.000000,4.000000,4.000000,4.000000,4.000000,4.000000,4.000000,4.000000,100.000000
1602006566.683543,7.000000,0.000000,4136.410156,4148.205078,4134.871582,4125.641113,4122.563965,4125.128418,4124.102539,4131.282227,4124.615234,4100.512695,4095.897461,4123.077148,4084.615479,4096.410156,671.000000,4.000000,,,,0.000000,4.000000,4.000000,4.000000,4.000000,4.000000,4.000000,4.000000,4.000000,4.000000,4.000000,4.000000,4.000000,4.000000,4.000000,100.000000
1602006566.691424,8.000000,0.000000,4134.358887,4136.410156,4136.922852,4121.538574,4118.974121,4112.307617,4123.077148,4126.153809,4115.897461,4089.743652,4097.436035,4118.461426,4082.564209,4088.718018,784.000000,4.000000,,,,0.000000,4.000000,4.000000,4.000000,4.000000,4.000000,4.000000,4.000000,4.000000,4.000000,4.000000,4.000000,4.000000,4.000000,4.000000,100.000000
1602006566.699306,9.000000,0.000000,4140.000000,4142.563965,4141.025879,4133.333496,4120.512695,4110.256348,4125.128418,4135.384766,4123.589844,4118.974121,4109.230957,4119.487305,4088.718018,4095.897461,834.000000,4.000000,,,,0.000000,4.000000,4.000000,4.000000,4.000000,4.000000,4.000000,4.000000,4.000000,4.000000,4.000000,4.000000,4.000000,4.000000,4.000000,100.000000
1602006566.707187,10.000000,0.000000,4140.000000,4145.641113,4142.051270,4138.974121,4119.487305,4108.205078,4125.128418,4141.538574,4126.153809,4131.282227,4106.666504,4123.589844,4095.897461,4104.615234,876.000000,4.000000,,,,0.000000,4.000000,4.000000,4.000000,4.000000,4.000000,4.000000,4.000000,4.000000,4.000000,4.000000,4.000000,4.000000,4.000000,4.000000,100.000000
1602006566.715068,11.000000,0.000000,4142.051270,4144.615234,4142.563965,4137.436035,4117.948730,4102.051270,4121.025879,4138.461426,4125.128418,4114.871582,4109.230957,4124.102539,4102.563965,4113.333496,845.000000,4.000000,,,,0.000000,4.000000,4.000000,4.000000,4.000000,4.000000,4.000000,4.000000,4.000000,4.000000,4.000000,4.000000,4.000000,4.000000,4.000000,100.000000
1602006566.722949,12.000000,0.000000,4147.179688,4149.230957,4142.051270,4138.461426,4123.077148,4112.820313,4126.153809,4142.051270,4134.871582,4128.205078,4126.666504,4126.666504,4109.230957,4122.563965,771.000000,4.000000,,,,0.000000,4.000000,4.000000,4.000000,4.000000,4.000000,4.000000,4.000000,4.000000,4.000000,4.000000,4.000000,4.000000,4.000000,4.000000,100.000000
1602006566.730830,13.000000,0.000000,4144.102539,4155.897461,4140.512695,4138.461426,4129.743652,4130.769043,4138.974121,4145.641113,4132.307617,4142.563965,4131.282227,4130.769043,4109.743652,4123.589844,731.000000,4.000000,,,,0.000000,4.000000,4.000000,4.000000,4.000000,4.000000,4.000000,4.000000,4.000000,4.000000,4.000000,4.000000,4.000000,4.000000,4.000000,100.000000
1602006566.738611,14.000000,0.000000,4139.487305,4151.794922,4134.358887,4136.410156,4127.692383,4128.717773,4135.897461,4137.436035,4114.358887,4117.436035,4118.461426,4127.179688,4106.666504,4111.794922,876.000000,4.000000,,,,0.000000,4.000000,4.000000,4.000000,4.000000,4.000000,4.000000,4.000000,4.000000,4.000000,4.000000,4.000000,4.000000,4.000000,4.000000,100.000000
1602006566.746492,15.000000,0.000000,4138.974121,4140.000000,4126.153809,4135.897461,4128.717773,4124.102539,4124.102539,4133.846191,4110.769043,4095.384521,4113.333496,4121.025879,4104.615234,4096.410156,845.000000,4.000000,,,,0.000000,4.000000,4.000000,4.000000,4.000000,4.000000,4.000000,4.000000,4.000000,4.000000,4.000000,4.000000,4.000000,4.000000,4.000000,100.000000
1602006566.754372,16.000000,0.000000,4137.436035,4139.487305,4128.717773,4136.410156,4138.461426,4132.307617,4125.128418,4139.487305,4120.512695,4110.256348,4125.128418,4124.615234,4103.589844,4101.025879,0.000000,4.000000,,,,0.000000,4.000000,4.000000,4.000000,4.000000,4.000000,4.000000,4.000000,4.000000,4.000000,4.000000,4.000000,4.000000,4.000000,4.000000,100.000000
1602006566.762253,17.000000,0.000000,4140.512695,4154.358887,4132.820313,4137.948730,4142.563965,4131.794922,4125.128418,4133.333496,4121.538574,4124.615234,4124.102539,4123.077148,4095.897461,4105.641113,0.000000,4.000000,,,,0.000000,4.000000,4.000000,4.000000,4.000000,4.000000,4.000000,4.000000,4.000000,4.000000,4.000000,4.000000,4.000000,4.000000,4.000000,100.000000
1602006566.770034,18.000000,0.000000,4141.538574,4159.487305,4122.051270,4138.974121,4140.000000,4122.051270,4112.307617,4120.000000,4117.436035,4110.769043,4108.205078,4109.230957,4083.076904,4090.256348,0.000000,4.000000,,,,0.000000,4.000000,4.000000,4.000000,4.000000,4.000000,4.000000,4.000000,4.000000,4.000000,4.000000,4.000000,4.000000,4.000000,4.000000,100.000000
1602006566.777915,19.000000,0.000000,4131.794922,4150.769043,4109.230957,4136.410156,4138.461426,4123.077148,4108.205078,4119.487305,4120.512695,4101.538574,4103.077148,4102.563965,4083.076904,4080.512939,0.000000,4.000000,,,,0.000000,4.000000,4.000000,4.000000,4.000000,4.000000,4.000000,4.000000,4.000000,4.000000,4.000000,4.000000,4.000000,4.000000,4.000000,100.000000
1602006566.785795,20.000000,0.000000,4124.102539,4149.230957,4108.205078,4135.384766,4136.410156,4129.230957,4118.461426,4124.615234,4133.846191,4113.333496,4106.666504,4109.743652,4088.718018,4079.487061,0.000000,4.000000,,,,0.000000,4.000000,4.000000,4.000000,4.000000,4.000000,4.000000,4.000000,4.000000,4.000000,4.000000,4.000000,4.000000,4.000000,4.000000,100.000000
1602006566.793676,21.000000,0.000000,4123.589844,4153.333496,4115.384766,4136.410156,4134.871582,4127.692383,4123.589844,4123.589844,4142.051270,4125.641113,4108.205078,4116.922852,4089.230713,4078.461426,0.000000,4.000000,,,,0.000000,4.000000,4.000000,4.000000,4.000000,4.000000,4.000000,4.000000,4.000000,4.000000,4.000000,4.000000,4.000000,4.000000,4.000000,100.000000
1602006566.801557,22.000000,0.000000,4124.102539,4151.794922,4121.025879,4135.384766,4136.922852,4123.077148,4120.000000,4123.589844,4141.025879,4126.153809,4120.000000,4123.589844,4100.512695,4090.769287,0.000000,4.000000,,,,0.000000,4.000000,4.000000,4.000000,4.000000,4.000000,4.000000,4.000000,4.000000,4.000000,4.000000,4.000000,4.000000,4.000000,4.000000,100.000000
1602006566.809337,23.000000,0.000000,4133.333496,4150.769043,4121.025879,4136.410156,4137.436035,4121.025879,4119.487305,4128.205078,4141.025879,4128.205078,4132.307617,4133.846191,4114.358887,4104.102539,0.000000,4.000000,,,,0.000000,4.000000,4.000000,4.000000,4.000000,4.000000,4.000000,4.000000,4.000000,4.000000,4.000000,4.000000,4.000000,4.000000,4.000000,100.000000
1602006566.817218,24.000000,0.000000,4146.153809,4156.410156,4126.153809,4140.000000,4139.487305,4129.743652,4125.128418,4130.256348,4144.102539,4129.230957,4125.641113,4139.487305,4109.230957,4109.743652,0.000000,4.000000,,,,0.000000,4.000000,4.000000,4.000000,4.000000,4.000000,4.000000,4.000000,4.000000,4.000000,4.000000,4.000000,4.000000,4.000000,4.000000,100.000000
1602006566.824998,25.000000,0.000000,4146.666504,4163.077148,4138.461426,4143.589844,4142.051270,4138.461426,4129.743652,4127.692383,4141.538574,4118.974121,4121.538574,4140.000000,4106.153809,4120.000000,0.000000,4.000000,,,,0.000000,4.000000,4.000000,4.000000,4.000000,4.000000,4.000000,4.000000,4.000000,4.000000,4.000000,4.000000,4.000000,4.000000,4.000000,100.000000
1602006566.832879,26.000000,0.000000,4139.487305,4159.487305,4139.487305,4144.615234,4138.974121,4128.717773,4127.179688,4124.102539,4130.256348,4113.333496,4124.102539,4143.589844,4110.769043,4112.307617,0.000000,4.000000,,,,0.000000,4.000000,4.000000,4.000000,4.000000,4.000000,4.000000,4.000000,4.000000,4.000000,4.000000,4.000000,4.000000,4.000000,4.000000,100.000000
1602006566.840659,27.000000,0.000000,4136.410156,4151.282227,4130.769043,4139.487305,4134.871582,4118.974121,4122.563965,4120.512695,4118.974121,4115.384766,4113.333496,4145.128418,4100.512695,4090.769287,0.000000,4.000000,,,,0.000000,4.000000,4.000000,4.000000,4.000000,4.000000,4.000000,4.000000,4.000000,4.000000,4.000000,4.000000,4.000000,4.000000,4.000000,100.000000
1602006566.848540,28.000000,0.000000,4139.487305,4150.769043,4126.153809,4136.410156,4135.384766,4131.282227,4128.205078,4122.563965,4116.922852,4115.384766,4106.153809,4142.563965,4086.666748,4097.948730,0.000000,4.000000,,,,0.000000,4.000000,4.000000,4.000000,4.000000,4.000000,4.000000,4.000000,4.000000,4.000000,4.000000,4.000000,4.000000,4.000000,4.000000,100.000000
1602006566.856421,29.000000,0.000000,4134.871582,4152.307617,4124.102539,4134.871582,4135.384766,4146.153809,4138.461426,4132.820313,4128.205078,4114.358887,4110.256348,4141.025879,4091.281982,4112.820313,0.000000,4.000000,,,,0.000000,4.000000,4.000000,4.000000,4.000000,4.000000,4.000000,4.000000,4.000000,4.000000,4.000000,4.000000,4.000000,4.000000,4.000000,100.000000
1602006566.864301,30.000000,0.000000,4121.538574,4150.256348,4121.538574,4129.230957,4134.358887,4142.051270,4139.487305,4133.846191,4136.922852,4124.615234,4107.179688,4141.025879,4102.051270,4100.512695,0.000000,4.000000,,,,0.000000,4.000000,4.000000,4.000000,4.000000,4.000000,4.000000,4.000000,4.000000,4.000000,4.000000,4.000000,4.000000,4.000000,4.000000,100.000000
1602006566.872182,31.000000,0.000000,4123.589844,4148.717773,4120.512695,4129.230957,4135.897461,4133.846191,4135.897461,4125.641113,4141.538574,4137.948730,4111.282227,4144.102539,4106.153809,4088.718018,0.000000,4.000000,,,,0.000000,4.000000,4.000000,4.000000,4.000000,4.000000,4.000000,4.000000,4.000000,4.000000,4.000000,4.000000,4.000000,4.000000,4.000000,100.000000
1602006566.880063,32.000000,0.000000,4137.948730,4152.820313,4120.512695,4136.410156,4138.974121,4138.974121,4132.307617,4130.769043,4151.282227,4136.922852,4133.846191,4152.307617,4114.358887,4104.102539,0.000000,4.000000,,,,0.000000,4.000000,4.000000,4.000000,4.000000,4.000000,4.000000,4.000000,4.000000,4.000000,4.000000,4.000000,4.000000,4.000000,4.000000,100.000000
1602006566.887844,33.000000,0.000000,4139.487305,4156.410156,4124.102539,4137.948730,4142.051270,4144.102539,4126.666504,4137.436035,4160.000000,4133.333496,4140.512695,4156.410156,4126.153809,4125.128418,0.000000,4.000000,,,,0.000000,4.000000,4.000000,4.000000,4.000000,4.000000,4.000000,4.000000,4.000000,4.000000,4.000000,4.000000,4.000000,4.000000,4.000000,100.000000
1602006566.895725,34.000000,0.000000,4133.333496,4154.871582,4133.333496,4137.436035,4142.051270,4134.358887,4121.538574,4127.692383,4158.461426,4138.974121,4127.692383,4156.410156,4128.205078,4127.179688,0.000000,4.000000,,,,0.000000,4.000000,4.000000,4.000000,4.000000,4.000000,4.000000,4.000000,4.000000,4.000000,4.000000,4.000000,4.000000,4.000000,4.000000,100.000000
1602006566.903606,35.000000,0.000000,4137.948730,4150.256348,4136.922852,4138.461426,4137.948730,4118.974121,4116.410156,4120.000000,4146.666504,4144.615234,4124.102539,4155.897461,4121.025879,4110.769043,0.000000,4.000000,,,,0.000000,4.000000,4.000000,4.000000,4.000000,4.000000,4.000000,4.000000,4.000000,4.000000,4.000000,4.000000,4.000000,4.000000,4.000000,100.000000
1602006566.911487,36.000000,0.000000,4141.025879,4151.282227,4135.384766,4136.410156,4137.436035,4119.487305,4114.871582,4123.589844,4141.025879,4142.051270,4130.256348,4155.897461,4118.974121,4105.128418,0.000000,4.000000,,,,0.000000,4.000000,4.000000,4.000000,4.000000,4.000000,4.000000,4.000000,4.000000,4.000000,4.000000,4.000000,4.000000,4.000000,4.000000,100.000000
1602006566.919368,37.000000,0.000000,4137.948730,4153.846191,4136.922852,4135.897461,4140.512695,4130.256348,4122.563965,4125.128418,4142.563965,4138.461426,4137.948730,4157.436035,4124.615234,4118.461426,0.000000,4.000000,,,,0.000000,4.000000,4.000000,4.000000,4.000000,4.000000,4.000000,4.000000,4.000000,4.000000,4.000000,4.000000,4.000000,4.000000,4.000000,100.000000
1602006566.927249,38.000000,0.000000,4138.974121,4150.769043,4141.025879,4136.922852,4140.512695,4129.230957,4124.102539,4124.102539,4140.512695,4132.820313,4137.436035,4157.436035,4120.000000,4125.128418,0.000000,4.000000,,,,0.000000,4.000000,4.000000,4.000000,4.000000,4.000000,4.000000,4.000000,4.000000,4.000000,4.000000,4.000000,4.000000,4.000000,4.000000,100.000000
1602006566.935030,39.000000,0.000000,4144.102539,4149.230957,4140.512695,4135.897461,4139.487305,4126.153809,4122.563965,4125.641113,4134.358887,4130.256348,4125.641113,4154.358887,4112.820313,4120.000000,0.000000,4.000000,,,,0.000000,4.000000,4.000000,4.000000,4.000000,4.000000,4.000000,4.000000,4.000000,4.000000,4.000000,4.000000,4.000000,4.000000,4.000000,100.000000
1602006566.942911,40.000000,0.000000,4143.589844,4153.333496,4139.487305,4138.974121,4138.974121,4142.051270,4133.333496,4125.641113,4136.922852,4133.846191,4118.461426,4152.820313,4117.436035,4122.563965,0.000000,4.000000,,,,0.000000,4.000000,4.000000,4.000000,4.000000,4.000000,4.000000,4.000000,4.000000,4.000000,4.000000,4.000000,4.000000,4.000000,4.000000,100.000000
1602006566.950792,41.000000,0.000000,4137.436035,4153.846191,4136.922852,4140.512695,4138.974121,4154.358887,4138.461426,4124.102539,4147.179688,4129.230957,4120.512695,4152.307617,4122.051270,4126.153809,0.000000,4.000000,,,,0.000000,4.000000,4.000000,4.000000,4.000000,4.000000,4.000000,4.000000,4.000000,4.000000,4.000000,4.000000,4.000000,4.000000,4.000000,100.000000
1602006566.958673,42.000000,0.000000,4141.538574,4154.871582,4134.358887,4137.948730,4147.179688,4145.128418,4125.128418,4122.563965,4149.743652,4122.051270,4122.051270,4151.794922,4121.025879,4121.538574,0.000000,4.000000,,,,0.000000,4.000000,4.000000,4.000000,4.000000,4.000000,4.000000,4.000000,4.000000,4.000000,4.000000,4.000000,4.000000,4.000000,4.000000,100.000000
1602006566.966554,43.000000,0.000000,4152.307617,4161.025879,4139.487305,4143.589844,4153.846191,4139.487305,4120.000000,4120.512695,4145.641113,4135.384766,4127.179688,4154.871582,4123.077148,4124.615234,0.000000,4.000000,,,,0.000000,4.000000,4.000000,4.000000,4.000000,4.000000,4.000000,4.000000,4.000000,4.000000,4.000000,4.000000,4.000000,4.000000,4.000000,100.000000
1602006566.974436,44.000000,0.000000,4154.358887,4161.538574,4142.051270,4153.846191,4148.205078,4142.051270,4119.487305,4120.512695,4142.051270,4153.846191,4130.769043,4160.000000,4125.641113,4127.692383,0.000000,4.000000,,,,0.000000,4.000000,4.000000,4.000000,4.000000,4.000000,4.000000,4.000000,4.000000,4.000000,4.000000,4.000000,4.000000,4.000000,4.000000,100.000000
1602006566.982317,45.000000,0.000000,4151.794922,4158.974121,4137.948730,4152.820313,4142.563965,4129.230957,4115.384766,4122.051270,4140.000000,4146.666504,4125.128418,4158.974121,4120.512695,4126.153809,0.000000,4.000000,,,,0.000000,4.000000,4.000000,4.000000,4.000000,4.000000,4.000000,4.000000,4.000000,4.000000,4.000000,4.000000,4.000000,4.000000,4.000000,100.000000
1602006566.990198,46.000000,0.000000,4147.692383,4161.025879,4138.974121,4143.077148,4142.563965,4117.948730,4118.461426,4122.051270,4139.487305,4135.384766,4131.794922,4151.282227,4115.897461,4130.256348,0.000000,4.000000,,,,0.000000,4.000000,4.000000,4.000000,4.000000,4.000000,4.000000,4.000000,4.000000,4.000000,4.000000,4.000000,4.000000,4.000000,4.000000,100.000000
1602006566.998079,47.000000,0.000000,4132.307617,4151.282227,4138.461426,4135.897461,4138.974121,4127.692383,4126.153809,4121.025879,4138.461426,4143.077148,4138.974121,4142.563965,4112.820313,4122.051270,0.000000,4.000000,,,,0.000000,4.000000,4.000000,4.000000,4.000000,4.000000,4.000000,4.000000,4.000000,4.000000,4.000000,4.000000,4.000000,4.000000,4.000000,100.000000
1602006567.005960,48.000000,0.000000,4118.461426,4137.436035,4127.692383,4133.846191,4136.410156,4136.410156,4123.589844,4121.538574,4136.410156,4139.487305,4119.487305,4138.461426,4107.179688,4105.128418,0.000000,4.000000,,,,0.000000,4.000000,4.000000,4.000000,4.000000,4.000000,4.000000,4.000000,4.000000,4.000000,4.000000,4.000000,4.000000,4.000000,4.000000,100.000000
1602006567.013741,49.000000,0.000000,4128.205078,4144.102539,4127.179688,4135.384766,4139.487305,4135.384766,4122.563965,4123.589844,4134.871582,4122.051270,4106.153809,4139.487305,4108.717773,4110.256348,0.000000,4.000000,,,,0.000000,4.000000,4.000000,4.000000,4.000000,4.000000,4.000000,4.000000,4.000000,4.000000,4.000000,4.000000,4.000000,4.000000,4.000000,100.000000
1602006567.021622,50.000000,0.000000,4137.948730,4154.358887,4136.922852,4136.410156,4141.025879,4137.948730,4127.692383,4126.153809,4133.333496,4118.461426,4119.487305,4146.153809,4110.256348,4125.641113,0.000000,4.000000,,,,0.000000,4.000000,4.000000,4.000000,4.000000,4.000000,4.000000,4.000000,4.000000,4.000000,4.000000,4.000000,4.000000,4.000000,4.000000,100.000000
1602006567.029502,51.000000,0.000000,4133.333496,4149.230957,4136.410156,4136.410156,4139.487305,4139.487305,4126.153809,4122.563965,4124.102539,4117.948730,4127.179688,4150.769043,4107.179688,4125.128418,0.000000,4.000000,,,,0.000000,4.000000,4.000000,4.000000,4.000000,4.000000,4.000000,4.000000,4.000000,4.000000,4.000000,4.000000,4.000000,4.000000,4.000000,100.000000
1602006567.037383,52.000000,0.000000,4134.871582,4149.230957,4134.358887,4137.436035,4136.922852,4141.025879,4123.077148,4116.922852,4120.000000,4100.512695,4121.025879,4152.307617,4108.205078,4122.563965,0.000000,4.000000,,,,0.000000,4.000000,4.000000,4.000000,4.000000,4.000000,4.000000,4.000000,4.000000,4.000000,4.000000,4.000000,4.000000,4.000000,4.000000,100.000000
1602006567.045264,53.000000,0.000000,4145.128418,4154.871582,4142.051270,4140.512695,4135.897461,4145.128418,4122.051270,4119.487305,4124.102539,4105.641113,4122.051270,4152.307617,4109.230957,4123.077148,0.000000,4.000000,,,,0.000000,4.000000,4.000000,4.000000,4.000000,4.000000,4.000000,4.000000,4.000000,4.000000,4.000000,4.000000,4.000000,4.000000,4.000000,100.000000
1602006567.053045,54.000000,0.000000,4146.666504,4153.333496,4142.563965,4141.025879,4136.922852,4144.615234,4121.025879,4123.077148,4126.666504,4135.897461,4126.153809,4151.282227,4105.128418,4124.615234,0.000000,4.000000,,,,0.000000,4.000000,4.000000,4.000000,4.000000,4.000000,4.000000,4.000000,4.000000,4.000000,4.000000,4.000000,4.000000,4.000000,4.000000,100.000000
1602006567.060926,55.000000,0.000000,4138.461426,4148.205078,4134.358887,4136.410156,4136.410156,4137.948730,4121.025879,4119.487305,4129.230957,4138.461426,4124.102539,4149.743652,4109.743652,4128.205078,0.000000,4.000000,,,,0.000000,4.000000,4.000000,4.000000,4.000000,4.000000,4.000000,4.000000,4.000000,4.000000,4.000000,4.000000,4.000000,4.000000,4.000000,100.000000
1602006567.068807,56.000000,0.000000,4135.384766,4150.256348,4135.384766,4137.436035,4137.436035,4133.333496,4122.563965,4117.948730,4134.358887,4131.794922,4122.563965,4150.256348,4120.000000,4126.666504,0.000000,4.000000,,,,0.000000,4.000000,4.000000,4.000000,4.000000,4.000000,4.000000,4.000000,4.000000,4.000000,4.000000,4.000000,4.000000,4.000000,4.000000,100.000000
1602006567.076689,57.000000,0.000000,4137.436035,4154.358887,4139.487305,4142.051270,4138.974121,4136.410156,4123.589844,4120.000000,4135.897461,4139.487305,4122.563965,4148.717773,4114.358887,4121.025879,0.000000,4.000000,,,,0.000000,4.000000,4.000000,4.000000,4.000000,4.000000,4.000000,4.000000,4.000000,4.000000,4.000000,4.000000,4.000000,4.000000,4.000000,100.000000
1602006567.084570,58.000000,0.000000,4136.922852,4153.333496,4135.897461,4138.461426,4137.436035,4134.358887,4124.102539,4118.461426,4132.820313,4129.743652,4114.871582,4143.589844,4102.563965,4120.512695,0.000000,4.000000,,,,0.000000,4.000000,4.000000,4.000000,4.000000,4.000000,4.000000,4.000000,4.000000,4.000000,4.000000,4.000000,4.000000,4.000000,4.000000,100.000000
1602006567.092451,59.000000,0.000000,4134.871582,4151.794922,4135.897461,4138.461426,4137.948730,4130.256348,4131.282227,4119.487305,4132.307617,4112.820313,4113.333496,4147.179688,4112.307617,4129.743652,0.000000,4.000000,,,,0.000000,4.000000,4.000000,4.000000,4.000000,4.000000,4.000000,4.000000,4.000000,4.000000,4.000000,4.000000,4.000000,4.000000,4.000000,100.000000
1602006567.100332,60.000000,0.000000,4138.461426,4153.333496,4146.666504,4146.666504,4138.974121,4132.820313,4134.871582,4123.589844,4130.769043,4121.538574,4130.256348,4154.358887,4127.692383,4136.922852,0.000000,4.000000,,,,0.000000,4.000000,4.000000,4.000000,4.000000,4.000000,4.000000,4.000000,4.000000,4.000000,4.000000,4.000000,4.000000,4.000000,4.000000,100.000000
1602006567.108213,61.000000,0.000000,4143.077148,4153.846191,4154.358887,4143.589844,4138.461426,4137.436035,4129.230957,4123.077148,4125.128418,4131.794922,4143.077148,4156.922852,4125.641113,4132.307617,0.000000,4.000000,,,,0.000000,4.000000,4.000000,4.000000,4.000000,4.000000,4.000000,4.000000,4.000000,4.000000,4.000000,4.000000,4.000000,4.000000,4.000000,100.000000
1602006567.116094,62.000000,0.000000,4142.563965,4152.307617,4150.769043,4136.922852,4140.512695,4136.410156,4125.128418,4121.025879,4120.000000,4130.256348,4133.846191,4150.769043,4120.512695,4123.077148,0.000000,4.000000,,,,0.000000,4.000000,4.000000,4.000000,4.000000,4.000000,4.000000,4.000000,4.000000,4.000000,4.000000,4.000000,4.000000,4.000000,4.000000,100.000000
1602006567.123875,63.000000,0.000000,4138.974121,4152.820313,4141.025879,4140.512695,4142.051270,4133.333496,4124.102539,4123.589844,4123.077148,4138.461426,4122.563965,4138.461426,4120.000000,4120.512695,0.000000,4.000000,,,,0.000000,4.000000,4.000000,4.000000,4.000000,4.000000,4.000000,4.000000,4.000000,4.000000,4.000000,4.000000,4.000000,4.000000,4.000000,100.000000
1602006567.131756,64.000000,0.000000,4131.282227,4149.743652,4129.743652,4139.487305,4138.974121,4137.948730,4123.077148,4125.641113,4133.846191,4138.974121,4121.538574,4134.871582,4111.794922,4120.000000,789.000000,4.000000,,,,0.000000,4.000000,4.000000,4.000000,4.000000,4.000000,4.000000,4.000000,4.000000,4.000000,4.000000,4.000000,4.000000,4.000000,4.000000,100.000000
1602006567.139637,65.000000,0.000000,4128.205078,4146.666504,4120.512695,4132.307617,4138.974121,4144.615234,4125.641113,4123.589844,4141.538574,4128.205078,4120.000000,4139.487305,4109.230957,4119.487305,790.000000,4.000000,,,,0.000000,4.000000,4.000000,4.000000,4.000000,4.000000,4.000000,4.000000,4.000000,4.000000,4.000000,4.000000,4.000000,4.000000,4.000000,100.000000
1602006567.147518,66.000000,0.000000,4133.333496,4150.256348,4120.512695,4132.820313,4143.077148,4141.538574,4129.230957,4125.641113,4147.179688,4140.000000,4121.538574,4139.487305,4119.487305,4124.615234,850.000000,4.000000,,,,0.000000,4.000000,4.000000,4.000000,4.000000,4.000000,4.000000,4.000000,4.000000,4.000000,4.000000,4.000000,4.000000,4.000000,4.000000,100.000000
1602006567.155399,67.000000,0.000000,4136.922852,4151.282227,4129.230957,4137.948730,4141.538574,4135.384766,4130.256348,4130.769043,4153.846191,4154.358887,4132.307617,4138.974121,4122.051270,4128.717773,868.000000,4.000000,,,,0.000000,4.000000,4.000000,4.000000,4.000000,4.000000,4.000000,4.000000,4.000000,4.000000,4.000000,4.000000,4.000000,4.000000,4.000000,100.000000
1602006567.163280,68.000000,0.000000,4140.000000,4151.794922,4136.922852,4139.487305,4139.487305,4143.077148,4133.846191,4127.692383,4154.358887,4146.153809,4135.897461,4149.230957,4127.179688,4136.410156,809.000000,4.000000,,,,0.000000,4.000000,4.000000,4.000000,4.000000,4.000000,4.000000,4.000000,4.000000,4.000000,4.000000,4.000000,4.000000,4.000000,4.000000,100.000000
1602006567.171061,69.000000,0.000000,4140.000000,4154.871582,4136.922852,4140.000000,4141.538574,4152.820313,4136.922852,4120.512695,4138.974121,4127.179688,4127.179688,4154.871582,4136.410156,4146.153809,824.000000,4.000000,,,,0.000000,4.000000,4.000000,4.000000,4.000000,4.000000,4.000000,4.000000,4.000000,4.000000,4.000000,4.000000,4.000000,4.000000,4.000000,100.000000
1602006567.178942,70.000000,0.000000,4135.897461,4155.897461,4135.384766,4144.102539,4138.974121,4144.102539,4135.384766,4118.461426,4122.563965,4122.563965,4127.179688,4145.128418,4129.743652,4143.077148,762.000000,4.000000,,,,0.000000,4.000000,4.000000,4.000000,4.000000,4.000000,4.000000,4.000000,4.000000,4.000000,4.000000,4.000000,4.000000,4.000000,4.000000,100.000000
1602006567.186824,71.000000,0.000000,4142.563965,4155.897461,4139.487305,4153.333496,4137.948730,4135.384766,4135.897461,4124.615234,4124.615234,4140.512695,4136.922852,4137.436035,4120.512695,4134.871582,669.000000,4.000000,,,,0.000000,4.000000,4.000000,4.000000,4.000000,4.000000,4.000000,4.000000,4.000000,4.000000,4.000000,4.000000,4.000000,4.000000,4.000000,100.000000
1602006567.194705,72.000000,0.000000,4157.948730,4161.538574,4142.051270,4154.358887,4143.077148,4137.436035,4138.461426,4135.897461,4141.538574,4171.282227,4141.538574,4142.051270,4124.102539,4138.461426,784.000000,4.000000,,,,0.000000,4.000000,4.000000,4.000000,4.000000,4.000000,4.000000,4.000000,4.000000,4.000000,4.000000,4.000000,4.000000,4.000000,4.000000,100.000000
1602006567.202586,73.000000,0.000000,4153.846191,4159.487305,4140.000000,4145.641113,4145.128418,4138.974121,4139.487305,4142.051270,4145.641113,4177.948730,4135.384766,4142.563965,4128.205078,4142.563965,834.000000,4.000000,,,,0.000000,4.000000,4.000000,4.000000,4.000000,4.000000,4.000000,4.000000,4.000000,4.000000,4.000000,4.000000,4.000000,4.000000,4.000000,100.000000
1602006567.210467,74.000000,0.000000,4137.436035,4144.615234,4137.948730,4136.922852,4137.436035,4135.384766,4138.974121,4137.948730,4125.641113,4149.230957,4122.563965,4133.846191,4122.051270,4135.897461,876.000000,4.000000,,,,0.000000,4.000000,4.000000,4.000000,4.000000,4.000000,4.000000,4.000000,4.000000,4.000000,4.000000,4.000000,4.000000,4.000000,4.000000,100.000000
1602006567.218348,75.000000,0.000000,4136.922852,4140.000000,4139.487305,4138.974121,4137.436035,4133.846191,4137.436035,4135.384766,4117.948730,4142.051270,4122.563965,4133.846191,4117.948730,4131.282227,845.000000,4.000000,,,,0.000000,4.000000,4.000000,4.000000,4.000000,4.000000,4.000000,4.000000,4.000000,4.000000,4.000000,4.000000,4.000000,4.000000,4.000000,100.000000
1602006567.226229,76.000000,0.000000,4141.538574,4151.282227,4141.538574,4145.641113,4143.077148,4136.922852,4135.897461,4138.461426,4134.871582,4152.820313,4137.948730,4140.512695,4127.692383,4133.333496,769.000000,4.000000,,,,0.000000,4.000000,4.000000,4.000000,4.000000,4.000000,4.000000,4.000000,4.000000,4.000000,4.000000,4.000000,4.000000,4.000000,4.000000,100.000000
1602006567.234111,77.000000,0.000000,4136.922852,4156.410156,4140.000000,4145.128418,4141.025879,4141.025879,4134.871582,4138.461426,4144.615234,4139.487305,4144.102539,4142.051270,4140.512695,4142.051270,731.000000,4.000000,,,,0.000000,4.000000,4.000000,4.000000,4.000000,4.000000,4.000000,4.000000,4.000000,4.000000,4.000000,4.000000,4.000000,4.000000,4.000000,100.000000
1602006567.241891,78.000000,0.000000,4134.358887,4149.743652,4138.974121,4143.077148,4145.641113,4146.153809,4136.410156,4138.461426,4138.461426,4129.743652,4135.384766,4141.538574,4136.922852,4150.769043,876.000000,4.000000,,,,0.000000,4.000000,4.000000,4.000000,4.000000,4.000000,4.000000,4.000000,4.000000,4.000000,4.000000,4.000000,4.000000,4.000000,4.000000,100.000000
1602006567.249772,79.000000,0.000000,4137.948730,4142.563965,4137.436035,4141.538574,4150.256348,4153.846191,4137.436035,4134.871582,4132.307617,4143.077148,4132.307617,4141.538574,4124.615234,4146.153809,845.000000,4.000000,,,,0.000000,4.000000,4.000000,4.000000,4.000000,4.000000,4.000000,4.000000,4.000000,4.000000,4.000000,4.000000,4.000000,4.000000,4.000000,100.000000
1602006567.257552,80.000000,0.000000,4145.128418,4145.128418,4141.025879,4140.512695,4142.051270,4153.846191,4134.871582,4126.153809,4128.717773,4149.230957,4136.410156,4139.487305,4122.051270,4142.051270,769.000000,4.000000,,,,0.000000,4.000000,4.000000,4.000000,4.000000,4.000000,4.000000,4.000000,4.000000,4.000000,4.000000,4.000000,4.000000,4.000000,4.000000,100.000000
1602006567.265433,81.000000,0.000000,4152.820313,4151.794922,4148.205078,4144.102539,4135.897461,4144.102539,4134.358887,4125.128418,4126.153809,4150.769043,4141.538574,4138.461426,4125.128418,4141.538574,731.000000,4.000000,,,,0.000000,4.000000,4.000000,4.000000,4.000000,4.000000,4.000000,4.000000,4.000000,4.000000,4.000000,4.000000,4.000000,4.000000,4.000000,100.000000
1602006567.273314,82.000000,0.000000,4150.769043,4156.410156,4147.179688,4149.230957,4139.487305,4138.461426,4136.410156,4131.794922,4127.179688,4156.410156,4144.615234,4137.948730,4125.128418,4132.307617,876.000000,4.000000,,,,0.000000,4.000000,4.000000,4.000000,4.000000,4.000000,4.000000,4.000000,4.000000,4.000000,4.000000,4.000000,4.000000,4.000000,4.000000,100.000000
1602006567.281194,83.000000,0.000000,4141.025879,4153.846191,4141.025879,4145.641113,4138.461426,4140.512695,4138.974121,4136.922852,4127.692383,4144.615234,4133.846191,4137.436035,4122.563965,4129.230957,845.000000,4.000000,,,,0.000000,4.000000,4.000000,4.000000,4.000000,4.000000,4.000000,4.000000,4.000000,4.000000,4.000000,4.000000,4.000000,4.000000,4.000000,100.000000
1602006567.288976,84.000000,0.000000,4135.384766,4145.128418,4135.897461,4138.974121,4135.384766,4137.436035,4136.922852,4134.871582,4124.102539,4132.307617,4121.025879,4138.461426,4120.000000,4136.410156,769.000000,4.000000,,,,0.000000,4.000000,4.000000,4.000000,4.000000,4.000000,4.000000,4.000000,4.000000,4.000000,4.000000,4.000000,4.000000,4.000000,4.000000,100.000000
1602006567.296856,85.000000,0.000000,4127.179688,4136.410156,4127.692383,4137.948730,4136.922852,4125.128418,4127.692383,4128.717773,4114.871582,4135.897461,4118.974121,4133.333496,4114.358887,4127.692383,731.000000,4.000000,,,,0.000000,4.000000,4.000000,4.000000,4.000000,4.000000,4.000000,4.000000,4.000000,4.000000,4.000000,4.000000,4.000000,4.000000,4.000000,100.000000
1602006567.304737,86.000000,0.000000,4114.871582,4133.846191,4118.974121,4136.410156,4134.358887,4116.922852,4118.461426,4120.000000,4109.230957,4133.846191,4123.077148,4123.077148,4105.641113,4109.743652,876.000000,4.000000,,,,0.000000,4.000000,4.000000,4.000000,4.000000,4.000000,4.000000,4.000000,4.000000,4.000000,4.000000,4.000000,4.000000,4.000000,4.000000,100.000000
1602006567.312618,87.000000,0.000000,4115.897461,4134.871582,4118.461426,4136.410156,4134.871582,4126.153809,4117.948730,4119.487305,4117.436035,4135.897461,4127.692383,4125.128418,4110.256348,4111.794922,845.000000,4.000000,,,,0.000000,4.000000,4.000000,4.000000,4.000000,4.000000,4.000000,4.000000,4.000000,4.000000,4.000000,4.000000,4.000000,4.000000,4.000000,100.000000
1602006567.320499,88.000000,0.000000,4132.307617,4139.487305,4127.179688,4140.000000,4138.974121,4140.000000,4122.563965,4131.282227,4133.846191,4150.256348,4136.922852,4136.922852,4125.128418,4129.743652,769.000000,4.000000,,,,0.000000,4.000000,4.000000,4.000000,4.000000,4.000000,4.000000,4.000000,4.000000,4.000000,4.000000,4.000000,4.000000,4.000000,4.000000,100.000000
1602006567.328380,89.000000,0.000000,4144.615234,4147.692383,4136.922852,4140.000000,4138.974121,4142.563965,4125.641113,4138.974121,4148.717773,4156.922852,4140.512695,4141.538574,4129.230957,4141.538574,731.000000,4.000000,,,,0.000000,4.000000,4.000000,4.000000,4.000000,4.000000,4.000000,4.000000,4.000000,4.000000,4.000000,4.000000,4.000000,4.000000,4.000000,100.000000
1602006567.336161,90.000000,0.000000,4142.051270,4147.692383,4141.025879,4141.538574,4137.436035,4136.922852,4123.589844,4136.922852,4155.384766,4149.230957,4135.897461,4137.948730,4127.692383,4140.512695,876.000000,4.000000,,,,0.000000,4.000000,4.000000,4.000000,4.000000,4.000000,4.000000,4.000000,4.000000,4.000000,4.000000,4.000000,4.000000,4.000000,4.000000,100.000000
1602006567.344041,91.000000,0.000000,4137.436035,4141.025879,4137.948730,4147.179688,4137.436035,4134.358887,4120.000000,4136.410156,4155.897461,4151.282227,4143.589844,4142.563965,4135.897461,4145.128418,845.000000,4.000000,,,,0.000000,4.000000,4.000000,4.000000,4.000000,4.000000,4.000000,4.000000,4.000000,4.000000,4.000000,4.000000,4.000000,4.000000,4.000000,100.000000
1602006567.351822,92.000000,0.000000,4142.051270,4142.051270,4138.461426,4147.692383,4137.948730,4134.871582,4122.563965,4141.538574,4160.000000,4163.077148,4152.820313,4154.871582,4143.589844,4159.487305,769.000000,4.000000,,,,0.000000,4.000000,4.000000,4.000000,4.000000,4.000000,4.000000,4.000000,4.000000,4.000000,4.000000,4.000000,4.000000,4.000000,4.000000,100.000000
1602006567.359702,93.000000,0.000000,4140.512695,4143.589844,4141.538574,4140.512695,4135.384766,4130.256348,4127.179688,4144.102539,4159.487305,4157.436035,4146.153809,4155.897461,4137.948730,4152.307617,731.000000,4.000000,,,,0.000000,4.000000,4.000000,4.000000,4.000000,4.000000,4.000000,4.000000,4.000000,4.000000,4.000000,4.000000,4.000000,4.000000,4.000000,100.000000
1602006567.367483,94.000000,0.000000,4126.153809,4133.333496,4141.025879,4136.922852,4127.179688,4122.563965,4131.282227,4141.025879,4140.512695,4137.948730,4133.846191,4144.615234,4127.692383,4132.307617,876.000000,4.000000,,,,0.000000,4.000000,4.000000,4.000000,4.000000,4.000000,4.000000,4.000000,4.000000,4.000000,4.000000,4.000000,4.000000,4.000000,4.000000,100.000000
1602006567.375365,95.000000,0.000000,4122.051270,4125.641113,4139.487305,4137.436035,4116.410156,4120.000000,4135.897461,4138.974121,4122.051270,4134.358887,4129.230957,4141.025879,4118.974121,4131.794922,845.000000,4.000000,,,,0.000000,4.000000,4.000000,4.000000,4.000000,4.000000,4.000000,4.000000,4.000000,4.000000,4.000000,4.000000,4.000000,4.000000,4.000000,100.000000
1602006567.383246,96.000000,0.000000,4133.333496,4132.820313,4139.487305,4136.922852,4114.871582,4124.615234,4133.333496,4138.974121,4118.974121,4149.230957,4132.307617,4144.615234,4123.589844,4143.077148,769.000000,4.000000,,,,0.000000,4.000000,4.000000,4.000000,4.000000,4.000000,4.000000,4.000000,4.000000,4.000000,4.000000,4.000000,4.000000,4.000000,4.000000,100.000000
1602006567.391127,97.000000,0.000000,4143.589844,4141.538574,4142.051270,4138.974121,4121.025879,4127.692383,4126.666504,4138.461426,4123.589844,4154.871582,4142.051270,4144.615234,4137.436035,4142.563965,731.000000,4.000000,,,,0.000000,4.000000,4.000000,4.000000,4.000000,4.000000,4.000000,4.000000,4.000000,4.000000,4.000000,4.000000,4.000000,4.000000,4.000000,100.000000
1602006567.399008,98.000000,0.000000,4144.102539,4141.538574,4137.436035,4142.051270,4125.641113,4125.128418,4123.589844,4132.307617,4122.563965,4146.153809,4141.025879,4137.948730,4137.948730,4132.820313,876.000000,4.000000,,,,0.000000,4.000000,4.000000,4.000000,4.000000,4.000000,4.000000,4.000000,4.000000,4.000000,4.000000,4.000000,4.000000,4.000000,4.000000,100.000000
1602006567.406889,99.000000,0.000000,4136.410156,4138.461426,4130.256348,4138.461426,4129.743652,4120.000000,4122.051270,4123.077148,4119.487305,4139.487305,4124.615234,4125.128418,4120.000000,4125.128418,845.000000,4.000000,,,,0.000000,4.000000,4.000000,4.000000,4.000000,4.000000,4.000000,4.000000,4.000000,4.000000,4.000000,4.000000,4.000000,4.000000,4.000000,100.000000
1602006567.414770,100.000000,0.000000,4125.641113,4134.358887,4131.794922,4133.846191,4135.897461,4115.384766,4118.974121,4120.000000,4117.948730,4125.128418,4117.436035,4117.436035,4107.179688,4114.871582,769.000000,4.000000,,,,0.000000,4.000000,4.000000,4.000000,4.000000,4.000000,4.000000,4.000000,4.000000,4.000000,4.000000,4.000000,4.000000,4.000000,4.000000,100.000000
1602006567.422652,101.000000,0.000000,4127.692383,4133.333496,4136.922852,4137.436035,4141.025879,4127.692383,4125.641113,4128.205078,4117.948730,4106.153809,4124.615234,4122.563965,4114.358887,4117.948730,731.000000,4.000000,,,,0.000000,4.000000,4.000000,4.000000,4.000000,4.000000,4.000000,4.000000,4.000000,4.000000,4.000000,4.000000,4.000000,4.000000,4.000000,100.000000
1602006567.430533,102.000000,0.000000,4136.410156,4136.922852,4137.436035,4142.563965,4143.077148,4145.128418,4137.948730,4137.436035,4126.153809,4113.846191,4125.641113,4127.692383,4120.512695,4134.871582,876.000000,4.000000,,,,0.000000,4.000000,4.000000,4.000000,4.000000,4.000000,4.000000,4.000000,4.000000,4.000000,4.000000,4.000000,4.000000,4.000000,4.000000,100.000000
1602006567.438314,103.000000,0.000000,4130.769043,4134.871582,4132.820313,4132.820313,4135.384766,4135.897461,4136.410156,4136.922852,4137.948730,4137.436035,4120.512695,4125.128418,4115.384766,4132.820313,845.000000,4.000000,,,,0.000000,4.000000,4.000000,4.000000,4.000000,4.000000,4.000000,4.000000,4.000000,4.000000,4.000000,4.000000,4.000000,4.000000,4.000000,100.000000
1602006567.446195,104.000000,0.000000,4126.153809,4131.794922,4132.820313,4124.615234,4124.615234,4122.051270,4131.794922,4138.974121,4141.025879,4137.948730,4128.205078,4131.282227,4114.871582,4128.205078,769.000000,4.000000,,,,0.000000,4.000000,4.000000,4.000000,4.000000,4.000000,4.000000,4.000000,4.000000,4.000000,4.000000,4.000000,4.000000,4.000000,4.000000,100.000000
1602006567.454076,105.000000,0.000000,4138.461426,4137.948730,4140.000000,4135.897461,4122.563965,4130.769043,4136.410156,4151.282227,4141.538574,4134.871582,4140.512695,4148.205078,4123.589844,4144.102539,731.000000,4.000000,,,,0.000000,4.000000,4.000000,4.000000,4.000000,4.000000,4.000000,4.000000,4.000000,4.000000,4.000000,4.000000,4.000000,4.000000,4.000000,100.000000
1602006567.461958,106.000000,0.000000,4152.307617,4143.589844,4147.692383,4144.615234,4126.153809,4134.871582,4137.436035,4153.846191,4147.692383,4147.692383,4143.077148,4156.922852,4130.769043,4156.922852,876.000000,4.000000,,,,0.000000,4.000000,4.000000,4.000000,4.000000,4.000000,4.000000,4.000000,4.000000,4.000000,4.000000,4.000000,4.000000,4.000000,4.000000,100.000000
1602006567.469839,107.000000,0.000000,4153.846191,4140.512695,4153.846191,4140.512695,4124.615234,4122.051270,4129.230957,4141.538574,4143.077148,4147.692383,4145.128418,4156.410156,4137.948730,4155.384766,845.000000,4.000000,,,,0.000000,4.000000,4.000000,4.000000,4.000000,4.000000,4.000000,4.000000,4.000000,4.000000,4.000000,4.000000,4.000000,4.000000,4.000000,100.000000
1602006567.477720,108.000000,0.000000,4141.025879,4131.282227,4154.358887,4136.922852,4124.615234,4122.051270,4122.051270,4133.333496,4124.615234,4136.410156,4147.179688,4150.769043,4139.487305,4155.897461,769.000000,4.000000,,,,0.000000,4.000000,4.000000,4.000000,4.000000,4.000000,4.000000,4.000000,4.000000,4.000000,4.000000,4.000000,4.000000,4.000000,4.000000,100.000000
1602006567.485601,109.000000,0.000000,4125.128418,4124.615234,4144.615234,4132.820313,4131.282227,4135.897461,4120.000000,4135.384766,4115.897461,4134.358887,4140.512695,4141.538574,4132.307617,4150.769043,731.000000,4.000000,,,,0.000000,4.000000,4.000000,4.000000,4.000000,4.000000,4.000000,4.000000,4.000000,4.000000,4.000000,4.000000,4.000000,4.000000,4.000000,100.000000
1602006567.493482,110.000000,0.000000,4118.461426,4123.589844,4128.717773,4123.077148,4136.922852,4142.563965,4129.230957,4137.948730,4120.512695,4135.897461,4134.871582,4135.897461,4132.820313,4137.948730,876.000000,4.000000,,,,0.000000,4.000000,4.000000,4.000000,4.000000,4.000000,4.000000,4.000000,4.000000,4.000000,4.000000,4.000000,4.000000,4.000000,4.000000,100.000000
1602006567.501363,111.000000,0.000000,4116.410156,4121.538574,4121.538574,4120.512695,4137.436035,4145.128418,4143.077148,4138.974121,4126.153809,4148.717773,4134.358887,4131.282227,4134.358887,4133.333496,845.000000,4.000000,,,,0.000000,4.000000,4.000000,4.000000,4.000000,4.000000,4.000000,4.000000,4.000000,4.000000,4.000000,4.000000,4.000000,4.000000,4.000000,100.000000
1602006567.509144,112.000000,0.000000,4120.000000,4121.538574,4122.563965,4125.641113,4136.922852,4145.128418,4144.102539,4139.487305,4128.205078,4160.512695,4137.436035,4124.615234,4126.153809,4140.000000,769.000000,4.000000,,,,0.000000,4.000000,4.000000,4.000000,4.000000,4.000000,4.000000,4.000000,4.000000,4.000000,4.000000,4.000000,4.000000,4.000000,4.000000,100.000000
1602006567.517025,113.000000,0.000000,4124.615234,4124.102539,4121.538574,4127.692383,4136.410156,4140.000000,4138.974121,4134.871582,4124.615234,4141.025879,4133.846191,4119.487305,4112.820313,4139.487305,731.000000,4.000000,,,,0.000000,4.000000,4.000000,4.000000,4.000000,4.000000,4.000000,4.000000,4.000000,4.000000,4.000000,4.000000,4.000000,4.000000,4.000000,100.000000
1602006567.524906,114.000000,0.000000,4113.846191,4122.051270,4123.589844,4128.717773,4135.897461,4135.897461,4135.384766,4127.179688,4120.000000,4115.897461,4123.077148,4119.487305,4103.077148,4121.025879,876.000000,4.000000,,,,0.000000,4.000000,4.000000,4.000000,4.000000,4.000000,4.000000,4.000000,4.000000,4.000000,4.000000,4.000000,4.000000,4.000000,4.000000,100.000000
1602006567.532787,115.000000,0.000000,4117.948730,4128.717773,4134.358887,4133.846191,4137.948730,4131.282227,4125.128418,4123.589844,4127.692383,4128.717773,4129.743652,4126.153809,4114.871582,4125.641113,845.000000,4.000000,,,,0.000000,4.000000,4.000000,4.000000,4.000000,4.000000,4.000000,4.000000,4.000000,4.000000,4.000000,4.000000,4.000000,4.000000,4.000000,100.000000
1602006567.540668,116.000000,0.000000,4142.051270,4140.512695,4143.077148,4141.025879,4137.436035,4117.436035,4110.256348,4130.256348,4137.436035,4150.769043,4152.820313,4139.487305,4146.153809,4165.641113,769.000000,4.000000,,,,0.000000,4.000000,4.000000,4.000000,4.000000,4.000000,4.000000,4.000000,4.000000,4.000000,4.000000,4.000000,4.000000,4.000000,4.000000,100.000000
1602006567.548549,117.000000,0.000000,4143.077148,4134.871582,4143.077148,4140.512695,4130.256348,4102.051270,4103.589844,4143.589844,4143.077148,4151.282227,4167.179688,4151.794922,4169.230957,4181.025879,731.000000,4.000000,,,,0.000000,4.000000,4.000000,4.000000,4.000000,4.000000,4.000000,4.000000,4.000000,4.000000,4.000000,4.000000,4.000000,4.000000,4.000000,100.000000
1602006567.556430,118.000000,0.000000,4122.051270,4113.846191,4141.025879,4128.717773,4122.563965,4102.563965,4106.153809,4154.358887,4152.307617,4155.897461,4165.641113,4153.846191,4173.846191,4168.205078,876.000000,4.000000,,,,0.000000,4.000000,4.000000,4.000000,4.000000,4.000000,4.000000,4.000000,4.000000,4.000000,4.000000,4.000000,4.000000,4.000000,4.000000,100.000000
1602006567.564211,119.000000,0.000000,4107.692383,4096.410156,4135.897461,4117.436035,4119.487305,4112.307617,4115.384766,4152.307617,4153.846191,4162.563965,4160.000000,4149.743652,4174.358887,4167.692383,845.000000,4.000000,,,,0.000000,4.000000,4.000000,4.000000,4.000000,4.000000,4.000000,4.000000,4.000000,4.000000,4.000000,4.000000,4.000000,4.000000,4.000000,100.000000
1602006567.572092,120.000000,0.000000,4098.461426,4090.256348,4128.205078,4114.871582,4119.487305,4130.256348,4129.230957,4142.563965,4133.333496,4150.256348,4161.025879,4142.051270,4172.307617,4162.051270,769.000000,4.000000,,,,0.000000,4.000000,4.000000,4.000000,4.000000,4.000000,4.000000,4.000000,4.000000,4.000000,4.000000,4.000000,4.000000,4.000000,4.000000,100.000000
1602006567.579974,121.000000,0.000000,4087.179443,4088.718018,4123.077148,4111.282227,4123.589844,4152.820313,4134.871582,4137.436035,4118.461426,4140.512695,4161.025879,4129.230957,4165.128418,4143.077148,731.000000,4.000000,,,,0.000000,4.000000,4.000000,4.000000,4.000000,4.000000,4.000000,4.000000,4.000000,4.000000,4.000000,4.000000,4.000000,4.000000,4.000000,100.000000
1602006567.587855,122.000000,0.000000,4078.461426,4084.615479,4112.307617,4102.051270,4129.230957,4151.282227,4127.179688,4136.410156,4127.692383,4148.717773,4146.153809,4117.436035,4154.871582,4135.384766,876.000000,4.000000,,,,0.000000,4.000000,4.000000,4.000000,4.000000,4.000000,4.000000,4.000000,4.000000,4.000000,4.000000,4.000000,4.000000,4.000000,4.000000,100.000000
1602006567.595736,123.000000,0.000000,4081.025635,4086.153809,4108.205078,4107.179688,4135.384766,4135.384766,4122.563965,4137.436035,4139.487305,4157.436035,4136.922852,4121.025879,4152.820313,4138.461426,845.000000,4.000000,,,,0.000000,4.000000,4.000000,4.000000,4.000000,4.000000,4.000000,4.000000,4.000000,4.000000,4.000000,4.000000,4.000000,4.000000,4.000000,100.000000
1602006567.603617,124.000000,0.000000,4098.461426,4102.051270,4122.563965,4122.563965,4142.051270,4140.512695,4128.717773,4141.025879,4140.512695,4153.846191,4146.153809,4140.512695,4163.589844,4152.820313,769.000000,4.000000,,,,0.000000,4.000000,4.000000,4.000000,4.000000,4.000000,4.000000,4.000000,4.000000,4.000000,4.000000,4.000000,4.000000,4.000000,4.000000,100.000000
1602006567.611498,125.000000,0.000000,4108.717773,4111.282227,4136.922852,4124.615234,4141.538574,4144.615234,4127.692383,4137.436035,4137.948730,4140.512695,4151.282227,4154.358887,4171.282227,4168.205078,731.000000,4.000000,,,,0.000000,4.000000,4.000000,4.000000,4.000000,4.000000,4.000000,4.000000,4.000000,4.000000,4.000000,4.000000,4.000000,4.000000,4.000000,100.000000
1602006567.619379,126.000000,0.000000,4110.769043,4106.666504,4138.461426,4126.666504,4137.948730,4126.666504,4115.897461,4128.717773,4143.077148,4143.589844,4157.948730,4159.487305,4175.384766,4169.743652,876.000000,4.000000,,,,0.000000,4.000000,4.000000,4.000000,4.000000,4.000000,4.000000,4.000000,4.000000,4.000000,4.000000,4.000000,4.000000,4.000000,4.000000,100.000000
1602006567.627260,127.000000,0.000000,4122.051270,4109.230957,4138.974121,4137.948730,4138.461426,4111.794922,4107.692383,4123.077148,4147.692383,4166.153809,4173.333496,4167.179688,4182.563965,4175.384766,845.000000,4.000000,,,,0.000000,4.000000,4.000000,4.000000,4.000000,4.000000,4.000000,4.000000,4.000000,4.000000,4.000000,4.000000,4.000000,4.000000,4.000000,100.000000
1602006567.635042,128.000000,0.000000,4129.230957,4114.871582,4141.538574,4139.487305,4135.384766,4115.384766,4109.230957,4120.000000,4139.487305,4175.384766,4175.384766,4178.461426,4189.743652,4185.128418,769.000000,4.000000,,,,0.000000,4.000000,4.000000,4.000000,4.000000,4.000000,4.000000,4.000000,4.000000,4.000000,4.000000,4.000000,4.000000,4.000000,4.000000,100.000000
1602006567.642922,0.000000,0.000000,4123.077148,4112.307617,4142.563965,4131.794922,4126.153809,4121.538574,4118.974121,4124.102539,4132.307617,4167.692383,4169.230957,4184.615234,4191.282227,4185.128418,789.000000,4.000000,,,,0.000000,4.000000,4.000000,4.000000,4.000000,4.000000,4.000000,4.000000,4.000000,4.000000,4.000000,4.000000,4.000000,4.000000,4.000000,100.000000
1602006567.650803,1.000000,0.000000,4114.871582,4106.666504,4142.051270,4128.205078,4118.974121,4123.077148,4131.794922,4133.846191,4141.025879,4171.794922,4172.307617,4184.615234,4187.179688,4183.589844,790.000000,4.000000,,,,0.000000,4.000000,4.000000,4.000000,4.000000,4.000000,4.000000,4.000000,4.000000,4.000000,4.000000,4.000000,4.000000,4.000000,4.000000,100.000000
1602006567.658684,2.000000,0.000000,4112.820313,4105.641113,4141.025879,4125.128418,4117.436035,4120.512695,4142.563965,4143.077148,4152.820313,4167.692383,4172.820313,4179.487305,4186.153809,4182.563965,850.000000,4.000000,,,,0.000000,4.000000,4.000000,4.000000,4.000000,4.000000,4.000000,4.000000,4.000000,4.000000,4.000000,4.000000,4.000000,4.000000,4.000000,100.000000
1602006567.666565,3.000000,0.000000,4113.846191,4107.179688,4138.974121,4126.153809,4120.000000,4128.205078,4152.820313,4151.794922,4158.974121,4157.436035,4167.692383,4174.871582,4191.794922,4174.871582,830.000000,4.000000,,,,0.000000,4.000000,4.000000,4.000000,4.000000,4.000000,4.000000,4.000000,4.000000,4.000000,4.000000,4.000000,4.000000,4.000000,4.000000,100.000000
1602006567.674446,4.000000,0.000000,4114.358887,4110.256348,4132.820313,4129.230957,4131.794922,4149.743652,4161.538574,4160.512695,4167.692383,4179.487305,4166.666504,4172.307617,4193.846191,4175.384766,809.000000,4.000000,,,,0.000000,4.000000,4.000000,4.000000,4.000000,4.000000,4.000000,4.000000,4.000000,4.000000,4.000000,4.000000,4.000000,4.000000,4.000000,100.000000
1602006567.682327,5.000000,0.000000,4106.666504,4109.743652,4120.512695,4124.102539,4140.000000,4161.025879,4156.410156,4157.436035,4171.282227,4193.333496,4165.128418,4164.102539,4182.563965,4172.307617,824.000000,4.000000,,,,0.000000,4.000000,4.000000,4.000000,4.000000,4.000000,4.000000,4.000000,4.000000,4.000000,4.000000,4.000000,4.000000,4.000000,4.000000,100.000000
1602006567.690208,6.000000,0.000000,4093.846191,4105.128418,4110.256348,4120.512695,4138.461426,4152.307617,4144.615234,4145.128418,4167.692383,4172.307617,4152.820313,4148.717773,4172.307617,4154.871582,762.000000,4.000000,,,,0.000000,4.000000,4.000000,4.000000,4.000000,4.000000,4.000000,4.000000,4.000000,4.000000,4.000000,4.000000,4.000000,4.000000,4.000000,100.000000
1602006567.697989,7.000000,0.000000,4090.769287,4105.128418,4108.205078,4121.538574,4139.487305,4142.563965,4136.922852,4135.384766,4165.128418,4159.487305,4137.948730,4136.410156,4170.769043,4146.666504,669.000000,4.000000,,,,0.000000,4.000000,4.000000,4.000000,4.000000,4.000000,4.000000,4.000000,4.000000,4.000000,4.000000,4.000000,4.000000,4.000000,4.000000,100.000000
1602006567.705870,8.000000,0.000000,4101.538574,4107.692383,4113.333496,4119.487305,4141.538574,4137.948730,4128.205078,4127.179688,4156.922852,4156.922852,4141.025879,4141.025879,4163.589844,4146.666504,784.000000,4.000000,,,,0.000000,4.000000,4.000000,4.000000,4.000000,4.000000,4.000000,4.000000,4.000000,4.000000,4.000000,4.000000,4.000000,4.000000,4.000000,100.000000
1602006567.713751,9.000000,0.000000,4109.743652,4106.666504,4121.025879,4120.512695,4137.436035,4128.717773,4119.487305,4122.051270,4143.589844,4146.666504,4149.743652,4150.769043,4158.461426,4143.589844,834.000000,4.000000,,,,0.000000,4.000000,4.000000,4.000000,4.000000,4.000000,4.000000,4.000000,4.000000,4.000000,4.000000,4.000000,4.000000,4.000000,4.000000,100.000000
1602006567.721632,10.000000,0.000000,4105.128418,4105.641113,4122.563965,4126.153809,4133.846191,4115.897461,4118.461426,4122.563965,4141.538574,4146.153809,4142.563965,4153.846191,4163.077148,4147.692383,876.000000,4.000000,,,,0.000000,4.000000,4.000000,4.000000,4.000000,4.000000,4.000000,4.000000,4.000000,4.000000,4.000000,4.000000,4.000000,4.000000,4.000000,100.000000
1602006567.729513,11.000000,0.000000,4108.205078,4111.282227,4121.538574,4130.769043,4130.256348,4105.641113,4117.948730,4123.589844,4146.666504,4157.948730,4138.974121,4158.461426,4167.692383,4155.384766,845.000000,4.000000,,,,0.000000,4.000000,4.000000,4.000000,4.000000,4.000000,4.000000,4.000000,4.000000,4.000000,4.000000,4.000000,4.000000,4.000000,4.000000,100.000000
1602006567.737394,12.000000,0.000000,4124.615234,4120.000000,4128.717773,4134.871582,4124.102539,4108.717773,4116.922852,4129.743652,4144.102539,4165.641113,4157.436035,4167.692383,4174.871582,4163.077148,769.000000,4.000000,,,,0.000000,4.000000,4.000000,4.000000,4.000000,4.000000,4.000000,4.000000,4.000000,4.000000,4.000000,4.000000,4.000000,4.000000,4.000000,100.000000
1602006567.745175,13.000000,0.000000,4137.948730,4125.128418,4137.436035,4140.512695,4127.179688,4126.153809,4126.153809,4138.974121,4141.025879,4166.666504,4173.333496,4172.307617,4185.128418,4171.282227,731.000000,4.000000,,,,0.000000,4.000000,4.000000,4.000000,4.000000,4.000000,4.000000,4.000000,4.000000,4.000000,4.000000,4.000000,4.000000,4.000000,4.000000,100.000000
1602006567.753056,14.000000,0.000000,4136.922852,4124.102539,4139.487305,4136.410156,4134.871582,4142.051270,4138.974121,4133.846191,4138.461426,4151.794922,4168.717773,4169.230957,4178.974121,4168.205078,876.000000,4.000000,,,,0.000000,4.000000,4.000000,4.000000,4.000000,4.000000,4.000000,4.000000,4.000000,4.000000,4.000000,4.000000,4.000000,4.000000,4.000000,100.000000
1602006567.760937,15.000000,0.000000,4127.179688,4117.436035,4138.974121,4124.102539,4136.410156,4144.102539,4147.692383,4124.615234,4129.230957,4130.769043,4160.512695,4169.230957,4168.205078,4166.153809,845.000000,4.000000,,,,0.000000,4.000000,4.000000,4.000000,4.000000,4.000000,4.000000,4.000000,4.000000,4.000000,4.000000,4.000000,4.000000,4.000000,4.000000,100.000000
1602006567.768817,16.000000,0.000000,4120.512695,4113.846191,4140.000000,4125.128418,4138.461426,4142.563965,4153.333496,4128.205078,4125.128418,4137.436035,4153.846191,4177.436035,4171.794922,4171.794922,0.000000,4.000000,,,,0.000000,4.000000,4.000000,4.000000,4.000000,4.000000,4.000000,4.000000,4.000000,4.000000,4.000000,4.000000,4.000000,4.000000,4.000000,100.000000
1602006567.776698,17.000000,0.000000,4122.051270,4119.487305,4140.512695,4136.410156,4142.563965,4145.641113,4155.384766,4131.282227,4136.922852,4151.282227,4154.871582,4183.589844,4173.333496,4163.077148,0.000000,4.000000,,,,0.000000,4.000000,4.000000,4.000000,4.000000,4.000000,4.000000,4.000000,4.000000,4.000000,4.000000,4.000000,4.000000,4.000000,4.000000,100.000000
1602006567.784579,18.000000,0.000000,4128.205078,4124.102539,4141.538574,4139.487305,4141.538574,4144.615234,4154.871582,4132.307617,4150.256348,4156.410156,4169.230957,4185.641113,4177.948730,4157.436035,0.000000,4.000000,,,,0.000000,4.000000,4.000000,4.000000,4.000000,4.000000,4.000000,4.000000,4.000000,4.000000,4.000000,4.000000,4.000000,4.000000,4.000000,100.000000
1602006567.792360,19.000000,0.000000,4127.692383,4122.563965,4142.051270,4136.410156,4136.922852,4141.025879,4148.205078,4136.922852,4149.743652,4171.282227,4171.282227,4187.179688,4187.179688,4175.897461,0.000000,4.000000,,,,0.000000,4.000000,4.000000,4.000000,4.000000,4.000000,4.000000,4.000000,4.000000,4.000000,4.000000,4.000000,4.000000,4.000000,4.000000,100.000000
1602006567.800241,20.000000,0.000000,4122.563965,4123.589844,4139.487305,4140.000000,4135.897461,4137.948730,4139.487305,4138.461426,4143.077148,4173.333496,4155.384766,4182.563965,4182.051270,4179.487305,0.000000,4.000000,,,,0.000000,4.000000,4.000000,4.000000,4.000000,4.000000,4.000000,4.000000,4.000000,4.000000,4.000000,4.000000,4.000000,4.000000,4.000000,100.000000
1602006567.808122,21.000000,0.000000,4123.589844,4126.153809,4138.974121,4142.051270,4137.436035,4139.487305,4134.871582,4136.410156,4138.461426,4146.153809,4150.769043,4171.282227,4163.589844,4152.307617,0.000000,4.000000,,,,0.000000,4.000000,4.000000,4.000000,4.000000,4.000000,4.000000,4.000000,4.000000,4.000000,4.000000,4.000000,4.000000,4.000000,4.000000,100.000000
1602006567.816003,22.000000,0.000000,4124.102539,4124.102539,4136.410156,4136.922852,4135.897461,4139.487305,4131.794922,4131.794922,4129.743652,4128.717773,4156.922852,4163.589844,4157.436035,4136.922852,0.000000,4.000000,,,,0.000000,4.000000,4.000000,4.000000,4.000000,4.000000,4.000000,4.000000,4.000000,4.000000,4.000000,4.000000,4.000000,4.000000,4.000000,100.000000
1602006567.823884,23.000000,0.000000,4106.666504,4114.358887,4128.205078,4129.230957,4128.717773,4128.205078,4125.641113,4122.563965,4122.563965,4136.922852,4147.179688,4157.948730,4155.384766,4142.563965,0.000000,4.000000,,,,0.000000,4.000000,4.000000,4.000000,4.000000,4.000000,4.000000,4.000000,4.000000,4.000000,4.000000,4.000000,4.000000,4.000000,4.000000,100.000000
1602006567.831765,24.000000,0.000000,4090.769287,4105.128418,4121.538574,4123.589844,4123.589844,4117.948730,4122.563965,4121.025879,4127.179688,4144.102539,4133.333496,4152.820313,4143.589844,4141.025879,0.000000,4.000000,,,,0.000000,4.000000,4.000000,4.000000,4.000000,4.000000,4.000000,4.000000,4.000000,4.000000,4.000000,4.000000,4.000000,4.000000,4.000000,100.000000
1602006567.839546,25.000000,0.000000,4102.563965,4107.179688,4122.051270,4122.563965,4128.205078,4120.000000,4122.563965,4131.794922,4135.384766,4148.717773,4141.538574,4159.487305,4149.743652,4141.538574,0.000000,4.000000,,,,0.000000,4.000000,4.000000,4.000000,4.000000,4.000000,4.000000,4.000000,4.000000,4.000000,4.000000,4.000000,4.000000,4.000000,4.000000,100.000000
1602006567.847427,26.000000,0.000000,4122.051270,4110.769043,4124.615234,4124.102539,4136.410156,4123.077148,4127.692383,4143.077148,4147.179688,4161.025879,4161.025879,4169.743652,4174.871582,4159.487305,0.000000,4.000000,,,,0.000000,4.000000,4.000000,4.000000,4.000000,4.000000,4.000000,4.000000,4.000000,4.000000,4.000000,4.000000,4.000000,4.000000,4.000000,100.000000
1602006567.855308,27.000000,0.000000,4123.589844,4112.307617,4126.153809,4130.769043,4139.487305,4119.487305,4137.436035,4154.358887,4168.205078,4170.769043,4172.307617,4170.256348,4189.230957,4171.282227,0.000000,4.000000,,,,0.000000,4.000000,4.000000,4.000000,4.000000,4.000000,4.000000,4.000000,4.000000,4.000000,4.000000,4.000000,4.000000,4.000000,4.000000,100.000000
1602006567.863189,28.000000,0.000000,4111.794922,4117.948730,4126.153809,4134.871582,4132.820313,4126.153809,4140.512695,4155.897461,4173.333496,4176.922852,4172.307617,4169.743652,4183.077148,4167.179688,0.000000,4.000000,,,,0.000000,4.000000,4.000000,4.000000,4.000000,4.000000,4.000000,4.000000,4.000000,4.000000,4.000000,4.000000,4.000000,4.000000,4.000000,100.000000
1602006567.871070,29.000000,0.000000,4109.230957,4115.384766,4124.615234,4125.641113,4123.077148,4138.974121,4137.436035,4144.615234,4160.000000,4172.307617,4165.641113,4172.820313,4173.846191,4155.384766,0.000000,4.000000,,,,0.000000,4.000000,4.000000,4.000000,4.000000,4.000000,4.000000,4.000000,4.000000,4.000000,4.000000,4.000000,4.000000,4.000000,4.000000,100.000000
1602006567.878951,30.000000,0.000000,4113.333496,4106.153809,4124.615234,4113.846191,4120.000000,4134.871582,4136.410156,4137.436035,4151.282227,4150.769043,4160.000000,4170.256348,4171.794922,4141.025879,0.000000,4.000000,,,,0.000000,4.000000,4.000000,4.000000,4.000000,4.000000,4.000000,4.000000,4.000000,4.000000,4.000000,4.000000,4.000000,4.000000,4.000000,100.000000
1602006567.886832,31.000000,0.000000,4109.743652,4106.153809,4124.102539,4115.384766,4122.563965,4125.641113,4136.410156,4136.922852,4144.615234,4125.128418,4157.436035,4166.666504,4170.256348,4142.051270,0.000000,4.000000,,,,0.000000,4.000000,4.000000,4.000000,4.000000,4.000000,4.000000,4.000000,4.000000,4.000000,4.000000,4.000000,4.000000,4.000000,4.000000,100.000000
1602006567.894613,32.000000,0.000000,4104.102539,4109.743652,4122.051270,4121.538574,4123.077148,4131.282227,4136.410156,4130.769043,4132.307617,4120.000000,4149.230957,4168.717773,4161.538574,4157.436035,0.000000,4.000000,,,,0.000000,4.000000,4.000000,4.000000,4.000000,4.000000,4.000000,4.000000,4.000000,4.000000,4.000000,4.000000,4.000000,4.000000,4.000000,100.000000
1602006567.902494,33.000000,0.000000,4106.666504,4107.179688,4122.051270,4121.538574,4124.102539,4137.948730,4134.871582,4126.666504,4124.615234,4140.512695,4139.487305,4165.641113,4150.256348,4156.410156,0.000000,4.000000,,,,0.000000,4.000000,4.000000,4.000000,4.000000,4.000000,4.000000,4.000000,4.000000,4.000000,4.000000,4.000000,4.000000,4.000000,4.000000,100.000000
1602006567.910375,34.000000,0.000000,4110.769043,4114.358887,4124.615234,4123.589844,4127.692383,4137.948730,4135.384766,4134.871582,4131.282227,4152.820313,4143.077148,4160.000000,4158.974121,4147.179688,0.000000,4.000000,,,,0.000000,4.000000,4.000000,4.000000,4.000000,4.000000,4.000000,4.000000,4.000000,4.000000,4.000000,4.000000,4.000000,4.000000,4.000000,100.000000
1602006567.918256,35.000000,0.000000,4109.743652,4118.461426,4123.589844,4127.179688,4127.692383,4136.410156,4136.922852,4142.563965,4149.743652,4162.563965,4154.871582,4166.153809,4172.307617,4157.948730,0.000000,4.000000,,,,0.000000,4.000000,4.000000,4.000000,4.000000,4.000000,4.000000,4.000000,4.000000,4.000000,4.000000,4.000000,4.000000,4.000000,4.000000,100.000000
1602006567.926137,36.000000,0.000000,4117.436035,4112.307617,4126.153809,4124.102539,4123.589844,4128.717773,4136.410156,4142.563965,4158.461426,4167.179688,4152.820313,4173.333496,4166.153809,4165.641113,0.000000,4.000000,,,,0.000000,4.000000,4.000000,4.000000,4.000000,4.000000,4.000000,4.000000,4.000000,4.000000,4.000000,4.000000,4.000000,4.000000,4.000000,100.000000
1602006567.934019,37.000000,0.000000,4122.563965,4114.871582,4136.410156,4121.025879,4123.077148,4120.512695,4135.897461,4144.615234,4147.692383,4136.922852,4138.974121,4172.307617,4155.384766,4153.333496,0.000000,4.000000,,,,0.000000,4.000000,4.000000,4.000000,4.000000,4.000000,4.000000,4.000000,4.000000,4.000000,4.000000,4.000000,4.000000,4.000000,4.000000,100.000000
1602006567.941900,38.000000,0.000000,4110.256348,4116.410156,4139.487305,4122.563965,4124.102539,4120.000000,4136.922852,4145.641113,4138.461426,4116.922852,4134.871582,4170.256348,4150.769043,4144.615234,0.000000,4.000000,,,,0.000000,4.000000,4.000000,4.000000,4.000000,4.000000,4.000000,4.000000,4.000000,4.000000,4.000000,4.000000,4.000000,4.000000,4.000000,100.000000
1602006567.949781,39.000000,0.000000,4107.179688,4114.358887,4138.461426,4124.102539,4123.589844,4126.153809,4136.922852,4142.051270,4140.000000,4142.051270,4147.179688,4167.179688,4153.333496,4146.666504,0.000000,4.000000,,,,0.000000,4.000000,4.000000,4.000000,4.000000,4.000000,4.000000,4.000000,4.000000,4.000000,4.000000,4.000000,4.000000,4.000000,4.000000,100.000000
1602006567.957662,40.000000,0.000000,4127.179688,4120.512695,4143.589844,4127.692383,4125.128418,4131.282227,4137.948730,4141.538574,4141.538574,4161.025879,4161.538574,4167.179688,4163.589844,4159.487305,0.000000,4.000000,,,,0.000000,4.000000,4.000000,4.000000,4.000000,4.000000,4.000000,4.000000,4.000000,4.000000,4.000000,4.000000,4.000000,4.000000,4.000000,100.000000
1602006567.965443,41.000000,0.000000,4135.897461,4120.512695,4144.102539,4125.641113,4122.563965,4127.179688,4138.461426,4143.589844,4132.820313,4152.307617,4156.410156,4173.846191,4168.717773,4174.871582,0.000000,4.000000,,,,0.000000,4.000000,4.000000,4.000000,4.000000,4.000000,4.000000,4.000000,4.000000,4.000000,4.000000,4.000000,4.000000,4.000000,4.000000,100.000000
1602006567.973324,42.000000,0.000000,4121.025879,4105.641113,4138.974121,4120.512695,4111.794922,4121.025879,4136.410156,4140.000000,4126.153809,4147.692383,4141.025879,4170.256348,4158.974121,4167.692383,0.000000,4.000000,,,,0.000000,4.000000,4.000000,4.000000,4.000000,4.000000,4.000000,4.000000,4.000000,4.000000,4.000000,4.000000,4.000000,4.000000,4.000000,100.000000
1602006567.981205,43.000000,0.000000,4108.717773,4095.384521,4136.410156,4118.974121,4107.692383,4120.512695,4135.897461,4133.846191,4124.102539,4128.205078,4138.461426,4157.948730,4145.641113,4143.589844,0.000000,4.000000,,,,0.000000,4.000000,4.000000,4.000000,4.000000,4.000000,4.000000,4.000000,4.000000,4.000000,4.000000,4.000000,4.000000,4.000000,4.000000,100.000000
1602006567.989086,44.000000,0.000000,4105.641113,4092.820557,4130.769043,4111.282227,4108.717773,4120.512695,4137.436035,4132.820313,4123.589844,4111.282227,4138.974121,4153.846191,4138.461426,4135.384766,0.000000,4.000000,,,,0.000000,4.000000,4.000000,4.000000,4.000000,4.000000,4.000000,4.000000,4.000000,4.000000,4.000000,4.000000,4.000000,4.000000,4.000000,100.000000
1602006567.996967,45.000000,0.000000,4104.102539,4091.794922,4124.102539,4103.077148,4105.128418,4123.077148,4137.436035,4136.410156,4132.307617,4134.358887,4135.897461,4154.358887,4135.897461,4140.512695,0.000000,4.000000,,,,0.000000,4.000000,4.000000,4.000000,4.000000,4.000000,4.000000,4.000000,4.000000,4.000000,4.000000,4.000000,4.000000,4.000000,4.000000,100.000000
1602006568.004848,46.000000,0.000000,4105.128418,4097.436035,4127.179688,4112.307617,4105.641113,4130.256348,4138.461426,4142.051270,4143.077148,4143.077148,4140.512695,4153.846191,4135.384766,4135.897461,0.000000,4.000000,,,,0.000000,4.000000,4.000000,4.000000,4.000000,4.000000,4.000000,4.000000,4.000000,4.000000,4.000000,4.000000,4.000000,4.000000,4.000000,100.000000
1602006568.012729,47.000000,0.000000,4104.102539,4103.589844,4129.230957,4125.128418,4110.769043,4128.717773,4140.512695,4142.563965,4138.974121,4116.922852,4143.589844,4154.358887,4133.333496,4135.897461,0.000000,4.000000,,,,0.000000,4.000000,4.000000,4.000000,4.000000,4.000000,4.000000,4.000000,4.000000,4.000000,4.000000,4.000000,4.000000,4.000000,4.000000,100.000000
1602006568.020610,48.000000,0.000000,4104.102539,4106.666504,4123.077148,4123.589844,4111.794922,4114.871582,4132.307617,4136.410156,4134.871582,4112.820313,4140.000000,4154.358887,4134.871582,4150.769043,0.000000,4.000000,,,,0.000000,4.000000,4.000000,4.000000,4.000000,4.000000,4.000000,4.000000,4.000000,4.000000,4.000000,4.000000,4.000000,4.000000,4.000000,100.000000
1602006568.028391,49.000000,0.000000,4112.307617,4108.717773,4123.077148,4121.538574,4116.410156,4107.179688,4120.512695,4135.897461,4140.512695,4128.205078,4145.641113,4153.333496,4140.512695,4156.410156,0.000000,4.000000,,,,0.000000,4.000000,4.000000,4.000000,4.000000,4.000000,4.000000,4.000000,4.000000,4.000000,4.000000,4.000000,4.000000,4.000000,4.000000,100.000000
1602006568.036272,50.000000,0.000000,4112.307617,4107.179688,4124.102539,4123.077148,4123.589844,4113.846191,4123.077148,4138.461426,4133.333496,4128.717773,4149.230957,4154.358887,4141.538574,4145.128418,0.000000,4.000000,,,,0.000000,4.000000,4.000000,4.000000,4.000000,4.000000,4.000000,4.000000,4.000000,4.000000,4.000000,4.000000,4.000000,4.000000,4.000000,100.000000
1602006568.044153,51.000000,0.000000,4107.179688,4109.743652,4121.025879,4124.102539,4124.102539,4123.589844,4135.897461,4138.461426,4126.153809,4134.358887,4137.948730,4151.282227,4143.589844,4137.436035,0.000000,4.000000,,,,0.000000,4.000000,4.000000,4.000000,4.000000,4.000000,4.000000,4.000000,4.000000,4.000000,4.000000,4.000000,4.000000,4.000000,4.000000,100.000000
1602006568.052033,52.000000,0.000000,4115.897461,4120.000000,4127.179688,4125.641113,4123.589844,4131.282227,4137.948730,4143.589844,4138.461426,4152.820313,4144.615234,4151.794922,4153.846191,4147.692383,0.000000,4.000000,,,,0.000000,4.000000,4.000000,4.000000,4.000000,4.000000,4.000000,4.000000,4.000000,4.000000,4.000000,4.000000,4.000000,4.000000,4.000000,100.000000
1602006568.059914,53.000000,0.000000,4124.615234,4127.692383,4140.000000,4127.692383,4127.179688,4136.922852,4136.922852,4152.820313,4146.153809,4157.436035,4165.128418,4164.102539,4165.128418,4161.538574,0.000000,4.000000,,,,0.000000,4.000000,4.000000,4.000000,4.000000,4.000000,4.000000,4.000000,4.000000,4.000000,4.000000,4.000000,4.000000,4.000000,4.000000,100.000000
1602006568.067795,54.000000,0.000000,4117.948730,4125.128418,4141.538574,4130.256348,4129.743652,4144.102539,4148.205078,4152.820313,4143.077148,4153.846191,4164.615234,4170.256348,4161.025879,4162.563965,0.000000,4.000000,,,,0.000000,4.000000,4.000000,4.000000,4.000000,4.000000,4.000000,4.000000,4.000000,4.000000,4.000000,4.000000,4.000000,4.000000,4.000000,100.000000
1602006568.075676,55.000000,0.000000,4109.230957,4116.410156,4133.333496,4126.666504,4126.153809,4143.589844,4153.846191,4145.641113,4135.897461,4140.000000,4148.205078,4155.897461,4143.589844,4146.153809,0.000000,4.000000,,,,0.000000,4.000000,4.000000,4.000000,4.000000,4.000000,4.000000,4.000000,4.000000,4.000000,4.000000,4.000000,4.000000,4.000000,4.000000,100.000000
1602006568.083557,56.000000,0.000000,4107.692383,4107.179688,4117.948730,4119.487305,4117.436035,4132.820313,4142.563965,4137.948730,4113.333496,4111.282227,4138.974121,4139.487305,4126.666504,4121.025879,0.000000,4.000000,,,,0.000000,4.000000,4.000000,4.000000,4.000000,4.000000,4.000000,4.000000,4.000000,4.000000,4.000000,4.000000,4.000000,4.000000,4.000000,100.000000
1602006568.091438,57.000000,0.000000,4102.563965,4101.538574,4105.128418,4116.922852,4112.307617,4119.487305,4131.282227,4131.794922,4089.743652,4103.589844,4133.846191,4136.922852,4118.461426,4120.512695,0.000000,4.000000,,,,0.000000,4.000000,4.000000,4.000000,4.000000,4.000000,4.000000,4.000000,4.000000,4.000000,4.000000,4.000000,4.000000,4.000000,4.000000,100.000000
1602006568.099219,58.000000,0.000000,4106.153809,4106.666504,4112.820313,4122.563965,4117.436035,4115.897461,4123.589844,4124.615234,4093.333252,4122.563965,4134.358887,4140.512695,4124.102539,4138.461426,0.000000,4.000000,,,,0.000000,4.000000,4.000000,4.000000,4.000000,4.000000,4.000000,4.000000,4.000000,4.000000,4.000000,4.000000,4.000000,4.000000,4.000000,100.000000
1602006568.107100,59.000000,0.000000,4120.512695,4119.487305,4126.666504,4128.205078,4129.743652,4127.179688,4114.871582,4121.025879,4108.205078,4143.589844,4140.512695,4147.692383,4141.025879,4143.589844,0.000000,4.000000,,,,0.000000,4.000000,4.000000,4.000000,4.000000,4.000000,4.000000,4.000000,4.000000,4.000000,4.000000,4.000000,4.000000,4.000000,4.000000,100.000000
1602006568.114981,60.000000,0.000000,4122.563965,4123.077148,4122.563965,4126.153809,4132.820313,4135.897461,4113.333496,4123.077148,4116.922852,4154.871582,4144.102539,4155.897461,4152.820313,4147.692383,0.000000,4.000000,,,,0.000000,4.000000,4.000000,4.000000,4.000000,4.000000,4.000000,4.000000,4.000000,4.000000,4.000000,4.000000,4.000000,4.000000,4.000000,100.000000
1602006568.122862,61.000000,0.000000,4112.307617,4120.000000,4115.897461,4122.051270,4128.717773,4136.922852,4118.461426,4126.153809,4127.179688,4149.743652,4147.692383,4152.820313,4156.922852,4157.948730,0.000000,4.000000,,,,0.000000,4.000000,4.000000,4.000000,4.000000,4.000000,4.000000,4.000000,4.000000,4.000000,4.000000,4.000000,4.000000,4.000000,4.000000,100.000000
1602006568.130743,62.000000,0.000000,4106.666504,4120.000000,4117.436035,4126.666504,4127.179688,4136.922852,4127.692383,4123.589844,4127.179688,4135.384766,4149.230957,4140.512695,4153.333496,4148.717773,0.000000,4.000000,,,,0.000000,4.000000,4.000000,4.000000,4.000000,4.000000,4.000000,4.000000,4.000000,4.000000,4.000000,4.000000,4.000000,4.000000,4.000000,100.000000
1602006568.138624,63.000000,0.000000,4107.179688,4116.922852,4112.820313,4126.153809,4125.641113,4139.487305,4138.974121,4121.538574,4120.512695,4134.358887,4146.153809,4134.871582,4141.538574,4128.205078,0.000000,4.000000,,,,0.000000,4.000000,4.000000,4.000000,4.000000,4.000000,4.000000,4.000000,4.000000,4.000000,4.000000,4.000000,4.000000,4.000000,4.000000,100.000000
1602006568.146405,64.000000,0.000000,4107.179688,4109.230957,4107.179688,4115.897461,4123.077148,4137.948730,4141.025879,4125.128418,4128.717773,4141.538574,4140.000000,4135.384766,4137.948730,4124.615234,789.000000,4.000000,,,,0.000000,4.000000,4.000000,4.000000,4.000000,4.000000,4.000000,4.000000,4.000000,4.000000,4.000000,4.000000,4.000000,4.000000,4.000000,100.000000
1602006568.154286,65.000000,0.000000,4107.692383,4105.128418,4107.692383,4114.358887,4122.051270,4128.717773,4131.282227,4127.692383,4137.948730,4135.384766,4129.743652,4129.230957,4138.974121,4125.641113,790.000000,4.000000,,,,0.000000,4.000000,4.000000,4.000000,4.000000,4.000000,4.000000,4.000000,4.000000,4.000000,4.000000,4.000000,4.000000,4.000000,4.000000,100.000000
1602006568.162167,66.000000,0.000000,4107.692383,4103.077148,4105.128418,4120.512695,4121.538574,4118.974121,4123.589844,4127.692383,4124.615234,4122.051270,4122.563965,4124.102539,4130.256348,4118.974121,850.000000,4.000000,,,,0.000000,4.000000,4.000000,4.000000,4.000000,4.000000,4.000000,4.000000,4.000000,4.000000,4.000000,4.000000,4.000000,4.000000,4.000000,100.000000
1602006568.170048,67.000000,0.000000,4106.666504,4105.128418,4110.256348,4121.538574,4122.563965,4121.025879,4123.077148,4129.230957,4111.794922,4119.487305,4129.230957,4126.666504,4125.128418,4120.000000,852.000000,4.000000,,,,0.000000,4.000000,4.000000,4.000000,4.000000,4.000000,4.000000,4.000000,4.000000,4.000000,4.000000,4.000000,4.000000,4.000000,4.000000,100.000000
1602006568.177928,68.000000,0.000000,4106.153809,4109.230957,4119.487305,4121.025879,4126.153809,4127.179688,4118.461426,4127.179688,4112.820313,4128.205078,4135.897461,4127.692383,4128.205078,4126.666504,809.000000,4.000000,,,,0.000000,4.000000,4.000000,4.000000,4.000000,4.000000,4.000000,4.000000,4.000000,4.000000,4.000000,4.000000,4.000000,4.000000,4.000000,100.000000
1602006568.185809,69.000000,0.000000,4107.692383,4109.230957,4114.871582,4121.538574,4122.563965,4120.512695,4109.230957,4120.000000,4103.077148,4129.230957,4122.051270,4120.512695,4119.487305,4116.922852,824.000000,4.000000,,,,0.000000,4.000000,4.000000,4.000000,4.000000,4.000000,4.000000,4.000000,4.000000,4.000000,4.000000,4.000000,4.000000,4.000000,4.000000,100.000000
1602006568.193590,70.000000,0.000000,4108.205078,4112.820313,4112.307617,4123.589844,4117.436035,4116.922852,4108.717773,4117.436035,4086.153809,4110.256348,4113.846191,4117.436035,4114.871582,4109.230957,818.000000,4.000000,,,,0.000000,4.000000,4.000000,4.000000,4.000000,4.000000,4.000000,4.000000,4.000000,4.000000,4.000000,4.000000,4.000000,4.000000,4.000000,100.000000
1602006568.201471,71.000000,0.000000,4108.205078,4123.589844,4124.102539,4128.717773,4123.077148,4132.820313,4123.077148,4123.077148,4089.743652,4100.512695,4130.256348,4130.256348,4124.615234,4123.589844,669.000000,4.000000,,,,0.000000,4.000000,4.000000,4.000000,4.000000,4.000000,4.000000,4.000000,4.000000,4.000000,4.000000,4.000000,4.000000,4.000000,4.000000,100.000000
1602006568.209352,72.000000,0.000000,4110.256348,4125.128418,4129.230957,4130.256348,4125.128418,4143.077148,4134.871582,4125.641113,4103.589844,4115.897461,4139.487305,4137.436035,4127.179688,4124.615234,784.000000,4.000000,,,,0.000000,4.000000,4.000000,4.000000,4.000000,4.000000,4.000000,4.000000,4.000000,4.000000,4.000000,4.000000,4.000000,4.000000,4.000000,100.000000
1602006568.217233,73.000000,0.000000,4109.230957,4113.333496,4122.051270,4123.589844,4114.871582,4133.846191,4131.794922,4125.128418,4109.743652,4120.000000,4128.205078,4125.128418,4117.436035,4104.615234,876.000000,4.000000,,,,0.000000,4.000000,4.000000,4.000000,4.000000,4.000000,4.000000,4.000000,4.000000,4.000000,4.000000,4.000000,4.000000,4.000000,4.000000,100.000000
1602006568.225114,74.000000,0.000000,4107.179688,4108.205078,4120.000000,4120.000000,4114.871582,4130.256348,4131.282227,4132.820313,4114.358887,4119.487305,4123.077148,4119.487305,4119.487305,4110.256348,876.000000,4.000000,,,,0.000000,4.000000,4.000000,4.000000,4.000000,4.000000,4.000000,4.000000,4.000000,4.000000,4.000000,4.000000,4.000000,4.000000,4.000000,100.000000
1602006568.232995,75.000000,0.000000,4108.205078,4108.205078,4121.538574,4122.563965,4124.102539,4137.948730,4138.461426,4141.025879,4126.153809,4143.589844,4131.282227,4132.307617,4131.282227,4127.692383,845.000000,4.000000,,,,0.000000,4.000000,4.000000,4.000000,4.000000,4.000000,4.000000,4.000000,4.000000,4.000000,4.000000,4.000000,4.000000,4.000000,4.000000,100.000000
1602006568.240876,76.000000,0.000000,4105.641113,4108.205078,4123.589844,4123.589844,4122.051270,4138.974121,4140.512695,4140.512695,4132.820313,4153.333496,4139.487305,4137.436035,4133.846191,4124.102539,768.000000,4.000000,,,,0.000000,4.000000,4.000000,4.000000,4.000000,4.000000,4.000000,4.000000,4.000000,4.000000,4.000000,4.000000,4.000000,4.000000,4.000000,100.000000
1602006568.248657,77.000000,0.000000,4101.538574,4109.743652,4128.205078,4121.538574,4112.820313,4135.384766,4137.948730,4137.436035,4125.641113,4129.230957,4137.948730,4134.358887,4127.179688,4128.205078,731.000000,4.000000,,,,0.000000,4.000000,4.000000,4.000000,4.000000,4.000000,4.000000,4.000000,4.000000,4.000000,4.000000,4.000000,4.000000,4.000000,4.000000,100.000000
1602006568.256537,78.000000,0.000000,4107.179688,4110.769043,4133.333496,4123.077148,4112.820313,4139.487305,4139.487305,4142.051270,4124.102539,4113.333496,4128.717773,4140.000000,4123.589844,4141.538574,876.000000,4.000000,,,,0.000000,4.000000,4.000000,4.000000,4.000000,4.000000,4.000000,4.000000,4.000000,4.000000,4.000000,4.000000,4.000000,4.000000,4.000000,100.000000
1602006568.264418,79.000000,0.000000,4106.666504,4108.205078,4137.948730,4124.102539,4113.333496,4140.512695,4140.512695,4149.743652,4134.358887,4126.153809,4123.077148,4142.563965,4125.128418,4127.179688,845.000000,4.000000,,,,0.000000,4.000000,4.000000,4.000000,4.000000,4.000000,4.000000,4.000000,4.000000,4.000000,4.000000,4.000000,4.000000,4.000000,4.000000,100.000000
1602006568.272199,80.000000,0.000000,4091.281982,4105.641113,4137.948730,4121.538574,4109.743652,4128.717773,4134.871582,4145.128418,4128.717773,4139.487305,4125.641113,4137.436035,4118.974121,4103.077148,768.000000,4.000000,,,,0.000000,4.000000,4.000000,4.000000,4.000000,4.000000,4.000000,4.000000,4.000000,4.000000,4.000000,4.000000,4.000000,4.000000,4.000000,100.000000
1602006568.280079,81.000000,0.000000,4090.769287,4106.666504,4135.384766,4122.051270,4114.358887,4127.179688,4130.256348,4136.922852,4114.358887,4141.025879,4130.769043,4143.077148,4117.948730,4110.256348,731.000000,4.000000,,,,0.000000,4.000000,4.000000,4.000000,4.000000,4.000000,4.000000,4.000000,4.000000,4.000000,4.000000,4.000000,4.000000,4.000000,4.000000,100.000000
1602006568.287960,82.000000,0.000000,4108.205078,4107.692383,4134.871582,4124.615234,4122.563965,4132.820313,4130.256348,4139.487305,4121.025879,4146.153809,4137.948730,4153.846191,4135.384766,4128.717773,876.000000,4.000000,,,,0.000000,4.000000,4.000000,4.000000,4.000000,4.000000,4.000000,4.000000,4.000000,4.000000,4.000000,4.000000,4.000000,4.000000,4.000000,100.000000
1602006568.295741,83.000000,0.000000,4116.922852,4107.179688,4135.384766,4122.563965,4121.025879,4124.102539,4132.820313,4146.153809,4134.358887,4154.871582,4140.512695,4146.153809,4140.512695,4129.230957,845.000000,4.000000,,,,0.000000,4.000000,4.000000,4.000000,4.000000,4.000000,4.000000,4.000000,4.000000,4.000000,4.000000,4.000000,4.000000,4.000000,4.000000,100.000000
1602006568.303622,84.000000,0.000000,4117.948730,4110.769043,4136.922852,4121.025879,4116.410156,4120.512695,4135.897461,4145.641113,4131.794922,4147.692383,4130.769043,4133.846191,4123.589844,4123.589844,768.000000,4.000000,,,,0.000000,4.000000,4.000000,4.000000,4.000000,4.000000,4.000000,4.000000,4.000000,4.000000,4.000000,4.000000,4.000000,4.000000,4.000000,100.000000
1602006568.311503,85.000000,0.000000,4122.051270,4114.871582,4138.461426,4122.051270,4117.948730,4135.384766,4137.436035,4144.615234,4133.333496,4131.794922,4126.153809,4137.948730,4121.025879,4125.128418,731.000000,4.000000,,,,0.000000,4.000000,4.000000,4.000000,4.000000,4.000000,4.000000,4.000000,4.000000,4.000000,4.000000,4.000000,4.000000,4.000000,4.000000,100.000000
1602006568.319383,86.000000,0.000000,4116.410156,4110.256348,4134.358887,4120.512695,4121.025879,4142.051270,4140.000000,4143.589844,4141.025879,4144.615234,4127.179688,4137.948730,4130.769043,4125.128418,876.000000,4.000000,,,,0.000000,4.000000,4.000000,4.000000,4.000000,4.000000,4.000000,4.000000,4.000000,4.000000,4.000000,4.000000,4.000000,4.000000,4.000000,100.000000
1602006568.327264,87.000000,0.000000,4108.205078,4102.563965,4131.794922,4118.974121,4121.025879,4138.461426,4143.589844,4139.487305,4129.743652,4143.589844,4118.974121,4127.692383,4121.025879,4122.051270,845.000000,4.000000,,,,0.000000,4.000000,4.000000,4.000000,4.000000,4.000000,4.000000,4.000000,4.000000,4.000000,4.000000,4.000000,4.000000,4.000000,4.000000,100.000000
1602006568.335145,88.000000,0.000000,4111.794922,4102.563965,4135.384766,4115.897461,4117.436035,4136.922852,4144.102539,4137.948730,4106.153809,4108.717773,4106.153809,4125.641113,4103.589844,4120.000000,768.000000,4.000000,,,,0.000000,4.000000,4.000000,4.000000,4.000000,4.000000,4.000000,4.000000,4.000000,4.000000,4.000000,4.000000,4.000000,4.000000,4.000000,100.000000
1602006568.343026,89.000000,0.000000,4112.307617,4106.666504,4137.436035,4115.897461,4115.897461,4134.358887,4139.487305,4138.974121,4103.589844,4109.230957,4106.666504,4127.179688,4102.563965,4116.410156,731.000000,4.000000,,,,0.000000,4.000000,4.000000,4.000000,4.000000,4.000000,4.000000,4.000000,4.000000,4.000000,4.000000,4.000000,4.000000,4.000000,4.000000,100.000000
1602006568.350807,90.000000,0.000000,4106.666504,4107.179688,4134.358887,4120.000000,4116.922852,4131.794922,4136.410156,4142.051270,4120.512695,4141.025879,4119.487305,4125.641113,4116.922852,4118.974121,876.000000,4.000000,,,,0.000000,4.000000,4.000000,4.000000,4.000000,4.000000,4.000000,4.000000,4.000000,4.000000,4.000000,4.000000,4.000000,4.000000,4.000000,100.000000
1602006568.358688,91.000000,0.000000,4107.692383,4106.153809,4128.717773,4122.563965,4114.871582,4129.743652,4135.384766,4142.563965,4123.077148,4136.922852,4123.589844,4123.589844,4124.615234,4119.487305,845.000000,4.000000,,,,0.000000,4.000000,4.000000,4.000000,4.000000,4.000000,4.000000,4.000000,4.000000,4.000000,4.000000,4.000000,4.000000,4.000000,4.000000,100.000000
1602006568.366568,92.000000,0.000000,4105.128418,4105.128418,4120.512695,4121.538574,4111.282227,4129.230957,4133.846191,4139.487305,4111.282227,4108.205078,4112.307617,4118.974121,4112.307617,4114.871582,768.000000,4.000000,,,,0.000000,4.000000,4.000000,4.000000,4.000000,4.000000,4.000000,4.000000,4.000000,4.000000,4.000000,4.000000,4.000000,4.000000,4.000000,100.000000
1602006568.374449,93.000000,0.000000,4100.000000,4106.153809,4122.563965,4122.051270,4113.333496,4132.820313,4133.333496,4135.384766,4105.128418,4110.769043,4106.153809,4115.897461,4102.051270,4117.948730,731.000000,4.000000,,,,0.000000,4.000000,4.000000,4.000000,4.000000,4.000000,4.000000,4.000000,4.000000,4.000000,4.000000,4.000000,4.000000,4.000000,4.000000,100.000000
1602006568.382330,94.000000,0.000000,4110.769043,4111.794922,4135.897461,4126.153809,4112.820313,4131.794922,4135.384766,4136.922852,4107.179688,4133.846191,4116.410156,4121.538574,4107.692383,4125.641113,876.000000,4.000000,,,,0.000000,4.000000,4.000000,4.000000,4.000000,4.000000,4.000000,4.000000,4.000000,4.000000,4.000000,4.000000,4.000000,4.000000,4.000000,100.000000
1602006568.390111,95.000000,0.000000,4121.025879,4115.384766,4142.051270,4127.179688,4107.179688,4125.641113,4135.897461,4136.922852,4107.179688,4138.974121,4121.025879,4131.282227,4111.282227,4126.666504,845.000000,4.000000,,,,0.000000,4.000000,4.000000,4.000000,4.000000,4.000000,4.000000,4.000000,4.000000,4.000000,4.000000,4.000000,4.000000,4.000000,4.000000,100.000000
1602006568.397992,96.000000,0.000000,4112.820313,4104.615234,4132.307617,4118.461426,4106.153809,4119.487305,4135.897461,4126.153809,4099.487305,4114.358887,4109.743652,4135.897461,4107.692383,4122.563965,768.000000,4.000000,,,,0.000000,4.000000,4.000000,4.000000,4.000000,4.000000,4.000000,4.000000,4.000000,4.000000,4.000000,4.000000,4.000000,4.000000,4.000000,100.000000
1602006568.405873,97.000000,0.000000,4107.692383,4092.820557,4125.641113,4110.256348,4104.615234,4111.794922,4135.384766,4121.538574,4096.410156,4090.256348,4106.153809,4137.436035,4110.769043,4120.512695,731.000000,4.000000,,,,0.000000,4.000000,4.000000,4.000000,4.000000,4.000000,4.000000,4.000000,4.000000,4.000000,4.000000,4.000000,4.000000,4.000000,4.000000,100.000000
1602006568.413754,98.000000,0.000000,4121.025879,4100.000000,4134.871582,4116.922852,4105.641113,4116.922852,4137.436035,4134.358887,4110.256348,4109.743652,4120.512695,4144.615234,4120.000000,4127.692383,876.000000,4.000000,,,,0.000000,4.000000,4.000000,4.000000,4.000000,4.000000,4.000000,4.000000,4.000000,4.000000,4.000000,4.000000,4.000000,4.000000,4.000000,100.000000
1602006568.421634,99.000000,0.000000,4130.256348,4110.769043,4143.589844,4123.077148,4112.820313,4130.256348,4142.563965,4144.102539,4125.128418,4130.769043,4135.384766,4155.897461,4126.666504,4140.000000,845.000000,4.000000,,,,0.000000,4.000000,4.000000,4.000000,4.000000,4.000000,4.000000,4.000000,4.000000,4.000000,4.000000,4.000000,4.000000,4.000000,4.000000,100.000000
1602006568.429515,100.000000,0.000000,4124.615234,4112.820313,4140.000000,4123.589844,4112.820313,4125.128418,4136.410156,4137.948730,4117.436035,4120.512695,4133.333496,4155.384766,4130.769043,4141.538574,768.000000,4.000000,,,,0.000000,4.000000,4.000000,4.000000,4.000000,4.000000,4.000000,4.000000,4.000000,4.000000,4.000000,4.000000,4.000000,4.000000,4.000000,100.000000
1602006568.437396,101.000000,0.000000,4121.538574,4118.974121,4135.384766,4132.820313,4114.871582,4123.077148,4126.666504,4135.897461,4113.846191,4123.077148,4128.717773,4151.282227,4136.410156,4137.948730,731.000000,4.000000,,,,0.000000,4.000000,4.000000,4.000000,4.000000,4.000000,4.000000,4.000000,4.000000,4.000000,4.000000,4.000000,4.000000,4.000000,4.000000,100.000000
1602006568.445277,102.000000,0.000000,4121.538574,4126.666504,4133.333496,4136.922852,4123.589844,4136.922852,4131.794922,4141.025879,4128.717773,4142.563965,4128.205078,4154.871582,4131.794922,4135.897461,876.000000,4.000000,,,,0.000000,4.000000,4.000000,4.000000,4.000000,4.000000,4.000000,4.000000,4.000000,4.000000,4.000000,4.000000,4.000000,4.000000,4.000000,100.000000
1602006568.453058,103.000000,0.000000,4111.282227,4122.051270,4123.077148,4125.128418,4126.153809,4140.000000,4137.436035,4135.897461,4133.333496,4134.358887,4123.077148,4149.230957,4120.000000,4133.333496,845.000000,4.000000,,,,0.000000,4.000000,4.000000,4.000000,4.000000,4.000000,4.000000,4.000000,4.000000,4.000000,4.000000,4.000000,4.000000,4.000000,4.000000,100.000000
1602006568.460939,104.000000,0.000000,4109.743652,4117.948730,4114.871582,4120.512695,4121.025879,4136.410156,4134.871582,4127.692383,4124.615234,4108.717773,4123.077148,4141.538574,4126.666504,4135.384766,768.000000,4.000000,,,,0.000000,4.000000,4.000000,4.000000,4.000000,4.000000,4.000000,4.000000,4.000000,4.000000,4.000000,4.000000,4.000000,4.000000,4.000000,100.000000
1602006568.468820,105.000000,0.000000,4130.256348,4123.589844,4130.256348,4132.820313,4124.615234,4143.589844,4138.461426,4132.307617,4125.128418,4118.461426,4135.384766,4149.230957,4140.512695,4146.153809,731.000000,4.000000,,,,0.000000,4.000000,4.000000,4.000000,4.000000,4.000000,4.000000,4.000000,4.000000,4.000000,4.000000,4.000000,4.000000,4.000000,4.000000,100.000000
1602006568.476701,106.000000,0.000000,4139.487305,4127.692383,4147.692383,4139.487305,4130.256348,4144.102539,4143.589844,4138.974121,4130.256348,4148.205078,4143.589844,4156.922852,4139.487305,4148.717773,876.000000,4.000000,,,,0.000000,4.000000,4.000000,4.000000,4.000000,4.000000,4.000000,4.000000,4.000000,4.000000,4.000000,4.000000,4.000000,4.000000,4.000000,100.000000
1602006568.484582,107.000000,0.000000,4126.153809,4127.179688,4145.128418,4136.922852,4118.974121,4132.307617,4138.974121,4133.846191,4126.666504,4156.410156,4139.487305,4152.307617,4134.358887,4142.051270,845.000000,4.000000,,,,0.000000,4.000000,4.000000,4.000000,4.000000,4.000000,4.000000,4.000000,4.000000,4.000000,4.000000,4.000000,4.000000,4.000000,4.000000,100.000000
1602006568.492463,108.000000,0.000000,4119.487305,4125.641113,4135.897461,4136.922852,4110.256348,4126.153809,4137.436035,4125.128418,4116.410156,4137.948730,4132.820313,4150.256348,4136.922852,4136.410156,768.000000,4.000000,,,,0.000000,4.000000,4.000000,4.000000,4.000000,4.000000,4.000000,4.000000,4.000000,4.000000,4.000000,4.000000,4.000000,4.000000,4.000000,100.000000
1602006568.500344,109.000000,0.000000,4126.666504,4123.589844,4130.256348,4136.410156,4114.358887,4124.615234,4141.025879,4125.641113,4108.717773,4123.077148,4128.717773,4155.384766,4137.436035,4126.666504,731.000000,4.000000,,,,0.000000,4.000000,4.000000,4.000000,4.000000,4.000000,4.000000,4.000000,4.000000,4.000000,4.000000,4.000000,4.000000,4.000000,4.000000,100.000000
1602006568.508225,110.000000,0.000000,4135.384766,4127.179688,4131.794922,4136.410156,4121.538574,4118.974121,4135.384766,4132.820313,4114.358887,4130.256348,4131.282227,4158.461426,4134.871582,4121.025879,876.000000,4.000000,,,,0.000000,4.000000,4.000000,4.000000,4.000000,4.000000,4.000000,4.000000,4.000000,4.000000,4.000000,4.000000,4.000000,4.000000,4.000000,100.000000
1602006568.516006,111.000000,0.000000,4145.641113,4140.512695,4148.205078,4146.666504,4130.256348,4120.512695,4123.589844,4135.384766,4129.230957,4142.563965,4142.563965,4172.307617,4142.051270,4143.589844,845.000000,4.000000,,,,0.000000,4.000000,4.000000,4.000000,4.000000,4.000000,4.000000,4.000000,4.000000,4.000000,4.000000,4.000000,4.000000,4.000000,4.000000,100.000000
1602006568.523887,112.000000,0.000000,4155.384766,4149.230957,4166.153809,4152.820313,4137.436035,4125.641113,4118.461426,4128.717773,4134.871582,4145.128418,4141.538574,4184.615234,4148.717773,4165.641113,768.000000,4.000000,,,,0.000000,4.000000,4.000000,4.000000,4.000000,4.000000,4.000000,4.000000,4.000000,4.000000,4.000000,4.000000,4.000000,4.000000,4.000000,100.000000
1602006568.531768,113.000000,0.000000,4154.871582,4139.487305,4158.974121,4142.563965,4135.897461,4121.538574,4118.974121,4123.077148,4136.922852,4139.487305,4124.615234,4171.282227,4142.051270,4148.717773,731.000000,4.000000,,,,0.000000,4.000000,4.000000,4.000000,4.000000,4.000000,4.000000,4.000000,4.000000,4.000000,4.000000,4.000000,4.000000,4.000000,4.000000,100.000000
1602006568.539649,114.000000,0.000000,4141.538574,4126.153809,4141.025879,4135.384766,4133.846191,4124.615234,4122.051270,4122.051270,4135.384766,4143.589844,4114.358887,4153.333496,4131.282227,4125.641113,876.000000,4.000000,,,,0.000000,4.000000,4.000000,4.000000,4.000000,4.000000,4.000000,4.000000,4.000000,4.000000,4.000000,4.000000,4.000000,4.000000,4.000000,100.000000
1602006568.547530,115.000000,0.000000,4122.563965,4123.077148,4132.820313,4137.436035,4137.436035,4145.128418,4131.794922,4122.563965,4123.589844,4143.589844,4122.563965,4150.769043,4122.563965,4122.051270,845.000000,4.000000,,,,0.000000,4.000000,4.000000,4.000000,4.000000,4.000000,4.000000,4.000000,4.000000,4.000000,4.000000,4.000000,4.000000,4.000000,4.000000,100.000000
1602006568.555410,116.000000,0.000000,4115.897461,4126.666504,4131.794922,4135.897461,4136.922852,4159.487305,4142.563965,4128.717773,4115.384766,4114.358887,4135.897461,4150.769043,4123.077148,4120.000000,768.000000,4.000000,,,,0.000000,4.000000,4.000000,4.000000,4.000000,4.000000,4.000000,4.000000,4.000000,4.000000,4.000000,4.000000,4.000000,4.000000,4.000000,100.000000
1602006568.563191,117.000000,0.000000,4129.230957,4133.846191,4138.974121,4140.000000,4144.615234,4155.384766,4145.641113,4137.948730,4124.615234,4110.256348,4139.487305,4158.461426,4136.922852,4125.641113,731.000000,4.000000,,,,0.000000,4.000000,4.000000,4.000000,4.000000,4.000000,4.000000,4.000000,4.000000,4.000000,4.000000,4.000000,4.000000,4.000000,4.000000,100.000000
1602006568.571072,118.000000,0.000000,4148.205078,4146.666504,4152.820313,4152.820313,4155.384766,4148.717773,4143.077148,4140.512695,4141.538574,4156.922852,4142.563965,4180.512695,4155.897461,4149.230957,876.000000,4.000000,,,,0.000000,4.000000,4.000000,4.000000,4.000000,4.000000,4.000000,4.000000,4.000000,4.000000,4.000000,4.000000,4.000000,4.000000,4.000000,100.000000
1602006568.578953,119.000000,0.000000,4155.384766,4151.794922,4160.512695,4155.897461,4148.205078,4141.025879,4134.871582,4133.846191,4140.512695,4182.051270,4145.641113,4189.743652,4163.077148,4157.948730,845.000000,4.000000,,,,0.000000,4.000000,4.000000,4.000000,4.000000,4.000000,4.000000,4.000000,4.000000,4.000000,4.000000,4.000000,4.000000,4.000000,4.000000,100.000000
1602006568.586834,120.000000,0.000000,4149.230957,4144.615234,4158.974121,4151.794922,4136.922852,4125.641113,4124.102539,4123.589844,4118.461426,4154.358887,4137.948730,4178.461426,4153.846191,4145.128418,768.000000,4.000000,,,,0.000000,4.000000,4.000000,4.000000,4.000000,4.000000,4.000000,4.000000,4.000000,4.000000,4.000000,4.000000,4.000000,4.000000,4.000000,100.000000
1602006568.594715,121.000000,0.000000,4143.077148,4138.974121,4152.820313,4151.282227,4134.871582,4115.897461,4121.538574,4120.000000,4103.077148,4137.436035,4127.692383,4165.641113,4138.974121,4142.051270,731.000000,4.000000,,,,0.000000,4.000000,4.000000,4.000000,4.000000,4.000000,4.000000,4.000000,4.000000,4.000000,4.000000,4.000000,4.000000,4.000000,4.000000,100.000000
1602006568.602596,122.000000,0.000000,4132.820313,4133.333496,4142.563965,4145.641113,4128.205078,4117.436035,4123.589844,4121.025879,4100.512695,4133.846191,4122.051270,4152.820313,4126.666504,4140.000000,876.000000,4.000000,,,,0.000000,4.000000,4.000000,4.000000,4.000000,4.000000,4.000000,4.000000,4.000000,4.000000,4.000000,4.000000,4.000000,4.000000,4.000000,100.000000
1602006568.610477,123.000000,0.000000,4120.000000,4126.153809,4134.871582,4138.974121,4120.512695,4119.487305,4120.512695,4117.436035,4100.512695,4108.205078,4120.000000,4148.717773,4123.077148,4125.128418,845.000000,4.000000,,,,0.000000,4.000000,4.000000,4.000000,4.000000,4.000000,4.000000,4.000000,4.000000,4.000000,4.000000,4.000000,4.000000,4.000000,4.000000,100.000000
1602006568.618358,124.000000,0.000000,4126.153809,4125.128418,4137.436035,4138.461426,4124.615234,4119.487305,4118.461426,4116.922852,4114.871582,4100.000000,4126.666504,4158.461426,4129.230957,4120.512695,768.000000,4.000000,,,,0.000000,4.000000,4.000000,4.000000,4.000000,4.000000,4.000000,4.000000,4.000000,4.000000,4.000000,4.000000,4.000000,4.000000,4.000000,100.000000
1602006568.626239,125.000000,0.000000,4138.974121,4127.179688,4137.436035,4137.948730,4129.743652,4126.666504,4118.974121,4123.077148,4138.974121,4128.717773,4138.974121,4159.487305,4135.384766,4127.692383,731.000000,4.000000,,,,0.000000,4.000000,4.000000,4.000000,4.000000,4.000000,4.000000,4.000000,4.000000,4.000000,4.000000,4.000000,4.000000,4.000000,4.000000,100.000000
1602006568.634020,126.000000,0.000000,4134.358887,4128.205078,4126.153809,4135.384766,4125.128418,4136.922852,4120.000000,4124.102539,4148.717773,4147.179688,4135.384766,4149.743652,4135.897461,4123.589844,876.000000,4.000000,,,,0.000000,4.000000,4.000000,4.000000,4.000000,4.000000,4.000000,4.000000,4.000000,4.000000,4.000000,4.000000,4.000000,4.000000,4.000000,100.000000
1602006568.641900,127.000000,0.000000,4129.230957,4130.256348,4120.512695,4134.358887,4122.051270,4141.538574,4125.128418,4123.589844,4147.179688,4142.563965,4122.563965,4151.282227,4134.358887,4119.487305,845.000000,4.000000,,,,0.000000,4.000000,4.000000,4.000000,4.000000,4.000000,4.000000,4.000000,4.000000,4.000000,4.000000,4.000000,4.000000,4.000000,4.000000,100.000000
1602006568.649781,128.000000,0.000000,4131.794922,4126.666504,4125.128418,4134.871582,4124.615234,4143.077148,4129.230957,4128.205078,4139.487305,4131.282227,4122.051270,4152.307617,4130.769043,4124.615234,768.000000,4.000000,,,,0.000000,4.000000,4.000000,4.000000,4.000000,4.000000,4.000000,4.000000,4.000000,4.000000,4.000000,4.000000,4.000000,4.000000,4.000000,100.000000
1602006568.657562,0.000000,0.000000,4128.717773,4120.512695,4123.077148,4135.384766,4120.512695,4135.897461,4124.102539,4126.153809,4114.871582,4118.974121,4122.051270,4142.051270,4119.487305,4120.512695,789.000000,4.000000,,,,0.000000,4.000000,4.000000,4.000000,4.000000,4.000000,4.000000,4.000000,4.000000,4.000000,4.000000,4.000000,4.000000,4.000000,4.000000,100.000000
1602006568.665442,1.000000,0.000000,4132.307617,4127.692383,4120.000000,4134.358887,4115.897461,4123.077148,4124.615234,4119.487305,4098.461426,4112.820313,4123.589844,4142.563965,4120.000000,4118.974121,790.000000,4.000000,,,,0.000000,4.000000,4.000000,4.000000,4.000000,4.000000,4.000000,4.000000,4.000000,4.000000,4.000000,4.000000,4.000000,4.000000,4.000000,100.000000
1602006568.673223,2.000000,0.000000,4148.205078,4138.974121,4135.384766,4136.410156,4129.230957,4123.077148,4135.897461,4124.102539,4110.769043,4124.102539,4135.897461,4164.102539,4143.077148,4148.205078,850.000000,4.000000,,,,0.000000,4.000000,4.000000,4.000000,4.000000,4.000000,4.000000,4.000000,4.000000,4.000000,4.000000,4.000000,4.000000,4.000000,4.000000,100.000000
1602006568.681004,3.000000,0.000000,4157.436035,4146.153809,4156.410156,4143.077148,4138.974121,4130.256348,4139.487305,4133.333496,4124.102539,4146.153809,4144.102539,4179.487305,4156.410156,4178.974121,861.000000,4.000000,,,,0.000000,4.000000,4.000000,4.000000,4.000000,4.000000,4.000000,4.000000,4.000000,4.000000,4.000000,4.000000,4.000000,4.000000,4.000000,100.000000
1602006568.688885,4.000000,0.000000,4157.948730,4143.077148,4159.487305,4143.077148,4125.641113,4122.563965,4136.410156,4131.794922,4122.563965,4153.846191,4143.589844,4175.384766,4146.666504,4168.717773,809.000000,4.000000,,,,0.000000,4.000000,4.000000,4.000000,4.000000,4.000000,4.000000,4.000000,4.000000,4.000000,4.000000,4.000000,4.000000,4.000000,4.000000,100.000000
1602006568.696765,5.000000,0.000000,4153.846191,4130.256348,4149.230957,4138.974121,4115.384766,4117.436035,4134.358887,4125.128418,4117.948730,4138.461426,4142.563965,4167.692383,4133.846191,4144.102539,824.000000,4.000000,,,,0.000000,4.000000,4.000000,4.000000,4.000000,4.000000,4.000000,4.000000,4.000000,4.000000,4.000000,4.000000,4.000000,4.000000,4.000000,100.000000
1602006568.704646,6.000000,0.000000,4146.153809,4125.641113,4142.563965,4139.487305,4123.589844,4133.846191,4129.230957,4124.615234,4125.128418,4131.282227,4143.077148,4166.666504,4138.461426,4146.666504,781.000000,4.000000,,,,0.000000,4.000000,4.000000,4.000000,4.000000,4.000000,4.000000,4.000000,4.000000,4.000000,4.000000,4.000000,4.000000,4.000000,4.000000,100.000000
1602006568.712527,7.000000,0.000000,4132.307617,4123.077148,4135.384766,4132.307617,4124.102539,4137.436035,4121.025879,4125.128418,4140.512695,4136.922852,4134.871582,4158.974121,4134.871582,4141.538574,669.000000,4.000000,,,,0.000000,4.000000,4.000000,4.000000,4.000000,4.000000,4.000000,4.000000,4.000000,4.000000,4.000000,4.000000,4.000000,4.000000,4.000000,100.000000
1602006568.720408,8.000000,0.000000,4116.922852,4111.794922,4122.051270,4119.487305,4111.794922,4118.461426,4111.794922,4118.974121,4141.538574,4132.307617,4121.025879,4144.102539,4116.410156,4112.307617,784.000000,4.000000,,,,0.000000,4.000000,4.000000,4.000000,4.000000,4.000000,4.000000,4.000000,4.000000,4.000000,4.000000,4.000000,4.000000,4.000000,4.000000,100.000000
1602006568.728189,9.000000,0.000000,4120.000000,4110.769043,4123.077148,4120.000000,4116.922852,4123.077148,4111.282227,4120.512695,4135.897461,4133.333496,4123.077148,4145.641113,4120.000000,4115.897461,849.000000,4.000000,,,,0.000000,4.000000,4.000000,4.000000,4.000000,4.000000,4.000000,4.000000,4.000000,4.000000,4.000000,4.000000,4.000000,4.000000,4.000000,100.000000
1602006568.736070,10.000000,0.000000,4130.256348,4123.589844,4135.897461,4129.743652,4134.871582,4147.179688,4120.000000,4128.205078,4144.615234,4143.589844,4138.461426,4163.589844,4140.512695,4149.743652,876.000000,4.000000,,,,0.000000,4.000000,4.000000,4.000000,4.000000,4.000000,4.000000,4.000000,4.000000,4.000000,4.000000,4.000000,4.000000,4.000000,4.000000,100.000000
1602006568.743951,11.000000,0.000000,4127.179688,4125.128418,4139.487305,4133.846191,4135.897461,4141.538574,4124.102539,4125.128418,4141.025879,4134.358887,4144.615234,4173.846191,4145.128418,4156.410156,845.000000,4.000000,,,,0.000000,4.000000,4.000000,4.000000,4.000000,4.000000,4.000000,4.000000,4.000000,4.000000,4.000000,4.000000,4.000000,4.000000,4.000000,100.000000
1602006568.751832,12.000000,0.000000,4128.205078,4120.512695,4137.948730,4136.922852,4126.153809,4122.563965,4124.615234,4117.948730,4110.769043,4129.230957,4134.871582,4166.666504,4136.410156,4144.102539,768.000000,4.000000,,,,0.000000,4.000000,4.000000,4.000000,4.000000,4.000000,4.000000,4.000000,4.000000,4.000000,4.000000,4.000000,4.000000,4.000000,4.000000,100.000000
1602006568.759713,13.000000,0.000000,4138.974121,4123.589844,4137.948730,4135.384766,4127.179688,4122.051270,4131.794922,4118.974121,4092.307617,4138.974121,4125.641113,4155.897461,4133.333496,4141.538574,731.000000,4.000000,,,,0.000000,4.000000,4.000000,4.000000,4.000000,4.000000,4.000000,4.000000,4.000000,4.000000,4.000000,4.000000,4.000000,4.000000,4.000000,100.000000
1602006568.767594,14.000000,0.000000,4133.846191,4122.563965,4129.743652,4130.256348,4129.230957,4120.512695,4138.974121,4121.538574,4095.384521,4127.692383,4124.615234,4154.871582,4133.333496,4137.948730,876.000000,4.000000,,,,0.000000,4.000000,4.000000,4.000000,4.000000,4.000000,4.000000,4.000000,4.000000,4.000000,4.000000,4.000000,4.000000,4.000000,4.000000,100.000000
1602006568.775475,15.000000,0.000000,4124.102539,4122.051270,4121.538574,4132.307617,4127.692383,4114.871582,4136.410156,4120.512695,4096.922852,4114.871582,4131.794922,4150.256348,4135.384766,4135.384766,845.000000,4.000000,,,,0.000000,4.000000,4.000000,4.000000,4.000000,4.000000,4.000000,4.000000,4.000000,4.000000,4.000000,4.000000,4.000000,4.000000,4.000000,100.000000
1602006568.783256,16.000000,0.000000,4132.307617,4128.205078,4122.051270,4136.922852,4128.205078,4117.948730,4128.717773,4121.538574,4103.589844,4121.538574,4136.410156,4141.025879,4137.436035,4134.358887,0.000000,4.000000,,,,0.000000,4.000000,4.000000,4.000000,4.000000,4.000000,4.000000,4.000000,4.000000,4.000000,4.000000,4.000000,4.000000,4.000000,4.000000,100.000000
1602006568.791136,17.000000,0.000000,4140.512695,4129.743652,4125.641113,4136.410156,4124.615234,4126.153809,4126.666504,4126.666504,4121.025879,4118.974121,4133.846191,4145.128418,4137.948730,4130.769043,0.000000,4.000000,,,,0.000000,4.000000,4.000000,4.000000,4.000000,4.000000,4.000000,4.000000,4.000000,4.000000,4.000000,4.000000,4.000000,4.000000,4.000000,100.000000
1602006568.799017,18.000000,0.000000,4139.487305,4125.128418,4133.846191,4136.922852,4120.000000,4134.871582,4129.230957,4135.897461,4144.615234,4122.563965,4138.461426,4155.897461,4142.051270,4137.436035,0.000000,4.000000,,,,0.000000,4.000000,4.000000,4.000000,4.000000,4.000000,4.000000,4.000000,4.000000,4.000000,4.000000,4.000000,4.000000,4.000000,4.000000,100.000000
1602006568.806898,19.000000,0.000000,4138.461426,4125.128418,4142.051270,4133.846191,4121.538574,4134.871582,4127.179688,4141.025879,4164.615234,4155.384766,4144.102539,4158.974121,4142.563965,4147.692383,0.000000,4.000000,,,,0.000000,4.000000,4.000000,4.000000,4.000000,4.000000,4.000000,4.000000,4.000000,4.000000,4.000000,4.000000,4.000000,4.000000,4.000000,100.000000
1602006568.814778,20.000000,0.000000,4132.307617,4123.077148,4139.487305,4125.128418,4115.897461,4123.589844,4118.974121,4138.461426,4166.153809,4169.230957,4134.358887,4156.410156,4140.000000,4144.615234,0.000000,4.000000,,,,0.000000,4.000000,4.000000,4.000000,4.000000,4.000000,4.000000,4.000000,4.000000,4.000000,4.000000,4.000000,4.000000,4.000000,4.000000,100.000000
1602006568.822559,21.000000,0.000000,4124.615234,4111.794922,4125.641113,4121.538574,4106.666504,4119.487305,4110.769043,4132.820313,4155.384766,4146.666504,4122.051270,4150.256348,4137.948730,4132.820313,0.000000,4.000000,,,,0.000000,4.000000,4.000000,4.000000,4.000000,4.000000,4.000000,4.000000,4.000000,4.000000,4.000000,4.000000,4.000000,4.000000,4.000000,100.000000
1602006568.830440,22.000000,0.000000,4117.436035,4103.077148,4108.205078,4116.410156,4106.153809,4129.743652,4107.179688,4125.128418,4149.743652,4127.692383,4120.512695,4137.948730,4126.666504,4120.000000,0.000000,4.000000,,,,0.000000,4.000000,4.000000,4.000000,4.000000,4.000000,4.000000,4.000000,4.000000,4.000000,4.000000,4.000000,4.000000,4.000000,4.000000,100.000000
1602006568.838321,23.000000,0.000000,4112.307617,4105.128418,4102.563965,4108.717773,4113.333496,4138.461426,4112.820313,4120.512695,4144.102539,4124.102539,4122.051270,4134.358887,4118.461426,4117.436035,0.000000,4.000000,,,,0.000000,4.000000,4.000000,4.000000,4.000000,4.000000,4.000000,4.000000,4.000000,4.000000,4.000000,4.000000,4.000000,4.000000,4.000000,100.000000
1602006568.846101,24.000000,0.000000,4110.769043,4107.692383,4109.743652,4110.256348,4121.025879,4141.025879,4122.051270,4122.563965,4134.871582,4125.641113,4119.487305,4133.846191,4122.051270,4123.589844,0.000000,4.000000,,,,0.000000,4.000000,4.000000,4.000000,4.000000,4.000000,4.000000,4.000000,4.000000,4.000000,4.000000,4.000000,4.000000,4.000000,4.000000,100.000000
1602006568.853982,25.000000,0.000000,4108.205078,4102.563965,4108.717773,4112.820313,4120.000000,4134.358887,4127.692383,4123.077148,4121.538574,4121.538574,4117.436035,4126.153809,4115.384766,4117.948730,0.000000,4.000000,,,,0.000000,4.000000,4.000000,4.000000,4.000000,4.000000,4.000000,4.000000,4.000000,4.000000,4.000000,4.000000,4.000000,4.000000,4.000000,100.000000
1602006568.861863,26.000000,0.000000,4105.641113,4100.000000,4102.051270,4110.769043,4112.307617,4126.666504,4135.384766,4122.563965,4106.666504,4105.641113,4118.461426,4124.615234,4103.077148,4106.153809,0.000000,4.000000,,,,0.000000,4.000000,4.000000,4.000000,4.000000,4.000000,4.000000,4.000000,4.000000,4.000000,4.000000,4.000000,4.000000,4.000000,4.000000,100.000000
1602006568.869644,27.000000,0.000000,4106.666504,4106.153809,4109.743652,4115.384766,4112.820313,4125.128418,4142.563965,4122.563965,4097.436035,4101.538574,4121.538574,4134.358887,4111.794922,4114.871582,0.000000,4.000000,,,,0.000000,4.000000,4.000000,4.000000,4.000000,4.000000,4.000000,4.000000,4.000000,4.000000,4.000000,4.000000,4.000000,4.000000,4.000000,100.000000
1602006568.877525,28.000000,0.000000,4109.230957,4110.769043,4121.538574,4121.538574,4113.333496,4121.025879,4136.922852,4121.025879,4085.128174,4108.205078,4123.077148,4144.102539,4123.589844,4136.410156,0.000000,4.000000,,,,0.000000,4.000000,4.000000,4.000000,4.000000,4.000000,4.000000,4.000000,4.000000,4.000000,4.000000,4.000000,4.000000,4.000000,4.000000,100.000000
1602006568.885406,29.000000,0.000000,4111.794922,4107.179688,4126.153809,4123.077148,4107.179688,4116.410156,4126.666504,4118.461426,4074.871826,4103.077148,4123.077148,4151.794922,4123.077148,4139.487305,0.000000,4.000000,,,,0.000000,4.000000,4.000000,4.000000,4.000000,4.000000,4.000000,4.000000,4.000000,4.000000,4.000000,4.000000,4.000000,4.000000,4.000000,100.000000
1602006568.893287,30.000000,0.000000,4122.563965,4106.666504,4132.307617,4125.128418,4111.794922,4122.051270,4124.615234,4120.000000,4096.922852,4111.282227,4124.102539,4157.948730,4122.563965,4124.102539,0.000000,4.000000,,,,0.000000,4.000000,4.000000,4.000000,4.000000,4.000000,4.000000,4.000000,4.000000,4.000000,4.000000,4.000000,4.000000,4.000000,4.000000,100.000000
1602006568.901169,31.000000,0.000000,4129.743652,4116.922852,4139.487305,4127.692383,4121.538574,4136.410156,4126.153809,4129.743652,4130.256348,4138.461426,4126.153809,4157.436035,4126.153809,4121.025879,0.000000,4.000000,,,,0.000000,4.000000,4.000000,4.000000,4.000000,4.000000,4.000000,4.000000,4.000000,4.000000,4.000000,4.000000,4.000000,4.000000,4.000000,100.000000
1602006568.909050,32.000000,0.000000,4128.205078,4119.487305,4140.000000,4128.717773,4120.512695,4140.000000,4122.563965,4140.000000,4148.717773,4155.384766,4127.179688,4153.333496,4130.256348,4132.820313,0.000000,4.000000,,,,0.000000,4.000000,4.000000,4.000000,4.000000,4.000000,4.000000,4.000000,4.000000,4.000000,4.000000,4.000000,4.000000,4.000000,4.000000,100.000000
1602006568.916931,33.000000,0.000000,4127.179688,4111.282227,4137.948730,4128.717773,4118.461426,4128.205078,4120.000000,4140.512695,4167.179688,4168.205078,4124.615234,4151.282227,4135.384766,4137.948730,0.000000,4.000000,,,,0.000000,4.000000,4.000000,4.000000,4.000000,4.000000,4.000000,4.000000,4.000000,4.000000,4.000000,4.000000,4.000000,4.000000,4.000000,100.000000
1602006568.924812,34.000000,0.000000,4129.230957,4108.717773,4140.512695,4124.102539,4123.077148,4123.589844,4126.153809,4140.000000,4175.897461,4163.077148,4123.077148,4151.794922,4133.846191,4136.922852,0.000000,4.000000,,,,0.000000,4.000000,4.000000,4.000000,4.000000,4.000000,4.000000,4.000000,4.000000,4.000000,4.000000,4.000000,4.000000,4.000000,4.000000,100.000000
1602006568.932693,35.000000,0.000000,4128.205078,4109.743652,4140.000000,4115.897461,4121.025879,4128.717773,4129.743652,4141.538574,4151.794922,4120.512695,4124.102539,4151.282227,4115.897461,4136.922852,0.000000,4.000000,,,,0.000000,4.000000,4.000000,4.000000,4.000000,4.000000,4.000000,4.000000,4.000000,4.000000,4.000000,4.000000,4.000000,4.000000,4.000000,100.000000
1602006568.940574,36.000000,0.000000,4124.102539,4107.692383,4136.922852,4115.897461,4116.410156,4126.666504,4130.256348,4132.307617,4115.897461,4095.384521,4117.948730,4148.205078,4106.153809,4131.794922,0.000000,4.000000,,,,0.000000,4.000000,4.000000,4.000000,4.000000,4.000000,4.000000,4.000000,4.000000,4.000000,4.000000,4.000000,4.000000,4.000000,4.000000,100.000000
1602006568.948355,37.000000,0.000000,4131.794922,4114.358887,4137.948730,4129.743652,4118.974121,4123.077148,4135.384766,4124.102539,4107.179688,4112.307617,4113.333496,4149.743652,4120.000000,4130.256348,0.000000,4.000000,,,,0.000000,4.000000,4.000000,4.000000,4.000000,4.000000,4.000000,4.000000,4.000000,4.000000,4.000000,4.000000,4.000000,4.000000,4.000000,100.000000
1602006568.956236,38.000000,0.000000,4138.461426,4127.179688,4143.077148,4139.487305,4121.025879,4129.230957,4139.487305,4130.256348,4117.436035,4126.666504,4121.025879,4155.897461,4128.717773,4137.948730,0.000000,4.000000,,,,0.000000,4.000000,4.000000,4.000000,4.000000,4.000000,4.000000,4.000000,4.000000,4.000000,4.000000,4.000000,4.000000,4.000000,4.000000,100.000000
1602006568.964117,39.000000,0.000000,4136.922852,4127.692383,4143.589844,4137.436035,4121.025879,4132.820313,4136.922852,4131.282227,4120.000000,4131.282227,4126.666504,4155.897461,4122.051270,4138.461426,0.000000,4.000000,,,,0.000000,4.000000,4.000000,4.000000,4.000000,4.000000,4.000000,4.000000,4.000000,4.000000,4.000000,4.000000,4.000000,4.000000,4.000000,100.000000
1602006568.971998,40.000000,0.000000,4142.563965,4121.538574,4135.897461,4134.358887,4124.102539,4125.641113,4132.307617,4124.102539,4123.077148,4133.846191,4123.589844,4153.846191,4121.025879,4127.692383,0.000000,4.000000,,,,0.000000,4.000000,4.000000,4.000000,4.000000,4.000000,4.000000,4.000000,4.000000,4.000000,4.000000,4.000000,4.000000,4.000000,4.000000,100.000000
1602006568.979879,41.000000,0.000000,4139.487305,4120.512695,4125.641113,4129.230957,4119.487305,4120.512695,4129.743652,4122.051270,4130.769043,4125.128418,4119.487305,4148.717773,4125.128418,4120.000000,0.000000,4.000000,,,,0.000000,4.000000,4.000000,4.000000,4.000000,4.000000,4.000000,4.000000,4.000000,4.000000,4.000000,4.000000,4.000000,4.000000,4.000000,100.000000
1602006568.987760,42.000000,0.000000,4120.000000,4124.102539,4121.025879,4123.589844,4113.846191,4126.666504,4127.179688,4124.615234,4136.410156,4125.128418,4118.974121,4139.487305,4121.538574,4122.051270,0.000000,4.000000,,,,0.000000,4.000000,4.000000,4.000000,4.000000,4.000000,4.000000,4.000000,4.000000,4.000000,4.000000,4.000000,4.000000,4.000000,4.000000,100.000000
1602006568.995541,43.000000,0.000000,4116.922852,4121.538574,4124.102539,4120.512695,4120.000000,4139.487305,4127.692383,4126.666504,4134.358887,4135.384766,4125.128418,4140.512695,4123.077148,4128.717773,0.000000,4.000000,,,,0.000000,4.000000,4.000000,4.000000,4.000000,4.000000,4.000000,4.000000,4.000000,4.000000,4.000000,4.000000,4.000000,4.000000,4.000000,100.000000
1602006569.003422,44.000000,0.000000,4124.615234,4110.256348,4122.563965,4114.871582,4122.563965,4147.692383,4131.794922,4129.230957,4129.743652,4138.461426,4122.563965,4140.000000,4125.128418,4125.128418,0.000000,4.000000,,,,0.000000,4.000000,4.000000,4.000000,4.000000,4.000000,4.000000,4.000000,4.000000,4.000000,4.000000,4.000000,4.000000,4.000000,4.000000,100.000000
1602006569.011303,45.000000,0.000000,4115.897461,4100.512695,4111.282227,4105.128418,4113.846191,4148.717773,4136.410156,4130.256348,4125.128418,4133.333496,4115.897461,4128.717773,4119.487305,4113.846191,0.000000,4.000000,,,,0.000000,4.000000,4.000000,4.000000,4.000000,4.000000,4.000000,4.000000,4.000000,4.000000,4.000000,4.000000,4.000000,4.000000,4.000000,100.000000
