Timestamp,EEG.Counter,EEG.Interpolated,EEG.AF3,EEG.F7,EEG.F3,EEG.FC5,EEG.T7,EEG.P7,EEG.O1,EEG.O2,EEG.P8,EEG.T8,EEG.FC6,EEG.F4,EEG.F8,EEG.AF4,EEG.RawCq,EEG.Battery,MarkerIndex,MarkerType,MarkerValueInt,EEG.MarkerHardware,CQ.AF3,CQ.F7,CQ.F3,CQ.FC5,CQ.T7,CQ.P7,CQ.O1,CQ.O2,CQ.P8,CQ.T8,CQ.FC6,CQ.F4,CQ.F8,CQ.AF4,CQ.Overall
1602006582.864444,128.000000,0.000000,4095.897461,4121.025879,4133.846191,4123.589844,4149.743652,4151.282227,4144.102539,4140.512695,4140.000000,4143.077148,4143.589844,4141.538574,4152.307617,4125.641113,767.000000,4.000000,,,,0.000000,4.000000,4.000000,4.000000,4.000000,4.000000,4.000000,4.000000,4.000000,4.000000,4.000000,4.000000,4.000000,4.000000,4.000000,100.000000
1602006582.872424,0.000000,0.000000,4094.358887,4114.871582,4127.692383,4121.538574,4141.025879,4136.922852,4140.000000,4137.436035,4142.563965,4126.153809,4137.436035,4138.974121,4155.384766,4120.512695,790.000000,4.000000,,,,0.000000,4.000000,4.000000,4.000000,4.000000,4.000000,4.000000,4.000000,4.000000,4.000000,4.000000,4.000000,4.000000,4.000000,4.000000,100.000000
1602006582.880305,1.000000,0.000000,4092.820557,4122.051270,4121.538574,4119.487305,4136.410156,4136.922852,4137.436035,4140.000000,4135.897461,4122.563965,4126.153809,4140.000000,4168.717773,4120.512695,791.000000,4.000000,,,,0.000000,4.000000,4.000000,4.000000,4.000000,4.000000,4.000000,4.000000,4.000000,4.000000,4.000000,4.000000,4.000000,4.000000,4.000000,100.000000
1602006582.888186,2.000000,0.000000,4098.461426,4126.153809,4122.051270,4122.563965,4146.666504,4142.563965,4138.974121,4139.487305,4134.358887,4134.871582,4133.846191,4140.000000,4170.769043,4132.820313,850.000000,4.000000,,,,0.000000,4.000000,4.000000,4.000000,4.000000,4.000000,4.000000,4.000000,4.000000,4.000000,4.000000,4.000000,4.000000,4.000000,4.000000,100.000000
1602006582.896066,3.000000,0.000000,4109.743652,4125.641113,4130.256348,4131.282227,4148.717773,4132.820313,4138.974121,4137.436035,4135.384766,4145.128418,4145.641113,4139.487305,4168.717773,4144.615234,869.000000,4.000000,,,,0.000000,4.000000,4.000000,4.000000,4.000000,4.000000,4.000000,4.000000,4.000000,4.000000,4.000000,4.000000,4.000000,4.000000,4.000000,100.000000
1602006582.903847,4.000000,0.000000,4111.794922,4127.692383,4132.820313,4130.769043,4138.974121,4125.641113,4129.230957,4137.436035,4131.794922,4155.384766,4142.051270,4137.948730,4165.128418,4141.025879,814.000000,4.000000,,,,0.000000,4.000000,4.000000,4.000000,4.000000,4.000000,4.000000,4.000000,4.000000,4.000000,4.000000,4.000000,4.000000,4.000000,4.000000,100.000000
1602006582.911628,5.000000,0.000000,4105.128418,4126.153809,4128.717773,4120.512695,4135.384766,4131.794922,4123.589844,4135.384766,4123.589844,4163.077148,4135.384766,4135.897461,4163.077148,4133.333496,823.000000,4.000000,,,,0.000000,4.000000,4.000000,4.000000,4.000000,4.000000,4.000000,4.000000,4.000000,4.000000,4.000000,4.000000,4.000000,4.000000,4.000000,100.000000
1602006582.919509,6.000000,0.000000,4105.641113,4121.538574,4132.307617,4118.974121,4136.922852,4135.384766,4133.333496,4134.871582,4122.563965,4152.307617,4136.410156,4141.025879,4166.153809,4136.922852,760.000000,4.000000,,,,0.000000,4.000000,4.000000,4.000000,4.000000,4.000000,4.000000,4.000000,4.000000,4.000000,4.000000,4.000000,4.000000,4.000000,4.000000,100.000000
1602006582.927390,7.000000,0.000000,4108.717773,4120.000000,4139.487305,4125.128418,4136.410156,4142.563965,4141.025879,4138.974121,4134.871582,4140.000000,4137.948730,4147.179688,4162.563965,4143.589844,669.000000,4.000000,,,,0.000000,4.000000,4.000000,4.000000,4.000000,4.000000,4.000000,4.000000,4.000000,4.000000,4.000000,4.000000,4.000000,4.000000,4.000000,100.000000
1602006582.935271,8.000000,0.000000,4106.153809,4118.461426,4129.743652,4124.615234,4137.948730,4149.230957,4138.461426,4139.487305,4141.538574,4134.358887,4141.025879,4141.538574,4156.922852,4131.794922,786.000000,4.000000,,,,0.000000,4.000000,4.000000,4.000000,4.000000,4.000000,4.000000,4.000000,4.000000,4.000000,4.000000,4.000000,4.000000,4.000000,4.000000,100.000000
1602006582.943152,9.000000,0.000000,4103.077148,4118.974121,4120.000000,4121.538574,4136.922852,4143.077148,4141.025879,4141.025879,4142.563965,4121.025879,4145.128418,4141.025879,4158.974121,4118.974121,838.000000,4.000000,,,,0.000000,4.000000,4.000000,4.000000,4.000000,4.000000,4.000000,4.000000,4.000000,4.000000,4.000000,4.000000,4.000000,4.000000,4.000000,100.000000
1602006582.951032,10.000000,0.000000,4107.179688,4122.563965,4126.153809,4123.077148,4136.410156,4143.077148,4152.307617,4151.282227,4153.333496,4126.153809,4141.538574,4150.256348,4161.025879,4141.025879,871.000000,4.000000,,,,0.000000,4.000000,4.000000,4.000000,4.000000,4.000000,4.000000,4.000000,4.000000,4.000000,4.000000,4.000000,4.000000,4.000000,4.000000,100.000000
1602006582.958913,11.000000,0.000000,4112.307617,4118.974121,4130.256348,4124.615234,4143.589844,4154.871582,4155.897461,4154.358887,4161.538574,4155.384766,4137.436035,4148.205078,4156.410156,4160.512695,838.000000,4.000000,,,,0.000000,4.000000,4.000000,4.000000,4.000000,4.000000,4.000000,4.000000,4.000000,4.000000,4.000000,4.000000,4.000000,4.000000,4.000000,100.000000
1602006582.966694,12.000000,0.000000,4104.102539,4112.307617,4131.794922,4122.051270,4146.666504,4154.871582,4147.692383,4143.077148,4153.333496,4160.512695,4140.000000,4135.897461,4152.820313,4136.922852,767.000000,4.000000,,,,0.000000,4.000000,4.000000,4.000000,4.000000,4.000000,4.000000,4.000000,4.000000,4.000000,4.000000,4.000000,4.000000,4.000000,4.000000,100.000000
1602006582.974575,13.000000,0.000000,4090.769287,4108.717773,4136.410156,4120.512695,4141.538574,4148.205078,4138.974121,4135.384766,4141.538574,4137.436035,4136.922852,4138.461426,4152.820313,4124.102539,735.000000,4.000000,,,,0.000000,4.000000,4.000000,4.000000,4.000000,4.000000,4.000000,4.000000,4.000000,4.000000,4.000000,4.000000,4.000000,4.000000,4.000000,100.000000
1602006582.982456,14.000000,0.000000,4093.333252,4111.282227,4137.436035,4122.563965,4140.512695,4149.230957,4137.948730,4137.948730,4132.307617,4132.307617,4127.179688,4148.717773,4149.743652,4142.563965,871.000000,4.000000,,,,0.000000,4.000000,4.000000,4.000000,4.000000,4.000000,4.000000,4.000000,4.000000,4.000000,4.000000,4.000000,4.000000,4.000000,4.000000,100.000000
1602006582.990337,15.000000,0.000000,4096.410156,4114.871582,4134.871582,4123.077148,4148.717773,4151.282227,4140.000000,4138.974121,4124.615234,4140.000000,4129.743652,4150.769043,4140.512695,4141.025879,838.000000,4.000000,,,,0.000000,4.000000,4.000000,4.000000,4.000000,4.000000,4.000000,4.000000,4.000000,4.000000,4.000000,4.000000,4.000000,4.000000,4.000000,100.000000
1602006582.998218,16.000000,0.000000,4088.718018,4113.333496,4134.871582,4122.563965,4150.256348,4150.256348,4139.487305,4137.948730,4121.025879,4126.153809,4136.922852,4149.743652,4142.563965,4121.538574,0.000000,4.000000,,,,0.000000,4.000000,4.000000,4.000000,4.000000,4.000000,4.000000,4.000000,4.000000,4.000000,4.000000,4.000000,4.000000,4.000000,4.000000,100.000000
1602006583.006099,17.000000,0.000000,4091.794922,4112.307617,4138.974121,4120.512695,4140.512695,4143.589844,4136.922852,4136.410156,4118.461426,4114.358887,4134.358887,4151.282227,4152.820313,4124.102539,0.000000,4.000000,,,,0.000000,4.000000,4.000000,4.000000,4.000000,4.000000,4.000000,4.000000,4.000000,4.000000,4.000000,4.000000,4.000000,4.000000,4.000000,100.000000
1602006583.013980,18.000000,0.000000,4113.846191,4116.922852,4141.538574,4122.563965,4135.897461,4140.000000,4137.948730,4137.436035,4120.512695,4131.794922,4142.051270,4153.846191,4153.846191,4141.538574,0.000000,4.000000,,,,0.000000,4.000000,4.000000,4.000000,4.000000,4.000000,4.000000,4.000000,4.000000,4.000000,4.000000,4.000000,4.000000,4.000000,4.000000,100.000000
1602006583.021861,19.000000,0.000000,4124.615234,4126.153809,4141.538574,4136.410156,4138.461426,4143.589844,4140.000000,4137.436035,4122.563965,4144.615234,4152.820313,4154.358887,4150.256348,4149.743652,0.000000,4.000000,,,,0.000000,4.000000,4.000000,4.000000,4.000000,4.000000,4.000000,4.000000,4.000000,4.000000,4.000000,4.000000,4.000000,4.000000,4.000000,100.000000
1602006583.029642,20.000000,0.000000,4113.333496,4121.538574,4142.051270,4138.461426,4136.922852,4143.077148,4135.897461,4132.307617,4121.538574,4135.897461,4144.615234,4153.846191,4147.179688,4140.512695,0.000000,4.000000,,,,0.000000,4.000000,4.000000,4.000000,4.000000,4.000000,4.000000,4.000000,4.000000,4.000000,4.000000,4.000000,4.000000,4.000000,4.000000,100.000000
1602006583.037523,21.000000,0.000000,4100.512695,4108.205078,4142.051270,4122.051270,4134.358887,4139.487305,4127.692383,4127.179688,4125.641113,4134.358887,4134.871582,4150.256348,4138.974121,4132.820313,0.000000,4.000000,,,,0.000000,4.000000,4.000000,4.000000,4.000000,4.000000,4.000000,4.000000,4.000000,4.000000,4.000000,4.000000,4.000000,4.000000,4.000000,100.000000
1602006583.045404,22.000000,0.000000,4107.692383,4116.410156,4140.000000,4123.589844,4137.948730,4133.846191,4123.589844,4126.153809,4127.692383,4133.333496,4140.512695,4142.051270,4140.000000,4134.358887,0.000000,4.000000,,,,0.000000,4.000000,4.000000,4.000000,4.000000,4.000000,4.000000,4.000000,4.000000,4.000000,4.000000,4.000000,4.000000,4.000000,4.000000,100.000000
1602006583.053286,23.000000,0.000000,4122.563965,4134.358887,4137.436035,4137.436035,4138.461426,4132.307617,4122.563965,4127.179688,4116.410156,4111.794922,4141.538574,4137.436035,4140.000000,4128.717773,0.000000,4.000000,,,,0.000000,4.000000,4.000000,4.000000,4.000000,4.000000,4.000000,4.000000,4.000000,4.000000,4.000000,4.000000,4.000000,4.000000,4.000000,100.000000
1602006583.061167,24.000000,0.000000,4120.512695,4130.256348,4131.282227,4131.794922,4135.897461,4133.846191,4124.102539,4126.153809,4107.179688,4098.461426,4135.897461,4139.487305,4125.641113,4118.974121,0.000000,4.000000,,,,0.000000,4.000000,4.000000,4.000000,4.000000,4.000000,4.000000,4.000000,4.000000,4.000000,4.000000,4.000000,4.000000,4.000000,4.000000,100.000000
1602006583.069048,25.000000,0.000000,4107.692383,4119.487305,4127.179688,4122.051270,4134.871582,4129.230957,4124.615234,4122.563965,4108.717773,4112.820313,4132.307617,4139.487305,4118.461426,4113.846191,0.000000,4.000000,,,,0.000000,4.000000,4.000000,4.000000,4.000000,4.000000,4.000000,4.000000,4.000000,4.000000,4.000000,4.000000,4.000000,4.000000,4.000000,100.000000
1602006583.076929,26.000000,0.000000,4103.077148,4123.589844,4127.692383,4122.563965,4135.384766,4126.153809,4124.102539,4125.128418,4111.282227,4133.333496,4127.179688,4137.436035,4121.025879,4108.717773,0.000000,4.000000,,,,0.000000,4.000000,4.000000,4.000000,4.000000,4.000000,4.000000,4.000000,4.000000,4.000000,4.000000,4.000000,4.000000,4.000000,4.000000,100.000000
1602006583.084810,27.000000,0.000000,4106.153809,4124.615234,4125.641113,4122.051270,4136.922852,4134.358887,4130.256348,4136.410156,4117.436035,4146.666504,4122.051270,4146.666504,4126.153809,4111.794922,0.000000,4.000000,,,,0.000000,4.000000,4.000000,4.000000,4.000000,4.000000,4.000000,4.000000,4.000000,4.000000,4.000000,4.000000,4.000000,4.000000,4.000000,100.000000
1602006583.092691,28.000000,0.000000,4113.846191,4125.128418,4126.666504,4127.179688,4138.461426,4137.948730,4134.358887,4140.512695,4122.051270,4145.641113,4120.000000,4153.333496,4134.358887,4125.641113,0.000000,4.000000,,,,0.000000,4.000000,4.000000,4.000000,4.000000,4.000000,4.000000,4.000000,4.000000,4.000000,4.000000,4.000000,4.000000,4.000000,4.000000,100.000000
1602006583.100673,29.000000,0.000000,4114.871582,4136.922852,4133.846191,4138.461426,4138.974121,4133.846191,4127.179688,4135.384766,4115.897461,4136.922852,4129.230957,4144.615234,4139.487305,4131.794922,0.000000,4.000000,,,,0.000000,4.000000,4.000000,4.000000,4.000000,4.000000,4.000000,4.000000,4.000000,4.000000,4.000000,4.000000,4.000000,4.000000,4.000000,100.000000
1602006583.108554,30.000000,0.000000,4107.179688,4136.410156,4132.307617,4133.333496,4139.487305,4136.410156,4120.512695,4135.897461,4109.743652,4129.230957,4144.615234,4136.410156,4137.948730,4125.641113,0.000000,4.000000,,,,0.000000,4.000000,4.000000,4.000000,4.000000,4.000000,4.000000,4.000000,4.000000,4.000000,4.000000,4.000000,4.000000,4.000000,4.000000,100.000000
1602006583.116435,31.000000,0.000000,4107.692383,4127.179688,4122.563965,4123.077148,4138.974121,4137.436035,4121.025879,4139.487305,4110.256348,4125.641113,4143.589844,4137.948730,4133.333496,4123.077148,0.000000,4.000000,,,,0.000000,4.000000,4.000000,4.000000,4.000000,4.000000,4.000000,4.000000,4.000000,4.000000,4.000000,4.000000,4.000000,4.000000,4.000000,100.000000
1602006583.124316,32.000000,0.000000,4110.256348,4126.666504,4121.025879,4123.589844,4137.948730,4135.384766,4129.230957,4140.000000,4117.436035,4132.820313,4135.897461,4138.974121,4128.717773,4124.615234,0.000000,4.000000,,,,0.000000,4.000000,4.000000,4.000000,4.000000,4.000000,4.000000,4.000000,4.000000,4.000000,4.000000,4.000000,4.000000,4.000000,4.000000,100.000000
1602006583.132197,33.000000,0.000000,4100.000000,4127.179688,4121.025879,4125.128418,4139.487305,4141.025879,4135.897461,4138.974121,4121.025879,4135.384766,4138.974121,4136.410156,4124.615234,4121.538574,0.000000,4.000000,,,,0.000000,4.000000,4.000000,4.000000,4.000000,4.000000,4.000000,4.000000,4.000000,4.000000,4.000000,4.000000,4.000000,4.000000,4.000000,100.000000
1602006583.140078,34.000000,0.000000,4096.922852,4121.538574,4117.948730,4122.563965,4133.333496,4142.051270,4135.897461,4136.410156,4113.846191,4127.692383,4135.384766,4134.358887,4120.512695,4114.358887,0.000000,4.000000,,,,0.000000,4.000000,4.000000,4.000000,4.000000,4.000000,4.000000,4.000000,4.000000,4.000000,4.000000,4.000000,4.000000,4.000000,4.000000,100.000000
1602006583.147960,35.000000,0.000000,4105.641113,4121.025879,4118.974121,4124.102539,4126.153809,4136.922852,4134.871582,4135.384766,4107.692383,4126.153809,4124.615234,4134.358887,4121.538574,4115.384766,0.000000,4.000000,,,,0.000000,4.000000,4.000000,4.000000,4.000000,4.000000,4.000000,4.000000,4.000000,4.000000,4.000000,4.000000,4.000000,4.000000,4.000000,100.000000
1602006583.155841,36.000000,0.000000,4108.205078,4125.128418,4122.563965,4126.153809,4133.333496,4137.948730,4140.000000,4138.461426,4108.717773,4127.179688,4126.666504,4140.512695,4134.358887,4129.743652,0.000000,4.000000,,,,0.000000,4.000000,4.000000,4.000000,4.000000,4.000000,4.000000,4.000000,4.000000,4.000000,4.000000,4.000000,4.000000,4.000000,4.000000,100.000000
1602006583.163722,37.000000,0.000000,4106.153809,4128.205078,4124.615234,4125.641113,4140.512695,4142.563965,4142.051270,4136.922852,4109.230957,4120.512695,4128.717773,4144.102539,4142.051270,4142.563965,0.000000,4.000000,,,,0.000000,4.000000,4.000000,4.000000,4.000000,4.000000,4.000000,4.000000,4.000000,4.000000,4.000000,4.000000,4.000000,4.000000,4.000000,100.000000
1602006583.171603,38.000000,0.000000,4107.692383,4127.179688,4123.589844,4125.128418,4136.922852,4141.538574,4137.948730,4127.692383,4106.153809,4118.461426,4124.615234,4138.974121,4127.179688,4136.410156,0.000000,4.000000,,,,0.000000,4.000000,4.000000,4.000000,4.000000,4.000000,4.000000,4.000000,4.000000,4.000000,4.000000,4.000000,4.000000,4.000000,4.000000,100.000000
1602006583.179384,39.000000,0.000000,4103.077148,4124.615234,4122.051270,4124.102539,4133.846191,4137.948730,4136.922852,4124.615234,4103.589844,4123.589844,4131.794922,4134.871582,4112.820313,4123.589844,0.000000,4.000000,,,,0.000000,4.000000,4.000000,4.000000,4.000000,4.000000,4.000000,4.000000,4.000000,4.000000,4.000000,4.000000,4.000000,4.000000,4.000000,100.000000
1602006583.187265,40.000000,0.000000,4097.436035,4122.563965,4121.538574,4124.102539,4135.897461,4141.538574,4133.846191,4129.743652,4110.256348,4119.487305,4141.538574,4134.871582,4111.282227,4121.025879,0.000000,4.000000,,,,0.000000,4.000000,4.000000,4.000000,4.000000,4.000000,4.000000,4.000000,4.000000,4.000000,4.000000,4.000000,4.000000,4.000000,4.000000,100.000000
1602006583.195146,41.000000,0.000000,4100.000000,4123.077148,4116.410156,4125.128418,4134.871582,4149.743652,4133.333496,4135.384766,4126.666504,4120.512695,4137.436035,4134.871582,4113.846191,4121.025879,0.000000,4.000000,,,,0.000000,4.000000,4.000000,4.000000,4.000000,4.000000,4.000000,4.000000,4.000000,4.000000,4.000000,4.000000,4.000000,4.000000,4.000000,100.000000
1602006583.203027,42.000000,0.000000,4106.666504,4130.256348,4111.794922,4125.641113,4136.922852,4157.948730,4139.487305,4142.563965,4140.512695,4134.871582,4137.436035,4136.410156,4119.487305,4120.000000,0.000000,4.000000,,,,0.000000,4.000000,4.000000,4.000000,4.000000,4.000000,4.000000,4.000000,4.000000,4.000000,4.000000,4.000000,4.000000,4.000000,4.000000,100.000000
1602006583.210908,43.000000,0.000000,4105.641113,4131.794922,4111.282227,4124.615234,4138.461426,4156.410156,4143.077148,4146.153809,4142.563965,4130.769043,4141.025879,4137.436035,4124.615234,4124.102539,0.000000,4.000000,,,,0.000000,4.000000,4.000000,4.000000,4.000000,4.000000,4.000000,4.000000,4.000000,4.000000,4.000000,4.000000,4.000000,4.000000,4.000000,100.000000
1602006583.218789,44.000000,0.000000,4094.871826,4118.974121,4106.153809,4115.384766,4129.743652,4144.615234,4141.025879,4140.512695,4134.358887,4108.717773,4124.615234,4134.358887,4116.922852,4120.512695,0.000000,4.000000,,,,0.000000,4.000000,4.000000,4.000000,4.000000,4.000000,4.000000,4.000000,4.000000,4.000000,4.000000,4.000000,4.000000,4.000000,4.000000,100.000000
1602006583.226569,45.000000,0.000000,4092.820557,4111.794922,4106.666504,4109.743652,4125.128418,4136.410156,4140.512695,4134.871582,4127.179688,4108.205078,4106.666504,4133.846191,4105.128418,4107.179688,0.000000,4.000000,,,,0.000000,4.000000,4.000000,4.000000,4.000000,4.000000,4.000000,4.000000,4.000000,4.000000,4.000000,4.000000,4.000000,4.000000,4.000000,100.000000
1602006583.234450,46.000000,0.000000,4101.025879,4120.000000,4117.948730,4116.410156,4134.358887,4136.410156,4141.538574,4135.384766,4127.179688,4134.358887,4117.948730,4136.922852,4105.128418,4109.743652,0.000000,4.000000,,,,0.000000,4.000000,4.000000,4.000000,4.000000,4.000000,4.000000,4.000000,4.000000,4.000000,4.000000,4.000000,4.000000,4.000000,4.000000,100.000000
1602006583.242231,47.000000,0.000000,4107.692383,4127.179688,4123.077148,4125.128418,4140.512695,4139.487305,4137.436035,4132.820313,4126.153809,4142.051270,4133.333496,4138.974121,4110.256348,4125.128418,0.000000,4.000000,,,,0.000000,4.000000,4.000000,4.000000,4.000000,4.000000,4.000000,4.000000,4.000000,4.000000,4.000000,4.000000,4.000000,4.000000,4.000000,100.000000
1602006583.250112,48.000000,0.000000,4108.205078,4118.461426,4121.538574,4124.102539,4133.846191,4139.487305,4133.846191,4124.102539,4116.410156,4126.666504,4127.692383,4141.025879,4104.102539,4125.641113,0.000000,4.000000,,,,0.000000,4.000000,4.000000,4.000000,4.000000,4.000000,4.000000,4.000000,4.000000,4.000000,4.000000,4.000000,4.000000,4.000000,4.000000,100.000000
1602006583.257993,49.000000,0.000000,4109.230957,4111.282227,4125.641113,4118.461426,4131.282227,4137.436035,4135.384766,4118.974121,4106.666504,4112.307617,4124.102539,4144.102539,4098.974121,4120.512695,0.000000,4.000000,,,,0.000000,4.000000,4.000000,4.000000,4.000000,4.000000,4.000000,4.000000,4.000000,4.000000,4.000000,4.000000,4.000000,4.000000,4.000000,100.000000
1602006583.265873,50.000000,0.000000,4117.948730,4124.102539,4127.179688,4123.077148,4136.410156,4136.922852,4137.948730,4119.487305,4101.025879,4096.922852,4128.717773,4146.153809,4105.128418,4124.615234,0.000000,4.000000,,,,0.000000,4.000000,4.000000,4.000000,4.000000,4.000000,4.000000,4.000000,4.000000,4.000000,4.000000,4.000000,4.000000,4.000000,4.000000,100.000000
1602006583.273754,51.000000,0.000000,4130.256348,4140.000000,4124.102539,4135.384766,4137.436035,4138.974121,4138.461426,4122.563965,4107.692383,4090.769287,4126.153809,4150.769043,4108.717773,4126.666504,0.000000,4.000000,,,,0.000000,4.000000,4.000000,4.000000,4.000000,4.000000,4.000000,4.000000,4.000000,4.000000,4.000000,4.000000,4.000000,4.000000,4.000000,100.000000
1602006583.281635,52.000000,0.000000,4140.512695,4142.051270,4127.179688,4140.512695,4135.897461,4140.000000,4137.436035,4124.102539,4128.205078,4109.230957,4127.692383,4155.897461,4109.743652,4123.077148,0.000000,4.000000,,,,0.000000,4.000000,4.000000,4.000000,4.000000,4.000000,4.000000,4.000000,4.000000,4.000000,4.000000,4.000000,4.000000,4.000000,4.000000,100.000000
1602006583.289516,53.000000,0.000000,4140.512695,4138.974121,4129.743652,4136.410156,4137.436035,4138.974121,4137.436035,4125.128418,4137.436035,4135.384766,4129.743652,4155.384766,4112.307617,4124.102539,0.000000,4.000000,,,,0.000000,4.000000,4.000000,4.000000,4.000000,4.000000,4.000000,4.000000,4.000000,4.000000,4.000000,4.000000,4.000000,4.000000,4.000000,100.000000
1602006583.297497,54.000000,0.000000,4135.897461,4141.025879,4123.589844,4135.384766,4138.461426,4135.897461,4133.846191,4123.589844,4125.641113,4142.563965,4112.307617,4152.307617,4112.820313,4124.102539,0.000000,4.000000,,,,0.000000,4.000000,4.000000,4.000000,4.000000,4.000000,4.000000,4.000000,4.000000,4.000000,4.000000,4.000000,4.000000,4.000000,4.000000,100.000000
1602006583.305378,55.000000,0.000000,4136.922852,4143.077148,4123.077148,4138.461426,4136.922852,4131.282227,4126.666504,4120.000000,4118.461426,4140.512695,4104.102539,4154.358887,4112.307617,4124.615234,0.000000,4.000000,,,,0.000000,4.000000,4.000000,4.000000,4.000000,4.000000,4.000000,4.000000,4.000000,4.000000,4.000000,4.000000,4.000000,4.000000,4.000000,100.000000
1602006583.313259,56.000000,0.000000,4138.974121,4141.025879,4131.282227,4137.436035,4134.358887,4127.179688,4122.563965,4120.512695,4128.717773,4142.563965,4121.025879,4154.358887,4109.743652,4133.333496,0.000000,4.000000,,,,0.000000,4.000000,4.000000,4.000000,4.000000,4.000000,4.000000,4.000000,4.000000,4.000000,4.000000,4.000000,4.000000,4.000000,4.000000,100.000000
1602006583.321140,57.000000,0.000000,4132.307617,4138.461426,4136.410156,4136.410156,4134.871582,4116.410156,4120.512695,4123.589844,4137.948730,4134.871582,4131.282227,4153.846191,4108.205078,4139.487305,0.000000,4.000000,,,,0.000000,4.000000,4.000000,4.000000,4.000000,4.000000,4.000000,4.000000,4.000000,4.000000,4.000000,4.000000,4.000000,4.000000,4.000000,100.000000
1602006583.329021,58.000000,0.000000,4134.871582,4141.025879,4144.615234,4138.461426,4137.436035,4110.256348,4115.384766,4122.563965,4132.307617,4131.794922,4134.871582,4163.077148,4116.922852,4138.461426,0.000000,4.000000,,,,0.000000,4.000000,4.000000,4.000000,4.000000,4.000000,4.000000,4.000000,4.000000,4.000000,4.000000,4.000000,4.000000,4.000000,4.000000,100.000000
1602006583.336902,59.000000,0.000000,4152.820313,4142.563965,4156.922852,4140.512695,4137.948730,4119.487305,4116.922852,4121.538574,4124.102539,4140.000000,4137.948730,4171.282227,4119.487305,4139.487305,0.000000,4.000000,,,,0.000000,4.000000,4.000000,4.000000,4.000000,4.000000,4.000000,4.000000,4.000000,4.000000,4.000000,4.000000,4.000000,4.000000,4.000000,100.000000
1602006583.344783,60.000000,0.000000,4156.410156,4138.461426,4151.282227,4138.461426,4135.384766,4124.615234,4128.717773,4125.128418,4121.025879,4133.333496,4129.230957,4166.666504,4107.179688,4136.410156,0.000000,4.000000,,,,0.000000,4.000000,4.000000,4.000000,4.000000,4.000000,4.000000,4.000000,4.000000,4.000000,4.000000,4.000000,4.000000,4.000000,4.000000,100.000000
1602006583.352664,61.000000,0.000000,4148.717773,4145.641113,4137.436035,4138.461426,4136.922852,4121.025879,4136.410156,4126.666504,4118.461426,4123.589844,4123.589844,4165.641113,4108.717773,4138.461426,0.000000,4.000000,,,,0.000000,4.000000,4.000000,4.000000,4.000000,4.000000,4.000000,4.000000,4.000000,4.000000,4.000000,4.000000,4.000000,4.000000,4.000000,100.000000
1602006583.360445,62.000000,0.000000,4152.820313,4157.436035,4138.974121,4138.461426,4142.051270,4123.589844,4137.948730,4130.769043,4118.974121,4134.871582,4133.333496,4167.179688,4125.641113,4151.282227,0.000000,4.000000,,,,0.000000,4.000000,4.000000,4.000000,4.000000,4.000000,4.000000,4.000000,4.000000,4.000000,4.000000,4.000000,4.000000,4.000000,4.000000,100.000000
1602006583.368326,63.000000,0.000000,4152.820313,4155.384766,4140.000000,4137.436035,4144.102539,4123.589844,4138.974121,4134.358887,4127.179688,4142.563965,4125.641113,4156.922852,4118.974121,4148.205078,0.000000,4.000000,,,,0.000000,4.000000,4.000000,4.000000,4.000000,4.000000,4.000000,4.000000,4.000000,4.000000,4.000000,4.000000,4.000000,4.000000,4.000000,100.000000
1602006583.376206,64.000000,0.000000,4144.102539,4154.871582,4130.769043,4145.128418,4149.743652,4126.666504,4139.487305,4129.743652,4135.897461,4132.307617,4110.256348,4150.256348,4103.589844,4131.282227,759.000000,4.000000,,,,0.000000,4.000000,4.000000,4.000000,4.000000,4.000000,4.000000,4.000000,4.000000,4.000000,4.000000,4.000000,4.000000,4.000000,4.000000,100.000000
1602006583.384087,65.000000,0.000000,4143.077148,4160.512695,4126.666504,4149.230957,4155.897461,4135.897461,4137.436035,4129.743652,4144.102539,4143.589844,4125.641113,4152.307617,4113.846191,4136.410156,791.000000,4.000000,,,,0.000000,4.000000,4.000000,4.000000,4.000000,4.000000,4.000000,4.000000,4.000000,4.000000,4.000000,4.000000,4.000000,4.000000,4.000000,100.000000
1602006583.391968,66.000000,0.000000,4142.051270,4153.333496,4124.102539,4138.461426,4146.153809,4127.692383,4130.256348,4135.897461,4152.307617,4166.666504,4139.487305,4146.666504,4128.205078,4144.102539,850.000000,4.000000,,,,0.000000,4.000000,4.000000,4.000000,4.000000,4.000000,4.000000,4.000000,4.000000,4.000000,4.000000,4.000000,4.000000,4.000000,4.000000,100.000000
1602006583.399849,67.000000,0.000000,4135.897461,4145.128418,4123.589844,4134.871582,4134.871582,4117.436035,4123.589844,4137.436035,4157.436035,4162.563965,4128.205078,4146.153809,4121.538574,4127.692383,869.000000,4.000000,,,,0.000000,4.000000,4.000000,4.000000,4.000000,4.000000,4.000000,4.000000,4.000000,4.000000,4.000000,4.000000,4.000000,4.000000,4.000000,100.000000
1602006583.407830,68.000000,0.000000,4140.000000,4154.358887,4134.358887,4143.589844,4136.922852,4129.230957,4124.102539,4134.358887,4159.487305,4153.846191,4127.692383,4154.871582,4111.794922,4122.563965,814.000000,4.000000,,,,0.000000,4.000000,4.000000,4.000000,4.000000,4.000000,4.000000,4.000000,4.000000,4.000000,4.000000,4.000000,4.000000,4.000000,4.000000,100.000000
1602006583.415711,69.000000,0.000000,4143.077148,4151.282227,4140.000000,4139.487305,4138.461426,4139.487305,4132.307617,4135.897461,4157.948730,4156.410156,4143.589844,4157.436035,4116.410156,4141.025879,823.000000,4.000000,,,,0.000000,4.000000,4.000000,4.000000,4.000000,4.000000,4.000000,4.000000,4.000000,4.000000,4.000000,4.000000,4.000000,4.000000,4.000000,100.000000
1602006583.423592,70.000000,0.000000,4127.179688,4123.077148,4129.230957,4124.615234,4134.358887,4137.948730,4140.000000,4137.948730,4150.769043,4146.666504,4142.051270,4155.897461,4113.846191,4146.666504,760.000000,4.000000,,,,0.000000,4.000000,4.000000,4.000000,4.000000,4.000000,4.000000,4.000000,4.000000,4.000000,4.000000,4.000000,4.000000,4.000000,4.000000,100.000000
1602006583.431473,71.000000,0.000000,4118.461426,4114.358887,4121.025879,4122.051270,4131.794922,4136.922852,4138.974121,4131.794922,4140.000000,4128.205078,4124.102539,4150.256348,4098.974121,4131.794922,669.000000,4.000000,,,,0.000000,4.000000,4.000000,4.000000,4.000000,4.000000,4.000000,4.000000,4.000000,4.000000,4.000000,4.000000,4.000000,4.000000,4.000000,100.000000
1602006583.439354,72.000000,0.000000,4136.410156,4138.974121,4124.102539,4132.820313,4133.846191,4137.436035,4134.358887,4123.589844,4131.282227,4133.333496,4118.461426,4140.512695,4093.333252,4120.000000,786.000000,4.000000,,,,0.000000,4.000000,4.000000,4.000000,4.000000,4.000000,4.000000,4.000000,4.000000,4.000000,4.000000,4.000000,4.000000,4.000000,4.000000,100.000000
1602006583.447235,73.000000,0.000000,4156.410156,4158.974121,4124.102539,4142.563965,4144.102539,4138.974121,4135.897461,4123.077148,4126.153809,4149.743652,4116.922852,4138.974121,4088.205078,4120.512695,838.000000,4.000000,,,,0.000000,4.000000,4.000000,4.000000,4.000000,4.000000,4.000000,4.000000,4.000000,4.000000,4.000000,4.000000,4.000000,4.000000,4.000000,100.000000
1602006583.455116,74.000000,0.000000,4158.461426,4161.538574,4122.563965,4142.051270,4152.820313,4139.487305,4137.948730,4124.615234,4124.102539,4146.666504,4102.051270,4140.000000,4071.281982,4123.589844,871.000000,4.000000,,,,0.000000,4.000000,4.000000,4.000000,4.000000,4.000000,4.000000,4.000000,4.000000,4.000000,4.000000,4.000000,4.000000,4.000000,4.000000,100.000000
1602006583.462897,75.000000,0.000000,4156.922852,4166.153809,4123.589844,4140.512695,4148.205078,4141.538574,4134.871582,4120.000000,4120.512695,4120.000000,4091.281982,4136.410156,4063.076904,4117.948730,838.000000,4.000000,,,,0.000000,4.000000,4.000000,4.000000,4.000000,4.000000,4.000000,4.000000,4.000000,4.000000,4.000000,4.000000,4.000000,4.000000,4.000000,100.000000
1602006583.470778,76.000000,0.000000,4164.615234,4173.846191,4127.179688,4144.102539,4142.051270,4153.333496,4136.922852,4118.974121,4116.922852,4091.794922,4104.615234,4140.000000,4074.358887,4106.153809,767.000000,4.000000,,,,0.000000,4.000000,4.000000,4.000000,4.000000,4.000000,4.000000,4.000000,4.000000,4.000000,4.000000,4.000000,4.000000,4.000000,4.000000,100.000000
1602006583.478658,77.000000,0.000000,4162.051270,4169.230957,4128.205078,4141.025879,4142.051270,4156.410156,4140.512695,4121.538574,4112.307617,4094.358887,4116.922852,4143.589844,4081.025635,4104.102539,734.000000,4.000000,,,,0.000000,4.000000,4.000000,4.000000,4.000000,4.000000,4.000000,4.000000,4.000000,4.000000,4.000000,4.000000,4.000000,4.000000,4.000000,100.000000
1602006583.486539,78.000000,0.000000,4153.846191,4156.410156,4126.666504,4135.384766,4132.820313,4141.538574,4135.897461,4119.487305,4106.666504,4115.384766,4110.256348,4136.410156,4074.871826,4114.871582,871.000000,4.000000,,,,0.000000,4.000000,4.000000,4.000000,4.000000,4.000000,4.000000,4.000000,4.000000,4.000000,4.000000,4.000000,4.000000,4.000000,4.000000,100.000000
1602006583.494420,79.000000,0.000000,4157.948730,4153.846191,4132.820313,4136.410156,4126.153809,4133.846191,4134.358887,4119.487305,4112.307617,4124.102539,4107.692383,4136.410156,4073.333252,4128.205078,838.000000,4.000000,,,,0.000000,4.000000,4.000000,4.000000,4.000000,4.000000,4.000000,4.000000,4.000000,4.000000,4.000000,4.000000,4.000000,4.000000,4.000000,100.000000
1602006583.502301,80.000000,0.000000,4161.025879,4153.846191,4140.512695,4134.871582,4132.307617,4132.820313,4138.974121,4124.102539,4122.051270,4127.179688,4113.846191,4143.589844,4079.487061,4123.589844,767.000000,4.000000,,,,0.000000,4.000000,4.000000,4.000000,4.000000,4.000000,4.000000,4.000000,4.000000,4.000000,4.000000,4.000000,4.000000,4.000000,4.000000,100.000000
1602006583.510182,81.000000,0.000000,4154.358887,4144.102539,4140.000000,4129.743652,4133.846191,4124.102539,4137.948730,4125.128418,4123.077148,4130.256348,4108.717773,4143.077148,4075.897461,4105.128418,734.000000,4.000000,,,,0.000000,4.000000,4.000000,4.000000,4.000000,4.000000,4.000000,4.000000,4.000000,4.000000,4.000000,4.000000,4.000000,4.000000,4.000000,100.000000
1602006583.518063,82.000000,0.000000,4151.794922,4142.051270,4136.410156,4133.333496,4130.256348,4118.461426,4135.384766,4126.666504,4128.205078,4125.128418,4101.025879,4137.948730,4070.256348,4109.230957,871.000000,4.000000,,,,0.000000,4.000000,4.000000,4.000000,4.000000,4.000000,4.000000,4.000000,4.000000,4.000000,4.000000,4.000000,4.000000,4.000000,4.000000,100.000000
1602006583.526044,83.000000,0.000000,4160.000000,4156.410156,4140.000000,4142.563965,4136.922852,4126.666504,4136.410156,4131.282227,4136.410156,4121.025879,4108.717773,4139.487305,4083.589844,4125.128418,838.000000,4.000000,,,,0.000000,4.000000,4.000000,4.000000,4.000000,4.000000,4.000000,4.000000,4.000000,4.000000,4.000000,4.000000,4.000000,4.000000,4.000000,100.000000
1602006583.533925,84.000000,0.000000,4161.538574,4162.563965,4141.538574,4144.102539,4144.102539,4136.410156,4133.846191,4129.230957,4133.333496,4129.230957,4122.051270,4142.051270,4091.281982,4113.846191,767.000000,4.000000,,,,0.000000,4.000000,4.000000,4.000000,4.000000,4.000000,4.000000,4.000000,4.000000,4.000000,4.000000,4.000000,4.000000,4.000000,4.000000,100.000000
1602006583.541807,85.000000,0.000000,4157.948730,4156.922852,4132.307617,4140.512695,4139.487305,4136.922852,4130.256348,4122.563965,4125.641113,4135.897461,4123.077148,4140.512695,4077.435791,4100.000000,734.000000,4.000000,,,,0.000000,4.000000,4.000000,4.000000,4.000000,4.000000,4.000000,4.000000,4.000000,4.000000,4.000000,4.000000,4.000000,4.000000,4.000000,100.000000
1602006583.549688,86.000000,0.000000,4155.384766,4155.384766,4118.461426,4139.487305,4135.384766,4137.948730,4135.384766,4122.051270,4122.563965,4137.948730,4123.589844,4138.974121,4070.769287,4105.641113,871.000000,4.000000,,,,0.000000,4.000000,4.000000,4.000000,4.000000,4.000000,4.000000,4.000000,4.000000,4.000000,4.000000,4.000000,4.000000,4.000000,4.000000,100.000000
1602006583.557569,87.000000,0.000000,4154.358887,4161.025879,4111.794922,4141.025879,4135.384766,4141.025879,4140.512695,4124.615234,4121.538574,4145.128418,4126.666504,4141.538574,4080.000000,4118.461426,838.000000,4.000000,,,,0.000000,4.000000,4.000000,4.000000,4.000000,4.000000,4.000000,4.000000,4.000000,4.000000,4.000000,4.000000,4.000000,4.000000,4.000000,100.000000
1602006583.565450,88.000000,0.000000,4154.358887,4167.692383,4117.948730,4142.563965,4138.461426,4140.000000,4136.922852,4123.589844,4123.077148,4150.256348,4124.102539,4142.051270,4088.205078,4131.794922,767.000000,4.000000,,,,0.000000,4.000000,4.000000,4.000000,4.000000,4.000000,4.000000,4.000000,4.000000,4.000000,4.000000,4.000000,4.000000,4.000000,4.000000,100.000000
1602006583.573331,89.000000,0.000000,4154.358887,4168.717773,4123.077148,4145.641113,4148.717773,4137.948730,4133.846191,4118.974121,4122.051270,4138.974121,4122.563965,4142.051270,4091.281982,4135.384766,734.000000,4.000000,,,,0.000000,4.000000,4.000000,4.000000,4.000000,4.000000,4.000000,4.000000,4.000000,4.000000,4.000000,4.000000,4.000000,4.000000,4.000000,100.000000
1602006583.581212,90.000000,0.000000,4161.538574,4167.692383,4126.666504,4153.846191,4156.410156,4141.025879,4136.922852,4125.641113,4125.128418,4134.358887,4125.128418,4147.179688,4094.358887,4133.846191,871.000000,4.000000,,,,0.000000,4.000000,4.000000,4.000000,4.000000,4.000000,4.000000,4.000000,4.000000,4.000000,4.000000,4.000000,4.000000,4.000000,4.000000,100.000000
1602006583.589093,91.000000,0.000000,4171.794922,4166.153809,4134.871582,4151.794922,4150.769043,4139.487305,4138.974121,4134.358887,4137.436035,4149.230957,4123.077148,4152.307617,4092.307617,4135.897461,838.000000,4.000000,,,,0.000000,4.000000,4.000000,4.000000,4.000000,4.000000,4.000000,4.000000,4.000000,4.000000,4.000000,4.000000,4.000000,4.000000,4.000000,100.000000
1602006583.596975,92.000000,0.000000,4166.666504,4159.487305,4138.461426,4138.974121,4140.512695,4129.230957,4136.922852,4129.743652,4137.436035,4146.153809,4117.436035,4150.769043,4084.615479,4129.230957,767.000000,4.000000,,,,0.000000,4.000000,4.000000,4.000000,4.000000,4.000000,4.000000,4.000000,4.000000,4.000000,4.000000,4.000000,4.000000,4.000000,4.000000,100.000000
1602006583.604755,93.000000,0.000000,4155.897461,4152.820313,4136.922852,4137.948730,4136.922852,4123.077148,4134.871582,4126.666504,4127.179688,4135.384766,4126.153809,4151.282227,4082.051270,4121.025879,734.000000,4.000000,,,,0.000000,4.000000,4.000000,4.000000,4.000000,4.000000,4.000000,4.000000,4.000000,4.000000,4.000000,4.000000,4.000000,4.000000,4.000000,100.000000
1602006583.612636,94.000000,0.000000,4161.025879,4154.871582,4137.948730,4145.128418,4138.461426,4126.153809,4134.358887,4134.871582,4127.179688,4152.307617,4138.461426,4155.384766,4088.205078,4124.102539,871.000000,4.000000,,,,0.000000,4.000000,4.000000,4.000000,4.000000,4.000000,4.000000,4.000000,4.000000,4.000000,4.000000,4.000000,4.000000,4.000000,4.000000,100.000000
1602006583.620517,95.000000,0.000000,4171.282227,4156.922852,4139.487305,4146.666504,4136.410156,4129.743652,4134.871582,4140.000000,4131.794922,4156.410156,4136.410156,4154.871582,4090.769287,4129.743652,838.000000,4.000000,,,,0.000000,4.000000,4.000000,4.000000,4.000000,4.000000,4.000000,4.000000,4.000000,4.000000,4.000000,4.000000,4.000000,4.000000,4.000000,100.000000
1602006583.628398,96.000000,0.000000,4170.256348,4157.436035,4141.538574,4148.717773,4134.358887,4126.153809,4133.846191,4134.871582,4130.256348,4132.307617,4128.205078,4153.333496,4089.230713,4134.358887,767.000000,4.000000,,,,0.000000,4.000000,4.000000,4.000000,4.000000,4.000000,4.000000,4.000000,4.000000,4.000000,4.000000,4.000000,4.000000,4.000000,4.000000,100.000000
1602006583.636278,97.000000,0.000000,4166.666504,4161.025879,4137.948730,4150.769043,4140.512695,4121.538574,4128.717773,4127.692383,4125.641113,4133.333496,4126.666504,4149.743652,4091.794922,4134.871582,734.000000,4.000000,,,,0.000000,4.000000,4.000000,4.000000,4.000000,4.000000,4.000000,4.000000,4.000000,4.000000,4.000000,4.000000,4.000000,4.000000,4.000000,100.000000
1602006583.644259,98.000000,0.000000,4170.256348,4166.666504,4128.205078,4148.717773,4151.282227,4125.641113,4122.563965,4123.077148,4123.077148,4157.436035,4127.179688,4140.512695,4093.333252,4130.256348,871.000000,4.000000,,,,0.000000,4.000000,4.000000,4.000000,4.000000,4.000000,4.000000,4.000000,4.000000,4.000000,4.000000,4.000000,4.000000,4.000000,4.000000,100.000000
1602006583.652140,99.000000,0.000000,4173.333496,4170.256348,4129.230957,4149.230957,4154.871582,4135.897461,4123.077148,4121.025879,4117.948730,4157.436035,4126.153809,4137.948730,4093.333252,4135.897461,838.000000,4.000000,,,,0.000000,4.000000,4.000000,4.000000,4.000000,4.000000,4.000000,4.000000,4.000000,4.000000,4.000000,4.000000,4.000000,4.000000,4.000000,100.000000
1602006583.660022,100.000000,0.000000,4170.769043,4171.794922,4134.358887,4153.846191,4152.820313,4139.487305,4127.179688,4120.000000,4109.230957,4139.487305,4126.666504,4140.000000,4093.333252,4138.974121,767.000000,4.000000,,,,0.000000,4.000000,4.000000,4.000000,4.000000,4.000000,4.000000,4.000000,4.000000,4.000000,4.000000,4.000000,4.000000,4.000000,4.000000,100.000000
1602006583.667903,101.000000,0.000000,4166.153809,4167.692383,4127.179688,4152.307617,4154.358887,4135.897461,4133.333496,4117.948730,4105.128418,4135.384766,4124.102539,4133.846191,4091.281982,4126.153809,734.000000,4.000000,,,,0.000000,4.000000,4.000000,4.000000,4.000000,4.000000,4.000000,4.000000,4.000000,4.000000,4.000000,4.000000,4.000000,4.000000,4.000000,100.000000
1602006583.675784,102.000000,0.000000,4165.128418,4158.974121,4122.051270,4144.615234,4152.820313,4136.410156,4137.948730,4121.538574,4108.205078,4140.512695,4121.538574,4129.230957,4091.281982,4114.871582,871.000000,4.000000,,,,0.000000,4.000000,4.000000,4.000000,4.000000,4.000000,4.000000,4.000000,4.000000,4.000000,4.000000,4.000000,4.000000,4.000000,4.000000,100.000000
1602006583.683665,103.000000,0.000000,4167.692383,4158.461426,4124.615234,4144.615234,4142.563965,4138.461426,4138.974121,4130.769043,4118.974121,4135.384766,4120.512695,4135.897461,4092.820557,4115.384766,838.000000,4.000000,,,,0.000000,4.000000,4.000000,4.000000,4.000000,4.000000,4.000000,4.000000,4.000000,4.000000,4.000000,4.000000,4.000000,4.000000,4.000000,100.000000
1602006583.691546,104.000000,0.000000,4169.743652,4168.205078,4128.205078,4151.282227,4137.948730,4137.436035,4139.487305,4138.974121,4140.512695,4137.436035,4123.077148,4139.487305,4098.461426,4130.256348,767.000000,4.000000,,,,0.000000,4.000000,4.000000,4.000000,4.000000,4.000000,4.000000,4.000000,4.000000,4.000000,4.000000,4.000000,4.000000,4.000000,4.000000,100.000000
1602006583.699427,105.000000,0.000000,4173.846191,4173.333496,4135.384766,4153.846191,4142.051270,4136.410156,4133.333496,4141.538574,4160.512695,4160.000000,4135.384766,4140.000000,4106.153809,4146.666504,734.000000,4.000000,,,,0.000000,4.000000,4.000000,4.000000,4.000000,4.000000,4.000000,4.000000,4.000000,4.000000,4.000000,4.000000,4.000000,4.000000,4.000000,100.000000
1602006583.707309,106.000000,0.000000,4174.358887,4168.717773,4140.000000,4147.692383,4140.000000,4132.307617,4123.589844,4138.974121,4164.102539,4178.461426,4142.051270,4146.666504,4108.717773,4142.563965,871.000000,4.000000,,,,0.000000,4.000000,4.000000,4.000000,4.000000,4.000000,4.000000,4.000000,4.000000,4.000000,4.000000,4.000000,4.000000,4.000000,4.000000,100.000000
1602006583.715290,107.000000,0.000000,4171.282227,4163.077148,4138.974121,4140.512695,4134.358887,4124.102539,4122.051270,4137.948730,4161.025879,4162.563965,4134.871582,4152.307617,4106.666504,4138.974121,838.000000,4.000000,,,,0.000000,4.000000,4.000000,4.000000,4.000000,4.000000,4.000000,4.000000,4.000000,4.000000,4.000000,4.000000,4.000000,4.000000,4.000000,100.000000
1602006583.723171,108.000000,0.000000,4173.333496,4158.974121,4145.128418,4141.538574,4136.922852,4121.538574,4123.589844,4139.487305,4154.358887,4137.948730,4137.948730,4154.871582,4106.153809,4153.333496,767.000000,4.000000,,,,0.000000,4.000000,4.000000,4.000000,4.000000,4.000000,4.000000,4.000000,4.000000,4.000000,4.000000,4.000000,4.000000,4.000000,4.000000,100.000000
1602006583.731052,109.000000,0.000000,4171.794922,4153.846191,4147.692383,4147.179688,4138.974121,4122.563965,4120.512695,4133.846191,4134.871582,4142.051270,4142.563965,4149.743652,4100.000000,4156.922852,734.000000,4.000000,,,,0.000000,4.000000,4.000000,4.000000,4.000000,4.000000,4.000000,4.000000,4.000000,4.000000,4.000000,4.000000,4.000000,4.000000,4.000000,100.000000
1602006583.738933,110.000000,0.000000,4166.153809,4152.820313,4140.000000,4145.641113,4137.948730,4123.589844,4125.128418,4124.615234,4116.410156,4157.436035,4119.487305,4140.512695,4089.743652,4140.000000,871.000000,4.000000,,,,0.000000,4.000000,4.000000,4.000000,4.000000,4.000000,4.000000,4.000000,4.000000,4.000000,4.000000,4.000000,4.000000,4.000000,4.000000,100.000000
1602006583.746814,111.000000,0.000000,4168.205078,4155.897461,4135.897461,4140.000000,4138.974121,4131.282227,4138.974121,4127.179688,4108.717773,4151.282227,4103.077148,4137.436035,4087.179443,4124.102539,838.000000,4.000000,,,,0.000000,4.000000,4.000000,4.000000,4.000000,4.000000,4.000000,4.000000,4.000000,4.000000,4.000000,4.000000,4.000000,4.000000,4.000000,100.000000
1602006583.754695,112.000000,0.000000,4162.051270,4156.922852,4130.256348,4138.461426,4140.000000,4138.461426,4143.077148,4135.384766,4104.615234,4135.897461,4117.436035,4137.948730,4094.358887,4124.615234,767.000000,4.000000,,,,0.000000,4.000000,4.000000,4.000000,4.000000,4.000000,4.000000,4.000000,4.000000,4.000000,4.000000,4.000000,4.000000,4.000000,4.000000,100.000000
1602006583.762577,113.000000,0.000000,4149.743652,4154.358887,4129.230957,4143.077148,4139.487305,4137.436035,4138.974121,4135.897461,4109.743652,4144.102539,4127.692383,4136.922852,4103.077148,4135.897461,734.000000,4.000000,,,,0.000000,4.000000,4.000000,4.000000,4.000000,4.000000,4.000000,4.000000,4.000000,4.000000,4.000000,4.000000,4.000000,4.000000,4.000000,100.000000
1602006583.770458,114.000000,0.000000,4158.461426,4153.846191,4138.974121,4150.769043,4139.487305,4136.922852,4140.000000,4136.922852,4122.051270,4158.974121,4126.153809,4136.922852,4109.230957,4143.589844,871.000000,4.000000,,,,0.000000,4.000000,4.000000,4.000000,4.000000,4.000000,4.000000,4.000000,4.000000,4.000000,4.000000,4.000000,4.000000,4.000000,4.000000,100.000000
1602006583.778339,115.000000,0.000000,4174.358887,4158.974121,4144.102539,4152.820313,4141.025879,4140.512695,4137.436035,4140.512695,4125.128418,4149.230957,4127.179688,4138.974121,4108.205078,4143.077148,838.000000,4.000000,,,,0.000000,4.000000,4.000000,4.000000,4.000000,4.000000,4.000000,4.000000,4.000000,4.000000,4.000000,4.000000,4.000000,4.000000,4.000000,100.000000
1602006583.786220,116.000000,0.000000,4170.256348,4160.000000,4140.000000,4144.102539,4143.589844,4135.384766,4125.128418,4131.794922,4122.051270,4130.256348,4122.563965,4138.974121,4102.563965,4136.410156,767.000000,4.000000,,,,0.000000,4.000000,4.000000,4.000000,4.000000,4.000000,4.000000,4.000000,4.000000,4.000000,4.000000,4.000000,4.000000,4.000000,4.000000,100.000000
1602006583.794001,117.000000,0.000000,4160.512695,4158.974121,4140.000000,4139.487305,4144.102539,4123.589844,4117.948730,4122.051270,4123.077148,4135.897461,4124.102539,4141.025879,4104.615234,4136.922852,734.000000,4.000000,,,,0.000000,4.000000,4.000000,4.000000,4.000000,4.000000,4.000000,4.000000,4.000000,4.000000,4.000000,4.000000,4.000000,4.000000,4.000000,100.000000
1602006583.801882,118.000000,0.000000,4157.948730,4160.512695,4141.025879,4147.179688,4140.000000,4120.000000,4118.461426,4121.538574,4118.974121,4155.897461,4131.282227,4139.487305,4106.666504,4141.538574,871.000000,4.000000,,,,0.000000,4.000000,4.000000,4.000000,4.000000,4.000000,4.000000,4.000000,4.000000,4.000000,4.000000,4.000000,4.000000,4.000000,4.000000,100.000000
1602006583.809762,119.000000,0.000000,4151.282227,4153.846191,4137.436035,4152.307617,4136.922852,4124.102539,4122.051270,4123.589844,4113.333496,4155.384766,4112.820313,4136.410156,4090.256348,4135.384766,838.000000,4.000000,,,,0.000000,4.000000,4.000000,4.000000,4.000000,4.000000,4.000000,4.000000,4.000000,4.000000,4.000000,4.000000,4.000000,4.000000,4.000000,100.000000
1602006583.817743,120.000000,0.000000,4151.794922,4146.153809,4137.948730,4151.794922,4141.025879,4126.666504,4130.769043,4124.615234,4121.025879,4152.307617,4103.589844,4145.128418,4086.666748,4138.461426,767.000000,4.000000,,,,0.000000,4.000000,4.000000,4.000000,4.000000,4.000000,4.000000,4.000000,4.000000,4.000000,4.000000,4.000000,4.000000,4.000000,4.000000,100.000000
1602006583.825623,121.000000,0.000000,4162.051270,4152.307617,4142.051270,4150.256348,4143.589844,4130.256348,4138.461426,4125.128418,4127.692383,4156.410156,4131.794922,4157.948730,4118.974121,4163.077148,734.000000,4.000000,,,,0.000000,4.000000,4.000000,4.000000,4.000000,4.000000,4.000000,4.000000,4.000000,4.000000,4.000000,4.000000,4.000000,4.000000,4.000000,100.000000
1602006583.833504,122.000000,0.000000,4161.025879,4155.897461,4143.589844,4146.153809,4138.461426,4136.410156,4136.410156,4129.230957,4122.563965,4144.615234,4147.179688,4160.512695,4140.512695,4174.871582,871.000000,4.000000,,,,0.000000,4.000000,4.000000,4.000000,4.000000,4.000000,4.000000,4.000000,4.000000,4.000000,4.000000,4.000000,4.000000,4.000000,4.000000,100.000000
1602006583.841385,123.000000,0.000000,4147.179688,4138.974121,4143.077148,4139.487305,4135.384766,4136.922852,4133.333496,4133.333496,4121.538574,4136.410156,4138.974121,4157.436035,4135.384766,4171.282227,838.000000,4.000000,,,,0.000000,4.000000,4.000000,4.000000,4.000000,4.000000,4.000000,4.000000,4.000000,4.000000,4.000000,4.000000,4.000000,4.000000,4.000000,100.000000
1602006583.849365,124.000000,0.000000,4134.871582,4122.563965,4142.051270,4135.897461,4140.512695,4136.922852,4136.410156,4137.436035,4129.230957,4152.307617,4143.077148,4156.922852,4139.487305,4180.000000,767.000000,4.000000,,,,0.000000,4.000000,4.000000,4.000000,4.000000,4.000000,4.000000,4.000000,4.000000,4.000000,4.000000,4.000000,4.000000,4.000000,4.000000,100.000000
1602006583.857146,125.000000,0.000000,4128.205078,4122.051270,4142.051270,4136.410156,4142.563965,4140.512695,4136.922852,4140.512695,4128.205078,4153.333496,4150.256348,4161.025879,4147.179688,4182.563965,734.000000,4.000000,,,,0.000000,4.000000,4.000000,4.000000,4.000000,4.000000,4.000000,4.000000,4.000000,4.000000,4.000000,4.000000,4.000000,4.000000,4.000000,100.000000
1602006583.865027,126.000000,0.000000,4121.025879,4116.922852,4139.487305,4134.358887,4134.871582,4132.307617,4133.333496,4139.487305,4120.512695,4136.410156,4138.974121,4160.000000,4137.948730,4162.051270,871.000000,4.000000,,,,0.000000,4.000000,4.000000,4.000000,4.000000,4.000000,4.000000,4.000000,4.000000,4.000000,4.000000,4.000000,4.000000,4.000000,4.000000,100.000000
1602006583.872908,127.000000,0.000000,4121.538574,4112.820313,4136.922852,4134.358887,4133.333496,4122.563965,4133.333496,4145.128418,4127.179688,4140.512695,4134.871582,4155.384766,4133.846191,4158.461426,838.000000,4.000000,,,,0.000000,4.000000,4.000000,4.000000,4.000000,4.000000,4.000000,4.000000,4.000000,4.000000,4.000000,4.000000,4.000000,4.000000,4.000000,100.000000
1602006583.880789,128.000000,0.000000,4127.179688,4120.000000,4143.077148,4133.846191,4138.461426,4127.692383,4134.358887,4151.794922,4147.692383,4155.384766,4149.230957,4159.487305,4143.077148,4171.794922,767.000000,4.000000,,,,0.000000,4.000000,4.000000,4.000000,4.000000,4.000000,4.000000,4.000000,4.000000,4.000000,4.000000,4.000000,4.000000,4.000000,4.000000,100.000000
1602006583.888670,0.000000,0.000000,4125.641113,4120.000000,4150.769043,4131.282227,4132.820313,4129.743652,4131.282227,4144.615234,4155.897461,4167.692383,4151.282227,4166.666504,4145.641113,4174.358887,782.000000,4.000000,,,,0.000000,4.000000,4.000000,4.000000,4.000000,4.000000,4.000000,4.000000,4.000000,4.000000,4.000000,4.000000,4.000000,4.000000,4.000000,100.000000
1602006583.896551,1.000000,0.000000,4122.563965,4108.205078,4152.820313,4133.333496,4122.563965,4120.512695,4130.769043,4134.871582,4153.846191,4182.563965,4136.922852,4168.717773,4143.077148,4173.846191,791.000000,4.000000,,,,0.000000,4.000000,4.000000,4.000000,4.000000,4.000000,4.000000,4.000000,4.000000,4.000000,4.000000,4.000000,4.000000,4.000000,4.000000,100.000000
1602006583.904432,2.000000,0.000000,4130.256348,4111.794922,4153.846191,4137.948730,4126.153809,4120.000000,4135.897461,4137.948730,4151.282227,4189.743652,4142.051270,4169.743652,4142.563965,4175.897461,850.000000,4.000000,,,,0.000000,4.000000,4.000000,4.000000,4.000000,4.000000,4.000000,4.000000,4.000000,4.000000,4.000000,4.000000,4.000000,4.000000,4.000000,100.000000
1602006583.912412,3.000000,0.000000,4138.974121,4124.102539,4155.897461,4136.922852,4131.282227,4127.179688,4135.897461,4141.025879,4143.589844,4174.358887,4161.538574,4169.743652,4139.487305,4174.871582,869.000000,4.000000,,,,0.000000,4.000000,4.000000,4.000000,4.000000,4.000000,4.000000,4.000000,4.000000,4.000000,4.000000,4.000000,4.000000,4.000000,4.000000,100.000000
1602006583.920293,4.000000,0.000000,4131.282227,4117.948730,4155.384766,4134.871582,4124.615234,4123.589844,4133.846191,4138.974121,4137.436035,4156.410156,4150.256348,4168.717773,4133.333496,4181.025879,814.000000,4.000000,,,,0.000000,4.000000,4.000000,4.000000,4.000000,4.000000,4.000000,4.000000,4.000000,4.000000,4.000000,4.000000,4.000000,4.000000,4.000000,100.000000
1602006583.928174,5.000000,0.000000,4120.000000,4111.282227,4149.230957,4138.974121,4120.000000,4123.589844,4137.948730,4138.974121,4139.487305,4151.282227,4136.410156,4167.692383,4134.871582,4184.615234,823.000000,4.000000,,,,0.000000,4.000000,4.000000,4.000000,4.000000,4.000000,4.000000,4.000000,4.000000,4.000000,4.000000,4.000000,4.000000,4.000000,4.000000,100.000000
1602006583.936055,6.000000,0.000000,4125.641113,4121.025879,4142.051270,4138.974121,4127.179688,4129.230957,4135.897461,4138.974121,4132.820313,4153.846191,4153.846191,4160.000000,4139.487305,4167.692383,788.000000,4.000000,,,,0.000000,4.000000,4.000000,4.000000,4.000000,4.000000,4.000000,4.000000,4.000000,4.000000,4.000000,4.000000,4.000000,4.000000,4.000000,100.000000
1602006583.943936,7.000000,0.000000,4127.179688,4125.641113,4136.410156,4130.769043,4134.358887,4124.102539,4123.589844,4137.436035,4113.846191,4160.000000,4154.871582,4150.256348,4135.897461,4156.922852,669.000000,4.000000,,,,0.000000,4.000000,4.000000,4.000000,4.000000,4.000000,4.000000,4.000000,4.000000,4.000000,4.000000,4.000000,4.000000,4.000000,4.000000,100.000000
1602006583.951817,8.000000,0.000000,4111.282227,4120.000000,4133.333496,4127.179688,4137.436035,4122.563965,4119.487305,4135.897461,4110.256348,4165.641113,4138.461426,4149.230957,4139.487305,4169.743652,786.000000,4.000000,,,,0.000000,4.000000,4.000000,4.000000,4.000000,4.000000,4.000000,4.000000,4.000000,4.000000,4.000000,4.000000,4.000000,4.000000,4.000000,100.000000
1602006583.959698,9.000000,0.000000,4110.256348,4123.077148,4135.897461,4136.410156,4141.538574,4136.922852,4130.256348,4144.102539,4129.230957,4181.538574,4154.871582,4155.897461,4155.897461,4177.948730,838.000000,4.000000,,,,0.000000,4.000000,4.000000,4.000000,4.000000,4.000000,4.000000,4.000000,4.000000,4.000000,4.000000,4.000000,4.000000,4.000000,4.000000,100.000000
1602006583.967579,10.000000,0.000000,4121.025879,4130.256348,4139.487305,4143.077148,4145.641113,4147.692383,4137.948730,4152.307617,4145.641113,4193.333496,4175.897461,4159.487305,4158.974121,4169.230957,871.000000,4.000000,,,,0.000000,4.000000,4.000000,4.000000,4.000000,4.000000,4.000000,4.000000,4.000000,4.000000,4.000000,4.000000,4.000000,4.000000,4.000000,100.000000
1602006583.975560,11.000000,0.000000,4114.358887,4121.025879,4132.820313,4133.846191,4141.538574,4143.077148,4135.897461,4144.102539,4143.589844,4170.256348,4156.922852,4151.282227,4144.615234,4157.436035,838.000000,4.000000,,,,0.000000,4.000000,4.000000,4.000000,4.000000,4.000000,4.000000,4.000000,4.000000,4.000000,4.000000,4.000000,4.000000,4.000000,4.000000,100.000000
1602006583.983441,12.000000,0.000000,4101.538574,4107.179688,4120.512695,4122.051270,4133.846191,4140.000000,4137.948730,4135.384766,4137.436035,4138.461426,4136.410156,4142.051270,4132.307617,4148.205078,767.000000,4.000000,,,,0.000000,4.000000,4.000000,4.000000,4.000000,4.000000,4.000000,4.000000,4.000000,4.000000,4.000000,4.000000,4.000000,4.000000,4.000000,100.000000
1602006583.991322,13.000000,0.000000,4103.589844,4105.641113,4121.025879,4121.025879,4134.358887,4144.615234,4140.512695,4139.487305,4141.538574,4143.077148,4133.846191,4141.025879,4125.641113,4143.589844,734.000000,4.000000,,,,0.000000,4.000000,4.000000,4.000000,4.000000,4.000000,4.000000,4.000000,4.000000,4.000000,4.000000,4.000000,4.000000,4.000000,4.000000,100.000000
1602006583.999203,14.000000,0.000000,4106.666504,4108.717773,4124.615234,4126.666504,4138.461426,4145.128418,4141.538574,4142.563965,4144.615234,4164.102539,4130.256348,4141.025879,4127.692383,4143.589844,871.000000,4.000000,,,,0.000000,4.000000,4.000000,4.000000,4.000000,4.000000,4.000000,4.000000,4.000000,4.000000,4.000000,4.000000,4.000000,4.000000,4.000000,100.000000
1602006584.007085,15.000000,0.000000,4103.589844,4108.205078,4121.538574,4127.692383,4139.487305,4142.051270,4139.487305,4137.436035,4141.025879,4167.179688,4130.256348,4142.051270,4137.436035,4148.205078,838.000000,4.000000,,,,0.000000,4.000000,4.000000,4.000000,4.000000,4.000000,4.000000,4.000000,4.000000,4.000000,4.000000,4.000000,4.000000,4.000000,4.000000,100.000000
1602006584.014966,16.000000,0.000000,4111.282227,4113.333496,4127.692383,4126.666504,4138.974121,4135.384766,4129.743652,4136.922852,4134.358887,4167.179688,4140.512695,4150.256348,4140.512695,4162.051270,0.000000,4.000000,,,,0.000000,4.000000,4.000000,4.000000,4.000000,4.000000,4.000000,4.000000,4.000000,4.000000,4.000000,4.000000,4.000000,4.000000,4.000000,100.000000
1602006584.022847,17.000000,0.000000,4122.051270,4121.538574,4138.461426,4132.307617,4138.974121,4127.692383,4119.487305,4134.871582,4128.717773,4154.358887,4150.769043,4159.487305,4139.487305,4165.128418,0.000000,4.000000,,,,0.000000,4.000000,4.000000,4.000000,4.000000,4.000000,4.000000,4.000000,4.000000,4.000000,4.000000,4.000000,4.000000,4.000000,4.000000,100.000000
1602006584.030728,18.000000,0.000000,4126.666504,4126.153809,4140.000000,4137.436035,4144.615234,4128.717773,4120.512695,4125.641113,4121.025879,4133.846191,4155.897461,4163.589844,4144.102539,4156.922852,0.000000,4.000000,,,,0.000000,4.000000,4.000000,4.000000,4.000000,4.000000,4.000000,4.000000,4.000000,4.000000,4.000000,4.000000,4.000000,4.000000,4.000000,100.000000
1602006584.038609,19.000000,0.000000,4125.128418,4129.230957,4139.487305,4137.948730,4151.794922,4138.461426,4120.000000,4120.512695,4117.948730,4143.077148,4153.846191,4161.025879,4146.666504,4161.538574,0.000000,4.000000,,,,0.000000,4.000000,4.000000,4.000000,4.000000,4.000000,4.000000,4.000000,4.000000,4.000000,4.000000,4.000000,4.000000,4.000000,4.000000,100.000000
1602006584.046490,20.000000,0.000000,4115.384766,4131.282227,4136.410156,4134.358887,4155.897461,4143.589844,4116.410156,4124.102539,4129.743652,4158.974121,4149.230957,4152.820313,4142.051270,4165.128418,0.000000,4.000000,,,,0.000000,4.000000,4.000000,4.000000,4.000000,4.000000,4.000000,4.000000,4.000000,4.000000,4.000000,4.000000,4.000000,4.000000,4.000000,100.000000
1602006584.054271,21.000000,0.000000,4108.205078,4124.615234,4126.153809,4125.641113,4152.820313,4141.025879,4126.153809,4128.205078,4139.487305,4152.820313,4145.128418,4149.230957,4142.051270,4147.692383,0.000000,4.000000,,,,0.000000,4.000000,4.000000,4.000000,4.000000,4.000000,4.000000,4.000000,4.000000,4.000000,4.000000,4.000000,4.000000,4.000000,4.000000,100.000000
1602006584.062152,22.000000,0.000000,4106.153809,4116.410156,4119.487305,4118.461426,4143.589844,4138.461426,4140.512695,4132.307617,4140.000000,4153.333496,4132.307617,4153.333496,4142.051270,4131.282227,0.000000,4.000000,,,,0.000000,4.000000,4.000000,4.000000,4.000000,4.000000,4.000000,4.000000,4.000000,4.000000,4.000000,4.000000,4.000000,4.000000,4.000000,100.000000
1602006584.070033,23.000000,0.000000,4100.512695,4111.794922,4116.410156,4119.487305,4135.384766,4133.846191,4147.692383,4138.461426,4145.641113,4158.974121,4127.179688,4151.794922,4129.743652,4135.384766,0.000000,4.000000,,,,0.000000,4.000000,4.000000,4.000000,4.000000,4.000000,4.000000,4.000000,4.000000,4.000000,4.000000,4.000000,4.000000,4.000000,4.000000,100.000000
1602006584.077913,24.000000,0.000000,4096.410156,4106.666504,4113.333496,4121.025879,4137.948730,4134.358887,4152.307617,4142.563965,4155.384766,4151.282227,4143.077148,4155.897461,4123.589844,4139.487305,0.000000,4.000000,,,,0.000000,4.000000,4.000000,4.000000,4.000000,4.000000,4.000000,4.000000,4.000000,4.000000,4.000000,4.000000,4.000000,4.000000,4.000000,100.000000
1602006584.085794,25.000000,0.000000,4109.743652,4108.717773,4121.538574,4120.512695,4144.615234,4142.563965,4154.871582,4146.153809,4155.384766,4154.358887,4154.358887,4175.897461,4136.922852,4143.077148,0.000000,4.000000,,,,0.000000,4.000000,4.000000,4.000000,4.000000,4.000000,4.000000,4.000000,4.000000,4.000000,4.000000,4.000000,4.000000,4.000000,4.000000,100.000000
1602006584.093575,26.000000,0.000000,4123.077148,4118.974121,4131.282227,4123.077148,4140.000000,4142.051270,4154.871582,4146.153809,4152.820313,4159.487305,4153.846191,4187.692383,4142.051270,4149.743652,0.000000,4.000000,,,,0.000000,4.000000,4.000000,4.000000,4.000000,4.000000,4.000000,4.000000,4.000000,4.000000,4.000000,4.000000,4.000000,4.000000,4.000000,100.000000
1602006584.101456,27.000000,0.000000,4120.000000,4123.077148,4127.179688,4123.589844,4138.974121,4134.871582,4151.794922,4140.512695,4157.948730,4148.717773,4151.282227,4178.461426,4137.948730,4154.358887,0.000000,4.000000,,,,0.000000,4.000000,4.000000,4.000000,4.000000,4.000000,4.000000,4.000000,4.000000,4.000000,4.000000,4.000000,4.000000,4.000000,4.000000,100.000000
1602006584.109337,28.000000,0.000000,4118.974121,4122.051270,4122.563965,4124.615234,4150.256348,4139.487305,4145.641113,4136.922852,4157.948730,4148.205078,4145.641113,4167.692383,4147.692383,4156.410156,0.000000,4.000000,,,,0.000000,4.000000,4.000000,4.000000,4.000000,4.000000,4.000000,4.000000,4.000000,4.000000,4.000000,4.000000,4.000000,4.000000,4.000000,100.000000
1602006584.117218,29.000000,0.000000,4125.128418,4122.051270,4124.615234,4126.153809,4158.461426,4144.615234,4132.307617,4128.205078,4147.692383,4146.153809,4139.487305,4160.512695,4149.230957,4149.230957,0.000000,4.000000,,,,0.000000,4.000000,4.000000,4.000000,4.000000,4.000000,4.000000,4.000000,4.000000,4.000000,4.000000,4.000000,4.000000,4.000000,4.000000,100.000000
1602006584.125099,30.000000,0.000000,4123.589844,4126.153809,4124.615234,4125.641113,4152.820313,4136.922852,4115.384766,4116.922852,4143.589844,4134.358887,4142.051270,4150.769043,4136.410156,4140.000000,0.000000,4.000000,,,,0.000000,4.000000,4.000000,4.000000,4.000000,4.000000,4.000000,4.000000,4.000000,4.000000,4.000000,4.000000,4.000000,4.000000,4.000000,100.000000
1602006584.132980,31.000000,0.000000,4112.820313,4131.794922,4121.538574,4126.153809,4147.692383,4132.820313,4106.153809,4124.615234,4154.871582,4151.282227,4143.589844,4149.743652,4137.436035,4141.025879,0.000000,4.000000,,,,0.000000,4.000000,4.000000,4.000000,4.000000,4.000000,4.000000,4.000000,4.000000,4.000000,4.000000,4.000000,4.000000,4.000000,4.000000,100.000000
1602006584.140861,32.000000,0.000000,4105.641113,4131.282227,4118.974121,4127.179688,4152.820313,4138.461426,4113.846191,4134.871582,4160.512695,4174.871582,4137.436035,4158.974121,4144.615234,4143.589844,0.000000,4.000000,,,,0.000000,4.000000,4.000000,4.000000,4.000000,4.000000,4.000000,4.000000,4.000000,4.000000,4.000000,4.000000,4.000000,4.000000,4.000000,100.000000
1602006584.148842,33.000000,0.000000,4105.641113,4123.077148,4126.666504,4125.641113,4153.333496,4140.000000,4128.717773,4130.769043,4153.846191,4161.025879,4135.384766,4165.641113,4140.512695,4140.512695,0.000000,4.000000,,,,0.000000,4.000000,4.000000,4.000000,4.000000,4.000000,4.000000,4.000000,4.000000,4.000000,4.000000,4.000000,4.000000,4.000000,4.000000,100.000000
1602006584.156723,34.000000,0.000000,4111.282227,4114.871582,4138.461426,4121.538574,4144.615234,4139.487305,4141.538574,4132.307617,4150.769043,4139.487305,4140.512695,4169.743652,4138.461426,4135.384766,0.000000,4.000000,,,,0.000000,4.000000,4.000000,4.000000,4.000000,4.000000,4.000000,4.000000,4.000000,4.000000,4.000000,4.000000,4.000000,4.000000,4.000000,100.000000
1602006584.164604,35.000000,0.000000,4108.205078,4104.615234,4131.794922,4113.333496,4134.871582,4140.512695,4152.307617,4137.948730,4147.692383,4141.025879,4142.051270,4165.641113,4134.871582,4122.563965,0.000000,4.000000,,,,0.000000,4.000000,4.000000,4.000000,4.000000,4.000000,4.000000,4.000000,4.000000,4.000000,4.000000,4.000000,4.000000,4.000000,4.000000,100.000000
1602006584.172485,36.000000,0.000000,4092.307617,4095.384521,4111.794922,4104.615234,4133.333496,4138.461426,4155.384766,4131.282227,4138.461426,4143.589844,4129.230957,4149.743652,4123.077148,4108.717773,0.000000,4.000000,,,,0.000000,4.000000,4.000000,4.000000,4.000000,4.000000,4.000000,4.000000,4.000000,4.000000,4.000000,4.000000,4.000000,4.000000,4.000000,100.000000
1602006584.180366,37.000000,0.000000,4088.205078,4098.974121,4108.205078,4108.205078,4136.922852,4136.922852,4149.743652,4127.179688,4134.871582,4139.487305,4117.436035,4140.000000,4126.666504,4123.077148,0.000000,4.000000,,,,0.000000,4.000000,4.000000,4.000000,4.000000,4.000000,4.000000,4.000000,4.000000,4.000000,4.000000,4.000000,4.000000,4.000000,4.000000,100.000000
1602006584.188247,38.000000,0.000000,4105.128418,4114.358887,4121.538574,4118.461426,4141.538574,4137.948730,4145.128418,4135.897461,4137.948730,4134.871582,4132.307617,4154.358887,4140.000000,4149.743652,0.000000,4.000000,,,,0.000000,4.000000,4.000000,4.000000,4.000000,4.000000,4.000000,4.000000,4.000000,4.000000,4.000000,4.000000,4.000000,4.000000,4.000000,100.000000
1602006584.196129,39.000000,0.000000,4118.461426,4130.256348,4126.153809,4125.128418,4144.102539,4137.948730,4142.051270,4141.025879,4150.256348,4137.436035,4146.153809,4170.256348,4143.077148,4157.948730,0.000000,4.000000,,,,0.000000,4.000000,4.000000,4.000000,4.000000,4.000000,4.000000,4.000000,4.000000,4.000000,4.000000,4.000000,4.000000,4.000000,4.000000,100.000000
1602006584.204010,40.000000,0.000000,4121.538574,4139.487305,4123.589844,4131.282227,4144.615234,4140.000000,4139.487305,4140.512695,4166.666504,4153.333496,4141.025879,4170.769043,4147.692383,4160.000000,0.000000,4.000000,,,,0.000000,4.000000,4.000000,4.000000,4.000000,4.000000,4.000000,4.000000,4.000000,4.000000,4.000000,4.000000,4.000000,4.000000,4.000000,100.000000
1602006584.211891,41.000000,0.000000,4123.077148,4133.846191,4124.615234,4133.846191,4144.615234,4138.974121,4137.436035,4139.487305,4165.128418,4160.512695,4144.615234,4170.769043,4151.282227,4156.410156,0.000000,4.000000,,,,0.000000,4.000000,4.000000,4.000000,4.000000,4.000000,4.000000,4.000000,4.000000,4.000000,4.000000,4.000000,4.000000,4.000000,4.000000,100.000000
1602006584.219772,42.000000,0.000000,4114.358887,4116.922852,4121.538574,4125.128418,4137.436035,4131.282227,4136.922852,4138.461426,4151.794922,4144.615234,4148.205078,4164.615234,4135.384766,4136.410156,0.000000,4.000000,,,,0.000000,4.000000,4.000000,4.000000,4.000000,4.000000,4.000000,4.000000,4.000000,4.000000,4.000000,4.000000,4.000000,4.000000,4.000000,100.000000
1602006584.227553,43.000000,0.000000,4096.410156,4105.641113,4116.922852,4116.410156,4126.666504,4126.153809,4138.974121,4135.384766,4143.589844,4127.179688,4130.256348,4149.743652,4118.974121,4118.974121,0.000000,4.000000,,,,0.000000,4.000000,4.000000,4.000000,4.000000,4.000000,4.000000,4.000000,4.000000,4.000000,4.000000,4.000000,4.000000,4.000000,4.000000,100.000000
1602006584.235433,44.000000,0.000000,4088.718018,4104.102539,4118.461426,4118.461426,4123.077148,4124.102539,4135.384766,4125.641113,4135.384766,4125.641113,4116.410156,4144.615234,4114.358887,4114.871582,0.000000,4.000000,,,,0.000000,4.000000,4.000000,4.000000,4.000000,4.000000,4.000000,4.000000,4.000000,4.000000,4.000000,4.000000,4.000000,4.000000,4.000000,100.000000
1602006584.243414,45.000000,0.000000,4091.281982,4103.077148,4120.512695,4119.487305,4123.589844,4119.487305,4129.230957,4118.461426,4130.769043,4132.307617,4120.512695,4151.282227,4109.230957,4108.717773,0.000000,4.000000,,,,0.000000,4.000000,4.000000,4.000000,4.000000,4.000000,4.000000,4.000000,4.000000,4.000000,4.000000,4.000000,4.000000,4.000000,4.000000,100.000000
1602006584.251294,46.000000,0.000000,4092.307617,4098.974121,4118.974121,4117.436035,4126.153809,4116.922852,4131.282227,4126.666504,4139.487305,4134.358887,4120.000000,4153.846191,4107.692383,4107.179688,0.000000,4.000000,,,,0.000000,4.000000,4.000000,4.000000,4.000000,4.000000,4.000000,4.000000,4.000000,4.000000,4.000000,4.000000,4.000000,4.000000,4.000000,100.000000
1602006584.259175,47.000000,0.000000,4096.410156,4100.000000,4117.436035,4120.000000,4133.333496,4125.128418,4136.922852,4136.410156,4144.102539,4133.846191,4118.974121,4152.820313,4114.871582,4125.128418,0.000000,4.000000,,,,0.000000,4.000000,4.000000,4.000000,4.000000,4.000000,4.000000,4.000000,4.000000,4.000000,4.000000,4.000000,4.000000,4.000000,4.000000,100.000000
1602006584.267056,48.000000,0.000000,4104.102539,4104.102539,4111.282227,4120.000000,4137.436035,4135.384766,4138.461426,4137.436035,4142.563965,4134.871582,4122.051270,4152.820313,4118.974121,4140.000000,0.000000,4.000000,,,,0.000000,4.000000,4.000000,4.000000,4.000000,4.000000,4.000000,4.000000,4.000000,4.000000,4.000000,4.000000,4.000000,4.000000,4.000000,100.000000
1602006584.274936,49.000000,0.000000,4104.102539,4108.205078,4103.077148,4118.461426,4135.897461,4137.948730,4141.025879,4138.974121,4150.256348,4126.666504,4121.538574,4150.769043,4118.461426,4136.410156,0.000000,4.000000,,,,0.000000,4.000000,4.000000,4.000000,4.000000,4.000000,4.000000,4.000000,4.000000,4.000000,4.000000,4.000000,4.000000,4.000000,4.000000,100.000000
1602006584.282718,50.000000,0.000000,4106.153809,4118.461426,4112.307617,4126.666504,4139.487305,4138.461426,4144.102539,4142.051270,4146.666504,4124.615234,4132.307617,4150.769043,4122.563965,4135.384766,0.000000,4.000000,,,,0.000000,4.000000,4.000000,4.000000,4.000000,4.000000,4.000000,4.000000,4.000000,4.000000,4.000000,4.000000,4.000000,4.000000,4.000000,100.000000
1602006584.290598,51.000000,0.000000,4109.743652,4125.128418,4125.128418,4134.871582,4145.128418,4140.512695,4141.538574,4141.025879,4128.205078,4136.922852,4138.974121,4153.333496,4127.179688,4138.974121,0.000000,4.000000,,,,0.000000,4.000000,4.000000,4.000000,4.000000,4.000000,4.000000,4.000000,4.000000,4.000000,4.000000,4.000000,4.000000,4.000000,4.000000,100.000000
1602006584.298479,52.000000,0.000000,4103.077148,4121.538574,4123.077148,4130.256348,4146.153809,4141.025879,4138.461426,4139.487305,4129.230957,4136.410156,4128.205078,4157.948730,4121.538574,4136.410156,0.000000,4.000000,,,,0.000000,4.000000,4.000000,4.000000,4.000000,4.000000,4.000000,4.000000,4.000000,4.000000,4.000000,4.000000,4.000000,4.000000,4.000000,100.000000
1602006584.306360,53.000000,0.000000,4098.461426,4118.974121,4120.000000,4123.077148,4145.641113,4141.025879,4136.922852,4139.487305,4141.025879,4127.179688,4127.179688,4162.051270,4123.589844,4133.846191,0.000000,4.000000,,,,0.000000,4.000000,4.000000,4.000000,4.000000,4.000000,4.000000,4.000000,4.000000,4.000000,4.000000,4.000000,4.000000,4.000000,4.000000,100.000000
1602006584.314241,54.000000,0.000000,4107.179688,4116.410156,4125.128418,4121.538574,4140.000000,4137.436035,4130.256348,4133.846191,4135.384766,4138.461426,4141.025879,4161.538574,4137.948730,4135.384766,0.000000,4.000000,,,,0.000000,4.000000,4.000000,4.000000,4.000000,4.000000,4.000000,4.000000,4.000000,4.000000,4.000000,4.000000,4.000000,4.000000,4.000000,100.000000
1602006584.322122,55.000000,0.000000,4106.666504,4109.743652,4126.666504,4123.589844,4128.717773,4126.666504,4122.563965,4123.589844,4124.102539,4130.256348,4140.000000,4158.461426,4131.282227,4136.922852,0.000000,4.000000,,,,0.000000,4.000000,4.000000,4.000000,4.000000,4.000000,4.000000,4.000000,4.000000,4.000000,4.000000,4.000000,4.000000,4.000000,4.000000,100.000000
1602006584.330003,56.000000,0.000000,4093.333252,4105.641113,4116.922852,4123.077148,4121.025879,4115.897461,4119.487305,4113.846191,4115.897461,4089.230713,4127.179688,4150.769043,4108.717773,4134.871582,0.000000,4.000000,,,,0.000000,4.000000,4.000000,4.000000,4.000000,4.000000,4.000000,4.000000,4.000000,4.000000,4.000000,4.000000,4.000000,4.000000,4.000000,100.000000
1602006584.337884,57.000000,0.000000,4094.358887,4105.641113,4106.666504,4120.000000,4120.000000,4109.743652,4121.025879,4106.666504,4105.128418,4084.615479,4123.589844,4140.000000,4103.077148,4133.846191,0.000000,4.000000,,,,0.000000,4.000000,4.000000,4.000000,4.000000,4.000000,4.000000,4.000000,4.000000,4.000000,4.000000,4.000000,4.000000,4.000000,4.000000,100.000000
1602006584.345765,58.000000,0.000000,4106.666504,4107.179688,4104.615234,4117.948730,4119.487305,4107.179688,4120.000000,4105.641113,4104.102539,4111.282227,4120.512695,4135.897461,4108.717773,4139.487305,0.000000,4.000000,,,,0.000000,4.000000,4.000000,4.000000,4.000000,4.000000,4.000000,4.000000,4.000000,4.000000,4.000000,4.000000,4.000000,4.000000,4.000000,100.000000
1602006584.353546,59.000000,0.000000,4109.230957,4107.179688,4109.743652,4122.051270,4122.051270,4106.153809,4116.922852,4107.692383,4108.717773,4113.333496,4118.974121,4137.436035,4106.153809,4138.461426,0.000000,4.000000,,,,0.000000,4.000000,4.000000,4.000000,4.000000,4.000000,4.000000,4.000000,4.000000,4.000000,4.000000,4.000000,4.000000,4.000000,4.000000,100.000000
1602006584.361426,60.000000,0.000000,4110.256348,4109.743652,4114.871582,4124.615234,4126.153809,4105.641113,4120.000000,4113.846191,4108.205078,4102.563965,4120.000000,4135.897461,4104.102539,4128.205078,0.000000,4.000000,,,,0.000000,4.000000,4.000000,4.000000,4.000000,4.000000,4.000000,4.000000,4.000000,4.000000,4.000000,4.000000,4.000000,4.000000,4.000000,100.000000
1602006584.369307,61.000000,0.000000,4120.512695,4118.461426,4123.589844,4124.102539,4127.179688,4110.769043,4128.717773,4123.589844,4112.307617,4106.666504,4112.820313,4141.538574,4103.589844,4132.307617,0.000000,4.000000,,,,0.000000,4.000000,4.000000,4.000000,4.000000,4.000000,4.000000,4.000000,4.000000,4.000000,4.000000,4.000000,4.000000,4.000000,4.000000,100.000000
1602006584.377188,62.000000,0.000000,4125.641113,4119.487305,4135.897461,4122.563965,4124.102539,4119.487305,4129.230957,4128.205078,4121.538574,4112.307617,4108.717773,4155.897461,4098.974121,4144.102539,0.000000,4.000000,,,,0.000000,4.000000,4.000000,4.000000,4.000000,4.000000,4.000000,4.000000,4.000000,4.000000,4.000000,4.000000,4.000000,4.000000,4.000000,100.000000
1602006584.385168,63.000000,0.000000,4115.897461,4109.230957,4138.974121,4121.538574,4120.000000,4120.512695,4124.615234,4128.205078,4123.077148,4105.641113,4111.282227,4154.358887,4088.205078,4136.410156,0.000000,4.000000,,,,0.000000,4.000000,4.000000,4.000000,4.000000,4.000000,4.000000,4.000000,4.000000,4.000000,4.000000,4.000000,4.000000,4.000000,4.000000,100.000000
1602006584.393049,64.000000,0.000000,4106.666504,4104.102539,4134.871582,4120.000000,4118.974121,4122.051270,4129.230957,4132.307617,4118.974121,4103.077148,4103.589844,4140.512695,4076.410156,4115.897461,786.000000,4.000000,,,,0.000000,4.000000,4.000000,4.000000,4.000000,4.000000,4.000000,4.000000,4.000000,4.000000,4.000000,4.000000,4.000000,4.000000,4.000000,100.000000
1602006584.401030,65.000000,0.000000,4108.205078,4106.666504,4135.384766,4120.000000,4118.461426,4129.230957,4137.436035,4137.948730,4116.410156,4103.077148,4098.974121,4136.410156,4077.948730,4102.563965,791.000000,4.000000,,,,0.000000,4.000000,4.000000,4.000000,4.000000,4.000000,4.000000,4.000000,4.000000,4.000000,4.000000,4.000000,4.000000,4.000000,4.000000,100.000000
1602006584.408911,66.000000,0.000000,4114.358887,4108.205078,4137.948730,4119.487305,4119.487305,4133.846191,4138.974121,4139.487305,4120.512695,4102.563965,4113.846191,4137.436035,4094.871826,4109.230957,850.000000,4.000000,,,,0.000000,4.000000,4.000000,4.000000,4.000000,4.000000,4.000000,4.000000,4.000000,4.000000,4.000000,4.000000,4.000000,4.000000,4.000000,100.000000
1602006584.416792,67.000000,0.000000,4120.000000,4111.794922,4140.512695,4121.025879,4123.077148,4132.307617,4136.410156,4133.333496,4127.692383,4114.871582,4128.717773,4136.410156,4106.153809,4129.743652,869.000000,4.000000,,,,0.000000,4.000000,4.000000,4.000000,4.000000,4.000000,4.000000,4.000000,4.000000,4.000000,4.000000,4.000000,4.000000,4.000000,4.000000,100.000000
1602006584.424673,68.000000,0.000000,4123.589844,4113.846191,4140.512695,4123.077148,4122.563965,4126.666504,4129.743652,4122.051270,4128.205078,4128.717773,4127.692383,4135.384766,4112.307617,4136.922852,814.000000,4.000000,,,,0.000000,4.000000,4.000000,4.000000,4.000000,4.000000,4.000000,4.000000,4.000000,4.000000,4.000000,4.000000,4.000000,4.000000,4.000000,100.000000
1602006584.432554,69.000000,0.000000,4119.487305,4113.846191,4138.974121,4125.128418,4122.563965,4124.615234,4122.051270,4112.820313,4125.128418,4114.871582,4125.641113,4137.436035,4125.128418,4135.384766,823.000000,4.000000,,,,0.000000,4.000000,4.000000,4.000000,4.000000,4.000000,4.000000,4.000000,4.000000,4.000000,4.000000,4.000000,4.000000,4.000000,4.000000,100.000000
1602006584.440435,70.000000,0.000000,4114.871582,4110.769043,4138.974121,4127.179688,4125.128418,4127.179688,4123.589844,4108.205078,4121.025879,4102.051270,4129.230957,4139.487305,4126.153809,4141.538574,775.000000,4.000000,,,,0.000000,4.000000,4.000000,4.000000,4.000000,4.000000,4.000000,4.000000,4.000000,4.000000,4.000000,4.000000,4.000000,4.000000,4.000000,100.000000
1602006584.448317,71.000000,0.000000,4105.128418,4095.897461,4138.461426,4119.487305,4116.922852,4124.102539,4131.282227,4108.717773,4117.436035,4123.077148,4124.615234,4137.436035,4109.743652,4136.922852,669.000000,4.000000,,,,0.000000,4.000000,4.000000,4.000000,4.000000,4.000000,4.000000,4.000000,4.000000,4.000000,4.000000,4.000000,4.000000,4.000000,4.000000,100.000000
1602006584.456198,72.000000,0.000000,4090.769287,4085.128174,4134.358887,4106.153809,4109.743652,4124.102539,4137.948730,4124.615234,4121.538574,4135.384766,4118.461426,4141.025879,4103.077148,4123.589844,786.000000,4.000000,,,,0.000000,4.000000,4.000000,4.000000,4.000000,4.000000,4.000000,4.000000,4.000000,4.000000,4.000000,4.000000,4.000000,4.000000,4.000000,100.000000
1602006584.464079,73.000000,0.000000,4092.307617,4088.718018,4133.333496,4105.641113,4117.436035,4137.436035,4142.563965,4145.128418,4134.358887,4120.512695,4121.025879,4152.820313,4109.743652,4124.615234,838.000000,4.000000,,,,0.000000,4.000000,4.000000,4.000000,4.000000,4.000000,4.000000,4.000000,4.000000,4.000000,4.000000,4.000000,4.000000,4.000000,4.000000,100.000000
1602006584.472060,74.000000,0.000000,4104.615234,4090.769287,4137.436035,4111.794922,4128.205078,4147.179688,4142.563965,4147.179688,4143.077148,4120.000000,4116.922852,4155.897461,4105.641113,4130.256348,871.000000,4.000000,,,,0.000000,4.000000,4.000000,4.000000,4.000000,4.000000,4.000000,4.000000,4.000000,4.000000,4.000000,4.000000,4.000000,4.000000,4.000000,100.000000
1602006584.479941,75.000000,0.000000,4106.153809,4092.307617,4132.820313,4111.282227,4126.666504,4144.615234,4138.461426,4138.461426,4137.436035,4125.641113,4104.102539,4141.538574,4095.384521,4127.692383,838.000000,4.000000,,,,0.000000,4.000000,4.000000,4.000000,4.000000,4.000000,4.000000,4.000000,4.000000,4.000000,4.000000,4.000000,4.000000,4.000000,4.000000,100.000000
1602006584.487822,76.000000,0.000000,4102.051270,4100.512695,4121.538574,4114.871582,4122.051270,4135.384766,4133.333496,4134.871582,4123.077148,4105.128418,4108.717773,4127.179688,4094.871826,4123.077148,767.000000,4.000000,,,,0.000000,4.000000,4.000000,4.000000,4.000000,4.000000,4.000000,4.000000,4.000000,4.000000,4.000000,4.000000,4.000000,4.000000,4.000000,100.000000
1602006584.495704,77.000000,0.000000,4103.077148,4105.128418,4117.436035,4123.589844,4127.179688,4128.205078,4127.692383,4136.922852,4115.897461,4102.051270,4132.307617,4128.205078,4103.589844,4122.051270,734.000000,4.000000,,,,0.000000,4.000000,4.000000,4.000000,4.000000,4.000000,4.000000,4.000000,4.000000,4.000000,4.000000,4.000000,4.000000,4.000000,4.000000,100.000000
1602006584.503585,78.000000,0.000000,4104.102539,4107.692383,4121.538574,4123.077148,4137.436035,4132.820313,4123.589844,4135.897461,4123.077148,4138.974121,4140.000000,4135.384766,4115.384766,4127.179688,871.000000,4.000000,,,,0.000000,4.000000,4.000000,4.000000,4.000000,4.000000,4.000000,4.000000,4.000000,4.000000,4.000000,4.000000,4.000000,4.000000,4.000000,100.000000
1602006584.511466,79.000000,0.000000,4111.794922,4118.461426,4129.230957,4121.025879,4137.948730,4138.461426,4127.692383,4134.871582,4127.692383,4157.436035,4137.436035,4138.461426,4124.102539,4139.487305,838.000000,4.000000,,,,0.000000,4.000000,4.000000,4.000000,4.000000,4.000000,4.000000,4.000000,4.000000,4.000000,4.000000,4.000000,4.000000,4.000000,4.000000,100.000000
1602006584.519347,80.000000,0.000000,4123.077148,4122.051270,4135.897461,4124.102539,4128.205078,4135.384766,4134.871582,4138.461426,4121.538574,4151.282227,4138.461426,4137.948730,4127.179688,4138.974121,767.000000,4.000000,,,,0.000000,4.000000,4.000000,4.000000,4.000000,4.000000,4.000000,4.000000,4.000000,4.000000,4.000000,4.000000,4.000000,4.000000,4.000000,100.000000
1602006584.527228,81.000000,0.000000,4122.563965,4111.794922,4143.077148,4125.128418,4122.051270,4134.358887,4136.922852,4140.512695,4126.153809,4150.256348,4136.410156,4143.589844,4123.589844,4126.666504,734.000000,4.000000,,,,0.000000,4.000000,4.000000,4.000000,4.000000,4.000000,4.000000,4.000000,4.000000,4.000000,4.000000,4.000000,4.000000,4.000000,4.000000,100.000000
1602006584.535109,82.000000,0.000000,4119.487305,4109.743652,4151.794922,4123.589844,4119.487305,4135.897461,4138.974121,4140.512695,4141.025879,4149.230957,4135.384766,4152.307617,4124.615234,4134.358887,871.000000,4.000000,,,,0.000000,4.000000,4.000000,4.000000,4.000000,4.000000,4.000000,4.000000,4.000000,4.000000,4.000000,4.000000,4.000000,4.000000,4.000000,100.000000
1602006584.542990,83.000000,0.000000,4130.769043,4119.487305,4157.436035,4127.179688,4118.974121,4130.256348,4140.000000,4140.512695,4133.846191,4141.538574,4143.589844,4156.410156,4135.384766,4154.871582,838.000000,4.000000,,,,0.000000,4.000000,4.000000,4.000000,4.000000,4.000000,4.000000,4.000000,4.000000,4.000000,4.000000,4.000000,4.000000,4.000000,4.000000,100.000000
1602006584.550772,84.000000,0.000000,4140.512695,4117.948730,4151.794922,4130.769043,4124.102539,4123.077148,4131.282227,4132.307617,4107.179688,4126.666504,4141.025879,4152.820313,4134.871582,4156.410156,767.000000,4.000000,,,,0.000000,4.000000,4.000000,4.000000,4.000000,4.000000,4.000000,4.000000,4.000000,4.000000,4.000000,4.000000,4.000000,4.000000,4.000000,100.000000
1602006584.558652,85.000000,0.000000,4128.205078,4106.666504,4141.025879,4126.153809,4124.102539,4121.025879,4120.000000,4118.974121,4097.948730,4117.948730,4121.538574,4142.563965,4113.846191,4143.589844,734.000000,4.000000,,,,0.000000,4.000000,4.000000,4.000000,4.000000,4.000000,4.000000,4.000000,4.000000,4.000000,4.000000,4.000000,4.000000,4.000000,4.000000,100.000000
1602006584.566533,86.000000,0.000000,4116.922852,4105.128418,4137.948730,4121.538574,4123.589844,4116.410156,4118.974121,4117.948730,4106.153809,4127.692383,4114.871582,4132.307617,4101.538574,4136.922852,871.000000,4.000000,,,,0.000000,4.000000,4.000000,4.000000,4.000000,4.000000,4.000000,4.000000,4.000000,4.000000,4.000000,4.000000,4.000000,4.000000,4.000000,100.000000
1602006584.574414,87.000000,0.000000,4125.128418,4110.769043,4135.897461,4123.589844,4131.282227,4116.922852,4121.538574,4123.077148,4103.589844,4128.717773,4124.615234,4123.077148,4105.641113,4126.666504,838.000000,4.000000,,,,0.000000,4.000000,4.000000,4.000000,4.000000,4.000000,4.000000,4.000000,4.000000,4.000000,4.000000,4.000000,4.000000,4.000000,4.000000,100.000000
1602006584.582295,88.000000,0.000000,4119.487305,4110.769043,4129.230957,4121.025879,4134.358887,4122.051270,4119.487305,4121.025879,4100.512695,4110.769043,4118.461426,4111.282227,4094.358887,4107.179688,767.000000,4.000000,,,,0.000000,4.000000,4.000000,4.000000,4.000000,4.000000,4.000000,4.000000,4.000000,4.000000,4.000000,4.000000,4.000000,4.000000,4.000000,100.000000
1602006584.590176,89.000000,0.000000,4094.871826,4106.666504,4121.538574,4116.410156,4124.615234,4122.563965,4122.051270,4124.615234,4112.820313,4120.000000,4105.128418,4106.153809,4085.641113,4104.615234,734.000000,4.000000,,,,0.000000,4.000000,4.000000,4.000000,4.000000,4.000000,4.000000,4.000000,4.000000,4.000000,4.000000,4.000000,4.000000,4.000000,4.000000,100.000000
1602006584.598057,90.000000,0.000000,4093.333252,4105.641113,4120.512695,4120.000000,4121.025879,4126.153809,4127.692383,4136.410156,4126.153809,4150.256348,4120.512695,4116.410156,4112.820313,4117.436035,871.000000,4.000000,,,,0.000000,4.000000,4.000000,4.000000,4.000000,4.000000,4.000000,4.000000,4.000000,4.000000,4.000000,4.000000,4.000000,4.000000,4.000000,100.000000
1602006584.605938,91.000000,0.000000,4107.692383,4106.666504,4127.179688,4121.538574,4131.282227,4138.461426,4126.666504,4138.461426,4134.871582,4156.922852,4149.230957,4130.256348,4141.538574,4129.743652,838.000000,4.000000,,,,0.000000,4.000000,4.000000,4.000000,4.000000,4.000000,4.000000,4.000000,4.000000,4.000000,4.000000,4.000000,4.000000,4.000000,4.000000,100.000000
1602006584.613919,92.000000,0.000000,4110.256348,4108.717773,4135.897461,4121.538574,4137.436035,4142.563965,4129.230957,4138.461426,4138.461426,4149.230957,4158.974121,4137.436035,4141.538574,4144.615234,767.000000,4.000000,,,,0.000000,4.000000,4.000000,4.000000,4.000000,4.000000,4.000000,4.000000,4.000000,4.000000,4.000000,4.000000,4.000000,4.000000,4.000000,100.000000
1602006584.621800,93.000000,0.000000,4114.358887,4109.230957,4138.461426,4127.692383,4134.871582,4136.922852,4135.384766,4141.538574,4135.897461,4145.641113,4151.794922,4141.538574,4137.436035,4154.871582,734.000000,4.000000,,,,0.000000,4.000000,4.000000,4.000000,4.000000,4.000000,4.000000,4.000000,4.000000,4.000000,4.000000,4.000000,4.000000,4.000000,4.000000,100.000000
1602006584.629681,94.000000,0.000000,4120.000000,4105.641113,4132.307617,4127.179688,4135.897461,4135.384766,4131.282227,4140.000000,4134.358887,4141.538574,4142.051270,4141.025879,4135.897461,4142.051270,871.000000,4.000000,,,,0.000000,4.000000,4.000000,4.000000,4.000000,4.000000,4.000000,4.000000,4.000000,4.000000,4.000000,4.000000,4.000000,4.000000,4.000000,100.000000
1602006584.637562,95.000000,0.000000,4113.333496,4104.102539,4127.179688,4120.512695,4136.922852,4136.922852,4125.128418,4139.487305,4134.358887,4142.563965,4124.102539,4137.436035,4121.538574,4125.128418,838.000000,4.000000,,,,0.000000,4.000000,4.000000,4.000000,4.000000,4.000000,4.000000,4.000000,4.000000,4.000000,4.000000,4.000000,4.000000,4.000000,4.000000,100.000000
1602006584.645443,96.000000,0.000000,4097.436035,4104.615234,4124.102539,4119.487305,4130.256348,4133.333496,4127.692383,4140.512695,4125.641113,4135.897461,4105.128418,4135.384766,4103.589844,4122.563965,767.000000,4.000000,,,,0.000000,4.000000,4.000000,4.000000,4.000000,4.000000,4.000000,4.000000,4.000000,4.000000,4.000000,4.000000,4.000000,4.000000,4.000000,100.000000
1602006584.653323,97.000000,0.000000,4086.666748,4106.153809,4123.077148,4121.025879,4122.563965,4124.615234,4126.666504,4134.358887,4113.846191,4121.538574,4104.102539,4134.358887,4101.538574,4119.487305,734.000000,4.000000,,,,0.000000,4.000000,4.000000,4.000000,4.000000,4.000000,4.000000,4.000000,4.000000,4.000000,4.000000,4.000000,4.000000,4.000000,4.000000,100.000000
1602006584.661305,98.000000,0.000000,4099.487305,4112.820313,4130.769043,4127.692383,4123.589844,4114.358887,4124.615234,4136.410156,4122.051270,4128.205078,4116.410156,4140.512695,4111.282227,4127.179688,871.000000,4.000000,,,,0.000000,4.000000,4.000000,4.000000,4.000000,4.000000,4.000000,4.000000,4.000000,4.000000,4.000000,4.000000,4.000000,4.000000,4.000000,100.000000
1602006584.669186,99.000000,0.000000,4124.102539,4123.589844,4146.666504,4135.897461,4131.794922,4116.922852,4133.846191,4151.794922,4138.461426,4142.051270,4134.358887,4152.820313,4124.102539,4145.128418,838.000000,4.000000,,,,0.000000,4.000000,4.000000,4.000000,4.000000,4.000000,4.000000,4.000000,4.000000,4.000000,4.000000,4.000000,4.000000,4.000000,4.000000,100.000000
1602006584.677067,100.000000,0.000000,4128.717773,4130.769043,4156.410156,4136.410156,4135.897461,4131.794922,4138.461426,4155.897461,4132.820313,4130.769043,4149.743652,4157.436035,4133.846191,4148.717773,767.000000,4.000000,,,,0.000000,4.000000,4.000000,4.000000,4.000000,4.000000,4.000000,4.000000,4.000000,4.000000,4.000000,4.000000,4.000000,4.000000,4.000000,100.000000
1602006584.684948,101.000000,0.000000,4119.487305,4130.256348,4148.717773,4136.410156,4136.922852,4137.436035,4128.205078,4149.230957,4124.102539,4124.102539,4155.897461,4150.769043,4134.871582,4141.025879,734.000000,4.000000,,,,0.000000,4.000000,4.000000,4.000000,4.000000,4.000000,4.000000,4.000000,4.000000,4.000000,4.000000,4.000000,4.000000,4.000000,4.000000,100.000000
1602006584.692829,102.000000,0.000000,4120.000000,4122.563965,4145.128418,4136.922852,4137.436035,4135.384766,4125.641113,4151.282227,4136.922852,4149.743652,4156.922852,4145.128418,4130.769043,4136.922852,871.000000,4.000000,,,,0.000000,4.000000,4.000000,4.000000,4.000000,4.000000,4.000000,4.000000,4.000000,4.000000,4.000000,4.000000,4.000000,4.000000,4.000000,100.000000
1602006584.700710,103.000000,0.000000,4122.051270,4116.922852,4150.256348,4128.717773,4131.282227,4137.436035,4133.333496,4152.307617,4140.512695,4162.051270,4151.282227,4141.025879,4128.205078,4143.589844,838.000000,4.000000,,,,0.000000,4.000000,4.000000,4.000000,4.000000,4.000000,4.000000,4.000000,4.000000,4.000000,4.000000,4.000000,4.000000,4.000000,4.000000,100.000000
1602006584.708592,104.000000,0.000000,4123.077148,4117.948730,4145.641113,4120.512695,4121.538574,4137.436035,4133.333496,4140.000000,4122.051270,4138.461426,4135.897461,4137.948730,4123.589844,4152.820313,767.000000,4.000000,,,,0.000000,4.000000,4.000000,4.000000,4.000000,4.000000,4.000000,4.000000,4.000000,4.000000,4.000000,4.000000,4.000000,4.000000,4.000000,100.000000
1602006584.716473,105.000000,0.000000,4132.307617,4121.538574,4141.538574,4126.153809,4119.487305,4133.846191,4126.666504,4133.333496,4116.410156,4131.794922,4135.897461,4142.051270,4122.563965,4155.897461,734.000000,4.000000,,,,0.000000,4.000000,4.000000,4.000000,4.000000,4.000000,4.000000,4.000000,4.000000,4.000000,4.000000,4.000000,4.000000,4.000000,4.000000,100.000000
1602006584.724354,106.000000,0.000000,4148.205078,4126.666504,4150.769043,4136.410156,4127.692383,4131.794922,4123.077148,4141.538574,4123.589844,4147.692383,4153.333496,4150.256348,4138.974121,4162.563965,871.000000,4.000000,,,,0.000000,4.000000,4.000000,4.000000,4.000000,4.000000,4.000000,4.000000,4.000000,4.000000,4.000000,4.000000,4.000000,4.000000,4.000000,100.000000
1602006584.732135,107.000000,0.000000,4160.000000,4136.922852,4158.974121,4141.025879,4133.846191,4129.743652,4127.692383,4147.179688,4127.179688,4142.051270,4160.000000,4155.897461,4157.948730,4172.820313,838.000000,4.000000,,,,0.000000,4.000000,4.000000,4.000000,4.000000,4.000000,4.000000,4.000000,4.000000,4.000000,4.000000,4.000000,4.000000,4.000000,4.000000,100.000000
1602006584.740016,108.000000,0.000000,4160.512695,4142.563965,4157.948730,4142.563965,4135.384766,4124.615234,4135.384766,4141.538574,4125.641113,4124.615234,4155.897461,4151.282227,4151.282227,4165.128418,767.000000,4.000000,,,,0.000000,4.000000,4.000000,4.000000,4.000000,4.000000,4.000000,4.000000,4.000000,4.000000,4.000000,4.000000,4.000000,4.000000,4.000000,100.000000
1602006584.747897,109.000000,0.000000,4147.179688,4137.436035,4150.769043,4138.461426,4136.410156,4121.025879,4129.743652,4135.897461,4121.538574,4131.794922,4150.769043,4138.974121,4136.410156,4142.051270,734.000000,4.000000,,,,0.000000,4.000000,4.000000,4.000000,4.000000,4.000000,4.000000,4.000000,4.000000,4.000000,4.000000,4.000000,4.000000,4.000000,4.000000,100.000000
1602006584.755778,110.000000,0.000000,4131.794922,4133.333496,4140.000000,4127.179688,4135.897461,4127.179688,4123.589844,4136.410156,4126.666504,4152.820313,4140.512695,4134.871582,4135.897461,4128.717773,871.000000,4.000000,,,,0.000000,4.000000,4.000000,4.000000,4.000000,4.000000,4.000000,4.000000,4.000000,4.000000,4.000000,4.000000,4.000000,4.000000,4.000000,100.000000
1602006584.763659,111.000000,0.000000,4130.256348,4136.410156,4133.333496,4122.563965,4136.922852,4138.461426,4133.846191,4137.436035,4137.436035,4155.384766,4132.820313,4135.384766,4135.897461,4130.769043,838.000000,4.000000,,,,0.000000,4.000000,4.000000,4.000000,4.000000,4.000000,4.000000,4.000000,4.000000,4.000000,4.000000,4.000000,4.000000,4.000000,4.000000,100.000000
1602006584.771539,112.000000,0.000000,4141.025879,4138.974121,4133.333496,4132.307617,4139.487305,4140.512695,4135.384766,4136.410156,4136.922852,4139.487305,4137.948730,4135.897461,4133.333496,4145.641113,767.000000,4.000000,,,,0.000000,4.000000,4.000000,4.000000,4.000000,4.000000,4.000000,4.000000,4.000000,4.000000,4.000000,4.000000,4.000000,4.000000,4.000000,100.000000
1602006584.779520,113.000000,0.000000,4152.307617,4138.461426,4139.487305,4139.487305,4138.974121,4137.948730,4128.205078,4137.948730,4136.922852,4139.487305,4151.282227,4143.589844,4145.641113,4163.589844,734.000000,4.000000,,,,0.000000,4.000000,4.000000,4.000000,4.000000,4.000000,4.000000,4.000000,4.000000,4.000000,4.000000,4.000000,4.000000,4.000000,4.000000,100.000000
1602006584.787401,114.000000,0.000000,4158.974121,4141.025879,4149.743652,4137.948730,4137.948730,4136.410156,4135.384766,4139.487305,4137.948730,4158.974121,4160.000000,4151.794922,4161.538574,4172.307617,871.000000,4.000000,,,,0.000000,4.000000,4.000000,4.000000,4.000000,4.000000,4.000000,4.000000,4.000000,4.000000,4.000000,4.000000,4.000000,4.000000,4.000000,100.000000
1602006584.795282,115.000000,0.000000,4164.615234,4143.589844,4161.538574,4137.436035,4133.846191,4128.717773,4136.922852,4136.922852,4125.641113,4155.384766,4150.769043,4151.794922,4158.974121,4173.333496,838.000000,4.000000,,,,0.000000,4.000000,4.000000,4.000000,4.000000,4.000000,4.000000,4.000000,4.000000,4.000000,4.000000,4.000000,4.000000,4.000000,4.000000,100.000000
1602006584.803163,116.000000,0.000000,4163.077148,4139.487305,4166.153809,4138.461426,4124.615234,4118.974121,4125.128418,4135.384766,4112.307617,4126.666504,4139.487305,4149.743652,4150.256348,4166.666504,767.000000,4.000000,,,,0.000000,4.000000,4.000000,4.000000,4.000000,4.000000,4.000000,4.000000,4.000000,4.000000,4.000000,4.000000,4.000000,4.000000,4.000000,100.000000
1602006584.811044,117.000000,0.000000,4148.205078,4131.794922,4160.512695,4137.436035,4118.974121,4120.000000,4124.615234,4136.410156,4108.205078,4118.974121,4141.025879,4146.153809,4145.128418,4154.358887,734.000000,4.000000,,,,0.000000,4.000000,4.000000,4.000000,4.000000,4.000000,4.000000,4.000000,4.000000,4.000000,4.000000,4.000000,4.000000,4.000000,4.000000,100.000000
1602006584.818925,118.000000,0.000000,4138.461426,4128.717773,4151.794922,4134.871582,4122.563965,4123.077148,4128.717773,4137.948730,4115.897461,4132.820313,4142.051270,4143.589844,4137.948730,4151.794922,871.000000,4.000000,,,,0.000000,4.000000,4.000000,4.000000,4.000000,4.000000,4.000000,4.000000,4.000000,4.000000,4.000000,4.000000,4.000000,4.000000,4.000000,100.000000
1602006584.826706,119.000000,0.000000,4147.692383,4133.333496,4153.846191,4134.871582,4127.692383,4120.512695,4122.051270,4139.487305,4135.384766,4136.922852,4140.000000,4151.282227,4133.846191,4158.974121,838.000000,4.000000,,,,0.000000,4.000000,4.000000,4.000000,4.000000,4.000000,4.000000,4.000000,4.000000,4.000000,4.000000,4.000000,4.000000,4.000000,4.000000,100.000000
1602006584.834587,120.000000,0.000000,4155.897461,4137.948730,4159.487305,4136.410156,4127.692383,4121.025879,4117.436035,4140.000000,4141.025879,4134.871582,4142.563965,4158.461426,4141.538574,4157.948730,767.000000,4.000000,,,,0.000000,4.000000,4.000000,4.000000,4.000000,4.000000,4.000000,4.000000,4.000000,4.000000,4.000000,4.000000,4.000000,4.000000,4.000000,100.000000
1602006584.842468,121.000000,0.000000,4152.820313,4137.436035,4156.410156,4137.948730,4131.282227,4128.717773,4122.051270,4141.538574,4133.846191,4148.205078,4149.230957,4158.461426,4152.820313,4157.436035,734.000000,4.000000,,,,0.000000,4.000000,4.000000,4.000000,4.000000,4.000000,4.000000,4.000000,4.000000,4.000000,4.000000,4.000000,4.000000,4.000000,4.000000,100.000000
1602006584.850349,122.000000,0.000000,4152.820313,4137.948730,4153.846191,4140.000000,4138.461426,4135.384766,4127.179688,4143.589844,4138.461426,4160.512695,4156.410156,4159.487305,4156.922852,4168.205078,871.000000,4.000000,,,,0.000000,4.000000,4.000000,4.000000,4.000000,4.000000,4.000000,4.000000,4.000000,4.000000,4.000000,4.000000,4.000000,4.000000,4.000000,100.000000
1602006584.858230,123.000000,0.000000,4156.922852,4139.487305,4153.333496,4139.487305,4134.871582,4136.410156,4129.743652,4136.410156,4140.000000,4152.307617,4162.563965,4155.897461,4155.897461,4175.384766,838.000000,4.000000,,,,0.000000,4.000000,4.000000,4.000000,4.000000,4.000000,4.000000,4.000000,4.000000,4.000000,4.000000,4.000000,4.000000,4.000000,4.000000,100.000000
1602006584.866111,124.000000,0.000000,4152.820313,4138.461426,4150.769043,4135.897461,4126.153809,4134.358887,4133.333496,4127.692383,4125.641113,4134.871582,4155.897461,4147.179688,4154.358887,4167.179688,767.000000,4.000000,,,,0.000000,4.000000,4.000000,4.000000,4.000000,4.000000,4.000000,4.000000,4.000000,4.000000,4.000000,4.000000,4.000000,4.000000,4.000000,100.000000
1602006584.873992,125.000000,0.000000,4142.051270,4137.948730,4147.692383,4135.384766,4128.205078,4130.256348,4139.487305,4127.692383,4113.333496,4112.820313,4141.025879,4141.025879,4145.641113,4155.384766,734.000000,4.000000,,,,0.000000,4.000000,4.000000,4.000000,4.000000,4.000000,4.000000,4.000000,4.000000,4.000000,4.000000,4.000000,4.000000,4.000000,4.000000,100.000000
1602006584.881872,126.000000,0.000000,4139.487305,4134.358887,4147.692383,4138.461426,4131.282227,4124.102539,4136.410156,4125.641113,4107.692383,4102.051270,4137.436035,4135.897461,4135.384766,4150.256348,871.000000,4.000000,,,,0.000000,4.000000,4.000000,4.000000,4.000000,4.000000,4.000000,4.000000,4.000000,4.000000,4.000000,4.000000,4.000000,4.000000,4.000000,100.000000
1602006584.889854,127.000000,0.000000,4143.077148,4127.179688,4151.282227,4140.512695,4125.128418,4120.000000,4125.128418,4120.000000,4103.077148,4118.461426,4141.538574,4134.358887,4136.410156,4149.743652,838.000000,4.000000,,,,0.000000,4.000000,4.000000,4.000000,4.000000,4.000000,4.000000,4.000000,4.000000,4.000000,4.000000,4.000000,4.000000,4.000000,4.000000,100.000000
1602006584.897735,128.000000,0.000000,4141.538574,4124.102539,4155.897461,4136.922852,4125.641113,4120.000000,4121.538574,4121.538574,4095.897461,4127.179688,4140.000000,4135.897461,4133.333496,4152.307617,767.000000,4.000000,,,,0.000000,4.000000,4.000000,4.000000,4.000000,4.000000,4.000000,4.000000,4.000000,4.000000,4.000000,4.000000,4.000000,4.000000,4.000000,100.000000
1602006584.905616,0.000000,0.000000,4143.077148,4123.077148,4153.846191,4130.256348,4130.769043,4126.153809,4125.641113,4128.205078,4096.922852,4124.102539,4133.333496,4136.410156,4125.641113,4152.307617,787.000000,4.000000,,,,0.000000,4.000000,4.000000,4.000000,4.000000,4.000000,4.000000,4.000000,4.000000,4.000000,4.000000,4.000000,4.000000,4.000000,4.000000,100.000000
1602006584.913497,1.000000,0.000000,4145.641113,4121.025879,4146.153809,4125.641113,4126.153809,4135.897461,4130.256348,4130.769043,4114.358887,4127.692383,4136.410156,4134.358887,4125.641113,4149.230957,791.000000,4.000000,,,,0.000000,4.000000,4.000000,4.000000,4.000000,4.000000,4.000000,4.000000,4.000000,4.000000,4.000000,4.000000,4.000000,4.000000,4.000000,100.000000
1602006584.921378,2.000000,0.000000,4140.512695,4122.051270,4146.666504,4125.641113,4121.538574,4138.974121,4132.820313,4133.846191,4120.000000,4116.410156,4143.589844,4135.384766,4126.666504,4150.256348,850.000000,4.000000,,,,0.000000,4.000000,4.000000,4.000000,4.000000,4.000000,4.000000,4.000000,4.000000,4.000000,4.000000,4.000000,4.000000,4.000000,4.000000,100.000000
1602006584.929259,3.000000,0.000000,4138.461426,4124.102539,4153.846191,4124.102539,4125.128418,4139.487305,4137.948730,4138.974121,4106.666504,4108.205078,4141.025879,4140.000000,4132.307617,4156.922852,869.000000,4.000000,,,,0.000000,4.000000,4.000000,4.000000,4.000000,4.000000,4.000000,4.000000,4.000000,4.000000,4.000000,4.000000,4.000000,4.000000,4.000000,100.000000
1602006584.937141,4.000000,0.000000,4140.512695,4124.102539,4150.256348,4121.538574,4126.153809,4141.025879,4141.538574,4137.436035,4105.641113,4120.000000,4134.871582,4140.512695,4135.384766,4147.179688,814.000000,4.000000,,,,0.000000,4.000000,4.000000,4.000000,4.000000,4.000000,4.000000,4.000000,4.000000,4.000000,4.000000,4.000000,4.000000,4.000000,4.000000,100.000000
1602006584.945022,5.000000,0.000000,4140.000000,4130.769043,4145.128418,4128.205078,4126.666504,4141.538574,4137.436035,4128.205078,4108.205078,4110.769043,4136.410156,4136.922852,4122.563965,4130.769043,823.000000,4.000000,,,,0.000000,4.000000,4.000000,4.000000,4.000000,4.000000,4.000000,4.000000,4.000000,4.000000,4.000000,4.000000,4.000000,4.000000,4.000000,100.000000
1602006584.952903,6.000000,0.000000,4146.153809,4140.000000,4154.871582,4137.948730,4135.384766,4136.410156,4134.871582,4122.563965,4105.128418,4107.179688,4144.102539,4143.077148,4119.487305,4142.563965,771.000000,4.000000,,,,0.000000,4.000000,4.000000,4.000000,4.000000,4.000000,4.000000,4.000000,4.000000,4.000000,4.000000,4.000000,4.000000,4.000000,4.000000,100.000000
1602006584.960884,7.000000,0.000000,4153.846191,4140.000000,4160.000000,4140.000000,4140.000000,4124.102539,4135.897461,4123.589844,4112.820313,4131.282227,4146.153809,4152.307617,4137.948730,4157.948730,669.000000,4.000000,,,,0.000000,4.000000,4.000000,4.000000,4.000000,4.000000,4.000000,4.000000,4.000000,4.000000,4.000000,4.000000,4.000000,4.000000,4.000000,100.000000
1602006584.968765,8.000000,0.000000,4158.461426,4138.974121,4152.307617,4138.461426,4137.436035,4121.025879,4131.794922,4122.563965,4121.025879,4132.307617,4144.102539,4155.897461,4146.153809,4150.769043,786.000000,4.000000,,,,0.000000,4.000000,4.000000,4.000000,4.000000,4.000000,4.000000,4.000000,4.000000,4.000000,4.000000,4.000000,4.000000,4.000000,4.000000,100.000000
1602006584.976646,9.000000,0.000000,4157.948730,4137.948730,4151.794922,4134.358887,4134.871582,4129.230957,4125.641113,4122.563965,4114.871582,4113.846191,4144.102539,4158.974121,4140.512695,4151.794922,838.000000,4.000000,,,,0.000000,4.000000,4.000000,4.000000,4.000000,4.000000,4.000000,4.000000,4.000000,4.000000,4.000000,4.000000,4.000000,4.000000,4.000000,100.000000
1602006584.984527,10.000000,0.000000,4143.077148,4124.615234,4153.846191,4124.615234,4128.717773,4128.717773,4124.615234,4122.563965,4106.666504,4106.666504,4144.615234,4158.461426,4135.897461,4153.846191,871.000000,4.000000,,,,0.000000,4.000000,4.000000,4.000000,4.000000,4.000000,4.000000,4.000000,4.000000,4.000000,4.000000,4.000000,4.000000,4.000000,4.000000,100.000000
1602006584.992409,11.000000,0.000000,4131.794922,4115.384766,4146.153809,4118.461426,4122.051270,4129.230957,4125.128418,4122.051270,4110.769043,4105.128418,4142.051270,4151.282227,4128.717773,4143.077148,838.000000,4.000000,,,,0.000000,4.000000,4.000000,4.000000,4.000000,4.000000,4.000000,4.000000,4.000000,4.000000,4.000000,4.000000,4.000000,4.000000,4.000000,100.000000
1602006585.000290,12.000000,0.000000,4137.948730,4120.512695,4138.461426,4121.025879,4123.077148,4139.487305,4126.666504,4123.589844,4122.051270,4114.871582,4140.512695,4145.641113,4126.153809,4136.410156,767.000000,4.000000,,,,0.000000,4.000000,4.000000,4.000000,4.000000,4.000000,4.000000,4.000000,4.000000,4.000000,4.000000,4.000000,4.000000,4.000000,4.000000,100.000000
1602006585.008171,13.000000,0.000000,4135.384766,4118.461426,4135.897461,4121.538574,4122.563965,4134.358887,4126.153809,4117.948730,4123.077148,4121.025879,4141.025879,4139.487305,4125.128418,4128.717773,734.000000,4.000000,,,,0.000000,4.000000,4.000000,4.000000,4.000000,4.000000,4.000000,4.000000,4.000000,4.000000,4.000000,4.000000,4.000000,4.000000,4.000000,100.000000
1602006585.016052,14.000000,0.000000,4124.102539,4114.358887,4135.897461,4121.538574,4118.974121,4121.025879,4123.589844,4109.230957,4118.461426,4105.641113,4136.922852,4136.922852,4121.538574,4123.589844,871.000000,4.000000,,,,0.000000,4.000000,4.000000,4.000000,4.000000,4.000000,4.000000,4.000000,4.000000,4.000000,4.000000,4.000000,4.000000,4.000000,4.000000,100.000000
1602006585.023933,15.000000,0.000000,4131.282227,4128.205078,4137.436035,4127.692383,4120.512695,4121.538574,4121.538574,4114.358887,4124.102539,4101.538574,4136.922852,4145.128418,4128.717773,4136.410156,838.000000,4.000000,,,,0.000000,4.000000,4.000000,4.000000,4.000000,4.000000,4.000000,4.000000,4.000000,4.000000,4.000000,4.000000,4.000000,4.000000,4.000000,100.000000
1602006585.031914,16.000000,0.000000,4144.102539,4142.051270,4140.000000,4136.410156,4127.179688,4124.615234,4120.000000,4120.512695,4123.589844,4121.538574,4144.615234,4148.717773,4141.025879,4147.692383,0.000000,4.000000,,,,0.000000,4.000000,4.000000,4.000000,4.000000,4.000000,4.000000,4.000000,4.000000,4.000000,4.000000,4.000000,4.000000,4.000000,4.000000,100.000000
1602006585.039795,17.000000,0.000000,4145.641113,4140.000000,4140.512695,4141.025879,4133.333496,4120.512695,4119.487305,4111.282227,4109.743652,4126.153809,4141.025879,4140.000000,4142.563965,4143.077148,0.000000,4.000000,,,,0.000000,4.000000,4.000000,4.000000,4.000000,4.000000,4.000000,4.000000,4.000000,4.000000,4.000000,4.000000,4.000000,4.000000,4.000000,100.000000
1602006585.047677,18.000000,0.000000,4143.589844,4133.846191,4135.384766,4140.512695,4136.922852,4124.102539,4119.487305,4103.589844,4106.153809,4112.307617,4133.333496,4135.384766,4137.436035,4134.358887,0.000000,4.000000,,,,0.000000,4.000000,4.000000,4.000000,4.000000,4.000000,4.000000,4.000000,4.000000,4.000000,4.000000,4.000000,4.000000,4.000000,4.000000,100.000000
1602006585.055558,19.000000,0.000000,4135.897461,4128.717773,4124.615234,4133.846191,4136.922852,4130.769043,4113.333496,4105.641113,4106.153809,4115.384766,4140.000000,4135.897461,4136.922852,4126.666504,0.000000,4.000000,,,,0.000000,4.000000,4.000000,4.000000,4.000000,4.000000,4.000000,4.000000,4.000000,4.000000,4.000000,4.000000,4.000000,4.000000,4.000000,100.000000
1602006585.063439,20.000000,0.000000,4123.077148,4123.589844,4112.820313,4125.641113,4128.205078,4127.692383,4109.743652,4107.179688,4106.666504,4128.205078,4150.256348,4131.282227,4137.436035,4129.230957,0.000000,4.000000,,,,0.000000,4.000000,4.000000,4.000000,4.000000,4.000000,4.000000,4.000000,4.000000,4.000000,4.000000,4.000000,4.000000,4.000000,4.000000,100.000000
1602006585.071320,21.000000,0.000000,4121.025879,4122.563965,4111.282227,4122.051270,4125.128418,4128.205078,4115.897461,4114.871582,4117.948730,4126.666504,4151.282227,4126.153809,4137.436035,4132.820313,0.000000,4.000000,,,,0.000000,4.000000,4.000000,4.000000,4.000000,4.000000,4.000000,4.000000,4.000000,4.000000,4.000000,4.000000,4.000000,4.000000,4.000000,100.000000
1602006585.079201,22.000000,0.000000,4131.282227,4130.256348,4121.025879,4125.128418,4134.871582,4141.025879,4122.563965,4125.641113,4131.282227,4121.025879,4155.897461,4129.743652,4142.563965,4123.077148,0.000000,4.000000,,,,0.000000,4.000000,4.000000,4.000000,4.000000,4.000000,4.000000,4.000000,4.000000,4.000000,4.000000,4.000000,4.000000,4.000000,4.000000,100.000000
1602006585.087082,23.000000,0.000000,4135.897461,4133.846191,4123.589844,4129.743652,4135.897461,4144.102539,4122.051270,4124.102539,4126.153809,4122.051270,4153.846191,4132.820313,4142.563965,4116.410156,0.000000,4.000000,,,,0.000000,4.000000,4.000000,4.000000,4.000000,4.000000,4.000000,4.000000,4.000000,4.000000,4.000000,4.000000,4.000000,4.000000,4.000000,100.000000
1602006585.094964,24.000000,0.000000,4135.897461,4132.307617,4121.538574,4134.871582,4126.153809,4133.333496,4118.974121,4118.461426,4113.333496,4115.897461,4130.769043,4129.230957,4130.256348,4120.512695,0.000000,4.000000,,,,0.000000,4.000000,4.000000,4.000000,4.000000,4.000000,4.000000,4.000000,4.000000,4.000000,4.000000,4.000000,4.000000,4.000000,4.000000,100.000000
1602006585.102944,25.000000,0.000000,4138.461426,4133.333496,4130.769043,4136.410156,4126.666504,4135.384766,4120.512695,4120.000000,4111.794922,4108.717773,4116.410156,4125.128418,4121.538574,4124.615234,0.000000,4.000000,,,,0.000000,4.000000,4.000000,4.000000,4.000000,4.000000,4.000000,4.000000,4.000000,4.000000,4.000000,4.000000,4.000000,4.000000,4.000000,100.000000
1602006585.110825,26.000000,0.000000,4134.871582,4130.256348,4135.384766,4129.743652,4129.230957,4134.358887,4126.666504,4120.512695,4110.256348,4100.000000,4127.179688,4127.179688,4119.487305,4120.000000,0.000000,4.000000,,,,0.000000,4.000000,4.000000,4.000000,4.000000,4.000000,4.000000,4.000000,4.000000,4.000000,4.000000,4.000000,4.000000,4.000000,4.000000,100.000000
1602006585.118706,27.000000,0.000000,4134.871582,4126.666504,4132.820313,4129.743652,4124.615234,4124.102539,4130.769043,4120.512695,4109.743652,4092.820557,4139.487305,4133.846191,4120.000000,4118.461426,0.000000,4.000000,,,,0.000000,4.000000,4.000000,4.000000,4.000000,4.000000,4.000000,4.000000,4.000000,4.000000,4.000000,4.000000,4.000000,4.000000,4.000000,100.000000
1602006585.126587,28.000000,0.000000,4146.153809,4135.384766,4141.538574,4138.974121,4126.666504,4129.230957,4130.256348,4121.025879,4114.358887,4109.230957,4142.051270,4142.051270,4130.769043,4131.794922,0.000000,4.000000,,,,0.000000,4.000000,4.000000,4.000000,4.000000,4.000000,4.000000,4.000000,4.000000,4.000000,4.000000,4.000000,4.000000,4.000000,4.000000,100.000000
1602006585.134468,29.000000,0.000000,4145.128418,4140.000000,4147.179688,4140.512695,4127.692383,4138.974121,4122.051270,4112.820313,4113.333496,4128.717773,4135.384766,4142.051270,4134.358887,4138.461426,0.000000,4.000000,,,,0.000000,4.000000,4.000000,4.000000,4.000000,4.000000,4.000000,4.000000,4.000000,4.000000,4.000000,4.000000,4.000000,4.000000,4.000000,100.000000
1602006585.142349,30.000000,0.000000,4138.974121,4134.358887,4139.487305,4137.948730,4126.666504,4137.948730,4115.897461,4106.153809,4107.179688,4116.922852,4128.205078,4135.384766,4124.102539,4128.205078,0.000000,4.000000,,,,0.000000,4.000000,4.000000,4.000000,4.000000,4.000000,4.000000,4.000000,4.000000,4.000000,4.000000,4.000000,4.000000,4.000000,4.000000,100.000000
1602006585.150230,31.000000,0.000000,4146.666504,4136.922852,4138.974121,4139.487305,4133.846191,4137.436035,4119.487305,4113.333496,4109.230957,4101.025879,4133.846191,4143.589844,4127.692383,4130.769043,0.000000,4.000000,,,,0.000000,4.000000,4.000000,4.000000,4.000000,4.000000,4.000000,4.000000,4.000000,4.000000,4.000000,4.000000,4.000000,4.000000,4.000000,100.000000
1602006585.158111,32.000000,0.000000,4146.666504,4140.512695,4143.077148,4139.487305,4137.436035,4137.436035,4120.000000,4120.512695,4114.358887,4110.769043,4143.589844,4151.282227,4138.974121,4141.538574,0.000000,4.000000,,,,0.000000,4.000000,4.000000,4.000000,4.000000,4.000000,4.000000,4.000000,4.000000,4.000000,4.000000,4.000000,4.000000,4.000000,4.000000,100.000000
1602006585.166091,33.000000,0.000000,4135.384766,4135.384766,4137.948730,4137.948730,4129.230957,4129.230957,4112.820313,4121.538574,4120.000000,4116.410156,4134.358887,4147.179688,4137.948730,4137.948730,0.000000,4.000000,,,,0.000000,4.000000,4.000000,4.000000,4.000000,4.000000,4.000000,4.000000,4.000000,4.000000,4.000000,4.000000,4.000000,4.000000,4.000000,100.000000
1602006585.173972,34.000000,0.000000,4135.897461,4134.871582,4134.871582,4136.922852,4122.051270,4122.051270,4114.358887,4121.538574,4132.820313,4108.205078,4128.205078,4145.641113,4136.410156,4131.282227,0.000000,4.000000,,,,0.000000,4.000000,4.000000,4.000000,4.000000,4.000000,4.000000,4.000000,4.000000,4.000000,4.000000,4.000000,4.000000,4.000000,4.000000,100.000000
1602006585.181853,35.000000,0.000000,4143.589844,4136.410156,4144.615234,4133.846191,4120.512695,4118.461426,4121.025879,4124.102539,4140.512695,4115.384766,4144.615234,4152.307617,4138.461426,4133.333496,0.000000,4.000000,,,,0.000000,4.000000,4.000000,4.000000,4.000000,4.000000,4.000000,4.000000,4.000000,4.000000,4.000000,4.000000,4.000000,4.000000,4.000000,100.000000
1602006585.189833,36.000000,0.000000,4146.666504,4139.487305,4153.846191,4138.461426,4122.563965,4120.000000,4124.102539,4127.179688,4130.769043,4128.717773,4149.230957,4155.897461,4137.948730,4138.461426,0.000000,4.000000,,,,0.000000,4.000000,4.000000,4.000000,4.000000,4.000000,4.000000,4.000000,4.000000,4.000000,4.000000,4.000000,4.000000,4.000000,4.000000,100.000000
1602006585.197814,37.000000,0.000000,4142.563965,4135.897461,4147.692383,4139.487305,4122.051270,4121.538574,4122.051270,4122.563965,4108.205078,4118.974121,4126.666504,4147.179688,4133.333496,4131.794922,0.000000,4.000000,,,,0.000000,4.000000,4.000000,4.000000,4.000000,4.000000,4.000000,4.000000,4.000000,4.000000,4.000000,4.000000,4.000000,4.000000,4.000000,100.000000
1602006585.205695,38.000000,0.000000,4135.897461,4124.102539,4136.922852,4128.717773,4119.487305,4118.974121,4119.487305,4110.769043,4093.846191,4105.128418,4112.820313,4136.922852,4122.563965,4122.563965,0.000000,4.000000,,,,0.000000,4.000000,4.000000,4.000000,4.000000,4.000000,4.000000,4.000000,4.000000,4.000000,4.000000,4.000000,4.000000,4.000000,4.000000,100.000000
1602006585.213576,39.000000,0.000000,4144.102539,4126.666504,4136.410156,4127.692383,4123.589844,4126.153809,4125.641113,4106.666504,4100.512695,4106.666504,4127.179688,4140.512695,4123.589844,4140.000000,0.000000,4.000000,,,,0.000000,4.000000,4.000000,4.000000,4.000000,4.000000,4.000000,4.000000,4.000000,4.000000,4.000000,4.000000,4.000000,4.000000,4.000000,100.000000
1602006585.221457,40.000000,0.000000,4155.384766,4137.436035,4138.974121,4136.410156,4126.153809,4140.512695,4135.897461,4114.358887,4106.153809,4103.077148,4148.717773,4148.205078,4136.922852,4159.487305,0.000000,4.000000,,,,0.000000,4.000000,4.000000,4.000000,4.000000,4.000000,4.000000,4.000000,4.000000,4.000000,4.000000,4.000000,4.000000,4.000000,4.000000,100.000000
1602006585.229338,41.000000,0.000000,4151.794922,4137.948730,4135.384766,4135.897461,4120.512695,4148.205078,4139.487305,4118.974121,4106.666504,4105.128418,4149.743652,4147.692383,4144.615234,4143.077148,0.000000,4.000000,,,,0.000000,4.000000,4.000000,4.000000,4.000000,4.000000,4.000000,4.000000,4.000000,4.000000,4.000000,4.000000,4.000000,4.000000,4.000000,100.000000
1602006585.237219,42.000000,0.000000,4150.256348,4134.871582,4137.948730,4135.897461,4124.102539,4149.230957,4134.871582,4118.974121,4117.436035,4120.512695,4137.948730,4149.230957,4149.230957,4129.230957,0.000000,4.000000,,,,0.000000,4.000000,4.000000,4.000000,4.000000,4.000000,4.000000,4.000000,4.000000,4.000000,4.000000,4.000000,4.000000,4.000000,4.000000,100.000000
1602006585.245100,43.000000,0.000000,4155.897461,4140.512695,4148.205078,4142.563965,4136.410156,4145.641113,4126.666504,4127.179688,4139.487305,4127.692383,4142.563965,4153.846191,4153.333496,4146.666504,0.000000,4.000000,,,,0.000000,4.000000,4.000000,4.000000,4.000000,4.000000,4.000000,4.000000,4.000000,4.000000,4.000000,4.000000,4.000000,4.000000,4.000000,100.000000
1602006585.252880,44.000000,0.000000,4155.897461,4149.230957,4153.846191,4141.025879,4137.948730,4130.256348,4120.000000,4135.384766,4154.358887,4140.000000,4161.538574,4150.256348,4155.897461,4157.948730,0.000000,4.000000,,,,0.000000,4.000000,4.000000,4.000000,4.000000,4.000000,4.000000,4.000000,4.000000,4.000000,4.000000,4.000000,4.000000,4.000000,4.000000,100.000000
1602006585.260661,45.000000,0.000000,4155.384766,4152.307617,4153.846191,4141.025879,4132.307617,4116.410156,4118.461426,4135.897461,4158.974121,4171.282227,4159.487305,4155.384766,4159.487305,4151.794922,0.000000,4.000000,,,,0.000000,4.000000,4.000000,4.000000,4.000000,4.000000,4.000000,4.000000,4.000000,4.000000,4.000000,4.000000,4.000000,4.000000,4.000000,100.000000
1602006585.268441,46.000000,0.000000,4157.436035,4151.794922,4155.897461,4151.794922,4135.897461,4116.922852,4120.512695,4137.948730,4155.897461,4175.897461,4149.230957,4169.743652,4158.974121,4151.282227,0.000000,4.000000,,,,0.000000,4.000000,4.000000,4.000000,4.000000,4.000000,4.000000,4.000000,4.000000,4.000000,4.000000,4.000000,4.000000,4.000000,4.000000,100.000000
1602006585.276322,47.000000,0.000000,4158.974121,4152.307617,4159.487305,4157.436035,4142.051270,4120.512695,4124.102539,4143.589844,4145.128418,4147.179688,4161.025879,4169.743652,4155.897461,4161.538574,0.000000,4.000000,,,,0.000000,4.000000,4.000000,4.000000,4.000000,4.000000,4.000000,4.000000,4.000000,4.000000,4.000000,4.000000,4.000000,4.000000,4.000000,100.000000
1602006585.284203,48.000000,0.000000,4160.512695,4150.769043,4158.461426,4148.717773,4140.000000,4126.666504,4126.666504,4139.487305,4137.948730,4137.948730,4162.563965,4157.436035,4157.436035,4162.051270,0.000000,4.000000,,,,0.000000,4.000000,4.000000,4.000000,4.000000,4.000000,4.000000,4.000000,4.000000,4.000000,4.000000,4.000000,4.000000,4.000000,4.000000,100.000000
1602006585.292084,49.000000,0.000000,4153.846191,4141.538574,4150.769043,4139.487305,4134.358887,4136.922852,4122.051270,4129.230957,4135.897461,4145.128418,4141.025879,4151.282227,4153.846191,4145.128418,0.000000,4.000000,,,,0.000000,4.000000,4.000000,4.000000,4.000000,4.000000,4.000000,4.000000,4.000000,4.000000,4.000000,4.000000,4.000000,4.000000,4.000000,100.000000
1602006585.299964,50.000000,0.000000,4143.077148,4134.871582,4138.974121,4140.000000,4135.897461,4145.641113,4125.128418,4128.205078,4129.743652,4132.820313,4137.948730,4153.846191,4148.205078,4132.307617,0.000000,4.000000,,,,0.000000,4.000000,4.000000,4.000000,4.000000,4.000000,4.000000,4.000000,4.000000,4.000000,4.000000,4.000000,4.000000,4.000000,4.000000,100.000000
1602006585.307945,51.000000,0.000000,4136.410156,4135.897461,4138.974121,4135.897461,4138.461426,4146.153809,4138.461426,4125.128418,4115.384766,4115.897461,4152.820313,4154.871582,4152.307617,4131.282227,0.000000,4.000000,,,,0.000000,4.000000,4.000000,4.000000,4.000000,4.000000,4.000000,4.000000,4.000000,4.000000,4.000000,4.000000,4.000000,4.000000,4.000000,100.000000
1602006585.315826,52.000000,0.000000,4136.410156,4133.846191,4149.230957,4124.102539,4135.897461,4138.974121,4134.358887,4118.461426,4109.743652,4123.077148,4156.410156,4156.410156,4154.358887,4140.512695,0.000000,4.000000,,,,0.000000,4.000000,4.000000,4.000000,4.000000,4.000000,4.000000,4.000000,4.000000,4.000000,4.000000,4.000000,4.000000,4.000000,4.000000,100.000000
1602006585.323707,53.000000,0.000000,4147.179688,4135.384766,4156.410156,4125.641113,4134.871582,4129.743652,4124.102539,4126.153809,4126.666504,4144.102539,4161.538574,4167.692383,4151.794922,4161.538574,0.000000,4.000000,,,,0.000000,4.000000,4.000000,4.000000,4.000000,4.000000,4.000000,4.000000,4.000000,4.000000,4.000000,4.000000,4.000000,4.000000,4.000000,100.000000
1602006585.331588,54.000000,0.000000,4157.948730,4141.538574,4160.512695,4140.512695,4137.436035,4130.256348,4131.794922,4141.025879,4147.692383,4159.487305,4175.384766,4175.897461,4162.051270,4176.410156,0.000000,4.000000,,,,0.000000,4.000000,4.000000,4.000000,4.000000,4.000000,4.000000,4.000000,4.000000,4.000000,4.000000,4.000000,4.000000,4.000000,4.000000,100.000000
1602006585.339469,55.000000,0.000000,4155.384766,4141.025879,4157.948730,4142.051270,4136.410156,4133.333496,4137.948730,4141.025879,4149.743652,4162.051270,4174.871582,4165.641113,4174.358887,4171.282227,0.000000,4.000000,,,,0.000000,4.000000,4.000000,4.000000,4.000000,4.000000,4.000000,4.000000,4.000000,4.000000,4.000000,4.000000,4.000000,4.000000,4.000000,100.000000
1602006585.347350,56.000000,0.000000,4150.769043,4141.538574,4150.256348,4135.384766,4135.384766,4128.205078,4129.743652,4138.461426,4139.487305,4159.487305,4161.025879,4153.846191,4169.230957,4169.230957,0.000000,4.000000,,,,0.000000,4.000000,4.000000,4.000000,4.000000,4.000000,4.000000,4.000000,4.000000,4.000000,4.000000,4.000000,4.000000,4.000000,4.000000,100.000000
1602006585.355231,57.000000,0.000000,4156.922852,4151.794922,4152.307617,4139.487305,4138.974121,4130.256348,4131.794922,4147.179688,4138.974121,4153.333496,4150.769043,4156.410156,4156.410156,4168.205078,0.000000,4.000000,,,,0.000000,4.000000,4.000000,4.000000,4.000000,4.000000,4.000000,4.000000,4.000000,4.000000,4.000000,4.000000,4.000000,4.000000,4.000000,100.000000
1602006585.363112,58.000000,0.000000,4160.512695,4156.410156,4155.897461,4142.051270,4140.512695,4137.436035,4140.512695,4149.230957,4136.922852,4134.358887,4143.589844,4162.051270,4155.384766,4155.897461,0.000000,4.000000,,,,0.000000,4.000000,4.000000,4.000000,4.000000,4.000000,4.000000,4.000000,4.000000,4.000000,4.000000,4.000000,4.000000,4.000000,4.000000,100.000000
1602006585.370893,59.000000,0.000000,4153.846191,4146.153809,4145.641113,4135.897461,4137.948730,4135.384766,4134.358887,4140.000000,4121.538574,4123.077148,4137.436035,4155.897461,4159.487305,4151.794922,0.000000,4.000000,,,,0.000000,4.000000,4.000000,4.000000,4.000000,4.000000,4.000000,4.000000,4.000000,4.000000,4.000000,4.000000,4.000000,4.000000,4.000000,100.000000
1602006585.378773,60.000000,0.000000,4149.230957,4139.487305,4135.897461,4133.333496,4136.922852,4134.358887,4127.692383,4136.410156,4112.820313,4137.948730,4134.358887,4141.538574,4152.307617,4153.333496,0.000000,4.000000,,,,0.000000,4.000000,4.000000,4.000000,4.000000,4.000000,4.000000,4.000000,4.000000,4.000000,4.000000,4.000000,4.000000,4.000000,4.000000,100.000000
