Timestamp,EEG.Counter,EEG.Interpolated,EEG.AF3,EEG.F7,EEG.F3,EEG.FC5,EEG.T7,EEG.P7,EEG.O1,EEG.O2,EEG.P8,EEG.T8,EEG.FC6,EEG.F4,EEG.F8,EEG.AF4,EEG.RawCq,EEG.Battery,MarkerIndex,MarkerType,MarkerValueInt,EEG.MarkerHardware,CQ.AF3,CQ.F7,CQ.F3,CQ.FC5,CQ.T7,CQ.P7,CQ.O1,CQ.O2,CQ.P8,CQ.T8,CQ.FC6,CQ.F4,CQ.F8,CQ.AF4,CQ.Overall
1602006594.734135,86.000000,0.000000,4074.358887,4104.615234,4120.000000,4112.820313,4123.589844,4145.641113,4146.153809,4149.743652,4150.769043,4134.871582,4123.589844,4138.974121,4131.282227,4066.153809,870.000000,4.000000,,,,0.000000,4.000000,4.000000,4.000000,4.000000,4.000000,4.000000,4.000000,4.000000,4.000000,4.000000,4.000000,4.000000,4.000000,4.000000,100.000000
1602006594.742116,87.000000,0.000000,4081.025635,4117.436035,4124.102539,4120.000000,4128.717773,4157.948730,4156.410156,4153.333496,4158.461426,4126.666504,4131.794922,4141.025879,4126.153809,4078.461426,836.000000,4.000000,,,,0.000000,4.000000,4.000000,4.000000,4.000000,4.000000,4.000000,4.000000,4.000000,4.000000,4.000000,4.000000,4.000000,4.000000,4.000000,100.000000
1602006594.749997,88.000000,0.000000,4096.410156,4122.051270,4125.128418,4121.025879,4125.128418,4150.769043,4149.230957,4150.769043,4153.333496,4139.487305,4146.666504,4142.563965,4136.922852,4095.384521,766.000000,4.000000,,,,0.000000,4.000000,4.000000,4.000000,4.000000,4.000000,4.000000,4.000000,4.000000,4.000000,4.000000,4.000000,4.000000,4.000000,4.000000,100.000000
1602006594.757878,89.000000,0.000000,4103.077148,4125.128418,4124.615234,4121.025879,4120.000000,4139.487305,4141.538574,4147.692383,4148.717773,4153.333496,4153.846191,4136.410156,4142.563965,4106.153809,728.000000,4.000000,,,,0.000000,4.000000,4.000000,4.000000,4.000000,4.000000,4.000000,4.000000,4.000000,4.000000,4.000000,4.000000,4.000000,4.000000,4.000000,100.000000
1602006594.765760,90.000000,0.000000,4092.820557,4131.794922,4125.128418,4127.179688,4129.743652,4137.948730,4144.615234,4153.333496,4166.153809,4161.538574,4144.615234,4135.897461,4145.128418,4107.179688,870.000000,4.000000,,,,0.000000,4.000000,4.000000,4.000000,4.000000,4.000000,4.000000,4.000000,4.000000,4.000000,4.000000,4.000000,4.000000,4.000000,4.000000,100.000000
1602006594.773641,91.000000,0.000000,4082.564209,4129.743652,4121.538574,4127.179688,4137.436035,4131.794922,4142.051270,4152.820313,4174.358887,4161.025879,4137.436035,4134.358887,4144.615234,4087.179443,836.000000,4.000000,,,,0.000000,4.000000,4.000000,4.000000,4.000000,4.000000,4.000000,4.000000,4.000000,4.000000,4.000000,4.000000,4.000000,4.000000,4.000000,100.000000
1602006594.781522,92.000000,0.000000,4078.974365,4122.051270,4119.487305,4121.025879,4135.384766,4125.641113,4134.871582,4142.051270,4150.769043,4154.871582,4138.974121,4123.077148,4133.333496,4073.846191,766.000000,4.000000,,,,0.000000,4.000000,4.000000,4.000000,4.000000,4.000000,4.000000,4.000000,4.000000,4.000000,4.000000,4.000000,4.000000,4.000000,4.000000,100.000000
1602006594.789403,93.000000,0.000000,4075.897461,4118.974121,4119.487305,4119.487305,4135.897461,4128.717773,4135.384766,4136.410156,4133.333496,4152.820313,4125.128418,4122.051270,4123.589844,4078.461426,728.000000,4.000000,,,,0.000000,4.000000,4.000000,4.000000,4.000000,4.000000,4.000000,4.000000,4.000000,4.000000,4.000000,4.000000,4.000000,4.000000,4.000000,100.000000
1602006594.797284,94.000000,0.000000,4071.794922,4114.358887,4116.922852,4113.333496,4138.461426,4130.256348,4137.436035,4137.436035,4137.948730,4134.358887,4107.179688,4133.333496,4122.563965,4078.461426,870.000000,4.000000,,,,0.000000,4.000000,4.000000,4.000000,4.000000,4.000000,4.000000,4.000000,4.000000,4.000000,4.000000,4.000000,4.000000,4.000000,4.000000,100.000000
1602006594.805165,95.000000,0.000000,4075.897461,4107.692383,4119.487305,4108.717773,4136.922852,4130.769043,4135.897461,4142.051270,4137.948730,4106.666504,4117.948730,4135.384766,4119.487305,4072.820557,836.000000,4.000000,,,,0.000000,4.000000,4.000000,4.000000,4.000000,4.000000,4.000000,4.000000,4.000000,4.000000,4.000000,4.000000,4.000000,4.000000,4.000000,100.000000
1602006594.813146,96.000000,0.000000,4085.128174,4107.179688,4123.589844,4112.307617,4135.897461,4143.077148,4143.589844,4149.230957,4130.256348,4113.333496,4136.410156,4132.307617,4118.461426,4075.897461,766.000000,4.000000,,,,0.000000,4.000000,4.000000,4.000000,4.000000,4.000000,4.000000,4.000000,4.000000,4.000000,4.000000,4.000000,4.000000,4.000000,4.000000,100.000000
1602006594.821027,97.000000,0.000000,4084.615479,4106.666504,4124.102539,4107.692383,4136.922852,4153.846191,4155.384766,4154.358887,4138.461426,4143.589844,4136.410156,4136.922852,4128.717773,4076.923096,728.000000,4.000000,,,,0.000000,4.000000,4.000000,4.000000,4.000000,4.000000,4.000000,4.000000,4.000000,4.000000,4.000000,4.000000,4.000000,4.000000,4.000000,100.000000
1602006594.828907,98.000000,0.000000,4075.897461,4107.179688,4132.307617,4104.615234,4131.282227,4153.333496,4152.820313,4152.307617,4154.871582,4156.410156,4135.384766,4143.589844,4141.538574,4074.871826,870.000000,4.000000,,,,0.000000,4.000000,4.000000,4.000000,4.000000,4.000000,4.000000,4.000000,4.000000,4.000000,4.000000,4.000000,4.000000,4.000000,4.000000,100.000000
1602006594.836788,99.000000,0.000000,4074.358887,4109.230957,4136.410156,4115.897461,4122.051270,4150.769043,4143.077148,4147.179688,4151.282227,4154.871582,4141.025879,4141.025879,4136.410156,4087.179443,836.000000,4.000000,,,,0.000000,4.000000,4.000000,4.000000,4.000000,4.000000,4.000000,4.000000,4.000000,4.000000,4.000000,4.000000,4.000000,4.000000,4.000000,100.000000
1602006594.844769,100.000000,0.000000,4079.487061,4105.641113,4125.641113,4116.410156,4117.436035,4143.589844,4138.461426,4140.000000,4134.871582,4147.179688,4138.974121,4138.461426,4121.538574,4098.461426,766.000000,4.000000,,,,0.000000,4.000000,4.000000,4.000000,4.000000,4.000000,4.000000,4.000000,4.000000,4.000000,4.000000,4.000000,4.000000,4.000000,4.000000,100.000000
1602006594.852650,101.000000,0.000000,4080.000000,4109.230957,4126.153809,4108.205078,4120.000000,4137.436035,4139.487305,4135.897461,4133.846191,4134.358887,4138.461426,4146.666504,4130.256348,4096.410156,728.000000,4.000000,,,,0.000000,4.000000,4.000000,4.000000,4.000000,4.000000,4.000000,4.000000,4.000000,4.000000,4.000000,4.000000,4.000000,4.000000,4.000000,100.000000
1602006594.860531,102.000000,0.000000,4080.512939,4121.025879,4138.974121,4115.897461,4128.205078,4139.487305,4143.589844,4142.563965,4147.692383,4139.487305,4140.512695,4155.384766,4144.615234,4093.846191,870.000000,4.000000,,,,0.000000,4.000000,4.000000,4.000000,4.000000,4.000000,4.000000,4.000000,4.000000,4.000000,4.000000,4.000000,4.000000,4.000000,4.000000,100.000000
1602006594.868413,103.000000,0.000000,4088.205078,4123.589844,4141.538574,4126.666504,4136.922852,4138.461426,4144.615234,4147.179688,4153.333496,4155.384766,4140.000000,4153.333496,4134.871582,4096.922852,836.000000,4.000000,,,,0.000000,4.000000,4.000000,4.000000,4.000000,4.000000,4.000000,4.000000,4.000000,4.000000,4.000000,4.000000,4.000000,4.000000,4.000000,100.000000
1602006594.876294,104.000000,0.000000,4088.205078,4112.820313,4135.384766,4123.077148,4135.897461,4132.307617,4138.461426,4144.102539,4149.743652,4162.051270,4138.974121,4145.128418,4125.128418,4092.820557,766.000000,4.000000,,,,0.000000,4.000000,4.000000,4.000000,4.000000,4.000000,4.000000,4.000000,4.000000,4.000000,4.000000,4.000000,4.000000,4.000000,4.000000,100.000000
1602006594.884175,105.000000,0.000000,4073.846191,4106.666504,4124.102539,4115.897461,4133.333496,4134.871582,4132.820313,4139.487305,4141.025879,4154.871582,4130.256348,4134.358887,4122.051270,4077.948730,728.000000,4.000000,,,,0.000000,4.000000,4.000000,4.000000,4.000000,4.000000,4.000000,4.000000,4.000000,4.000000,4.000000,4.000000,4.000000,4.000000,4.000000,100.000000
1602006594.892056,106.000000,0.000000,4065.128174,4108.205078,4108.205078,4110.256348,4137.436035,4141.538574,4134.871582,4137.436035,4128.717773,4130.769043,4120.000000,4126.153809,4111.282227,4071.794922,870.000000,4.000000,,,,0.000000,4.000000,4.000000,4.000000,4.000000,4.000000,4.000000,4.000000,4.000000,4.000000,4.000000,4.000000,4.000000,4.000000,4.000000,100.000000
1602006594.899937,107.000000,0.000000,4065.641113,4104.102539,4103.589844,4110.769043,4133.333496,4140.000000,4139.487305,4136.410156,4124.615234,4120.000000,4121.538574,4119.487305,4103.589844,4074.871826,836.000000,4.000000,,,,0.000000,4.000000,4.000000,4.000000,4.000000,4.000000,4.000000,4.000000,4.000000,4.000000,4.000000,4.000000,4.000000,4.000000,4.000000,100.000000
1602006594.907918,108.000000,0.000000,4064.102539,4095.384521,4104.102539,4113.333496,4120.512695,4145.128418,4140.512695,4135.384766,4128.717773,4123.589844,4120.512695,4110.256348,4097.948730,4070.256348,766.000000,4.000000,,,,0.000000,4.000000,4.000000,4.000000,4.000000,4.000000,4.000000,4.000000,4.000000,4.000000,4.000000,4.000000,4.000000,4.000000,4.000000,100.000000
1602006594.915798,109.000000,0.000000,4068.205078,4100.000000,4102.051270,4108.717773,4120.000000,4152.820313,4138.461426,4136.922852,4125.128418,4108.717773,4107.179688,4109.230957,4091.281982,4060.512939,728.000000,4.000000,,,,0.000000,4.000000,4.000000,4.000000,4.000000,4.000000,4.000000,4.000000,4.000000,4.000000,4.000000,4.000000,4.000000,4.000000,4.000000,100.000000
1602006594.923679,110.000000,0.000000,4075.384521,4109.743652,4106.666504,4105.641113,4127.179688,4145.641113,4145.641113,4138.974121,4119.487305,4101.025879,4103.077148,4118.974121,4099.487305,4056.923096,870.000000,4.000000,,,,0.000000,4.000000,4.000000,4.000000,4.000000,4.000000,4.000000,4.000000,4.000000,4.000000,4.000000,4.000000,4.000000,4.000000,4.000000,100.000000
1602006594.931660,111.000000,0.000000,4071.281982,4099.487305,4111.282227,4105.641113,4130.769043,4136.410156,4155.384766,4138.974121,4124.615234,4127.692383,4119.487305,4121.538574,4109.230957,4063.589844,836.000000,4.000000,,,,0.000000,4.000000,4.000000,4.000000,4.000000,4.000000,4.000000,4.000000,4.000000,4.000000,4.000000,4.000000,4.000000,4.000000,4.000000,100.000000
1602006594.939640,112.000000,0.000000,4073.846191,4100.000000,4111.282227,4111.282227,4134.358887,4141.538574,4148.205078,4137.436035,4125.128418,4142.051270,4136.410156,4119.487305,4110.256348,4080.512939,766.000000,4.000000,,,,0.000000,4.000000,4.000000,4.000000,4.000000,4.000000,4.000000,4.000000,4.000000,4.000000,4.000000,4.000000,4.000000,4.000000,4.000000,100.000000
1602006594.947521,113.000000,0.000000,4097.948730,4135.897461,4117.436035,4130.256348,4138.461426,4146.153809,4138.461426,4136.922852,4122.563965,4141.025879,4141.025879,4130.769043,4117.948730,4095.897461,728.000000,4.000000,,,,0.000000,4.000000,4.000000,4.000000,4.000000,4.000000,4.000000,4.000000,4.000000,4.000000,4.000000,4.000000,4.000000,4.000000,4.000000,100.000000
1602006594.955402,114.000000,0.000000,4121.025879,4165.128418,4127.692383,4144.615234,4141.025879,4142.563965,4143.589844,4135.384766,4133.333496,4157.948730,4138.974121,4143.077148,4129.743652,4099.487305,870.000000,4.000000,,,,0.000000,4.000000,4.000000,4.000000,4.000000,4.000000,4.000000,4.000000,4.000000,4.000000,4.000000,4.000000,4.000000,4.000000,4.000000,100.000000
1602006594.963283,115.000000,0.000000,4121.538574,4165.128418,4131.794922,4144.615234,4138.974121,4141.025879,4148.717773,4128.205078,4145.128418,4154.871582,4134.358887,4140.512695,4121.025879,4091.794922,836.000000,4.000000,,,,0.000000,4.000000,4.000000,4.000000,4.000000,4.000000,4.000000,4.000000,4.000000,4.000000,4.000000,4.000000,4.000000,4.000000,4.000000,100.000000
1602006594.971164,116.000000,0.000000,4111.794922,4157.948730,4122.563965,4138.974121,4131.282227,4138.461426,4143.077148,4120.000000,4133.333496,4125.128418,4124.615234,4127.179688,4097.948730,4070.769287,766.000000,4.000000,,,,0.000000,4.000000,4.000000,4.000000,4.000000,4.000000,4.000000,4.000000,4.000000,4.000000,4.000000,4.000000,4.000000,4.000000,4.000000,100.000000
1602006594.979045,117.000000,0.000000,4108.717773,4155.897461,4108.717773,4132.820313,4128.717773,4138.974121,4138.974121,4117.948730,4117.948730,4116.410156,4113.333496,4118.974121,4085.641113,4054.871826,728.000000,4.000000,,,,0.000000,4.000000,4.000000,4.000000,4.000000,4.000000,4.000000,4.000000,4.000000,4.000000,4.000000,4.000000,4.000000,4.000000,4.000000,100.000000
1602006594.986926,118.000000,0.000000,4112.820313,4153.846191,4102.563965,4131.794922,4135.897461,4150.256348,4139.487305,4120.000000,4128.717773,4125.641113,4103.077148,4125.128418,4088.205078,4060.000000,870.000000,4.000000,,,,0.000000,4.000000,4.000000,4.000000,4.000000,4.000000,4.000000,4.000000,4.000000,4.000000,4.000000,4.000000,4.000000,4.000000,4.000000,100.000000
1602006594.994907,119.000000,0.000000,4114.871582,4156.922852,4104.615234,4136.922852,4143.077148,4155.384766,4137.436035,4126.666504,4148.717773,4133.333496,4104.102539,4133.333496,4094.358887,4066.153809,836.000000,4.000000,,,,0.000000,4.000000,4.000000,4.000000,4.000000,4.000000,4.000000,4.000000,4.000000,4.000000,4.000000,4.000000,4.000000,4.000000,4.000000,100.000000
1602006595.002788,120.000000,0.000000,4109.743652,4163.077148,4112.307617,4137.948730,4150.256348,4146.153809,4136.410156,4135.897461,4152.820313,4143.077148,4110.769043,4135.897461,4093.846191,4058.974365,766.000000,4.000000,,,,0.000000,4.000000,4.000000,4.000000,4.000000,4.000000,4.000000,4.000000,4.000000,4.000000,4.000000,4.000000,4.000000,4.000000,4.000000,100.000000
1602006595.010669,121.000000,0.000000,4112.307617,4163.589844,4118.461426,4137.948730,4155.897461,4135.897461,4138.461426,4139.487305,4151.282227,4150.769043,4106.666504,4137.436035,4097.436035,4060.000000,728.000000,4.000000,,,,0.000000,4.000000,4.000000,4.000000,4.000000,4.000000,4.000000,4.000000,4.000000,4.000000,4.000000,4.000000,4.000000,4.000000,4.000000,100.000000
1602006595.018550,122.000000,0.000000,4121.025879,4158.974121,4122.051270,4142.563965,4152.307617,4129.743652,4141.025879,4138.461426,4150.769043,4146.153809,4108.205078,4139.487305,4106.666504,4071.794922,870.000000,4.000000,,,,0.000000,4.000000,4.000000,4.000000,4.000000,4.000000,4.000000,4.000000,4.000000,4.000000,4.000000,4.000000,4.000000,4.000000,4.000000,100.000000
1602006595.026432,123.000000,0.000000,4113.846191,4153.333496,4123.589844,4138.974121,4144.102539,4130.256348,4144.615234,4140.512695,4143.589844,4130.256348,4123.077148,4144.102539,4106.153809,4069.743652,836.000000,4.000000,,,,0.000000,4.000000,4.000000,4.000000,4.000000,4.000000,4.000000,4.000000,4.000000,4.000000,4.000000,4.000000,4.000000,4.000000,4.000000,100.000000
1602006595.034313,124.000000,0.000000,4102.563965,4154.358887,4123.589844,4133.333496,4139.487305,4141.538574,4152.820313,4143.589844,4141.025879,4125.128418,4123.589844,4151.282227,4103.589844,4067.179443,766.000000,4.000000,,,,0.000000,4.000000,4.000000,4.000000,4.000000,4.000000,4.000000,4.000000,4.000000,4.000000,4.000000,4.000000,4.000000,4.000000,4.000000,100.000000
1602006595.042194,125.000000,0.000000,4107.179688,4160.512695,4124.102539,4140.000000,4140.512695,4150.769043,4158.974121,4142.563965,4144.615234,4133.333496,4121.025879,4158.974121,4105.641113,4078.461426,728.000000,4.000000,,,,0.000000,4.000000,4.000000,4.000000,4.000000,4.000000,4.000000,4.000000,4.000000,4.000000,4.000000,4.000000,4.000000,4.000000,4.000000,100.000000
1602006595.050075,126.000000,0.000000,4109.230957,4155.897461,4124.615234,4143.589844,4137.948730,4141.025879,4157.436035,4137.436035,4131.794922,4127.692383,4123.077148,4154.871582,4098.461426,4076.923096,870.000000,4.000000,,,,0.000000,4.000000,4.000000,4.000000,4.000000,4.000000,4.000000,4.000000,4.000000,4.000000,4.000000,4.000000,4.000000,4.000000,4.000000,100.000000
1602006595.058056,127.000000,0.000000,4103.077148,4143.077148,4123.589844,4134.871582,4130.256348,4131.282227,4149.230957,4133.333496,4124.102539,4120.512695,4111.282227,4142.563965,4091.281982,4064.102539,836.000000,4.000000,,,,0.000000,4.000000,4.000000,4.000000,4.000000,4.000000,4.000000,4.000000,4.000000,4.000000,4.000000,4.000000,4.000000,4.000000,4.000000,100.000000
1602006595.065937,128.000000,0.000000,4105.641113,4145.641113,4124.615234,4130.256348,4130.769043,4138.974121,4142.051270,4135.384766,4144.615234,4143.589844,4106.153809,4144.102539,4100.512695,4075.897461,766.000000,4.000000,,,,0.000000,4.000000,4.000000,4.000000,4.000000,4.000000,4.000000,4.000000,4.000000,4.000000,4.000000,4.000000,4.000000,4.000000,4.000000,100.000000
1602006595.073818,0.000000,0.000000,4111.282227,4153.333496,4128.717773,4137.436035,4137.948730,4144.615234,4137.436035,4139.487305,4167.692383,4166.153809,4124.615234,4156.410156,4105.641113,4085.128174,800.000000,4.000000,,,,0.000000,4.000000,4.000000,4.000000,4.000000,4.000000,4.000000,4.000000,4.000000,4.000000,4.000000,4.000000,4.000000,4.000000,4.000000,100.000000
1602006595.081699,1.000000,0.000000,4112.307617,4149.743652,4127.692383,4141.025879,4137.948730,4137.436035,4135.384766,4140.000000,4167.179688,4151.794922,4129.230957,4152.820313,4096.922852,4062.564209,794.000000,4.000000,,,,0.000000,4.000000,4.000000,4.000000,4.000000,4.000000,4.000000,4.000000,4.000000,4.000000,4.000000,4.000000,4.000000,4.000000,4.000000,100.000000
1602006595.089580,2.000000,0.000000,4113.333496,4150.256348,4126.153809,4138.461426,4136.410156,4133.333496,4135.384766,4138.974121,4158.974121,4136.922852,4108.717773,4141.538574,4096.410156,4049.743652,850.000000,4.000000,,,,0.000000,4.000000,4.000000,4.000000,4.000000,4.000000,4.000000,4.000000,4.000000,4.000000,4.000000,4.000000,4.000000,4.000000,4.000000,100.000000
1602006595.097461,3.000000,0.000000,4111.282227,4152.307617,4128.717773,4138.974121,4138.974121,4135.897461,4133.846191,4138.974121,4150.256348,4141.538574,4096.922852,4148.717773,4098.461426,4057.435791,869.000000,4.000000,,,,0.000000,4.000000,4.000000,4.000000,4.000000,4.000000,4.000000,4.000000,4.000000,4.000000,4.000000,4.000000,4.000000,4.000000,4.000000,100.000000
1602006595.105442,4.000000,0.000000,4105.641113,4142.051270,4126.666504,4138.974121,4138.974121,4134.871582,4132.307617,4134.358887,4135.384766,4138.461426,4104.102539,4160.000000,4091.281982,4061.025635,814.000000,4.000000,,,,0.000000,4.000000,4.000000,4.000000,4.000000,4.000000,4.000000,4.000000,4.000000,4.000000,4.000000,4.000000,4.000000,4.000000,4.000000,100.000000
1602006595.113323,5.000000,0.000000,4106.153809,4138.974121,4122.563965,4137.948730,4137.436035,4134.871582,4134.358887,4125.128418,4120.000000,4115.384766,4113.333496,4158.974121,4088.205078,4068.718018,823.000000,4.000000,,,,0.000000,4.000000,4.000000,4.000000,4.000000,4.000000,4.000000,4.000000,4.000000,4.000000,4.000000,4.000000,4.000000,4.000000,4.000000,100.000000
1602006595.121204,6.000000,0.000000,4108.717773,4146.666504,4121.538574,4134.358887,4140.512695,4138.461426,4138.974121,4120.512695,4107.179688,4091.281982,4109.743652,4156.410156,4090.256348,4082.051270,760.000000,4.000000,,,,0.000000,4.000000,4.000000,4.000000,4.000000,4.000000,4.000000,4.000000,4.000000,4.000000,4.000000,4.000000,4.000000,4.000000,4.000000,100.000000
1602006595.129085,7.000000,0.000000,4096.410156,4138.974121,4123.077148,4125.128418,4140.512695,4138.974121,4138.974121,4118.974121,4107.692383,4091.281982,4096.922852,4150.256348,4088.205078,4072.307617,668.000000,4.000000,,,,0.000000,4.000000,4.000000,4.000000,4.000000,4.000000,4.000000,4.000000,4.000000,4.000000,4.000000,4.000000,4.000000,4.000000,4.000000,100.000000
1602006595.136966,8.000000,0.000000,4087.692383,4128.717773,4123.077148,4119.487305,4138.461426,4137.948730,4138.461426,4122.051270,4125.641113,4115.384766,4100.000000,4142.563965,4089.743652,4056.410156,786.000000,4.000000,,,,0.000000,4.000000,4.000000,4.000000,4.000000,4.000000,4.000000,4.000000,4.000000,4.000000,4.000000,4.000000,4.000000,4.000000,4.000000,100.000000
1602006595.144847,9.000000,0.000000,4100.000000,4135.897461,4113.846191,4124.615234,4134.358887,4139.487305,4137.948730,4130.256348,4140.000000,4131.282227,4109.230957,4135.897461,4092.307617,4057.948730,838.000000,4.000000,,,,0.000000,4.000000,4.000000,4.000000,4.000000,4.000000,4.000000,4.000000,4.000000,4.000000,4.000000,4.000000,4.000000,4.000000,4.000000,100.000000
1602006595.152729,10.000000,0.000000,4103.077148,4140.512695,4102.563965,4130.256348,4131.794922,4139.487305,4138.461426,4133.846191,4135.897461,4128.205078,4106.666504,4129.743652,4082.564209,4054.871826,870.000000,4.000000,,,,0.000000,4.000000,4.000000,4.000000,4.000000,4.000000,4.000000,4.000000,4.000000,4.000000,4.000000,4.000000,4.000000,4.000000,4.000000,100.000000
1602006595.160610,11.000000,0.000000,4093.846191,4136.922852,4110.256348,4131.794922,4135.384766,4140.512695,4146.666504,4140.000000,4145.128418,4147.179688,4112.820313,4135.897461,4083.076904,4053.846191,836.000000,4.000000,,,,0.000000,4.000000,4.000000,4.000000,4.000000,4.000000,4.000000,4.000000,4.000000,4.000000,4.000000,4.000000,4.000000,4.000000,4.000000,100.000000
1602006595.168491,12.000000,0.000000,4106.666504,4145.641113,4125.641113,4138.461426,4137.948730,4149.743652,4153.333496,4153.333496,4170.769043,4176.922852,4129.230957,4154.358887,4110.769043,4071.281982,766.000000,4.000000,,,,0.000000,4.000000,4.000000,4.000000,4.000000,4.000000,4.000000,4.000000,4.000000,4.000000,4.000000,4.000000,4.000000,4.000000,4.000000,100.000000
1602006595.176472,13.000000,0.000000,4123.077148,4153.846191,4127.179688,4142.563965,4136.922852,4151.282227,4153.846191,4150.256348,4172.820313,4164.102539,4125.641113,4160.000000,4128.717773,4080.000000,728.000000,4.000000,,,,0.000000,4.000000,4.000000,4.000000,4.000000,4.000000,4.000000,4.000000,4.000000,4.000000,4.000000,4.000000,4.000000,4.000000,4.000000,100.000000
1602006595.184353,14.000000,0.000000,4117.436035,4150.256348,4128.205078,4139.487305,4139.487305,4140.512695,4149.230957,4136.922852,4154.358887,4132.307617,4118.461426,4150.769043,4114.358887,4076.410156,870.000000,4.000000,,,,0.000000,4.000000,4.000000,4.000000,4.000000,4.000000,4.000000,4.000000,4.000000,4.000000,4.000000,4.000000,4.000000,4.000000,4.000000,100.000000
1602006595.192234,15.000000,0.000000,4114.871582,4150.769043,4134.871582,4136.410156,4144.102539,4138.461426,4143.589844,4137.436035,4146.666504,4132.307617,4127.179688,4146.153809,4105.128418,4081.538574,836.000000,4.000000,,,,0.000000,4.000000,4.000000,4.000000,4.000000,4.000000,4.000000,4.000000,4.000000,4.000000,4.000000,4.000000,4.000000,4.000000,4.000000,100.000000
1602006595.200115,16.000000,0.000000,4122.563965,4155.897461,4138.461426,4136.410156,4142.563965,4142.563965,4141.025879,4142.051270,4153.333496,4150.256348,4128.205078,4152.820313,4117.948730,4091.281982,0.000000,4.000000,,,,0.000000,4.000000,4.000000,4.000000,4.000000,4.000000,4.000000,4.000000,4.000000,4.000000,4.000000,4.000000,4.000000,4.000000,4.000000,100.000000
1602006595.207997,17.000000,0.000000,4125.641113,4157.948730,4142.051270,4143.589844,4141.538574,4140.512695,4142.051270,4140.000000,4153.333496,4151.282227,4127.692383,4162.563965,4124.102539,4099.487305,0.000000,4.000000,,,,0.000000,4.000000,4.000000,4.000000,4.000000,4.000000,4.000000,4.000000,4.000000,4.000000,4.000000,4.000000,4.000000,4.000000,4.000000,100.000000
1602006595.215878,18.000000,0.000000,4118.461426,4152.307617,4139.487305,4144.615234,4142.051270,4136.922852,4145.641113,4138.974121,4143.077148,4139.487305,4133.333496,4162.563965,4109.743652,4092.307617,0.000000,4.000000,,,,0.000000,4.000000,4.000000,4.000000,4.000000,4.000000,4.000000,4.000000,4.000000,4.000000,4.000000,4.000000,4.000000,4.000000,4.000000,100.000000
1602006595.223759,19.000000,0.000000,4102.563965,4139.487305,4124.102539,4131.282227,4133.846191,4135.897461,4150.256348,4140.000000,4134.871582,4133.333496,4125.641113,4149.743652,4098.461426,4071.281982,0.000000,4.000000,,,,0.000000,4.000000,4.000000,4.000000,4.000000,4.000000,4.000000,4.000000,4.000000,4.000000,4.000000,4.000000,4.000000,4.000000,4.000000,100.000000
1602006595.231640,20.000000,0.000000,4103.589844,4135.897461,4118.974121,4126.153809,4129.230957,4134.358887,4154.358887,4141.025879,4134.871582,4133.333496,4116.410156,4145.641113,4101.025879,4070.256348,0.000000,4.000000,,,,0.000000,4.000000,4.000000,4.000000,4.000000,4.000000,4.000000,4.000000,4.000000,4.000000,4.000000,4.000000,4.000000,4.000000,4.000000,100.000000
1602006595.239521,21.000000,0.000000,4120.000000,4141.538574,4125.641113,4135.897461,4134.358887,4137.436035,4153.846191,4140.000000,4141.538574,4136.410156,4120.512695,4151.282227,4095.897461,4080.000000,0.000000,4.000000,,,,0.000000,4.000000,4.000000,4.000000,4.000000,4.000000,4.000000,4.000000,4.000000,4.000000,4.000000,4.000000,4.000000,4.000000,4.000000,100.000000
1602006595.247502,22.000000,0.000000,4114.871582,4141.025879,4122.563965,4137.436035,4136.922852,4141.025879,4148.717773,4138.974121,4147.179688,4144.102539,4121.538574,4151.282227,4091.281982,4076.410156,0.000000,4.000000,,,,0.000000,4.000000,4.000000,4.000000,4.000000,4.000000,4.000000,4.000000,4.000000,4.000000,4.000000,4.000000,4.000000,4.000000,4.000000,100.000000
1602006595.255383,23.000000,0.000000,4109.230957,4141.538574,4123.589844,4133.333496,4134.871582,4135.897461,4139.487305,4139.487305,4153.333496,4145.641113,4118.461426,4148.205078,4108.717773,4080.000000,0.000000,4.000000,,,,0.000000,4.000000,4.000000,4.000000,4.000000,4.000000,4.000000,4.000000,4.000000,4.000000,4.000000,4.000000,4.000000,4.000000,4.000000,100.000000
1602006595.263263,24.000000,0.000000,4134.871582,4153.846191,4138.461426,4140.512695,4135.384766,4133.333496,4133.333496,4135.384766,4152.307617,4143.589844,4123.077148,4150.256348,4124.615234,4097.436035,0.000000,4.000000,,,,0.000000,4.000000,4.000000,4.000000,4.000000,4.000000,4.000000,4.000000,4.000000,4.000000,4.000000,4.000000,4.000000,4.000000,4.000000,100.000000
1602006595.271244,25.000000,0.000000,4145.641113,4156.410156,4142.051270,4143.077148,4139.487305,4129.743652,4128.205078,4127.179688,4144.615234,4153.333496,4123.589844,4151.282227,4113.846191,4100.512695,0.000000,4.000000,,,,0.000000,4.000000,4.000000,4.000000,4.000000,4.000000,4.000000,4.000000,4.000000,4.000000,4.000000,4.000000,4.000000,4.000000,4.000000,100.000000
1602006595.279125,26.000000,0.000000,4123.589844,4141.538574,4131.282227,4136.410156,4135.384766,4114.871582,4124.102539,4126.666504,4138.974121,4153.333496,4120.512695,4152.307617,4107.179688,4090.256348,0.000000,4.000000,,,,0.000000,4.000000,4.000000,4.000000,4.000000,4.000000,4.000000,4.000000,4.000000,4.000000,4.000000,4.000000,4.000000,4.000000,4.000000,100.000000
1602006595.287105,27.000000,0.000000,4110.769043,4135.384766,4126.666504,4134.358887,4127.179688,4110.256348,4128.717773,4131.794922,4136.922852,4138.974121,4124.615234,4155.897461,4119.487305,4085.128174,0.000000,4.000000,,,,0.000000,4.000000,4.000000,4.000000,4.000000,4.000000,4.000000,4.000000,4.000000,4.000000,4.000000,4.000000,4.000000,4.000000,4.000000,100.000000
1602006595.294986,28.000000,0.000000,4126.666504,4144.102539,4134.358887,4137.436035,4129.743652,4131.794922,4138.974121,4134.358887,4134.358887,4144.615234,4130.769043,4157.948730,4125.641113,4098.461426,0.000000,4.000000,,,,0.000000,4.000000,4.000000,4.000000,4.000000,4.000000,4.000000,4.000000,4.000000,4.000000,4.000000,4.000000,4.000000,4.000000,4.000000,100.000000
1602006595.302867,29.000000,0.000000,4141.538574,4147.692383,4140.512695,4143.077148,4138.461426,4145.641113,4141.538574,4136.410156,4135.897461,4158.461426,4133.846191,4159.487305,4126.666504,4110.769043,0.000000,4.000000,,,,0.000000,4.000000,4.000000,4.000000,4.000000,4.000000,4.000000,4.000000,4.000000,4.000000,4.000000,4.000000,4.000000,4.000000,4.000000,100.000000
1602006595.310848,30.000000,0.000000,4131.794922,4142.051270,4133.333496,4143.589844,4134.871582,4130.769043,4138.461426,4134.871582,4137.436035,4145.641113,4129.230957,4158.461426,4125.128418,4102.563965,0.000000,4.000000,,,,0.000000,4.000000,4.000000,4.000000,4.000000,4.000000,4.000000,4.000000,4.000000,4.000000,4.000000,4.000000,4.000000,4.000000,4.000000,100.000000
1602006595.318729,31.000000,0.000000,4113.846191,4132.820313,4120.512695,4132.307617,4124.615234,4118.974121,4137.948730,4128.205078,4128.205078,4126.666504,4121.538574,4155.384766,4113.846191,4101.538574,0.000000,4.000000,,,,0.000000,4.000000,4.000000,4.000000,4.000000,4.000000,4.000000,4.000000,4.000000,4.000000,4.000000,4.000000,4.000000,4.000000,4.000000,100.000000
1602006595.326610,32.000000,0.000000,4108.717773,4127.692383,4118.974121,4122.563965,4123.077148,4125.128418,4136.410156,4122.563965,4116.922852,4120.000000,4112.307617,4153.846191,4103.589844,4105.641113,0.000000,4.000000,,,,0.000000,4.000000,4.000000,4.000000,4.000000,4.000000,4.000000,4.000000,4.000000,4.000000,4.000000,4.000000,4.000000,4.000000,4.000000,100.000000
1602006595.334491,33.000000,0.000000,4110.769043,4129.743652,4123.077148,4125.641113,4125.641113,4128.717773,4130.769043,4121.025879,4119.487305,4107.692383,4100.000000,4151.794922,4100.000000,4090.769287,0.000000,4.000000,,,,0.000000,4.000000,4.000000,4.000000,4.000000,4.000000,4.000000,4.000000,4.000000,4.000000,4.000000,4.000000,4.000000,4.000000,4.000000,100.000000
1602006595.342372,34.000000,0.000000,4112.307617,4129.743652,4126.153809,4129.230957,4126.153809,4126.153809,4125.128418,4123.589844,4128.205078,4102.051270,4097.948730,4150.256348,4102.051270,4081.538574,0.000000,4.000000,,,,0.000000,4.000000,4.000000,4.000000,4.000000,4.000000,4.000000,4.000000,4.000000,4.000000,4.000000,4.000000,4.000000,4.000000,4.000000,100.000000
1602006595.350253,35.000000,0.000000,4120.000000,4125.128418,4128.717773,4127.179688,4126.666504,4123.589844,4124.615234,4124.102539,4128.717773,4119.487305,4109.230957,4154.358887,4109.230957,4101.025879,0.000000,4.000000,,,,0.000000,4.000000,4.000000,4.000000,4.000000,4.000000,4.000000,4.000000,4.000000,4.000000,4.000000,4.000000,4.000000,4.000000,4.000000,100.000000
1602006595.358135,36.000000,0.000000,4125.641113,4130.769043,4129.230957,4124.615234,4125.641113,4126.153809,4125.128418,4121.538574,4122.051270,4127.692383,4114.871582,4152.307617,4111.282227,4112.307617,0.000000,4.000000,,,,0.000000,4.000000,4.000000,4.000000,4.000000,4.000000,4.000000,4.000000,4.000000,4.000000,4.000000,4.000000,4.000000,4.000000,4.000000,100.000000
1602006595.366016,37.000000,0.000000,4118.974121,4137.948730,4126.153809,4130.256348,4124.615234,4130.256348,4122.563965,4122.563965,4124.102539,4117.436035,4110.769043,4142.563965,4105.128418,4103.077148,0.000000,4.000000,,,,0.000000,4.000000,4.000000,4.000000,4.000000,4.000000,4.000000,4.000000,4.000000,4.000000,4.000000,4.000000,4.000000,4.000000,4.000000,100.000000
1602006595.373897,38.000000,0.000000,4107.179688,4129.230957,4122.563965,4136.410156,4124.615234,4130.256348,4120.512695,4120.512695,4118.461426,4121.538574,4109.230957,4138.974121,4105.128418,4096.410156,0.000000,4.000000,,,,0.000000,4.000000,4.000000,4.000000,4.000000,4.000000,4.000000,4.000000,4.000000,4.000000,4.000000,4.000000,4.000000,4.000000,4.000000,100.000000
1602006595.381778,39.000000,0.000000,4102.563965,4120.512695,4113.333496,4127.692383,4123.077148,4122.051270,4120.512695,4108.717773,4097.948730,4127.692383,4104.615234,4138.974121,4104.615234,4091.794922,0.000000,4.000000,,,,0.000000,4.000000,4.000000,4.000000,4.000000,4.000000,4.000000,4.000000,4.000000,4.000000,4.000000,4.000000,4.000000,4.000000,4.000000,100.000000
1602006595.389759,40.000000,0.000000,4110.256348,4124.102539,4106.666504,4118.974121,4123.077148,4116.410156,4125.128418,4108.205078,4105.128418,4117.436035,4101.538574,4136.922852,4105.128418,4087.179443,0.000000,4.000000,,,,0.000000,4.000000,4.000000,4.000000,4.000000,4.000000,4.000000,4.000000,4.000000,4.000000,4.000000,4.000000,4.000000,4.000000,4.000000,100.000000
1602006595.397639,41.000000,0.000000,4110.256348,4125.641113,4109.230957,4124.102539,4123.589844,4126.153809,4133.333496,4121.025879,4130.256348,4117.948730,4107.692383,4131.794922,4107.692383,4080.512939,0.000000,4.000000,,,,0.000000,4.000000,4.000000,4.000000,4.000000,4.000000,4.000000,4.000000,4.000000,4.000000,4.000000,4.000000,4.000000,4.000000,4.000000,100.000000
1602006595.405620,42.000000,0.000000,4101.025879,4121.538574,4109.230957,4127.179688,4124.102539,4143.589844,4143.589844,4129.230957,4132.307617,4131.282227,4103.077148,4124.102539,4100.000000,4075.897461,0.000000,4.000000,,,,0.000000,4.000000,4.000000,4.000000,4.000000,4.000000,4.000000,4.000000,4.000000,4.000000,4.000000,4.000000,4.000000,4.000000,4.000000,100.000000
1602006595.413501,43.000000,0.000000,4111.794922,4124.102539,4113.333496,4122.051270,4130.769043,4153.846191,4155.897461,4134.871582,4131.282227,4137.436035,4096.922852,4127.692383,4098.461426,4082.564209,0.000000,4.000000,,,,0.000000,4.000000,4.000000,4.000000,4.000000,4.000000,4.000000,4.000000,4.000000,4.000000,4.000000,4.000000,4.000000,4.000000,4.000000,100.000000
1602006595.421481,44.000000,0.000000,4123.077148,4128.205078,4121.025879,4121.025879,4135.384766,4151.794922,4157.436035,4141.538574,4140.000000,4144.102539,4111.794922,4138.974121,4107.692383,4092.820557,0.000000,4.000000,,,,0.000000,4.000000,4.000000,4.000000,4.000000,4.000000,4.000000,4.000000,4.000000,4.000000,4.000000,4.000000,4.000000,4.000000,4.000000,100.000000
1602006595.429462,45.000000,0.000000,4109.743652,4125.128418,4115.897461,4123.589844,4128.205078,4139.487305,4143.589844,4138.974121,4132.307617,4135.384766,4127.692383,4131.282227,4109.230957,4091.281982,0.000000,4.000000,,,,0.000000,4.000000,4.000000,4.000000,4.000000,4.000000,4.000000,4.000000,4.000000,4.000000,4.000000,4.000000,4.000000,4.000000,4.000000,100.000000
1602006595.437343,46.000000,0.000000,4099.487305,4125.128418,4108.717773,4122.051270,4120.512695,4122.563965,4134.358887,4128.205078,4117.948730,4110.256348,4124.102539,4121.025879,4104.615234,4089.743652,0.000000,4.000000,,,,0.000000,4.000000,4.000000,4.000000,4.000000,4.000000,4.000000,4.000000,4.000000,4.000000,4.000000,4.000000,4.000000,4.000000,4.000000,100.000000
1602006595.445224,47.000000,0.000000,4113.846191,4134.871582,4118.461426,4122.051270,4125.128418,4117.948730,4133.846191,4127.692383,4113.333496,4105.128418,4118.461426,4133.333496,4109.743652,4100.000000,0.000000,4.000000,,,,0.000000,4.000000,4.000000,4.000000,4.000000,4.000000,4.000000,4.000000,4.000000,4.000000,4.000000,4.000000,4.000000,4.000000,4.000000,100.000000
1602006595.453105,48.000000,0.000000,4124.615234,4140.000000,4131.794922,4125.641113,4128.717773,4125.128418,4127.692383,4133.846191,4118.974121,4122.051270,4127.179688,4142.563965,4118.461426,4104.102539,0.000000,4.000000,,,,0.000000,4.000000,4.000000,4.000000,4.000000,4.000000,4.000000,4.000000,4.000000,4.000000,4.000000,4.000000,4.000000,4.000000,4.000000,100.000000
1602006595.460987,49.000000,0.000000,4123.077148,4136.922852,4136.410156,4128.717773,4122.051270,4119.487305,4120.000000,4130.256348,4133.333496,4144.102539,4136.922852,4142.563965,4121.025879,4099.487305,0.000000,4.000000,,,,0.000000,4.000000,4.000000,4.000000,4.000000,4.000000,4.000000,4.000000,4.000000,4.000000,4.000000,4.000000,4.000000,4.000000,4.000000,100.000000
1602006595.468868,50.000000,0.000000,4127.179688,4140.000000,4138.974121,4135.384766,4123.589844,4112.307617,4122.051270,4127.179688,4136.922852,4167.179688,4135.897461,4150.769043,4129.743652,4112.307617,0.000000,4.000000,,,,0.000000,4.000000,4.000000,4.000000,4.000000,4.000000,4.000000,4.000000,4.000000,4.000000,4.000000,4.000000,4.000000,4.000000,4.000000,100.000000
1602006595.476749,51.000000,0.000000,4137.436035,4149.230957,4142.051270,4141.538574,4135.384766,4118.974121,4126.153809,4130.769043,4131.282227,4177.436035,4141.538574,4159.487305,4138.974121,4130.256348,0.000000,4.000000,,,,0.000000,4.000000,4.000000,4.000000,4.000000,4.000000,4.000000,4.000000,4.000000,4.000000,4.000000,4.000000,4.000000,4.000000,4.000000,100.000000
1602006595.484630,52.000000,0.000000,4141.025879,4146.153809,4140.512695,4140.512695,4134.358887,4127.179688,4125.641113,4127.179688,4135.897461,4157.948730,4151.282227,4155.897461,4132.820313,4122.051270,0.000000,4.000000,,,,0.000000,4.000000,4.000000,4.000000,4.000000,4.000000,4.000000,4.000000,4.000000,4.000000,4.000000,4.000000,4.000000,4.000000,4.000000,100.000000
1602006595.492511,53.000000,0.000000,4133.846191,4134.871582,4135.384766,4136.410156,4125.128418,4122.563965,4130.769043,4125.128418,4141.538574,4133.333496,4140.512695,4153.846191,4123.589844,4105.128418,0.000000,4.000000,,,,0.000000,4.000000,4.000000,4.000000,4.000000,4.000000,4.000000,4.000000,4.000000,4.000000,4.000000,4.000000,4.000000,4.000000,4.000000,100.000000
1602006595.500492,54.000000,0.000000,4126.666504,4134.871582,4129.230957,4133.333496,4125.641113,4120.000000,4137.948730,4134.358887,4135.384766,4121.025879,4123.077148,4150.769043,4122.563965,4109.230957,0.000000,4.000000,,,,0.000000,4.000000,4.000000,4.000000,4.000000,4.000000,4.000000,4.000000,4.000000,4.000000,4.000000,4.000000,4.000000,4.000000,4.000000,100.000000
1602006595.508373,55.000000,0.000000,4119.487305,4137.948730,4124.102539,4131.794922,4128.205078,4130.256348,4138.974121,4138.974121,4132.820313,4116.922852,4126.666504,4142.051270,4115.384766,4115.897461,0.000000,4.000000,,,,0.000000,4.000000,4.000000,4.000000,4.000000,4.000000,4.000000,4.000000,4.000000,4.000000,4.000000,4.000000,4.000000,4.000000,4.000000,100.000000
1602006595.516254,56.000000,0.000000,4110.256348,4129.743652,4120.512695,4129.230957,4122.563965,4139.487305,4140.000000,4142.051270,4142.563965,4126.666504,4130.256348,4137.436035,4102.563965,4102.563965,0.000000,4.000000,,,,0.000000,4.000000,4.000000,4.000000,4.000000,4.000000,4.000000,4.000000,4.000000,4.000000,4.000000,4.000000,4.000000,4.000000,4.000000,100.000000
1602006595.524135,57.000000,0.000000,4109.743652,4120.000000,4118.461426,4124.615234,4121.025879,4138.461426,4146.153809,4151.794922,4148.205078,4137.948730,4118.974121,4131.794922,4098.461426,4090.769287,0.000000,4.000000,,,,0.000000,4.000000,4.000000,4.000000,4.000000,4.000000,4.000000,4.000000,4.000000,4.000000,4.000000,4.000000,4.000000,4.000000,4.000000,100.000000
1602006595.532016,58.000000,0.000000,4109.743652,4120.512695,4112.307617,4122.051270,4123.589844,4129.743652,4144.102539,4150.256348,4139.487305,4141.538574,4107.179688,4123.077148,4093.846191,4088.718018,0.000000,4.000000,,,,0.000000,4.000000,4.000000,4.000000,4.000000,4.000000,4.000000,4.000000,4.000000,4.000000,4.000000,4.000000,4.000000,4.000000,4.000000,100.000000
1602006595.539897,59.000000,0.000000,4104.615234,4121.025879,4109.230957,4122.051270,4122.051270,4125.128418,4135.897461,4138.461426,4127.179688,4136.410156,4100.512695,4119.487305,4090.769287,4085.641113,0.000000,4.000000,,,,0.000000,4.000000,4.000000,4.000000,4.000000,4.000000,4.000000,4.000000,4.000000,4.000000,4.000000,4.000000,4.000000,4.000000,4.000000,100.000000
1602006595.547778,60.000000,0.000000,4108.717773,4121.538574,4117.948730,4124.615234,4122.051270,4127.692383,4136.410156,4134.871582,4123.077148,4129.743652,4112.307617,4125.641113,4102.563965,4094.358887,0.000000,4.000000,,,,0.000000,4.000000,4.000000,4.000000,4.000000,4.000000,4.000000,4.000000,4.000000,4.000000,4.000000,4.000000,4.000000,4.000000,4.000000,100.000000
1602006595.555659,61.000000,0.000000,4123.589844,4131.282227,4126.153809,4133.333496,4124.102539,4126.153809,4133.846191,4136.410156,4124.102539,4134.358887,4128.205078,4136.410156,4111.282227,4106.153809,0.000000,4.000000,,,,0.000000,4.000000,4.000000,4.000000,4.000000,4.000000,4.000000,4.000000,4.000000,4.000000,4.000000,4.000000,4.000000,4.000000,4.000000,100.000000
1602006595.563640,62.000000,0.000000,4128.205078,4136.922852,4124.102539,4135.897461,4123.589844,4120.512695,4127.692383,4132.307617,4126.666504,4132.820313,4117.948730,4137.436035,4104.615234,4105.128418,0.000000,4.000000,,,,0.000000,4.000000,4.000000,4.000000,4.000000,4.000000,4.000000,4.000000,4.000000,4.000000,4.000000,4.000000,4.000000,4.000000,4.000000,100.000000
1602006595.571521,63.000000,0.000000,4122.051270,4127.692383,4121.538574,4126.666504,4122.051270,4118.974121,4131.282227,4127.179688,4128.205078,4127.179688,4108.717773,4128.717773,4101.025879,4102.563965,0.000000,4.000000,,,,0.000000,4.000000,4.000000,4.000000,4.000000,4.000000,4.000000,4.000000,4.000000,4.000000,4.000000,4.000000,4.000000,4.000000,4.000000,100.000000
1602006595.579402,64.000000,0.000000,4121.025879,4122.563965,4123.589844,4125.128418,4122.563965,4121.538574,4134.358887,4128.717773,4122.563965,4138.974121,4121.538574,4127.179688,4107.179688,4106.153809,800.000000,4.000000,,,,0.000000,4.000000,4.000000,4.000000,4.000000,4.000000,4.000000,4.000000,4.000000,4.000000,4.000000,4.000000,4.000000,4.000000,4.000000,100.000000
1602006595.587283,65.000000,0.000000,4124.102539,4128.205078,4124.615234,4129.230957,4124.102539,4123.589844,4125.128418,4128.205078,4112.820313,4138.461426,4127.692383,4130.769043,4108.717773,4108.205078,794.000000,4.000000,,,,0.000000,4.000000,4.000000,4.000000,4.000000,4.000000,4.000000,4.000000,4.000000,4.000000,4.000000,4.000000,4.000000,4.000000,4.000000,100.000000
1602006595.595164,66.000000,0.000000,4125.128418,4127.179688,4122.051270,4124.615234,4122.563965,4131.794922,4118.974121,4123.077148,4109.230957,4119.487305,4121.538574,4130.256348,4108.205078,4109.230957,850.000000,4.000000,,,,0.000000,4.000000,4.000000,4.000000,4.000000,4.000000,4.000000,4.000000,4.000000,4.000000,4.000000,4.000000,4.000000,4.000000,4.000000,100.000000
1602006595.603046,67.000000,0.000000,4122.051270,4122.563965,4120.512695,4121.538574,4122.051270,4137.436035,4128.205078,4128.717773,4121.025879,4133.333496,4124.102539,4134.358887,4110.256348,4110.256348,869.000000,4.000000,,,,0.000000,4.000000,4.000000,4.000000,4.000000,4.000000,4.000000,4.000000,4.000000,4.000000,4.000000,4.000000,4.000000,4.000000,4.000000,100.000000
1602006595.610927,68.000000,0.000000,4117.948730,4124.102539,4122.563965,4123.077148,4123.077148,4132.820313,4136.922852,4138.974121,4134.358887,4157.436035,4122.051270,4138.461426,4107.179688,4105.128418,814.000000,4.000000,,,,0.000000,4.000000,4.000000,4.000000,4.000000,4.000000,4.000000,4.000000,4.000000,4.000000,4.000000,4.000000,4.000000,4.000000,4.000000,100.000000
1602006595.618808,69.000000,0.000000,4117.948730,4125.641113,4122.051270,4124.102539,4123.077148,4127.179688,4137.436035,4145.128418,4136.410156,4140.512695,4118.461426,4135.897461,4110.256348,4108.717773,823.000000,4.000000,,,,0.000000,4.000000,4.000000,4.000000,4.000000,4.000000,4.000000,4.000000,4.000000,4.000000,4.000000,4.000000,4.000000,4.000000,4.000000,100.000000
1602006595.626789,70.000000,0.000000,4123.077148,4123.077148,4122.051270,4127.179688,4121.538574,4124.615234,4137.436035,4150.769043,4140.000000,4132.307617,4131.282227,4135.384766,4120.000000,4118.974121,760.000000,4.000000,,,,0.000000,4.000000,4.000000,4.000000,4.000000,4.000000,4.000000,4.000000,4.000000,4.000000,4.000000,4.000000,4.000000,4.000000,4.000000,100.000000
1602006595.634670,71.000000,0.000000,4125.128418,4122.051270,4127.179688,4126.666504,4122.563965,4123.589844,4137.436035,4151.794922,4138.974121,4146.666504,4132.820313,4140.000000,4114.871582,4120.512695,668.000000,4.000000,,,,0.000000,4.000000,4.000000,4.000000,4.000000,4.000000,4.000000,4.000000,4.000000,4.000000,4.000000,4.000000,4.000000,4.000000,4.000000,100.000000
1602006595.642551,72.000000,0.000000,4121.538574,4123.589844,4128.205078,4121.538574,4125.128418,4120.000000,4132.820313,4143.589844,4126.153809,4129.743652,4120.000000,4141.025879,4104.102539,4121.025879,786.000000,4.000000,,,,0.000000,4.000000,4.000000,4.000000,4.000000,4.000000,4.000000,4.000000,4.000000,4.000000,4.000000,4.000000,4.000000,4.000000,4.000000,100.000000
1602006595.650432,73.000000,0.000000,4121.025879,4124.102539,4124.615234,4123.589844,4123.589844,4111.282227,4125.128418,4132.307617,4116.410156,4110.769043,4118.461426,4133.846191,4104.615234,4120.512695,838.000000,4.000000,,,,0.000000,4.000000,4.000000,4.000000,4.000000,4.000000,4.000000,4.000000,4.000000,4.000000,4.000000,4.000000,4.000000,4.000000,4.000000,100.000000
1602006595.658314,74.000000,0.000000,4124.615234,4121.538574,4121.025879,4125.641113,4119.487305,4110.769043,4122.051270,4121.025879,4108.205078,4127.179688,4124.615234,4128.205078,4104.615234,4109.743652,870.000000,4.000000,,,,0.000000,4.000000,4.000000,4.000000,4.000000,4.000000,4.000000,4.000000,4.000000,4.000000,4.000000,4.000000,4.000000,4.000000,4.000000,100.000000
1602006595.666195,75.000000,0.000000,4125.128418,4122.563965,4120.512695,4123.077148,4123.589844,4128.205078,4122.051270,4115.897461,4101.025879,4143.589844,4127.179688,4133.333496,4109.230957,4103.589844,836.000000,4.000000,,,,0.000000,4.000000,4.000000,4.000000,4.000000,4.000000,4.000000,4.000000,4.000000,4.000000,4.000000,4.000000,4.000000,4.000000,4.000000,100.000000
1602006595.674076,76.000000,0.000000,4124.102539,4132.307617,4124.615234,4129.230957,4135.897461,4142.051270,4124.102539,4120.512695,4113.333496,4138.974121,4121.538574,4141.025879,4121.025879,4115.897461,766.000000,4.000000,,,,0.000000,4.000000,4.000000,4.000000,4.000000,4.000000,4.000000,4.000000,4.000000,4.000000,4.000000,4.000000,4.000000,4.000000,4.000000,100.000000
1602006595.681957,77.000000,0.000000,4124.615234,4137.948730,4124.102539,4132.820313,4141.538574,4138.974121,4123.589844,4121.025879,4123.077148,4139.487305,4110.769043,4137.948730,4121.538574,4122.563965,728.000000,4.000000,,,,0.000000,4.000000,4.000000,4.000000,4.000000,4.000000,4.000000,4.000000,4.000000,4.000000,4.000000,4.000000,4.000000,4.000000,4.000000,100.000000
1602006595.689838,78.000000,0.000000,4134.871582,4137.436035,4118.461426,4129.743652,4138.974121,4135.897461,4114.358887,4122.563965,4117.948730,4150.256348,4115.897461,4132.820313,4125.128418,4125.128418,870.000000,4.000000,,,,0.000000,4.000000,4.000000,4.000000,4.000000,4.000000,4.000000,4.000000,4.000000,4.000000,4.000000,4.000000,4.000000,4.000000,4.000000,100.000000
1602006595.697719,79.000000,0.000000,4143.077148,4139.487305,4122.051270,4133.333496,4139.487305,4135.384766,4110.256348,4142.051270,4134.871582,4154.871582,4133.846191,4135.897461,4133.846191,4132.307617,836.000000,4.000000,,,,0.000000,4.000000,4.000000,4.000000,4.000000,4.000000,4.000000,4.000000,4.000000,4.000000,4.000000,4.000000,4.000000,4.000000,4.000000,100.000000
1602006595.705700,80.000000,0.000000,4136.410156,4140.000000,4133.846191,4138.974121,4142.051270,4129.743652,4123.589844,4159.487305,4162.051270,4155.897461,4137.948730,4140.512695,4124.102539,4126.153809,766.000000,4.000000,,,,0.000000,4.000000,4.000000,4.000000,4.000000,4.000000,4.000000,4.000000,4.000000,4.000000,4.000000,4.000000,4.000000,4.000000,4.000000,100.000000
1602006595.713581,81.000000,0.000000,4133.333496,4137.948730,4137.948730,4137.948730,4136.922852,4123.077148,4136.922852,4161.025879,4161.025879,4155.384766,4135.384766,4144.102539,4121.025879,4129.743652,728.000000,4.000000,,,,0.000000,4.000000,4.000000,4.000000,4.000000,4.000000,4.000000,4.000000,4.000000,4.000000,4.000000,4.000000,4.000000,4.000000,4.000000,100.000000
1602006595.721462,82.000000,0.000000,4141.025879,4133.333496,4136.922852,4134.358887,4127.179688,4117.436035,4140.512695,4158.974121,4147.179688,4154.358887,4140.000000,4148.205078,4144.102539,4153.333496,870.000000,4.000000,,,,0.000000,4.000000,4.000000,4.000000,4.000000,4.000000,4.000000,4.000000,4.000000,4.000000,4.000000,4.000000,4.000000,4.000000,4.000000,100.000000
1602006595.729343,83.000000,0.000000,4140.000000,4124.102539,4138.461426,4128.717773,4125.128418,4120.000000,4144.615234,4159.487305,4143.077148,4155.384766,4142.051270,4155.897461,4156.410156,4158.974121,836.000000,4.000000,,,,0.000000,4.000000,4.000000,4.000000,4.000000,4.000000,4.000000,4.000000,4.000000,4.000000,4.000000,4.000000,4.000000,4.000000,4.000000,100.000000
1602006595.737224,84.000000,0.000000,4125.128418,4115.384766,4141.538574,4125.641113,4130.769043,4131.794922,4146.666504,4149.230957,4131.282227,4156.922852,4146.153809,4165.128418,4150.769043,4150.256348,766.000000,4.000000,,,,0.000000,4.000000,4.000000,4.000000,4.000000,4.000000,4.000000,4.000000,4.000000,4.000000,4.000000,4.000000,4.000000,4.000000,4.000000,100.000000
1602006595.745105,85.000000,0.000000,4108.205078,4104.615234,4139.487305,4123.077148,4133.333496,4136.922852,4138.974121,4129.743652,4113.846191,4152.820313,4153.846191,4169.230957,4157.948730,4155.384766,728.000000,4.000000,,,,0.000000,4.000000,4.000000,4.000000,4.000000,4.000000,4.000000,4.000000,4.000000,4.000000,4.000000,4.000000,4.000000,4.000000,4.000000,100.000000
1602006595.752986,86.000000,0.000000,4098.974121,4091.794922,4132.307617,4114.871582,4132.307617,4135.384766,4131.282227,4121.025879,4112.820313,4149.743652,4152.820313,4168.717773,4163.589844,4151.282227,870.000000,4.000000,,,,0.000000,4.000000,4.000000,4.000000,4.000000,4.000000,4.000000,4.000000,4.000000,4.000000,4.000000,4.000000,4.000000,4.000000,4.000000,100.000000
1602006595.760967,87.000000,0.000000,4103.589844,4094.358887,4123.589844,4114.871582,4137.436035,4138.461426,4124.102539,4121.025879,4126.666504,4156.410156,4148.205078,4166.153809,4156.410156,4142.051270,836.000000,4.000000,,,,0.000000,4.000000,4.000000,4.000000,4.000000,4.000000,4.000000,4.000000,4.000000,4.000000,4.000000,4.000000,4.000000,4.000000,4.000000,100.000000
1602006595.768848,88.000000,0.000000,4109.230957,4108.205078,4122.051270,4123.077148,4149.743652,4141.538574,4120.000000,4119.487305,4144.102539,4154.358887,4158.974121,4167.179688,4165.641113,4159.487305,766.000000,4.000000,,,,0.000000,4.000000,4.000000,4.000000,4.000000,4.000000,4.000000,4.000000,4.000000,4.000000,4.000000,4.000000,4.000000,4.000000,4.000000,100.000000
1602006595.776728,89.000000,0.000000,4100.512695,4110.769043,4130.769043,4122.563965,4152.820313,4141.538574,4128.205078,4129.743652,4160.512695,4152.307617,4170.769043,4171.794922,4187.179688,4175.897461,728.000000,4.000000,,,,0.000000,4.000000,4.000000,4.000000,4.000000,4.000000,4.000000,4.000000,4.000000,4.000000,4.000000,4.000000,4.000000,4.000000,4.000000,100.000000
1602006595.784609,90.000000,0.000000,4101.538574,4107.692383,4132.820313,4122.051270,4143.589844,4143.589844,4140.000000,4152.820313,4172.820313,4176.410156,4165.641113,4175.384766,4189.230957,4164.615234,870.000000,4.000000,,,,0.000000,4.000000,4.000000,4.000000,4.000000,4.000000,4.000000,4.000000,4.000000,4.000000,4.000000,4.000000,4.000000,4.000000,4.000000,100.000000
1602006595.792490,91.000000,0.000000,4115.384766,4108.205078,4125.128418,4123.589844,4138.974121,4144.615234,4143.589844,4157.948730,4176.410156,4192.820313,4160.000000,4173.333496,4174.871582,4155.384766,836.000000,4.000000,,,,0.000000,4.000000,4.000000,4.000000,4.000000,4.000000,4.000000,4.000000,4.000000,4.000000,4.000000,4.000000,4.000000,4.000000,4.000000,100.000000
1602006595.800371,92.000000,0.000000,4109.230957,4106.666504,4118.974121,4119.487305,4141.538574,4142.051270,4144.615234,4151.282227,4172.307617,4174.358887,4161.025879,4170.769043,4166.666504,4157.436035,766.000000,4.000000,,,,0.000000,4.000000,4.000000,4.000000,4.000000,4.000000,4.000000,4.000000,4.000000,4.000000,4.000000,4.000000,4.000000,4.000000,4.000000,100.000000
1602006595.808252,93.000000,0.000000,4091.281982,4103.589844,4113.846191,4117.436035,4141.538574,4139.487305,4142.563965,4151.794922,4163.077148,4161.025879,4149.743652,4164.102539,4159.487305,4140.512695,728.000000,4.000000,,,,0.000000,4.000000,4.000000,4.000000,4.000000,4.000000,4.000000,4.000000,4.000000,4.000000,4.000000,4.000000,4.000000,4.000000,4.000000,100.000000
1602006595.816033,94.000000,0.000000,4095.897461,4104.615234,4111.794922,4124.102539,4137.948730,4137.948730,4137.948730,4145.128418,4146.153809,4166.153809,4138.974121,4153.846191,4152.820313,4120.512695,870.000000,4.000000,,,,0.000000,4.000000,4.000000,4.000000,4.000000,4.000000,4.000000,4.000000,4.000000,4.000000,4.000000,4.000000,4.000000,4.000000,4.000000,100.000000
1602006595.823914,95.000000,0.000000,4111.282227,4106.666504,4120.512695,4126.666504,4136.922852,4136.922852,4137.436035,4136.410156,4134.358887,4146.666504,4147.692383,4158.974121,4153.333496,4132.820313,836.000000,4.000000,,,,0.000000,4.000000,4.000000,4.000000,4.000000,4.000000,4.000000,4.000000,4.000000,4.000000,4.000000,4.000000,4.000000,4.000000,4.000000,100.000000
1602006595.831795,96.000000,0.000000,4109.743652,4108.205078,4131.794922,4125.641113,4136.922852,4133.846191,4141.538574,4139.487305,4134.871582,4112.307617,4155.384766,4170.769043,4154.871582,4157.436035,766.000000,4.000000,,,,0.000000,4.000000,4.000000,4.000000,4.000000,4.000000,4.000000,4.000000,4.000000,4.000000,4.000000,4.000000,4.000000,4.000000,4.000000,100.000000
1602006595.839676,97.000000,0.000000,4105.128418,4108.717773,4130.256348,4130.256348,4139.487305,4134.358887,4140.512695,4136.922852,4135.897461,4117.436035,4152.307617,4172.307617,4152.307617,4159.487305,728.000000,4.000000,,,,0.000000,4.000000,4.000000,4.000000,4.000000,4.000000,4.000000,4.000000,4.000000,4.000000,4.000000,4.000000,4.000000,4.000000,4.000000,100.000000
1602006595.847557,98.000000,0.000000,4105.128418,4108.717773,4124.615234,4134.871582,4141.025879,4140.000000,4138.974121,4126.153809,4131.794922,4150.256348,4147.692383,4168.205078,4152.820313,4143.589844,870.000000,4.000000,,,,0.000000,4.000000,4.000000,4.000000,4.000000,4.000000,4.000000,4.000000,4.000000,4.000000,4.000000,4.000000,4.000000,4.000000,4.000000,100.000000
1602006595.855438,99.000000,0.000000,4096.410156,4107.692383,4122.051270,4127.179688,4137.948730,4139.487305,4136.922852,4121.538574,4137.948730,4158.974121,4139.487305,4159.487305,4149.743652,4127.179688,836.000000,4.000000,,,,0.000000,4.000000,4.000000,4.000000,4.000000,4.000000,4.000000,4.000000,4.000000,4.000000,4.000000,4.000000,4.000000,4.000000,4.000000,100.000000
1602006595.863419,100.000000,0.000000,4094.358887,4106.153809,4118.461426,4120.000000,4134.871582,4133.846191,4135.384766,4121.538574,4152.307617,4153.846191,4138.461426,4150.769043,4148.205078,4124.102539,766.000000,4.000000,,,,0.000000,4.000000,4.000000,4.000000,4.000000,4.000000,4.000000,4.000000,4.000000,4.000000,4.000000,4.000000,4.000000,4.000000,4.000000,100.000000
1602006595.871300,101.000000,0.000000,4104.615234,4107.692383,4121.025879,4128.717773,4137.436035,4139.487305,4135.384766,4127.692383,4163.589844,4168.717773,4145.641113,4155.384766,4160.000000,4133.846191,728.000000,4.000000,,,,0.000000,4.000000,4.000000,4.000000,4.000000,4.000000,4.000000,4.000000,4.000000,4.000000,4.000000,4.000000,4.000000,4.000000,4.000000,100.000000
1602006595.879181,102.000000,0.000000,4113.846191,4115.897461,4133.846191,4135.384766,4146.153809,4152.820313,4136.922852,4137.436035,4177.436035,4175.897461,4151.794922,4172.820313,4170.256348,4145.128418,870.000000,4.000000,,,,0.000000,4.000000,4.000000,4.000000,4.000000,4.000000,4.000000,4.000000,4.000000,4.000000,4.000000,4.000000,4.000000,4.000000,4.000000,100.000000
1602006595.887062,103.000000,0.000000,4118.974121,4121.025879,4140.000000,4129.230957,4155.384766,4156.410156,4147.179688,4144.102539,4187.692383,4161.025879,4162.051270,4186.153809,4171.794922,4155.897461,836.000000,4.000000,,,,0.000000,4.000000,4.000000,4.000000,4.000000,4.000000,4.000000,4.000000,4.000000,4.000000,4.000000,4.000000,4.000000,4.000000,4.000000,100.000000
1602006595.894944,104.000000,0.000000,4113.333496,4115.384766,4127.179688,4123.589844,4152.307617,4154.871582,4153.333496,4147.692383,4182.051270,4148.717773,4164.615234,4183.589844,4170.769043,4153.333496,766.000000,4.000000,,,,0.000000,4.000000,4.000000,4.000000,4.000000,4.000000,4.000000,4.000000,4.000000,4.000000,4.000000,4.000000,4.000000,4.000000,4.000000,100.000000
1602006595.902825,105.000000,0.000000,4098.974121,4107.692383,4118.461426,4125.128418,4140.512695,4154.871582,4145.128418,4145.641113,4164.102539,4143.077148,4141.025879,4171.282227,4161.538574,4137.948730,728.000000,4.000000,,,,0.000000,4.000000,4.000000,4.000000,4.000000,4.000000,4.000000,4.000000,4.000000,4.000000,4.000000,4.000000,4.000000,4.000000,4.000000,100.000000
1602006595.910706,106.000000,0.000000,4090.769287,4104.615234,4122.563965,4122.563965,4136.410156,4154.358887,4138.461426,4139.487305,4151.282227,4148.205078,4122.563965,4166.153809,4149.230957,4130.256348,870.000000,4.000000,,,,0.000000,4.000000,4.000000,4.000000,4.000000,4.000000,4.000000,4.000000,4.000000,4.000000,4.000000,4.000000,4.000000,4.000000,4.000000,100.000000
1602006595.918587,107.000000,0.000000,4095.897461,4105.128418,4121.025879,4119.487305,4138.461426,4151.794922,4140.512695,4135.897461,4149.230957,4162.051270,4136.922852,4166.153809,4151.794922,4138.974121,836.000000,4.000000,,,,0.000000,4.000000,4.000000,4.000000,4.000000,4.000000,4.000000,4.000000,4.000000,4.000000,4.000000,4.000000,4.000000,4.000000,4.000000,100.000000
1602006595.926468,108.000000,0.000000,4112.307617,4109.230957,4127.179688,4130.769043,4137.948730,4148.205078,4141.025879,4132.820313,4149.743652,4164.102539,4152.307617,4168.205078,4163.589844,4152.307617,766.000000,4.000000,,,,0.000000,4.000000,4.000000,4.000000,4.000000,4.000000,4.000000,4.000000,4.000000,4.000000,4.000000,4.000000,4.000000,4.000000,4.000000,100.000000
1602006595.934449,109.000000,0.000000,4122.051270,4112.307617,4142.051270,4136.922852,4135.384766,4138.974121,4137.436035,4123.077148,4140.000000,4152.307617,4147.179688,4172.820313,4162.563965,4150.769043,728.000000,4.000000,,,,0.000000,4.000000,4.000000,4.000000,4.000000,4.000000,4.000000,4.000000,4.000000,4.000000,4.000000,4.000000,4.000000,4.000000,4.000000,100.000000
1602006595.942330,110.000000,0.000000,4111.794922,4107.692383,4141.025879,4125.128418,4135.897461,4132.307617,4133.846191,4114.871582,4127.179688,4135.384766,4132.820313,4172.820313,4146.666504,4138.461426,870.000000,4.000000,,,,0.000000,4.000000,4.000000,4.000000,4.000000,4.000000,4.000000,4.000000,4.000000,4.000000,4.000000,4.000000,4.000000,4.000000,4.000000,100.000000
1602006595.950211,111.000000,0.000000,4104.615234,4105.128418,4132.820313,4119.487305,4137.436035,4138.974121,4129.743652,4114.871582,4128.717773,4124.102539,4124.615234,4169.743652,4138.974121,4138.974121,836.000000,4.000000,,,,0.000000,4.000000,4.000000,4.000000,4.000000,4.000000,4.000000,4.000000,4.000000,4.000000,4.000000,4.000000,4.000000,4.000000,4.000000,100.000000
1602006595.958092,112.000000,0.000000,4112.307617,4110.769043,4132.820313,4128.205078,4142.051270,4144.102539,4127.179688,4124.615234,4143.077148,4136.922852,4130.769043,4171.794922,4148.205078,4144.615234,766.000000,4.000000,,,,0.000000,4.000000,4.000000,4.000000,4.000000,4.000000,4.000000,4.000000,4.000000,4.000000,4.000000,4.000000,4.000000,4.000000,4.000000,100.000000
1602006595.965973,113.000000,0.000000,4110.769043,4109.230957,4122.051270,4128.717773,4146.153809,4135.897461,4123.077148,4135.384766,4155.897461,4159.487305,4138.974121,4164.102539,4154.358887,4136.922852,728.000000,4.000000,,,,0.000000,4.000000,4.000000,4.000000,4.000000,4.000000,4.000000,4.000000,4.000000,4.000000,4.000000,4.000000,4.000000,4.000000,4.000000,100.000000
1602006595.973954,114.000000,0.000000,4101.538574,4105.641113,4102.051270,4125.641113,4144.615234,4140.512695,4125.128418,4138.461426,4159.487305,4156.922852,4144.615234,4150.256348,4149.230957,4138.461426,870.000000,4.000000,,,,0.000000,4.000000,4.000000,4.000000,4.000000,4.000000,4.000000,4.000000,4.000000,4.000000,4.000000,4.000000,4.000000,4.000000,4.000000,100.000000
1602006595.981834,115.000000,0.000000,4104.102539,4111.794922,4108.717773,4132.820313,4145.641113,4152.820313,4133.333496,4136.922852,4161.025879,4153.846191,4149.743652,4153.333496,4148.205078,4150.769043,836.000000,4.000000,,,,0.000000,4.000000,4.000000,4.000000,4.000000,4.000000,4.000000,4.000000,4.000000,4.000000,4.000000,4.000000,4.000000,4.000000,4.000000,100.000000
1602006595.989715,116.000000,0.000000,4120.000000,4122.051270,4135.384766,4139.487305,4153.333496,4151.794922,4135.897461,4140.512695,4169.743652,4180.512695,4155.384766,4169.230957,4158.461426,4151.794922,766.000000,4.000000,,,,0.000000,4.000000,4.000000,4.000000,4.000000,4.000000,4.000000,4.000000,4.000000,4.000000,4.000000,4.000000,4.000000,4.000000,4.000000,100.000000
1602006595.997596,117.000000,0.000000,4136.922852,4129.230957,4148.205078,4142.563965,4153.846191,4149.743652,4138.974121,4147.179688,4174.871582,4192.820313,4158.974121,4177.948730,4171.282227,4153.846191,728.000000,4.000000,,,,0.000000,4.000000,4.000000,4.000000,4.000000,4.000000,4.000000,4.000000,4.000000,4.000000,4.000000,4.000000,4.000000,4.000000,4.000000,100.000000
1602006596.005477,118.000000,0.000000,4126.153809,4121.538574,4141.538574,4135.897461,4137.948730,4148.717773,4146.666504,4142.051270,4158.461426,4160.512695,4152.307617,4175.384766,4167.179688,4158.461426,870.000000,4.000000,,,,0.000000,4.000000,4.000000,4.000000,4.000000,4.000000,4.000000,4.000000,4.000000,4.000000,4.000000,4.000000,4.000000,4.000000,4.000000,100.000000
1602006596.013358,119.000000,0.000000,4107.179688,4111.282227,4138.461426,4124.615234,4126.153809,4141.025879,4150.256348,4130.256348,4134.358887,4133.333496,4140.000000,4165.641113,4147.179688,4150.256348,836.000000,4.000000,,,,0.000000,4.000000,4.000000,4.000000,4.000000,4.000000,4.000000,4.000000,4.000000,4.000000,4.000000,4.000000,4.000000,4.000000,4.000000,100.000000
1602006596.021339,120.000000,0.000000,4120.512695,4114.358887,4143.077148,4124.102539,4130.769043,4138.461426,4148.205078,4131.282227,4136.410156,4137.436035,4134.358887,4158.461426,4138.974121,4140.512695,766.000000,4.000000,,,,0.000000,4.000000,4.000000,4.000000,4.000000,4.000000,4.000000,4.000000,4.000000,4.000000,4.000000,4.000000,4.000000,4.000000,4.000000,100.000000
1602006596.029220,121.000000,0.000000,4124.102539,4113.846191,4134.358887,4127.179688,4136.410156,4143.077148,4143.589844,4141.538574,4155.384766,4137.436035,4134.358887,4154.871582,4144.615234,4142.051270,728.000000,4.000000,,,,0.000000,4.000000,4.000000,4.000000,4.000000,4.000000,4.000000,4.000000,4.000000,4.000000,4.000000,4.000000,4.000000,4.000000,4.000000,100.000000
1602006596.037102,122.000000,0.000000,4089.743652,4101.538574,4114.871582,4117.948730,4134.358887,4136.410156,4136.922852,4138.974121,4155.897461,4135.384766,4122.051270,4146.153809,4138.461426,4135.384766,870.000000,4.000000,,,,0.000000,4.000000,4.000000,4.000000,4.000000,4.000000,4.000000,4.000000,4.000000,4.000000,4.000000,4.000000,4.000000,4.000000,4.000000,100.000000
1602006596.044983,123.000000,0.000000,4085.641113,4104.615234,4113.333496,4115.897461,4135.897461,4132.820313,4135.897461,4132.820313,4152.307617,4159.487305,4117.948730,4145.641113,4138.974121,4131.282227,836.000000,4.000000,,,,0.000000,4.000000,4.000000,4.000000,4.000000,4.000000,4.000000,4.000000,4.000000,4.000000,4.000000,4.000000,4.000000,4.000000,4.000000,100.000000
1602006596.052864,124.000000,0.000000,4128.205078,4128.717773,4134.871582,4132.307617,4148.205078,4148.205078,4137.948730,4145.641113,4170.769043,4178.974121,4146.153809,4170.256348,4160.512695,4160.000000,766.000000,4.000000,,,,0.000000,4.000000,4.000000,4.000000,4.000000,4.000000,4.000000,4.000000,4.000000,4.000000,4.000000,4.000000,4.000000,4.000000,4.000000,100.000000
1602006596.060745,125.000000,0.000000,4145.128418,4139.487305,4150.769043,4144.102539,4156.922852,4157.436035,4136.410156,4157.436035,4185.641113,4174.871582,4170.256348,4191.794922,4175.384766,4182.051270,728.000000,4.000000,,,,0.000000,4.000000,4.000000,4.000000,4.000000,4.000000,4.000000,4.000000,4.000000,4.000000,4.000000,4.000000,4.000000,4.000000,4.000000,100.000000
1602006596.068626,126.000000,0.000000,4135.897461,4138.461426,4153.846191,4143.589844,4153.333496,4147.179688,4135.897461,4148.717773,4180.000000,4172.307617,4163.589844,4186.666504,4168.717773,4164.615234,870.000000,4.000000,,,,0.000000,4.000000,4.000000,4.000000,4.000000,4.000000,4.000000,4.000000,4.000000,4.000000,4.000000,4.000000,4.000000,4.000000,4.000000,100.000000
1602006596.076507,127.000000,0.000000,4134.358887,4138.461426,4149.743652,4143.589844,4145.641113,4136.410156,4137.436035,4136.922852,4166.153809,4162.563965,4145.641113,4167.179688,4152.820313,4145.128418,836.000000,4.000000,,,,0.000000,4.000000,4.000000,4.000000,4.000000,4.000000,4.000000,4.000000,4.000000,4.000000,4.000000,4.000000,4.000000,4.000000,4.000000,100.000000
1602006596.084488,128.000000,0.000000,4130.769043,4133.846191,4141.538574,4141.538574,4141.025879,4143.077148,4138.461426,4135.384766,4149.230957,4136.410156,4134.358887,4154.358887,4137.436035,4139.487305,766.000000,4.000000,,,,0.000000,4.000000,4.000000,4.000000,4.000000,4.000000,4.000000,4.000000,4.000000,4.000000,4.000000,4.000000,4.000000,4.000000,4.000000,100.000000
1602006596.092369,0.000000,0.000000,4117.948730,4121.538574,4137.436035,4129.230957,4136.922852,4153.333496,4138.974121,4135.897461,4135.897461,4129.230957,4124.615234,4150.769043,4129.743652,4125.128418,799.000000,4.000000,,,,0.000000,4.000000,4.000000,4.000000,4.000000,4.000000,4.000000,4.000000,4.000000,4.000000,4.000000,4.000000,4.000000,4.000000,4.000000,100.000000
1602006596.100250,1.000000,0.000000,4114.871582,4115.384766,4137.948730,4123.589844,4133.846191,4149.743652,4142.051270,4133.846191,4139.487305,4141.538574,4124.615234,4152.820313,4135.384766,4123.077148,793.000000,4.000000,,,,0.000000,4.000000,4.000000,4.000000,4.000000,4.000000,4.000000,4.000000,4.000000,4.000000,4.000000,4.000000,4.000000,4.000000,4.000000,100.000000
1602006596.108131,2.000000,0.000000,4124.615234,4126.153809,4138.974121,4134.871582,4136.922852,4143.589844,4144.615234,4135.384766,4147.179688,4148.205078,4136.922852,4148.717773,4141.025879,4149.230957,850.000000,4.000000,,,,0.000000,4.000000,4.000000,4.000000,4.000000,4.000000,4.000000,4.000000,4.000000,4.000000,4.000000,4.000000,4.000000,4.000000,4.000000,100.000000
1602006596.116012,3.000000,0.000000,4131.794922,4130.256348,4140.000000,4141.025879,4137.948730,4140.512695,4141.538574,4134.871582,4149.743652,4159.487305,4143.589844,4143.077148,4139.487305,4153.846191,869.000000,4.000000,,,,0.000000,4.000000,4.000000,4.000000,4.000000,4.000000,4.000000,4.000000,4.000000,4.000000,4.000000,4.000000,4.000000,4.000000,4.000000,100.000000
1602006596.123893,4.000000,0.000000,4132.820313,4124.102539,4147.179688,4138.461426,4136.410156,4137.948730,4135.384766,4134.358887,4157.436035,4173.333496,4143.589844,4149.230957,4145.641113,4142.051270,814.000000,4.000000,,,,0.000000,4.000000,4.000000,4.000000,4.000000,4.000000,4.000000,4.000000,4.000000,4.000000,4.000000,4.000000,4.000000,4.000000,4.000000,100.000000
1602006596.131874,5.000000,0.000000,4136.922852,4130.769043,4155.897461,4138.974121,4143.077148,4143.077148,4141.538574,4145.128418,4169.230957,4171.282227,4151.282227,4165.641113,4163.589844,4160.000000,788.000000,4.000000,,,,0.000000,4.000000,4.000000,4.000000,4.000000,4.000000,4.000000,4.000000,4.000000,4.000000,4.000000,4.000000,4.000000,4.000000,4.000000,100.000000
1602006596.139755,6.000000,0.000000,4148.717773,4138.461426,4159.487305,4135.384766,4147.692383,4150.256348,4154.358887,4156.922852,4173.846191,4166.666504,4163.077148,4176.922852,4172.307617,4181.538574,760.000000,4.000000,,,,0.000000,4.000000,4.000000,4.000000,4.000000,4.000000,4.000000,4.000000,4.000000,4.000000,4.000000,4.000000,4.000000,4.000000,4.000000,100.000000
1602006596.147636,7.000000,0.000000,4146.666504,4127.692383,4153.333496,4125.128418,4141.538574,4144.102539,4151.282227,4157.948730,4173.846191,4172.307617,4156.410156,4172.307617,4158.461426,4167.179688,668.000000,4.000000,,,,0.000000,4.000000,4.000000,4.000000,4.000000,4.000000,4.000000,4.000000,4.000000,4.000000,4.000000,4.000000,4.000000,4.000000,4.000000,100.000000
1602006596.155517,8.000000,0.000000,4120.512695,4109.743652,4133.846191,4121.538574,4136.410156,4136.410156,4136.922852,4152.307617,4165.128418,4170.256348,4128.205078,4151.794922,4134.871582,4142.051270,786.000000,4.000000,,,,0.000000,4.000000,4.000000,4.000000,4.000000,4.000000,4.000000,4.000000,4.000000,4.000000,4.000000,4.000000,4.000000,4.000000,4.000000,100.000000
1602006596.163399,9.000000,0.000000,4097.948730,4106.666504,4113.846191,4122.051270,4138.974121,4138.461426,4134.358887,4146.153809,4151.282227,4144.102539,4116.410156,4133.333496,4121.538574,4132.307617,838.000000,4.000000,,,,0.000000,4.000000,4.000000,4.000000,4.000000,4.000000,4.000000,4.000000,4.000000,4.000000,4.000000,4.000000,4.000000,4.000000,4.000000,100.000000
1602006596.171280,10.000000,0.000000,4101.025879,4112.307617,4107.692383,4123.077148,4144.102539,4141.025879,4140.512695,4142.051270,4147.179688,4117.436035,4130.256348,4134.871582,4122.051270,4123.589844,870.000000,4.000000,,,,0.000000,4.000000,4.000000,4.000000,4.000000,4.000000,4.000000,4.000000,4.000000,4.000000,4.000000,4.000000,4.000000,4.000000,4.000000,100.000000
1602006596.179161,11.000000,0.000000,4107.692383,4111.282227,4108.717773,4123.077148,4143.589844,4138.974121,4139.487305,4141.538574,4151.282227,4123.077148,4135.897461,4140.512695,4123.589844,4117.948730,836.000000,4.000000,,,,0.000000,4.000000,4.000000,4.000000,4.000000,4.000000,4.000000,4.000000,4.000000,4.000000,4.000000,4.000000,4.000000,4.000000,4.000000,100.000000
1602006596.187042,12.000000,0.000000,4102.563965,4110.256348,4109.230957,4120.000000,4138.461426,4133.846191,4135.384766,4140.512695,4151.794922,4151.282227,4137.948730,4138.974121,4125.641113,4127.179688,766.000000,4.000000,,,,0.000000,4.000000,4.000000,4.000000,4.000000,4.000000,4.000000,4.000000,4.000000,4.000000,4.000000,4.000000,4.000000,4.000000,4.000000,100.000000
1602006596.194923,13.000000,0.000000,4109.230957,4119.487305,4119.487305,4126.666504,4136.922852,4132.820313,4135.897461,4139.487305,4152.820313,4161.538574,4149.743652,4145.641113,4135.897461,4142.051270,728.000000,4.000000,,,,0.000000,4.000000,4.000000,4.000000,4.000000,4.000000,4.000000,4.000000,4.000000,4.000000,4.000000,4.000000,4.000000,4.000000,4.000000,100.000000
1602006596.202904,14.000000,0.000000,4124.102539,4127.179688,4133.846191,4135.384766,4134.358887,4132.820313,4136.922852,4142.051270,4155.897461,4150.769043,4148.717773,4155.897461,4143.589844,4143.589844,870.000000,4.000000,,,,0.000000,4.000000,4.000000,4.000000,4.000000,4.000000,4.000000,4.000000,4.000000,4.000000,4.000000,4.000000,4.000000,4.000000,4.000000,100.000000
1602006596.210784,15.000000,0.000000,4128.205078,4123.589844,4136.922852,4130.256348,4127.179688,4126.666504,4137.948730,4144.102539,4156.922852,4157.436035,4138.974121,4154.358887,4138.461426,4136.922852,836.000000,4.000000,,,,0.000000,4.000000,4.000000,4.000000,4.000000,4.000000,4.000000,4.000000,4.000000,4.000000,4.000000,4.000000,4.000000,4.000000,4.000000,100.000000
1602006596.218665,16.000000,0.000000,4121.025879,4119.487305,4135.384766,4121.538574,4124.615234,4121.025879,4138.461426,4143.077148,4148.205078,4163.589844,4136.410156,4149.743652,4133.846191,4144.102539,0.000000,4.000000,,,,0.000000,4.000000,4.000000,4.000000,4.000000,4.000000,4.000000,4.000000,4.000000,4.000000,4.000000,4.000000,4.000000,4.000000,4.000000,100.000000
1602006596.226646,17.000000,0.000000,4114.871582,4120.000000,4138.461426,4123.077148,4127.179688,4121.538574,4136.922852,4142.563965,4138.461426,4138.461426,4138.461426,4153.846191,4137.948730,4152.820313,0.000000,4.000000,,,,0.000000,4.000000,4.000000,4.000000,4.000000,4.000000,4.000000,4.000000,4.000000,4.000000,4.000000,4.000000,4.000000,4.000000,4.000000,100.000000
1602006596.234627,18.000000,0.000000,4118.974121,4120.000000,4141.538574,4126.153809,4129.743652,4121.538574,4134.871582,4141.538574,4134.358887,4120.512695,4143.077148,4158.461426,4136.410156,4149.230957,0.000000,4.000000,,,,0.000000,4.000000,4.000000,4.000000,4.000000,4.000000,4.000000,4.000000,4.000000,4.000000,4.000000,4.000000,4.000000,4.000000,4.000000,100.000000
1602006596.242508,19.000000,0.000000,4121.025879,4116.410156,4141.025879,4123.077148,4130.769043,4119.487305,4128.205078,4142.051270,4139.487305,4133.846191,4140.512695,4152.820313,4127.179688,4139.487305,0.000000,4.000000,,,,0.000000,4.000000,4.000000,4.000000,4.000000,4.000000,4.000000,4.000000,4.000000,4.000000,4.000000,4.000000,4.000000,4.000000,4.000000,100.000000
1602006596.250389,20.000000,0.000000,4108.205078,4111.794922,4140.512695,4122.051270,4130.256348,4120.000000,4120.512695,4142.051270,4150.256348,4149.230957,4123.077148,4139.487305,4117.436035,4126.666504,0.000000,4.000000,,,,0.000000,4.000000,4.000000,4.000000,4.000000,4.000000,4.000000,4.000000,4.000000,4.000000,4.000000,4.000000,4.000000,4.000000,4.000000,100.000000
1602006596.258270,21.000000,0.000000,4104.102539,4115.384766,4137.948730,4126.153809,4126.666504,4123.589844,4123.077148,4138.974121,4145.128418,4150.769043,4116.410156,4132.307617,4109.743652,4121.025879,0.000000,4.000000,,,,0.000000,4.000000,4.000000,4.000000,4.000000,4.000000,4.000000,4.000000,4.000000,4.000000,4.000000,4.000000,4.000000,4.000000,4.000000,100.000000
1602006596.266151,22.000000,0.000000,4120.512695,4124.615234,4131.282227,4130.256348,4127.179688,4127.179688,4135.384766,4137.948730,4122.563965,4136.922852,4127.179688,4137.948730,4114.358887,4124.615234,0.000000,4.000000,,,,0.000000,4.000000,4.000000,4.000000,4.000000,4.000000,4.000000,4.000000,4.000000,4.000000,4.000000,4.000000,4.000000,4.000000,4.000000,100.000000
1602006596.274032,23.000000,0.000000,4121.025879,4124.102539,4123.077148,4126.153809,4127.179688,4125.128418,4139.487305,4140.512695,4114.871582,4116.922852,4127.692383,4135.384766,4122.563965,4127.692383,0.000000,4.000000,,,,0.000000,4.000000,4.000000,4.000000,4.000000,4.000000,4.000000,4.000000,4.000000,4.000000,4.000000,4.000000,4.000000,4.000000,4.000000,100.000000
1602006596.281914,24.000000,0.000000,4104.615234,4114.871582,4118.974121,4117.948730,4125.128418,4126.666504,4132.820313,4135.897461,4128.717773,4128.205078,4121.538574,4123.077148,4121.538574,4129.230957,0.000000,4.000000,,,,0.000000,4.000000,4.000000,4.000000,4.000000,4.000000,4.000000,4.000000,4.000000,4.000000,4.000000,4.000000,4.000000,4.000000,4.000000,100.000000
1602006596.289795,25.000000,0.000000,4104.615234,4109.743652,4120.000000,4120.512695,4130.256348,4135.897461,4126.153809,4123.589844,4131.282227,4151.282227,4123.589844,4120.000000,4120.512695,4131.794922,0.000000,4.000000,,,,0.000000,4.000000,4.000000,4.000000,4.000000,4.000000,4.000000,4.000000,4.000000,4.000000,4.000000,4.000000,4.000000,4.000000,4.000000,100.000000
1602006596.297776,26.000000,0.000000,4113.333496,4109.743652,4118.461426,4124.102539,4137.436035,4139.487305,4123.589844,4119.487305,4124.102539,4130.769043,4131.794922,4123.077148,4123.589844,4127.692383,0.000000,4.000000,,,,0.000000,4.000000,4.000000,4.000000,4.000000,4.000000,4.000000,4.000000,4.000000,4.000000,4.000000,4.000000,4.000000,4.000000,4.000000,100.000000
1602006596.305656,27.000000,0.000000,4109.743652,4109.230957,4112.307617,4117.436035,4138.461426,4133.846191,4123.589844,4128.205078,4137.436035,4120.512695,4138.974121,4122.051270,4129.230957,4124.102539,0.000000,4.000000,,,,0.000000,4.000000,4.000000,4.000000,4.000000,4.000000,4.000000,4.000000,4.000000,4.000000,4.000000,4.000000,4.000000,4.000000,4.000000,100.000000
1602006596.313537,28.000000,0.000000,4104.615234,4108.717773,4107.179688,4115.897461,4133.846191,4128.717773,4126.153809,4139.487305,4154.358887,4156.410156,4140.000000,4121.025879,4138.461426,4126.666504,0.000000,4.000000,,,,0.000000,4.000000,4.000000,4.000000,4.000000,4.000000,4.000000,4.000000,4.000000,4.000000,4.000000,4.000000,4.000000,4.000000,4.000000,100.000000
1602006596.321418,29.000000,0.000000,4107.692383,4109.743652,4110.769043,4124.615234,4136.410156,4123.589844,4131.282227,4144.102539,4149.230957,4176.922852,4136.410156,4121.025879,4134.871582,4118.461426,0.000000,4.000000,,,,0.000000,4.000000,4.000000,4.000000,4.000000,4.000000,4.000000,4.000000,4.000000,4.000000,4.000000,4.000000,4.000000,4.000000,4.000000,100.000000
1602006596.329299,30.000000,0.000000,4109.230957,4109.230957,4117.948730,4127.692383,4136.922852,4122.051270,4137.436035,4142.051270,4138.461426,4157.436035,4140.000000,4118.461426,4123.077148,4107.692383,0.000000,4.000000,,,,0.000000,4.000000,4.000000,4.000000,4.000000,4.000000,4.000000,4.000000,4.000000,4.000000,4.000000,4.000000,4.000000,4.000000,4.000000,100.000000
1602006596.337180,31.000000,0.000000,4105.641113,4109.230957,4122.563965,4121.538574,4127.179688,4125.128418,4141.025879,4138.974121,4131.282227,4141.025879,4139.487305,4121.025879,4123.589844,4112.307617,0.000000,4.000000,,,,0.000000,4.000000,4.000000,4.000000,4.000000,4.000000,4.000000,4.000000,4.000000,4.000000,4.000000,4.000000,4.000000,4.000000,4.000000,100.000000
1602006596.345161,32.000000,0.000000,4102.563965,4109.230957,4124.102539,4118.974121,4124.102539,4127.179688,4136.922852,4137.436035,4123.077148,4138.974121,4122.051270,4123.077148,4115.897461,4110.256348,0.000000,4.000000,,,,0.000000,4.000000,4.000000,4.000000,4.000000,4.000000,4.000000,4.000000,4.000000,4.000000,4.000000,4.000000,4.000000,4.000000,4.000000,100.000000
1602006596.353042,33.000000,0.000000,4103.077148,4106.153809,4120.512695,4123.077148,4134.871582,4130.256348,4128.205078,4134.871582,4120.512695,4125.128418,4112.307617,4116.410156,4098.461426,4097.436035,0.000000,4.000000,,,,0.000000,4.000000,4.000000,4.000000,4.000000,4.000000,4.000000,4.000000,4.000000,4.000000,4.000000,4.000000,4.000000,4.000000,4.000000,100.000000
1602006596.360923,34.000000,0.000000,4096.922852,4109.230957,4113.333496,4122.563965,4141.025879,4132.307617,4123.077148,4128.205078,4123.077148,4101.025879,4121.538574,4109.230957,4100.512695,4107.179688,0.000000,4.000000,,,,0.000000,4.000000,4.000000,4.000000,4.000000,4.000000,4.000000,4.000000,4.000000,4.000000,4.000000,4.000000,4.000000,4.000000,4.000000,100.000000
1602006596.368804,35.000000,0.000000,4088.718018,4110.256348,4105.641113,4115.384766,4133.846191,4127.179688,4118.461426,4125.641113,4123.589844,4104.102539,4123.077148,4108.205078,4108.205078,4119.487305,0.000000,4.000000,,,,0.000000,4.000000,4.000000,4.000000,4.000000,4.000000,4.000000,4.000000,4.000000,4.000000,4.000000,4.000000,4.000000,4.000000,4.000000,100.000000
1602006596.376685,36.000000,0.000000,4095.897461,4109.230957,4103.077148,4113.846191,4132.307617,4121.025879,4113.846191,4132.307617,4131.794922,4138.461426,4122.563965,4113.846191,4108.205078,4109.230957,0.000000,4.000000,,,,0.000000,4.000000,4.000000,4.000000,4.000000,4.000000,4.000000,4.000000,4.000000,4.000000,4.000000,4.000000,4.000000,4.000000,4.000000,100.000000
1602006596.384566,37.000000,0.000000,4111.794922,4118.974121,4114.358887,4123.589844,4142.051270,4125.641113,4112.820313,4136.922852,4152.820313,4162.051270,4138.461426,4121.538574,4120.512695,4116.410156,0.000000,4.000000,,,,0.000000,4.000000,4.000000,4.000000,4.000000,4.000000,4.000000,4.000000,4.000000,4.000000,4.000000,4.000000,4.000000,4.000000,4.000000,100.000000
1602006596.392546,38.000000,0.000000,4115.384766,4128.205078,4130.769043,4129.743652,4145.128418,4129.743652,4113.333496,4135.897461,4154.871582,4156.922852,4145.641113,4123.077148,4134.871582,4141.025879,0.000000,4.000000,,,,0.000000,4.000000,4.000000,4.000000,4.000000,4.000000,4.000000,4.000000,4.000000,4.000000,4.000000,4.000000,4.000000,4.000000,4.000000,100.000000
1602006596.400427,39.000000,0.000000,4109.743652,4120.512695,4136.410156,4125.128418,4133.333496,4122.563965,4114.358887,4136.922852,4140.000000,4156.922852,4137.436035,4127.692383,4130.256348,4142.563965,0.000000,4.000000,,,,0.000000,4.000000,4.000000,4.000000,4.000000,4.000000,4.000000,4.000000,4.000000,4.000000,4.000000,4.000000,4.000000,4.000000,4.000000,100.000000
1602006596.408308,40.000000,0.000000,4114.871582,4113.846191,4139.487305,4123.077148,4124.102539,4120.512695,4122.051270,4141.025879,4140.512695,4161.538574,4137.436035,4145.641113,4125.128418,4137.436035,0.000000,4.000000,,,,0.000000,4.000000,4.000000,4.000000,4.000000,4.000000,4.000000,4.000000,4.000000,4.000000,4.000000,4.000000,4.000000,4.000000,4.000000,100.000000
1602006596.416288,41.000000,0.000000,4125.641113,4112.307617,4142.051270,4126.153809,4121.025879,4125.128418,4133.846191,4142.051270,4141.538574,4130.769043,4137.948730,4154.358887,4125.641113,4143.589844,0.000000,4.000000,,,,0.000000,4.000000,4.000000,4.000000,4.000000,4.000000,4.000000,4.000000,4.000000,4.000000,4.000000,4.000000,4.000000,4.000000,4.000000,100.000000
1602006596.424269,42.000000,0.000000,4117.436035,4100.000000,4131.282227,4117.948730,4111.794922,4119.487305,4137.948730,4140.512695,4122.051270,4098.974121,4134.358887,4142.563965,4119.487305,4141.538574,0.000000,4.000000,,,,0.000000,4.000000,4.000000,4.000000,4.000000,4.000000,4.000000,4.000000,4.000000,4.000000,4.000000,4.000000,4.000000,4.000000,4.000000,100.000000
1602006596.432149,43.000000,0.000000,4102.563965,4090.256348,4121.025879,4105.641113,4110.769043,4115.897461,4142.051270,4144.102539,4120.000000,4124.615234,4138.974121,4132.307617,4116.922852,4130.769043,0.000000,4.000000,,,,0.000000,4.000000,4.000000,4.000000,4.000000,4.000000,4.000000,4.000000,4.000000,4.000000,4.000000,4.000000,4.000000,4.000000,4.000000,100.000000
1602006596.440030,44.000000,0.000000,4098.974121,4096.410156,4121.538574,4108.205078,4122.563965,4128.717773,4148.205078,4145.641113,4144.102539,4163.077148,4136.410156,4125.128418,4121.025879,4117.436035,0.000000,4.000000,,,,0.000000,4.000000,4.000000,4.000000,4.000000,4.000000,4.000000,4.000000,4.000000,4.000000,4.000000,4.000000,4.000000,4.000000,4.000000,100.000000
1602006596.447911,45.000000,0.000000,4094.871826,4105.641113,4117.436035,4118.461426,4126.153809,4136.410156,4145.641113,4140.000000,4138.974121,4144.615234,4124.102539,4111.282227,4113.333496,4102.563965,0.000000,4.000000,,,,0.000000,4.000000,4.000000,4.000000,4.000000,4.000000,4.000000,4.000000,4.000000,4.000000,4.000000,4.000000,4.000000,4.000000,4.000000,100.000000
1602006596.455891,46.000000,0.000000,4092.820557,4107.179688,4108.717773,4122.051270,4123.077148,4132.307617,4138.461426,4133.333496,4116.410156,4118.974121,4121.025879,4103.589844,4098.461426,4096.410156,0.000000,4.000000,,,,0.000000,4.000000,4.000000,4.000000,4.000000,4.000000,4.000000,4.000000,4.000000,4.000000,4.000000,4.000000,4.000000,4.000000,4.000000,100.000000
1602006596.463772,47.000000,0.000000,4103.589844,4107.692383,4108.205078,4122.051270,4131.794922,4130.769043,4134.358887,4133.846191,4119.487305,4138.461426,4123.589844,4111.282227,4097.436035,4091.281982,0.000000,4.000000,,,,0.000000,4.000000,4.000000,4.000000,4.000000,4.000000,4.000000,4.000000,4.000000,4.000000,4.000000,4.000000,4.000000,4.000000,4.000000,100.000000
1602006596.471653,48.000000,0.000000,4108.205078,4109.230957,4112.307617,4120.000000,4135.384766,4130.256348,4130.256348,4137.436035,4125.641113,4141.538574,4118.461426,4120.512695,4104.102539,4088.718018,0.000000,4.000000,,,,0.000000,4.000000,4.000000,4.000000,4.000000,4.000000,4.000000,4.000000,4.000000,4.000000,4.000000,4.000000,4.000000,4.000000,4.000000,100.000000
1602006596.479534,49.000000,0.000000,4108.717773,4114.358887,4123.077148,4121.025879,4125.128418,4122.051270,4121.025879,4137.948730,4119.487305,4108.717773,4118.461426,4123.077148,4107.692383,4100.000000,0.000000,4.000000,,,,0.000000,4.000000,4.000000,4.000000,4.000000,4.000000,4.000000,4.000000,4.000000,4.000000,4.000000,4.000000,4.000000,4.000000,4.000000,100.000000
1602006596.487415,50.000000,0.000000,4120.000000,4122.051270,4135.384766,4125.128418,4121.025879,4113.333496,4110.769043,4136.410156,4118.974121,4102.563965,4123.077148,4123.077148,4106.666504,4116.410156,0.000000,4.000000,,,,0.000000,4.000000,4.000000,4.000000,4.000000,4.000000,4.000000,4.000000,4.000000,4.000000,4.000000,4.000000,4.000000,4.000000,4.000000,100.000000
1602006596.495296,51.000000,0.000000,4127.179688,4122.563965,4138.461426,4125.641113,4125.641113,4114.358887,4107.179688,4134.871582,4123.077148,4131.282227,4120.000000,4122.051270,4107.692383,4121.538574,0.000000,4.000000,,,,0.000000,4.000000,4.000000,4.000000,4.000000,4.000000,4.000000,4.000000,4.000000,4.000000,4.000000,4.000000,4.000000,4.000000,4.000000,100.000000
1602006596.503177,52.000000,0.000000,4124.615234,4120.512695,4137.436035,4125.128418,4125.641113,4123.077148,4110.769043,4137.436035,4120.512695,4137.948730,4122.051270,4125.128418,4118.461426,4121.025879,0.000000,4.000000,,,,0.000000,4.000000,4.000000,4.000000,4.000000,4.000000,4.000000,4.000000,4.000000,4.000000,4.000000,4.000000,4.000000,4.000000,4.000000,100.000000
1602006596.511058,53.000000,0.000000,4122.563965,4121.025879,4136.922852,4123.589844,4121.025879,4122.563965,4118.974121,4140.000000,4120.512695,4133.846191,4130.256348,4136.410156,4126.153809,4128.717773,0.000000,4.000000,,,,0.000000,4.000000,4.000000,4.000000,4.000000,4.000000,4.000000,4.000000,4.000000,4.000000,4.000000,4.000000,4.000000,4.000000,4.000000,100.000000
1602006596.519039,54.000000,0.000000,4124.615234,4121.025879,4135.897461,4124.615234,4126.666504,4115.384766,4130.769043,4140.000000,4131.282227,4152.307617,4131.282227,4143.589844,4123.077148,4136.922852,0.000000,4.000000,,,,0.000000,4.000000,4.000000,4.000000,4.000000,4.000000,4.000000,4.000000,4.000000,4.000000,4.000000,4.000000,4.000000,4.000000,4.000000,100.000000
1602006596.526920,55.000000,0.000000,4129.230957,4122.563965,4139.487305,4135.384766,4137.948730,4127.692383,4142.051270,4146.153809,4138.461426,4153.846191,4137.436035,4139.487305,4128.205078,4137.436035,0.000000,4.000000,,,,0.000000,4.000000,4.000000,4.000000,4.000000,4.000000,4.000000,4.000000,4.000000,4.000000,4.000000,4.000000,4.000000,4.000000,4.000000,100.000000
1602006596.534801,56.000000,0.000000,4127.692383,4126.666504,4142.051270,4136.410156,4135.384766,4140.000000,4141.538574,4155.897461,4139.487305,4144.615234,4151.794922,4138.461426,4144.102539,4142.563965,0.000000,4.000000,,,,0.000000,4.000000,4.000000,4.000000,4.000000,4.000000,4.000000,4.000000,4.000000,4.000000,4.000000,4.000000,4.000000,4.000000,4.000000,100.000000
1602006596.542682,57.000000,0.000000,4122.563965,4121.538574,4132.307617,4119.487305,4123.077148,4130.256348,4137.436035,4152.307617,4142.563965,4160.000000,4147.179688,4138.461426,4141.025879,4150.769043,0.000000,4.000000,,,,0.000000,4.000000,4.000000,4.000000,4.000000,4.000000,4.000000,4.000000,4.000000,4.000000,4.000000,4.000000,4.000000,4.000000,4.000000,100.000000
1602006596.550564,58.000000,0.000000,4118.974121,4109.230957,4120.512695,4108.205078,4121.538574,4127.692383,4140.000000,4141.538574,4134.871582,4149.230957,4124.615234,4129.743652,4125.128418,4145.128418,0.000000,4.000000,,,,0.000000,4.000000,4.000000,4.000000,4.000000,4.000000,4.000000,4.000000,4.000000,4.000000,4.000000,4.000000,4.000000,4.000000,4.000000,100.000000
1602006596.558445,59.000000,0.000000,4110.256348,4102.563965,4120.512695,4111.282227,4125.128418,4140.000000,4137.948730,4135.384766,4116.410156,4108.717773,4116.410156,4124.102539,4121.025879,4137.436035,0.000000,4.000000,,,,0.000000,4.000000,4.000000,4.000000,4.000000,4.000000,4.000000,4.000000,4.000000,4.000000,4.000000,4.000000,4.000000,4.000000,4.000000,100.000000
1602006596.566326,60.000000,0.000000,4104.102539,4103.589844,4122.051270,4111.794922,4122.563965,4137.436035,4126.666504,4129.230957,4107.179688,4111.794922,4121.538574,4123.077148,4117.948730,4137.436035,0.000000,4.000000,,,,0.000000,4.000000,4.000000,4.000000,4.000000,4.000000,4.000000,4.000000,4.000000,4.000000,4.000000,4.000000,4.000000,4.000000,4.000000,100.000000
1602006596.574207,61.000000,0.000000,4104.615234,4104.102539,4121.025879,4112.307617,4120.512695,4120.000000,4116.922852,4118.974121,4097.948730,4134.358887,4118.974121,4126.153809,4111.282227,4133.333496,0.000000,4.000000,,,,0.000000,4.000000,4.000000,4.000000,4.000000,4.000000,4.000000,4.000000,4.000000,4.000000,4.000000,4.000000,4.000000,4.000000,4.000000,100.000000
1602006596.582088,62.000000,0.000000,4105.128418,4103.589844,4128.717773,4116.410156,4123.589844,4112.307617,4115.384766,4116.922852,4089.230713,4119.487305,4119.487305,4140.000000,4115.384766,4139.487305,0.000000,4.000000,,,,0.000000,4.000000,4.000000,4.000000,4.000000,4.000000,4.000000,4.000000,4.000000,4.000000,4.000000,4.000000,4.000000,4.000000,4.000000,100.000000
1602006596.590069,63.000000,0.000000,4112.820313,4108.717773,4144.615234,4121.025879,4122.051270,4112.307617,4118.974121,4126.153809,4105.641113,4120.000000,4137.436035,4153.846191,4127.179688,4156.410156,0.000000,4.000000,,,,0.000000,4.000000,4.000000,4.000000,4.000000,4.000000,4.000000,4.000000,4.000000,4.000000,4.000000,4.000000,4.000000,4.000000,4.000000,100.000000
1602006596.597950,64.000000,0.000000,4130.769043,4120.000000,4161.025879,4131.794922,4120.000000,4111.794922,4123.077148,4140.512695,4121.538574,4148.205078,4156.922852,4158.974121,4139.487305,4158.461426,799.000000,4.000000,,,,0.000000,4.000000,4.000000,4.000000,4.000000,4.000000,4.000000,4.000000,4.000000,4.000000,4.000000,4.000000,4.000000,4.000000,4.000000,100.000000
1602006596.605830,65.000000,0.000000,4144.102539,4127.692383,4167.692383,4140.512695,4128.205078,4113.846191,4129.230957,4153.333496,4125.128418,4149.230957,4161.538574,4160.512695,4154.358887,4158.974121,793.000000,4.000000,,,,0.000000,4.000000,4.000000,4.000000,4.000000,4.000000,4.000000,4.000000,4.000000,4.000000,4.000000,4.000000,4.000000,4.000000,4.000000,100.000000
1602006596.613711,66.000000,0.000000,4140.000000,4128.205078,4156.922852,4135.384766,4136.410156,4123.077148,4136.410156,4159.487305,4138.974121,4133.333496,4154.871582,4153.333496,4159.487305,4169.743652,850.000000,4.000000,,,,0.000000,4.000000,4.000000,4.000000,4.000000,4.000000,4.000000,4.000000,4.000000,4.000000,4.000000,4.000000,4.000000,4.000000,4.000000,100.000000
1602006596.621592,67.000000,0.000000,4127.692383,4125.641113,4139.487305,4132.307617,4133.846191,4134.358887,4142.051270,4161.538574,4149.743652,4149.230957,4152.307617,4134.871582,4148.717773,4167.692383,869.000000,4.000000,,,,0.000000,4.000000,4.000000,4.000000,4.000000,4.000000,4.000000,4.000000,4.000000,4.000000,4.000000,4.000000,4.000000,4.000000,4.000000,100.000000
1602006596.629373,68.000000,0.000000,4123.077148,4126.153809,4127.179688,4139.487305,4134.871582,4140.512695,4142.563965,4157.436035,4146.666504,4175.384766,4155.384766,4122.051270,4141.538574,4148.717773,814.000000,4.000000,,,,0.000000,4.000000,4.000000,4.000000,4.000000,4.000000,4.000000,4.000000,4.000000,4.000000,4.000000,4.000000,4.000000,4.000000,4.000000,100.000000
1602006596.637254,69.000000,0.000000,4121.025879,4129.230957,4116.410156,4136.922852,4148.205078,4143.077148,4140.512695,4141.538574,4140.512695,4151.282227,4144.615234,4116.410156,4136.410156,4126.666504,813.000000,4.000000,,,,0.000000,4.000000,4.000000,4.000000,4.000000,4.000000,4.000000,4.000000,4.000000,4.000000,4.000000,4.000000,4.000000,4.000000,4.000000,100.000000
1602006596.645134,70.000000,0.000000,4112.820313,4126.666504,4106.153809,4124.102539,4151.794922,4144.615234,4134.358887,4122.051270,4126.153809,4105.128418,4118.974121,4104.615234,4113.846191,4108.205078,783.000000,4.000000,,,,0.000000,4.000000,4.000000,4.000000,4.000000,4.000000,4.000000,4.000000,4.000000,4.000000,4.000000,4.000000,4.000000,4.000000,4.000000,100.000000
1602006596.653015,71.000000,0.000000,4098.974121,4117.436035,4101.538574,4121.538574,4142.563965,4143.077148,4130.769043,4109.230957,4108.205078,4098.461426,4101.538574,4091.281982,4088.718018,4094.871826,693.000000,4.000000,,,,0.000000,4.000000,4.000000,4.000000,4.000000,4.000000,4.000000,4.000000,4.000000,4.000000,4.000000,4.000000,4.000000,4.000000,4.000000,100.000000
1602006596.660896,72.000000,0.000000,4092.307617,4116.410156,4101.538574,4123.077148,4134.871582,4136.410156,4134.358887,4107.179688,4104.615234,4105.128418,4098.974121,4092.820557,4084.102539,4091.281982,786.000000,4.000000,,,,0.000000,4.000000,4.000000,4.000000,4.000000,4.000000,4.000000,4.000000,4.000000,4.000000,4.000000,4.000000,4.000000,4.000000,4.000000,100.000000
1602006596.668777,73.000000,0.000000,4101.538574,4120.512695,4111.794922,4121.538574,4132.307617,4128.717773,4138.974121,4115.384766,4103.077148,4085.641113,4103.589844,4108.717773,4087.179443,4093.846191,838.000000,4.000000,,,,0.000000,4.000000,4.000000,4.000000,4.000000,4.000000,4.000000,4.000000,4.000000,4.000000,4.000000,4.000000,4.000000,4.000000,4.000000,100.000000
1602006596.676658,74.000000,0.000000,4118.461426,4121.025879,4127.692383,4126.153809,4132.820313,4125.641113,4139.487305,4131.794922,4106.153809,4086.153809,4113.846191,4125.128418,4093.846191,4105.128418,870.000000,4.000000,,,,0.000000,4.000000,4.000000,4.000000,4.000000,4.000000,4.000000,4.000000,4.000000,4.000000,4.000000,4.000000,4.000000,4.000000,4.000000,100.000000
1602006596.684539,75.000000,0.000000,4133.333496,4130.256348,4144.102539,4136.410156,4131.794922,4126.153809,4138.974121,4148.205078,4125.128418,4129.743652,4133.333496,4145.641113,4124.102539,4134.358887,836.000000,4.000000,,,,0.000000,4.000000,4.000000,4.000000,4.000000,4.000000,4.000000,4.000000,4.000000,4.000000,4.000000,4.000000,4.000000,4.000000,4.000000,100.000000
1602006596.692520,76.000000,0.000000,4147.179688,4142.563965,4156.410156,4144.102539,4131.282227,4123.589844,4137.436035,4151.794922,4141.538574,4149.743652,4152.820313,4167.692383,4151.794922,4160.512695,766.000000,4.000000,,,,0.000000,4.000000,4.000000,4.000000,4.000000,4.000000,4.000000,4.000000,4.000000,4.000000,4.000000,4.000000,4.000000,4.000000,4.000000,100.000000
1602006596.700401,77.000000,0.000000,4156.922852,4141.538574,4152.820313,4141.025879,4133.846191,4121.025879,4135.897461,4147.692383,4150.256348,4143.077148,4155.384766,4173.846191,4156.922852,4162.051270,728.000000,4.000000,,,,0.000000,4.000000,4.000000,4.000000,4.000000,4.000000,4.000000,4.000000,4.000000,4.000000,4.000000,4.000000,4.000000,4.000000,4.000000,100.000000
1602006596.708282,78.000000,0.000000,4156.922852,4143.077148,4143.077148,4140.512695,4136.410156,4126.666504,4135.384766,4143.589844,4157.948730,4161.538574,4150.769043,4170.256348,4162.051270,4156.410156,870.000000,4.000000,,,,0.000000,4.000000,4.000000,4.000000,4.000000,4.000000,4.000000,4.000000,4.000000,4.000000,4.000000,4.000000,4.000000,4.000000,4.000000,100.000000
1602006596.716163,79.000000,0.000000,4154.358887,4154.358887,4142.051270,4151.282227,4136.922852,4127.692383,4130.256348,4134.871582,4154.871582,4177.948730,4155.897461,4169.743652,4167.179688,4158.974121,836.000000,4.000000,,,,0.000000,4.000000,4.000000,4.000000,4.000000,4.000000,4.000000,4.000000,4.000000,4.000000,4.000000,4.000000,4.000000,4.000000,4.000000,100.000000
1602006596.724044,80.000000,0.000000,4153.846191,4158.974121,4145.641113,4155.897461,4145.641113,4124.102539,4117.948730,4120.512695,4143.077148,4150.769043,4154.871582,4163.077148,4156.922852,4152.820313,766.000000,4.000000,,,,0.000000,4.000000,4.000000,4.000000,4.000000,4.000000,4.000000,4.000000,4.000000,4.000000,4.000000,4.000000,4.000000,4.000000,4.000000,100.000000
1602006596.732024,81.000000,0.000000,4140.512695,4150.769043,4140.512695,4146.153809,4153.333496,4120.512695,4106.666504,4110.256348,4132.820313,4116.922852,4139.487305,4146.153809,4141.025879,4140.512695,728.000000,4.000000,,,,0.000000,4.000000,4.000000,4.000000,4.000000,4.000000,4.000000,4.000000,4.000000,4.000000,4.000000,4.000000,4.000000,4.000000,4.000000,100.000000
1602006596.739905,82.000000,0.000000,4118.974121,4133.846191,4129.230957,4131.794922,4143.077148,4112.307617,4102.051270,4109.743652,4122.051270,4116.410156,4127.179688,4137.436035,4126.153809,4129.743652,870.000000,4.000000,,,,0.000000,4.000000,4.000000,4.000000,4.000000,4.000000,4.000000,4.000000,4.000000,4.000000,4.000000,4.000000,4.000000,4.000000,4.000000,100.000000
1602006596.747786,83.000000,0.000000,4112.307617,4117.948730,4121.538574,4124.102539,4130.256348,4109.743652,4112.820313,4120.000000,4118.974121,4128.717773,4131.794922,4147.692383,4123.077148,4120.512695,836.000000,4.000000,,,,0.000000,4.000000,4.000000,4.000000,4.000000,4.000000,4.000000,4.000000,4.000000,4.000000,4.000000,4.000000,4.000000,4.000000,4.000000,100.000000
1602006596.755667,84.000000,0.000000,4119.487305,4115.897461,4129.743652,4120.000000,4126.666504,4117.948730,4135.897461,4141.538574,4132.307617,4134.358887,4140.000000,4163.589844,4134.358887,4126.153809,766.000000,4.000000,,,,0.000000,4.000000,4.000000,4.000000,4.000000,4.000000,4.000000,4.000000,4.000000,4.000000,4.000000,4.000000,4.000000,4.000000,4.000000,100.000000
1602006596.763548,85.000000,0.000000,4122.051270,4117.948730,4141.025879,4118.974121,4126.153809,4129.230957,4152.820313,4154.871582,4148.717773,4144.615234,4132.820313,4169.230957,4138.461426,4142.051270,728.000000,4.000000,,,,0.000000,4.000000,4.000000,4.000000,4.000000,4.000000,4.000000,4.000000,4.000000,4.000000,4.000000,4.000000,4.000000,4.000000,4.000000,100.000000
1602006596.771429,86.000000,0.000000,4127.692383,4122.051270,4132.307617,4125.641113,4128.717773,4145.128418,4158.974121,4156.410156,4162.051270,4164.615234,4125.641113,4169.743652,4145.128418,4156.410156,870.000000,4.000000,,,,0.000000,4.000000,4.000000,4.000000,4.000000,4.000000,4.000000,4.000000,4.000000,4.000000,4.000000,4.000000,4.000000,4.000000,4.000000,100.000000
1602006596.779310,87.000000,0.000000,4147.179688,4134.358887,4122.563965,4136.410156,4134.871582,4157.436035,4160.512695,4158.974121,4166.153809,4177.948730,4147.179688,4174.358887,4169.743652,4170.256348,836.000000,4.000000,,,,0.000000,4.000000,4.000000,4.000000,4.000000,4.000000,4.000000,4.000000,4.000000,4.000000,4.000000,4.000000,4.000000,4.000000,4.000000,100.000000
1602006596.787191,88.000000,0.000000,4153.846191,4142.563965,4129.743652,4144.615234,4138.461426,4147.179688,4151.282227,4151.794922,4152.307617,4171.794922,4164.102539,4176.922852,4173.846191,4173.333496,766.000000,4.000000,,,,0.000000,4.000000,4.000000,4.000000,4.000000,4.000000,4.000000,4.000000,4.000000,4.000000,4.000000,4.000000,4.000000,4.000000,4.000000,100.000000
1602006596.794972,89.000000,0.000000,4143.589844,4147.179688,4132.307617,4145.641113,4138.974121,4126.666504,4128.205078,4132.307617,4137.436035,4149.230957,4148.205078,4169.230957,4153.846191,4158.974121,728.000000,4.000000,,,,0.000000,4.000000,4.000000,4.000000,4.000000,4.000000,4.000000,4.000000,4.000000,4.000000,4.000000,4.000000,4.000000,4.000000,4.000000,100.000000
1602006596.802853,90.000000,0.000000,4142.563965,4152.820313,4125.641113,4145.128418,4140.000000,4114.871582,4107.692383,4120.512695,4137.948730,4134.871582,4134.871582,4154.358887,4149.743652,4135.897461,870.000000,4.000000,,,,0.000000,4.000000,4.000000,4.000000,4.000000,4.000000,4.000000,4.000000,4.000000,4.000000,4.000000,4.000000,4.000000,4.000000,4.000000,100.000000
1602006596.810734,91.000000,0.000000,4144.102539,4148.717773,4129.230957,4144.102539,4139.487305,4098.461426,4093.846191,4121.025879,4143.077148,4144.102539,4132.820313,4140.512695,4147.179688,4117.948730,836.000000,4.000000,,,,0.000000,4.000000,4.000000,4.000000,4.000000,4.000000,4.000000,4.000000,4.000000,4.000000,4.000000,4.000000,4.000000,4.000000,4.000000,100.000000
1602006596.818615,92.000000,0.000000,4134.871582,4139.487305,4140.000000,4142.051270,4134.358887,4085.641113,4088.718018,4120.512695,4140.000000,4154.358887,4121.538574,4136.410156,4126.666504,4120.512695,766.000000,4.000000,,,,0.000000,4.000000,4.000000,4.000000,4.000000,4.000000,4.000000,4.000000,4.000000,4.000000,4.000000,4.000000,4.000000,4.000000,4.000000,100.000000
1602006596.826496,93.000000,0.000000,4133.333496,4136.410156,4142.051270,4135.384766,4127.179688,4100.512695,4102.051270,4121.538574,4138.461426,4147.179688,4110.769043,4138.461426,4116.922852,4129.743652,728.000000,4.000000,,,,0.000000,4.000000,4.000000,4.000000,4.000000,4.000000,4.000000,4.000000,4.000000,4.000000,4.000000,4.000000,4.000000,4.000000,4.000000,100.000000
1602006596.834477,94.000000,0.000000,4136.922852,4128.205078,4130.256348,4124.102539,4123.589844,4127.692383,4126.666504,4123.077148,4132.820313,4126.153809,4103.589844,4131.794922,4114.358887,4116.410156,870.000000,4.000000,,,,0.000000,4.000000,4.000000,4.000000,4.000000,4.000000,4.000000,4.000000,4.000000,4.000000,4.000000,4.000000,4.000000,4.000000,4.000000,100.000000
1602006596.842357,95.000000,0.000000,4121.538574,4112.307617,4116.922852,4115.897461,4123.589844,4136.410156,4146.666504,4121.025879,4114.871582,4096.922852,4099.487305,4120.000000,4103.589844,4104.615234,836.000000,4.000000,,,,0.000000,4.000000,4.000000,4.000000,4.000000,4.000000,4.000000,4.000000,4.000000,4.000000,4.000000,4.000000,4.000000,4.000000,4.000000,100.000000
1602006596.850238,96.000000,0.000000,4104.615234,4112.307617,4115.384766,4116.410156,4122.051270,4143.077148,4158.974121,4125.128418,4108.205078,4095.897461,4110.256348,4126.153809,4109.743652,4119.487305,766.000000,4.000000,,,,0.000000,4.000000,4.000000,4.000000,4.000000,4.000000,4.000000,4.000000,4.000000,4.000000,4.000000,4.000000,4.000000,4.000000,4.000000,100.000000
1602006596.858119,97.000000,0.000000,4111.794922,4121.538574,4116.410156,4118.461426,4120.000000,4154.871582,4162.563965,4130.769043,4121.538574,4121.538574,4121.538574,4138.974121,4125.641113,4131.282227,728.000000,4.000000,,,,0.000000,4.000000,4.000000,4.000000,4.000000,4.000000,4.000000,4.000000,4.000000,4.000000,4.000000,4.000000,4.000000,4.000000,4.000000,100.000000
1602006596.866000,98.000000,0.000000,4125.641113,4121.538574,4109.743652,4118.461426,4127.179688,4149.743652,4154.358887,4126.666504,4123.589844,4126.153809,4121.025879,4140.000000,4123.589844,4125.641113,870.000000,4.000000,,,,0.000000,4.000000,4.000000,4.000000,4.000000,4.000000,4.000000,4.000000,4.000000,4.000000,4.000000,4.000000,4.000000,4.000000,4.000000,100.000000
1602006596.873881,99.000000,0.000000,4125.128418,4120.000000,4109.743652,4121.025879,4136.922852,4133.333496,4135.897461,4121.025879,4116.922852,4125.128418,4120.000000,4144.102539,4117.948730,4118.974121,836.000000,4.000000,,,,0.000000,4.000000,4.000000,4.000000,4.000000,4.000000,4.000000,4.000000,4.000000,4.000000,4.000000,4.000000,4.000000,4.000000,4.000000,100.000000
1602006596.881762,100.000000,0.000000,4126.666504,4126.153809,4126.666504,4127.692383,4138.974121,4125.641113,4116.410156,4124.615234,4127.179688,4154.358887,4122.563965,4160.000000,4126.666504,4125.641113,766.000000,4.000000,,,,0.000000,4.000000,4.000000,4.000000,4.000000,4.000000,4.000000,4.000000,4.000000,4.000000,4.000000,4.000000,4.000000,4.000000,4.000000,100.000000
1602006596.889743,101.000000,0.000000,4141.025879,4134.358887,4143.077148,4133.846191,4139.487305,4111.794922,4105.641113,4132.307617,4141.025879,4171.794922,4131.282227,4170.769043,4142.563965,4146.666504,728.000000,4.000000,,,,0.000000,4.000000,4.000000,4.000000,4.000000,4.000000,4.000000,4.000000,4.000000,4.000000,4.000000,4.000000,4.000000,4.000000,4.000000,100.000000
1602006596.897624,102.000000,0.000000,4152.307617,4140.512695,4154.358887,4137.436035,4138.974121,4087.179443,4102.051270,4135.384766,4146.666504,4163.589844,4145.641113,4174.358887,4153.846191,4155.384766,870.000000,4.000000,,,,0.000000,4.000000,4.000000,4.000000,4.000000,4.000000,4.000000,4.000000,4.000000,4.000000,4.000000,4.000000,4.000000,4.000000,4.000000,100.000000
1602006596.905505,103.000000,0.000000,4144.615234,4135.897461,4155.897461,4135.897461,4125.641113,4077.948730,4102.051270,4137.436035,4155.897461,4160.000000,4142.563965,4171.282227,4148.717773,4140.512695,836.000000,4.000000,,,,0.000000,4.000000,4.000000,4.000000,4.000000,4.000000,4.000000,4.000000,4.000000,4.000000,4.000000,4.000000,4.000000,4.000000,4.000000,100.000000
1602006596.913386,104.000000,0.000000,4122.563965,4114.871582,4138.974121,4121.025879,4106.153809,4090.769287,4112.307617,4135.897461,4159.487305,4143.589844,4122.563965,4154.358887,4127.179688,4125.128418,766.000000,4.000000,,,,0.000000,4.000000,4.000000,4.000000,4.000000,4.000000,4.000000,4.000000,4.000000,4.000000,4.000000,4.000000,4.000000,4.000000,4.000000,100.000000
1602006596.921267,105.000000,0.000000,4108.717773,4095.384521,4116.922852,4103.589844,4102.051270,4114.358887,4130.256348,4129.230957,4146.666504,4116.922852,4110.256348,4138.974121,4110.256348,4117.436035,728.000000,4.000000,,,,0.000000,4.000000,4.000000,4.000000,4.000000,4.000000,4.000000,4.000000,4.000000,4.000000,4.000000,4.000000,4.000000,4.000000,4.000000,100.000000
1602006596.929148,106.000000,0.000000,4110.769043,4088.718018,4104.102539,4094.871826,4105.128418,4134.871582,4145.128418,4123.077148,4130.769043,4095.384521,4106.153809,4134.871582,4102.563965,4111.794922,870.000000,4.000000,,,,0.000000,4.000000,4.000000,4.000000,4.000000,4.000000,4.000000,4.000000,4.000000,4.000000,4.000000,4.000000,4.000000,4.000000,4.000000,100.000000
1602006596.936929,107.000000,0.000000,4116.922852,4087.692383,4105.128418,4091.794922,4108.717773,4143.077148,4154.358887,4125.641113,4120.512695,4083.076904,4103.589844,4137.948730,4098.974121,4108.717773,836.000000,4.000000,,,,0.000000,4.000000,4.000000,4.000000,4.000000,4.000000,4.000000,4.000000,4.000000,4.000000,4.000000,4.000000,4.000000,4.000000,4.000000,100.000000
1602006596.944809,108.000000,0.000000,4125.641113,4091.794922,4115.897461,4097.948730,4114.358887,4145.128418,4161.025879,4135.897461,4117.436035,4096.922852,4105.128418,4144.102539,4101.025879,4109.230957,766.000000,4.000000,,,,0.000000,4.000000,4.000000,4.000000,4.000000,4.000000,4.000000,4.000000,4.000000,4.000000,4.000000,4.000000,4.000000,4.000000,4.000000,100.000000
1602006596.952690,109.000000,0.000000,4135.384766,4099.487305,4124.102539,4106.666504,4112.307617,4145.641113,4154.871582,4134.871582,4116.922852,4120.000000,4111.282227,4142.563965,4108.205078,4115.897461,728.000000,4.000000,,,,0.000000,4.000000,4.000000,4.000000,4.000000,4.000000,4.000000,4.000000,4.000000,4.000000,4.000000,4.000000,4.000000,4.000000,4.000000,100.000000
1602006596.960571,110.000000,0.000000,4141.025879,4105.128418,4124.102539,4109.743652,4109.743652,4138.461426,4141.538574,4124.615234,4117.436035,4130.256348,4116.922852,4134.871582,4120.512695,4132.820313,870.000000,4.000000,,,,0.000000,4.000000,4.000000,4.000000,4.000000,4.000000,4.000000,4.000000,4.000000,4.000000,4.000000,4.000000,4.000000,4.000000,4.000000,100.000000
1602006596.968452,111.000000,0.000000,4139.487305,4113.333496,4124.615234,4114.358887,4117.948730,4127.692383,4136.410156,4126.666504,4127.179688,4142.051270,4121.025879,4135.384766,4134.871582,4142.563965,836.000000,4.000000,,,,0.000000,4.000000,4.000000,4.000000,4.000000,4.000000,4.000000,4.000000,4.000000,4.000000,4.000000,4.000000,4.000000,4.000000,4.000000,100.000000
1602006596.976333,112.000000,0.000000,4138.461426,4122.051270,4124.102539,4123.077148,4123.589844,4121.538574,4132.820313,4137.948730,4142.051270,4164.615234,4131.282227,4147.179688,4145.128418,4136.922852,766.000000,4.000000,,,,0.000000,4.000000,4.000000,4.000000,4.000000,4.000000,4.000000,4.000000,4.000000,4.000000,4.000000,4.000000,4.000000,4.000000,4.000000,100.000000
1602006596.984214,113.000000,0.000000,4145.128418,4126.666504,4129.230957,4129.743652,4120.000000,4110.256348,4121.538574,4137.948730,4145.128418,4164.615234,4147.179688,4153.846191,4150.769043,4144.102539,728.000000,4.000000,,,,0.000000,4.000000,4.000000,4.000000,4.000000,4.000000,4.000000,4.000000,4.000000,4.000000,4.000000,4.000000,4.000000,4.000000,4.000000,100.000000
1602006596.992195,114.000000,0.000000,4154.358887,4135.384766,4149.743652,4136.922852,4121.538574,4097.436035,4113.846191,4134.358887,4139.487305,4154.871582,4157.948730,4156.410156,4157.948730,4159.487305,870.000000,4.000000,,,,0.000000,4.000000,4.000000,4.000000,4.000000,4.000000,4.000000,4.000000,4.000000,4.000000,4.000000,4.000000,4.000000,4.000000,4.000000,100.000000
1602006597.000076,115.000000,0.000000,4159.487305,4139.487305,4159.487305,4142.563965,4124.102539,4096.922852,4114.871582,4136.922852,4140.512695,4159.487305,4153.846191,4160.512695,4157.948730,4147.179688,836.000000,4.000000,,,,0.000000,4.000000,4.000000,4.000000,4.000000,4.000000,4.000000,4.000000,4.000000,4.000000,4.000000,4.000000,4.000000,4.000000,4.000000,100.000000
1602006597.007958,116.000000,0.000000,4152.307617,4128.717773,4144.615234,4135.384766,4121.538574,4102.051270,4116.922852,4130.769043,4141.538574,4142.563965,4140.000000,4156.410156,4142.051270,4126.666504,766.000000,4.000000,,,,0.000000,4.000000,4.000000,4.000000,4.000000,4.000000,4.000000,4.000000,4.000000,4.000000,4.000000,4.000000,4.000000,4.000000,4.000000,100.000000
1602006597.015839,117.000000,0.000000,4138.974121,4121.538574,4130.769043,4125.641113,4122.051270,4112.307617,4120.512695,4120.512695,4127.179688,4108.717773,4125.128418,4140.512695,4121.025879,4130.769043,728.000000,4.000000,,,,0.000000,4.000000,4.000000,4.000000,4.000000,4.000000,4.000000,4.000000,4.000000,4.000000,4.000000,4.000000,4.000000,4.000000,4.000000,100.000000
1602006597.023720,118.000000,0.000000,4134.871582,4122.051270,4124.615234,4123.077148,4122.051270,4130.769043,4130.769043,4118.461426,4106.666504,4095.384521,4111.794922,4127.692383,4105.641113,4133.846191,870.000000,4.000000,,,,0.000000,4.000000,4.000000,4.000000,4.000000,4.000000,4.000000,4.000000,4.000000,4.000000,4.000000,4.000000,4.000000,4.000000,4.000000,100.000000
1602006597.031601,119.000000,0.000000,4141.025879,4118.461426,4118.974121,4124.102539,4122.563965,4144.615234,4147.179688,4121.025879,4100.000000,4098.461426,4109.230957,4128.717773,4105.641113,4118.461426,836.000000,4.000000,,,,0.000000,4.000000,4.000000,4.000000,4.000000,4.000000,4.000000,4.000000,4.000000,4.000000,4.000000,4.000000,4.000000,4.000000,4.000000,100.000000
1602006597.039482,120.000000,0.000000,4142.563965,4125.641113,4125.641113,4126.153809,4125.641113,4143.077148,4156.922852,4126.666504,4103.589844,4100.512695,4116.922852,4142.563965,4118.974121,4122.051270,766.000000,4.000000,,,,0.000000,4.000000,4.000000,4.000000,4.000000,4.000000,4.000000,4.000000,4.000000,4.000000,4.000000,4.000000,4.000000,4.000000,4.000000,100.000000
1602006597.047363,121.000000,0.000000,4145.128418,4137.436035,4138.974121,4130.256348,4129.230957,4137.948730,4150.256348,4134.871582,4109.230957,4111.282227,4124.615234,4154.358887,4132.820313,4147.692383,728.000000,4.000000,,,,0.000000,4.000000,4.000000,4.000000,4.000000,4.000000,4.000000,4.000000,4.000000,4.000000,4.000000,4.000000,4.000000,4.000000,4.000000,100.000000
1602006597.055244,122.000000,0.000000,4161.025879,4138.974121,4143.077148,4137.948730,4127.179688,4128.205078,4135.384766,4138.461426,4124.615234,4140.000000,4134.871582,4156.922852,4139.487305,4161.538574,870.000000,4.000000,,,,0.000000,4.000000,4.000000,4.000000,4.000000,4.000000,4.000000,4.000000,4.000000,4.000000,4.000000,4.000000,4.000000,4.000000,4.000000,100.000000
1602006597.063126,123.000000,0.000000,4176.410156,4144.615234,4146.153809,4144.102539,4122.051270,4112.307617,4124.102539,4139.487305,4143.589844,4167.692383,4146.153809,4156.922852,4143.589844,4162.563965,836.000000,4.000000,,,,0.000000,4.000000,4.000000,4.000000,4.000000,4.000000,4.000000,4.000000,4.000000,4.000000,4.000000,4.000000,4.000000,4.000000,4.000000,100.000000
1602006597.070907,124.000000,0.000000,4175.384766,4150.769043,4156.922852,4143.077148,4121.025879,4102.563965,4117.436035,4138.974121,4153.333496,4173.333496,4146.153809,4160.000000,4149.743652,4155.384766,766.000000,4.000000,,,,0.000000,4.000000,4.000000,4.000000,4.000000,4.000000,4.000000,4.000000,4.000000,4.000000,4.000000,4.000000,4.000000,4.000000,4.000000,100.000000
1602006597.078788,125.000000,0.000000,4160.512695,4139.487305,4160.000000,4134.871582,4122.051270,4102.563965,4115.897461,4135.897461,4162.563965,4165.128418,4142.563965,4157.948730,4145.128418,4140.000000,728.000000,4.000000,,,,0.000000,4.000000,4.000000,4.000000,4.000000,4.000000,4.000000,4.000000,4.000000,4.000000,4.000000,4.000000,4.000000,4.000000,4.000000,100.000000
1602006597.086669,126.000000,0.000000,4143.077148,4126.153809,4150.256348,4127.179688,4118.974121,4111.282227,4118.461426,4143.589844,4174.871582,4164.615234,4135.384766,4146.666504,4126.666504,4123.077148,870.000000,4.000000,,,,0.000000,4.000000,4.000000,4.000000,4.000000,4.000000,4.000000,4.000000,4.000000,4.000000,4.000000,4.000000,4.000000,4.000000,4.000000,100.000000
1602006597.094550,127.000000,0.000000,4127.692383,4123.589844,4137.436035,4123.589844,4117.436035,4122.563965,4123.077148,4153.333496,4173.333496,4164.615234,4116.410156,4138.461426,4109.743652,4110.769043,836.000000,4.000000,,,,0.000000,4.000000,4.000000,4.000000,4.000000,4.000000,4.000000,4.000000,4.000000,4.000000,4.000000,4.000000,4.000000,4.000000,4.000000,100.000000
1602006597.102432,128.000000,0.000000,4122.563965,4119.487305,4130.256348,4121.025879,4120.000000,4132.820313,4129.743652,4147.692383,4157.948730,4149.230957,4110.256348,4136.922852,4105.128418,4109.743652,766.000000,4.000000,,,,0.000000,4.000000,4.000000,4.000000,4.000000,4.000000,4.000000,4.000000,4.000000,4.000000,4.000000,4.000000,4.000000,4.000000,4.000000,100.000000
1602006597.110313,0.000000,0.000000,4133.333496,4117.436035,4132.307617,4123.077148,4125.128418,4146.666504,4136.410156,4141.025879,4149.230957,4139.487305,4125.128418,4134.871582,4109.743652,4128.717773,795.000000,4.000000,,,,0.000000,4.000000,4.000000,4.000000,4.000000,4.000000,4.000000,4.000000,4.000000,4.000000,4.000000,4.000000,4.000000,4.000000,4.000000,100.000000
1602006597.118194,1.000000,0.000000,4143.077148,4122.051270,4138.974121,4128.205078,4131.794922,4159.487305,4142.051270,4145.128418,4145.641113,4138.461426,4125.641113,4134.871582,4115.897461,4147.692383,793.000000,4.000000,,,,0.000000,4.000000,4.000000,4.000000,4.000000,4.000000,4.000000,4.000000,4.000000,4.000000,4.000000,4.000000,4.000000,4.000000,4.000000,100.000000
1602006597.126075,2.000000,0.000000,4142.051270,4122.563965,4139.487305,4125.641113,4132.820313,4159.487305,4145.641113,4141.025879,4130.256348,4126.666504,4110.256348,4136.922852,4116.410156,4143.077148,850.000000,4.000000,,,,0.000000,4.000000,4.000000,4.000000,4.000000,4.000000,4.000000,4.000000,4.000000,4.000000,4.000000,4.000000,4.000000,4.000000,4.000000,100.000000
1602006597.134056,3.000000,0.000000,4146.666504,4121.538574,4135.897461,4124.615234,4129.743652,4152.820313,4143.077148,4132.307617,4115.384766,4121.025879,4113.333496,4135.897461,4113.333496,4131.794922,869.000000,4.000000,,,,0.000000,4.000000,4.000000,4.000000,4.000000,4.000000,4.000000,4.000000,4.000000,4.000000,4.000000,4.000000,4.000000,4.000000,4.000000,100.000000
1602006597.141937,4.000000,0.000000,4157.436035,4129.230957,4140.000000,4133.846191,4128.205078,4154.871582,4143.589844,4136.410156,4118.461426,4125.128418,4133.846191,4133.333496,4123.589844,4135.897461,814.000000,4.000000,,,,0.000000,4.000000,4.000000,4.000000,4.000000,4.000000,4.000000,4.000000,4.000000,4.000000,4.000000,4.000000,4.000000,4.000000,4.000000,100.000000
1602006597.149818,5.000000,0.000000,4158.461426,4138.461426,4145.128418,4138.974121,4128.717773,4155.897461,4152.820313,4142.051270,4122.563965,4124.102539,4142.563965,4138.974121,4144.102539,4146.666504,815.000000,4.000000,,,,0.000000,4.000000,4.000000,4.000000,4.000000,4.000000,4.000000,4.000000,4.000000,4.000000,4.000000,4.000000,4.000000,4.000000,4.000000,100.000000
1602006597.157700,6.000000,0.000000,4157.948730,4141.025879,4142.051270,4136.922852,4126.153809,4147.179688,4158.461426,4139.487305,4122.563965,4132.820313,4140.000000,4143.589844,4150.256348,4152.307617,773.000000,4.000000,,,,0.000000,4.000000,4.000000,4.000000,4.000000,4.000000,4.000000,4.000000,4.000000,4.000000,4.000000,4.000000,4.000000,4.000000,4.000000,100.000000
1602006597.165581,7.000000,0.000000,4159.487305,4140.512695,4139.487305,4138.974121,4124.615234,4141.025879,4156.410156,4141.538574,4128.717773,4155.897461,4142.051270,4140.512695,4142.563965,4152.820313,672.000000,4.000000,,,,0.000000,4.000000,4.000000,4.000000,4.000000,4.000000,4.000000,4.000000,4.000000,4.000000,4.000000,4.000000,4.000000,4.000000,4.000000,100.000000
1602006597.173462,8.000000,0.000000,4153.846191,4137.436035,4141.025879,4140.512695,4122.563965,4137.948730,4148.717773,4138.974121,4127.692383,4153.846191,4136.410156,4137.436035,4134.871582,4147.692383,786.000000,4.000000,,,,0.000000,4.000000,4.000000,4.000000,4.000000,4.000000,4.000000,4.000000,4.000000,4.000000,4.000000,4.000000,4.000000,4.000000,4.000000,100.000000
1602006597.181343,9.000000,0.000000,4150.769043,4127.692383,4141.025879,4135.897461,4119.487305,4127.179688,4133.333496,4126.666504,4120.000000,4130.769043,4119.487305,4137.436035,4126.153809,4137.948730,838.000000,4.000000,,,,0.000000,4.000000,4.000000,4.000000,4.000000,4.000000,4.000000,4.000000,4.000000,4.000000,4.000000,4.000000,4.000000,4.000000,4.000000,100.000000
1602006597.189224,10.000000,0.000000,4154.358887,4123.077148,4143.077148,4134.358887,4120.512695,4120.512695,4122.563965,4127.692383,4132.820313,4134.358887,4116.922852,4137.436035,4124.615234,4136.410156,870.000000,4.000000,,,,0.000000,4.000000,4.000000,4.000000,4.000000,4.000000,4.000000,4.000000,4.000000,4.000000,4.000000,4.000000,4.000000,4.000000,4.000000,100.000000
1602006597.197105,11.000000,0.000000,4157.948730,4131.282227,4150.769043,4137.948730,4122.563965,4122.563965,4123.589844,4137.436035,4147.179688,4144.615234,4129.230957,4140.000000,4133.846191,4152.307617,836.000000,4.000000,,,,0.000000,4.000000,4.000000,4.000000,4.000000,4.000000,4.000000,4.000000,4.000000,4.000000,4.000000,4.000000,4.000000,4.000000,4.000000,100.000000
1602006597.204987,12.000000,0.000000,4163.077148,4138.974121,4160.512695,4139.487305,4125.128418,4120.000000,4122.563965,4129.743652,4130.256348,4135.897461,4129.230957,4147.179688,4138.461426,4160.000000,766.000000,4.000000,,,,0.000000,4.000000,4.000000,4.000000,4.000000,4.000000,4.000000,4.000000,4.000000,4.000000,4.000000,4.000000,4.000000,4.000000,4.000000,100.000000
1602006597.212767,13.000000,0.000000,4169.743652,4140.000000,4168.717773,4137.948730,4128.717773,4124.102539,4121.025879,4121.025879,4113.846191,4136.922852,4125.641113,4152.307617,4133.333496,4152.307617,728.000000,4.000000,,,,0.000000,4.000000,4.000000,4.000000,4.000000,4.000000,4.000000,4.000000,4.000000,4.000000,4.000000,4.000000,4.000000,4.000000,4.000000,100.000000
1602006597.220648,14.000000,0.000000,4173.846191,4136.410156,4170.769043,4138.461426,4125.641113,4137.436035,4129.230957,4130.769043,4117.436035,4141.025879,4137.436035,4159.487305,4133.846191,4158.461426,870.000000,4.000000,,,,0.000000,4.000000,4.000000,4.000000,4.000000,4.000000,4.000000,4.000000,4.000000,4.000000,4.000000,4.000000,4.000000,4.000000,4.000000,100.000000
1602006597.228428,15.000000,0.000000,4177.948730,4138.461426,4178.461426,4142.051270,4126.153809,4142.563965,4140.000000,4135.897461,4115.897461,4135.897461,4143.589844,4172.820313,4139.487305,4173.846191,836.000000,4.000000,,,,0.000000,4.000000,4.000000,4.000000,4.000000,4.000000,4.000000,4.000000,4.000000,4.000000,4.000000,4.000000,4.000000,4.000000,4.000000,100.000000
1602006597.236309,16.000000,0.000000,4172.307617,4143.077148,4186.153809,4144.615234,4136.410156,4146.153809,4144.102539,4126.666504,4105.641113,4138.974121,4129.743652,4172.820313,4138.461426,4170.769043,0.000000,4.000000,,,,0.000000,4.000000,4.000000,4.000000,4.000000,4.000000,4.000000,4.000000,4.000000,4.000000,4.000000,4.000000,4.000000,4.000000,4.000000,100.000000
1602006597.244290,17.000000,0.000000,4157.948730,4135.384766,4171.794922,4142.051270,4135.897461,4154.358887,4142.051270,4125.128418,4098.974121,4129.743652,4114.871582,4157.436035,4129.743652,4154.358887,0.000000,4.000000,,,,0.000000,4.000000,4.000000,4.000000,4.000000,4.000000,4.000000,4.000000,4.000000,4.000000,4.000000,4.000000,4.000000,4.000000,4.000000,100.000000
1602006597.252170,18.000000,0.000000,4153.333496,4122.563965,4151.794922,4129.230957,4124.615234,4149.230957,4140.000000,4130.256348,4097.948730,4110.256348,4117.436035,4148.717773,4121.025879,4148.205078,0.000000,4.000000,,,,0.000000,4.000000,4.000000,4.000000,4.000000,4.000000,4.000000,4.000000,4.000000,4.000000,4.000000,4.000000,4.000000,4.000000,4.000000,100.000000
