Timestamp,EEG.Counter,EEG.Interpolated,EEG.AF3,EEG.F7,EEG.F3,EEG.FC5,EEG.T7,EEG.P7,EEG.O1,EEG.O2,EEG.P8,EEG.T8,EEG.FC6,EEG.F4,EEG.F8,EEG.AF4,EEG.RawCq,EEG.Battery,MarkerIndex,MarkerType,MarkerValueInt,EEG.MarkerHardware,CQ.AF3,CQ.F7,CQ.F3,CQ.FC5,CQ.T7,CQ.P7,CQ.O1,CQ.O2,CQ.P8,CQ.T8,CQ.FC6,CQ.F4,CQ.F8,CQ.AF4,CQ.Overall
1602006609.587774,35.000000,0.000000,4146.666504,4144.102539,4134.358887,4146.666504,4124.615234,4129.743652,4132.820313,4127.179688,4133.846191,4125.641113,4138.974121,4160.000000,4165.641113,4151.794922,0.000000,4.000000,,,,0.000000,4.000000,4.000000,4.000000,4.000000,4.000000,4.000000,4.000000,4.000000,4.000000,4.000000,4.000000,4.000000,4.000000,4.000000,100.000000
1602006609.595555,36.000000,0.000000,4138.461426,4141.538574,4138.974121,4142.051270,4121.538574,4130.769043,4136.922852,4125.128418,4124.615234,4131.282227,4161.025879,4167.692383,4157.436035,4154.358887,0.000000,4.000000,,,,0.000000,4.000000,4.000000,4.000000,4.000000,4.000000,4.000000,4.000000,4.000000,4.000000,4.000000,4.000000,4.000000,4.000000,4.000000,100.000000
1602006609.603436,37.000000,0.000000,4131.282227,4136.922852,4140.000000,4137.948730,4118.461426,4128.205078,4138.461426,4123.077148,4120.512695,4140.512695,4154.358887,4172.820313,4155.384766,4146.666504,0.000000,4.000000,,,,0.000000,4.000000,4.000000,4.000000,4.000000,4.000000,4.000000,4.000000,4.000000,4.000000,4.000000,4.000000,4.000000,4.000000,4.000000,100.000000
1602006609.611317,38.000000,0.000000,4134.871582,4133.846191,4136.922852,4135.897461,4110.256348,4119.487305,4134.871582,4117.436035,4115.897461,4140.000000,4131.794922,4167.179688,4153.333496,4136.922852,0.000000,4.000000,,,,0.000000,4.000000,4.000000,4.000000,4.000000,4.000000,4.000000,4.000000,4.000000,4.000000,4.000000,4.000000,4.000000,4.000000,4.000000,100.000000
1602006609.619198,39.000000,0.000000,4147.179688,4135.897461,4137.436035,4137.436035,4117.436035,4125.641113,4137.436035,4125.128418,4119.487305,4133.846191,4139.487305,4172.307617,4157.436035,4143.077148,0.000000,4.000000,,,,0.000000,4.000000,4.000000,4.000000,4.000000,4.000000,4.000000,4.000000,4.000000,4.000000,4.000000,4.000000,4.000000,4.000000,4.000000,100.000000
1602006609.627079,40.000000,0.000000,4146.666504,4139.487305,4142.051270,4142.051270,4129.230957,4140.512695,4141.025879,4137.436035,4128.205078,4132.820313,4158.461426,4183.589844,4173.846191,4155.897461,0.000000,4.000000,,,,0.000000,4.000000,4.000000,4.000000,4.000000,4.000000,4.000000,4.000000,4.000000,4.000000,4.000000,4.000000,4.000000,4.000000,4.000000,100.000000
1602006609.634960,41.000000,0.000000,4136.410156,4139.487305,4143.589844,4140.512695,4127.692383,4141.538574,4139.487305,4134.358887,4134.358887,4142.563965,4149.230957,4176.410156,4176.922852,4156.922852,0.000000,4.000000,,,,0.000000,4.000000,4.000000,4.000000,4.000000,4.000000,4.000000,4.000000,4.000000,4.000000,4.000000,4.000000,4.000000,4.000000,4.000000,100.000000
1602006609.642841,42.000000,0.000000,4134.871582,4138.461426,4140.512695,4137.436035,4123.589844,4129.743652,4133.333496,4126.153809,4142.051270,4157.948730,4127.179688,4167.179688,4157.436035,4149.230957,0.000000,4.000000,,,,0.000000,4.000000,4.000000,4.000000,4.000000,4.000000,4.000000,4.000000,4.000000,4.000000,4.000000,4.000000,4.000000,4.000000,4.000000,100.000000
1602006609.650822,43.000000,0.000000,4141.025879,4138.461426,4138.974121,4137.948730,4123.589844,4123.077148,4122.051270,4124.102539,4145.641113,4162.563965,4126.666504,4172.307617,4148.205078,4136.922852,0.000000,4.000000,,,,0.000000,4.000000,4.000000,4.000000,4.000000,4.000000,4.000000,4.000000,4.000000,4.000000,4.000000,4.000000,4.000000,4.000000,4.000000,100.000000
1602006609.658703,44.000000,0.000000,4138.974121,4137.948730,4137.948730,4138.974121,4125.641113,4119.487305,4116.410156,4123.589844,4131.282227,4144.102539,4136.410156,4175.897461,4155.897461,4124.615234,0.000000,4.000000,,,,0.000000,4.000000,4.000000,4.000000,4.000000,4.000000,4.000000,4.000000,4.000000,4.000000,4.000000,4.000000,4.000000,4.000000,4.000000,100.000000
1602006609.666584,45.000000,0.000000,4135.384766,4140.000000,4138.974121,4140.000000,4131.282227,4120.000000,4120.512695,4119.487305,4112.820313,4128.717773,4137.948730,4169.743652,4153.333496,4126.153809,0.000000,4.000000,,,,0.000000,4.000000,4.000000,4.000000,4.000000,4.000000,4.000000,4.000000,4.000000,4.000000,4.000000,4.000000,4.000000,4.000000,4.000000,100.000000
1602006609.674465,46.000000,0.000000,4139.487305,4142.563965,4139.487305,4138.974121,4131.282227,4121.025879,4121.025879,4113.846191,4104.102539,4120.000000,4133.333496,4167.179688,4140.000000,4135.384766,0.000000,4.000000,,,,0.000000,4.000000,4.000000,4.000000,4.000000,4.000000,4.000000,4.000000,4.000000,4.000000,4.000000,4.000000,4.000000,4.000000,4.000000,100.000000
1602006609.682347,47.000000,0.000000,4140.000000,4142.051270,4139.487305,4136.410156,4125.128418,4121.538574,4122.563965,4113.846191,4101.538574,4105.641113,4129.230957,4167.179688,4134.358887,4142.051270,0.000000,4.000000,,,,0.000000,4.000000,4.000000,4.000000,4.000000,4.000000,4.000000,4.000000,4.000000,4.000000,4.000000,4.000000,4.000000,4.000000,4.000000,100.000000
1602006609.690228,48.000000,0.000000,4141.025879,4137.948730,4146.666504,4137.948730,4122.051270,4129.743652,4132.307617,4120.512695,4110.769043,4110.769043,4136.922852,4165.641113,4141.025879,4143.589844,0.000000,4.000000,,,,0.000000,4.000000,4.000000,4.000000,4.000000,4.000000,4.000000,4.000000,4.000000,4.000000,4.000000,4.000000,4.000000,4.000000,4.000000,100.000000
1602006609.698109,49.000000,0.000000,4144.615234,4137.948730,4154.358887,4140.512695,4122.051270,4136.922852,4139.487305,4127.179688,4125.641113,4141.025879,4138.974121,4166.153809,4151.282227,4141.025879,0.000000,4.000000,,,,0.000000,4.000000,4.000000,4.000000,4.000000,4.000000,4.000000,4.000000,4.000000,4.000000,4.000000,4.000000,4.000000,4.000000,4.000000,100.000000
1602006609.705990,50.000000,0.000000,4145.128418,4141.538574,4155.384766,4140.000000,4120.512695,4140.000000,4138.974121,4130.256348,4129.230957,4150.256348,4128.205078,4168.717773,4155.897461,4138.461426,0.000000,4.000000,,,,0.000000,4.000000,4.000000,4.000000,4.000000,4.000000,4.000000,4.000000,4.000000,4.000000,4.000000,4.000000,4.000000,4.000000,4.000000,100.000000
1602006609.713871,51.000000,0.000000,4138.461426,4133.846191,4151.794922,4135.384766,4118.461426,4137.948730,4131.794922,4126.666504,4128.205078,4129.743652,4126.666504,4163.077148,4146.153809,4133.846191,0.000000,4.000000,,,,0.000000,4.000000,4.000000,4.000000,4.000000,4.000000,4.000000,4.000000,4.000000,4.000000,4.000000,4.000000,4.000000,4.000000,4.000000,100.000000
1602006609.721652,52.000000,0.000000,4130.769043,4122.051270,4145.641113,4128.205078,4120.000000,4125.641113,4123.077148,4125.128418,4138.974121,4140.512695,4135.384766,4153.846191,4134.358887,4130.256348,0.000000,4.000000,,,,0.000000,4.000000,4.000000,4.000000,4.000000,4.000000,4.000000,4.000000,4.000000,4.000000,4.000000,4.000000,4.000000,4.000000,4.000000,100.000000
1602006609.729533,53.000000,0.000000,4133.846191,4123.589844,4138.974121,4124.615234,4125.128418,4121.538574,4122.051270,4130.769043,4146.153809,4164.102539,4137.436035,4153.333496,4137.948730,4125.641113,0.000000,4.000000,,,,0.000000,4.000000,4.000000,4.000000,4.000000,4.000000,4.000000,4.000000,4.000000,4.000000,4.000000,4.000000,4.000000,4.000000,4.000000,100.000000
1602006609.737413,54.000000,0.000000,4133.846191,4127.692383,4138.974121,4124.102539,4125.641113,4124.102539,4125.641113,4125.641113,4134.358887,4140.512695,4135.384766,4156.410156,4140.000000,4119.487305,0.000000,4.000000,,,,0.000000,4.000000,4.000000,4.000000,4.000000,4.000000,4.000000,4.000000,4.000000,4.000000,4.000000,4.000000,4.000000,4.000000,4.000000,100.000000
1602006609.745294,55.000000,0.000000,4126.153809,4122.051270,4141.538574,4123.077148,4120.512695,4114.871582,4123.589844,4115.897461,4114.358887,4105.641113,4135.384766,4157.436035,4125.641113,4125.641113,0.000000,4.000000,,,,0.000000,4.000000,4.000000,4.000000,4.000000,4.000000,4.000000,4.000000,4.000000,4.000000,4.000000,4.000000,4.000000,4.000000,4.000000,100.000000
1602006609.753075,56.000000,0.000000,4120.512695,4119.487305,4140.000000,4124.102539,4117.948730,4106.666504,4119.487305,4116.410156,4098.461426,4106.153809,4123.589844,4153.333496,4118.461426,4134.871582,0.000000,4.000000,,,,0.000000,4.000000,4.000000,4.000000,4.000000,4.000000,4.000000,4.000000,4.000000,4.000000,4.000000,4.000000,4.000000,4.000000,4.000000,100.000000
1602006609.760956,57.000000,0.000000,4127.179688,4123.077148,4137.948730,4128.205078,4120.000000,4121.025879,4126.153809,4120.000000,4104.102539,4127.179688,4121.025879,4154.358887,4130.769043,4128.205078,0.000000,4.000000,,,,0.000000,4.000000,4.000000,4.000000,4.000000,4.000000,4.000000,4.000000,4.000000,4.000000,4.000000,4.000000,4.000000,4.000000,4.000000,100.000000
1602006609.768836,58.000000,0.000000,4138.974121,4127.692383,4137.948730,4129.743652,4124.615234,4138.461426,4136.922852,4127.692383,4129.743652,4139.487305,4134.871582,4165.128418,4144.615234,4122.051270,0.000000,4.000000,,,,0.000000,4.000000,4.000000,4.000000,4.000000,4.000000,4.000000,4.000000,4.000000,4.000000,4.000000,4.000000,4.000000,4.000000,4.000000,100.000000
1602006609.776717,59.000000,0.000000,4135.384766,4125.641113,4137.436035,4124.615234,4124.615234,4132.820313,4133.333496,4133.333496,4141.025879,4128.205078,4131.794922,4167.179688,4138.461426,4124.615234,0.000000,4.000000,,,,0.000000,4.000000,4.000000,4.000000,4.000000,4.000000,4.000000,4.000000,4.000000,4.000000,4.000000,4.000000,4.000000,4.000000,4.000000,100.000000
1602006609.784498,60.000000,0.000000,4127.179688,4120.000000,4137.948730,4120.512695,4118.461426,4128.717773,4124.102539,4129.230957,4136.922852,4118.974121,4121.538574,4155.897461,4126.153809,4126.666504,0.000000,4.000000,,,,0.000000,4.000000,4.000000,4.000000,4.000000,4.000000,4.000000,4.000000,4.000000,4.000000,4.000000,4.000000,4.000000,4.000000,4.000000,100.000000
1602006609.792278,61.000000,0.000000,4127.179688,4126.666504,4143.077148,4128.717773,4120.000000,4137.436035,4128.205078,4127.179688,4139.487305,4134.871582,4130.256348,4152.307617,4133.846191,4135.384766,0.000000,4.000000,,,,0.000000,4.000000,4.000000,4.000000,4.000000,4.000000,4.000000,4.000000,4.000000,4.000000,4.000000,4.000000,4.000000,4.000000,4.000000,100.000000
1602006609.800159,62.000000,0.000000,4125.641113,4132.820313,4140.512695,4136.410156,4125.128418,4130.769043,4130.256348,4128.717773,4147.179688,4145.128418,4145.128418,4156.410156,4150.769043,4142.563965,0.000000,4.000000,,,,0.000000,4.000000,4.000000,4.000000,4.000000,4.000000,4.000000,4.000000,4.000000,4.000000,4.000000,4.000000,4.000000,4.000000,4.000000,100.000000
1602006609.808040,63.000000,0.000000,4126.153809,4134.358887,4134.871582,4136.410156,4126.153809,4119.487305,4122.563965,4127.692383,4150.256348,4145.128418,4155.384766,4161.025879,4156.410156,4141.538574,0.000000,4.000000,,,,0.000000,4.000000,4.000000,4.000000,4.000000,4.000000,4.000000,4.000000,4.000000,4.000000,4.000000,4.000000,4.000000,4.000000,4.000000,100.000000
1602006609.815920,64.000000,0.000000,4142.563965,4144.615234,4146.666504,4144.615234,4132.820313,4128.205078,4121.025879,4130.256348,4155.897461,4160.512695,4157.948730,4167.692383,4159.487305,4153.333496,789.000000,4.000000,,,,0.000000,4.000000,4.000000,4.000000,4.000000,4.000000,4.000000,4.000000,4.000000,4.000000,4.000000,4.000000,4.000000,4.000000,4.000000,100.000000
1602006609.823701,65.000000,0.000000,4151.794922,4148.205078,4154.871582,4149.230957,4136.410156,4136.410156,4124.615234,4125.641113,4152.820313,4156.922852,4144.615234,4160.512695,4156.922852,4158.461426,784.000000,4.000000,,,,0.000000,4.000000,4.000000,4.000000,4.000000,4.000000,4.000000,4.000000,4.000000,4.000000,4.000000,4.000000,4.000000,4.000000,4.000000,100.000000
1602006609.831582,66.000000,0.000000,4138.974121,4140.000000,4141.025879,4141.025879,4130.256348,4133.846191,4121.538574,4109.743652,4129.743652,4118.974121,4124.615234,4136.410156,4134.358887,4128.205078,849.000000,4.000000,,,,0.000000,4.000000,4.000000,4.000000,4.000000,4.000000,4.000000,4.000000,4.000000,4.000000,4.000000,4.000000,4.000000,4.000000,4.000000,100.000000
1602006609.839463,67.000000,0.000000,4130.256348,4139.487305,4123.589844,4135.384766,4126.666504,4135.384766,4118.461426,4102.563965,4111.282227,4103.589844,4112.307617,4123.077148,4109.230957,4103.589844,872.000000,4.000000,,,,0.000000,4.000000,4.000000,4.000000,4.000000,4.000000,4.000000,4.000000,4.000000,4.000000,4.000000,4.000000,4.000000,4.000000,4.000000,100.000000
1602006609.847344,68.000000,0.000000,4121.538574,4135.897461,4113.333496,4132.820313,4127.692383,4137.948730,4120.512695,4105.128418,4111.794922,4112.820313,4102.051270,4118.974121,4102.051270,4102.051270,813.000000,4.000000,,,,0.000000,4.000000,4.000000,4.000000,4.000000,4.000000,4.000000,4.000000,4.000000,4.000000,4.000000,4.000000,4.000000,4.000000,4.000000,100.000000
1602006609.855225,69.000000,0.000000,4112.307617,4124.102539,4109.743652,4124.102539,4126.153809,4143.589844,4122.563965,4111.282227,4120.000000,4107.692383,4103.077148,4117.436035,4107.179688,4102.563965,818.000000,4.000000,,,,0.000000,4.000000,4.000000,4.000000,4.000000,4.000000,4.000000,4.000000,4.000000,4.000000,4.000000,4.000000,4.000000,4.000000,4.000000,100.000000
1602006609.863106,70.000000,0.000000,4123.589844,4127.692383,4122.051270,4126.153809,4128.717773,4152.307617,4125.641113,4122.051270,4128.717773,4106.153809,4116.922852,4127.179688,4116.410156,4105.128418,761.000000,4.000000,,,,0.000000,4.000000,4.000000,4.000000,4.000000,4.000000,4.000000,4.000000,4.000000,4.000000,4.000000,4.000000,4.000000,4.000000,4.000000,100.000000
1602006609.870987,71.000000,0.000000,4142.051270,4144.102539,4138.461426,4139.487305,4134.358887,4144.615234,4127.179688,4129.230957,4140.000000,4125.641113,4128.717773,4140.512695,4128.205078,4117.436035,673.000000,4.000000,,,,0.000000,4.000000,4.000000,4.000000,4.000000,4.000000,4.000000,4.000000,4.000000,4.000000,4.000000,4.000000,4.000000,4.000000,4.000000,100.000000
1602006609.878768,72.000000,0.000000,4142.051270,4140.000000,4142.051270,4141.538574,4132.307617,4136.410156,4130.256348,4131.794922,4145.128418,4146.666504,4135.897461,4148.717773,4141.025879,4132.820313,780.000000,4.000000,,,,0.000000,4.000000,4.000000,4.000000,4.000000,4.000000,4.000000,4.000000,4.000000,4.000000,4.000000,4.000000,4.000000,4.000000,4.000000,100.000000
1602006609.886649,73.000000,0.000000,4131.282227,4123.589844,4138.974121,4135.897461,4128.205078,4142.051270,4135.897461,4138.461426,4145.128418,4149.743652,4140.512695,4150.769043,4145.128418,4133.846191,838.000000,4.000000,,,,0.000000,4.000000,4.000000,4.000000,4.000000,4.000000,4.000000,4.000000,4.000000,4.000000,4.000000,4.000000,4.000000,4.000000,4.000000,100.000000
1602006609.894531,74.000000,0.000000,4136.922852,4135.384766,4137.436035,4137.948730,4125.128418,4142.563965,4138.974121,4144.102539,4155.897461,4151.282227,4145.128418,4148.717773,4143.077148,4129.743652,885.000000,4.000000,,,,0.000000,4.000000,4.000000,4.000000,4.000000,4.000000,4.000000,4.000000,4.000000,4.000000,4.000000,4.000000,4.000000,4.000000,4.000000,100.000000
1602006609.902412,75.000000,0.000000,4154.871582,4164.615234,4138.974121,4144.615234,4125.128418,4138.461426,4137.948730,4139.487305,4159.487305,4161.025879,4146.153809,4151.282227,4143.077148,4137.436035,837.000000,4.000000,,,,0.000000,4.000000,4.000000,4.000000,4.000000,4.000000,4.000000,4.000000,4.000000,4.000000,4.000000,4.000000,4.000000,4.000000,4.000000,100.000000
1602006609.910293,76.000000,0.000000,4158.461426,4165.128418,4140.512695,4145.128418,4122.563965,4136.922852,4133.846191,4125.641113,4130.256348,4140.000000,4135.897461,4155.384766,4131.282227,4142.563965,775.000000,4.000000,,,,0.000000,4.000000,4.000000,4.000000,4.000000,4.000000,4.000000,4.000000,4.000000,4.000000,4.000000,4.000000,4.000000,4.000000,4.000000,100.000000
1602006609.918174,77.000000,0.000000,4158.974121,4155.897461,4137.436035,4141.025879,4116.922852,4126.666504,4128.205078,4112.820313,4102.051270,4100.000000,4122.563965,4148.205078,4102.563965,4127.179688,730.000000,4.000000,,,,0.000000,4.000000,4.000000,4.000000,4.000000,4.000000,4.000000,4.000000,4.000000,4.000000,4.000000,4.000000,4.000000,4.000000,4.000000,100.000000
1602006609.926055,78.000000,0.000000,4165.641113,4163.589844,4136.922852,4140.000000,4118.461426,4115.384766,4118.974121,4108.205078,4104.102539,4106.153809,4112.307617,4134.358887,4080.512939,4106.153809,885.000000,4.000000,,,,0.000000,4.000000,4.000000,4.000000,4.000000,4.000000,4.000000,4.000000,4.000000,4.000000,4.000000,4.000000,4.000000,4.000000,4.000000,100.000000
1602006609.933936,79.000000,0.000000,4161.025879,4159.487305,4135.897461,4138.461426,4124.102539,4120.000000,4108.717773,4107.179688,4106.666504,4127.179688,4101.025879,4132.820313,4073.333252,4098.461426,837.000000,4.000000,,,,0.000000,4.000000,4.000000,4.000000,4.000000,4.000000,4.000000,4.000000,4.000000,4.000000,4.000000,4.000000,4.000000,4.000000,4.000000,100.000000
1602006609.941917,80.000000,0.000000,4150.256348,4153.846191,4128.717773,4138.461426,4128.205078,4124.615234,4103.589844,4110.769043,4093.846191,4110.769043,4095.897461,4136.410156,4071.794922,4098.974121,775.000000,4.000000,,,,0.000000,4.000000,4.000000,4.000000,4.000000,4.000000,4.000000,4.000000,4.000000,4.000000,4.000000,4.000000,4.000000,4.000000,4.000000,100.000000
1602006609.949798,81.000000,0.000000,4157.436035,4168.717773,4123.589844,4142.563965,4131.794922,4111.794922,4102.051270,4118.461426,4101.025879,4101.025879,4099.487305,4132.307617,4072.820557,4104.615234,730.000000,4.000000,,,,0.000000,4.000000,4.000000,4.000000,4.000000,4.000000,4.000000,4.000000,4.000000,4.000000,4.000000,4.000000,4.000000,4.000000,4.000000,100.000000
1602006609.957679,82.000000,0.000000,4162.051270,4173.846191,4124.102539,4144.102539,4134.871582,4108.717773,4101.538574,4121.538574,4123.077148,4123.589844,4100.512695,4126.153809,4079.487061,4104.615234,885.000000,4.000000,,,,0.000000,4.000000,4.000000,4.000000,4.000000,4.000000,4.000000,4.000000,4.000000,4.000000,4.000000,4.000000,4.000000,4.000000,4.000000,100.000000
1602006609.965560,83.000000,0.000000,4156.410156,4166.666504,4122.051270,4141.538574,4137.436035,4122.563965,4109.230957,4123.077148,4130.256348,4130.256348,4103.077148,4125.641113,4091.794922,4101.538574,837.000000,4.000000,,,,0.000000,4.000000,4.000000,4.000000,4.000000,4.000000,4.000000,4.000000,4.000000,4.000000,4.000000,4.000000,4.000000,4.000000,4.000000,100.000000
1602006609.973441,84.000000,0.000000,4155.897461,4168.205078,4121.538574,4140.512695,4135.897461,4124.615234,4121.025879,4126.153809,4131.282227,4120.512695,4112.307617,4127.179688,4096.922852,4113.846191,775.000000,4.000000,,,,0.000000,4.000000,4.000000,4.000000,4.000000,4.000000,4.000000,4.000000,4.000000,4.000000,4.000000,4.000000,4.000000,4.000000,4.000000,100.000000
1602006609.981322,85.000000,0.000000,4156.410156,4168.205078,4128.717773,4141.025879,4126.153809,4112.307617,4121.538574,4129.743652,4138.461426,4123.589844,4114.871582,4127.179688,4092.307617,4124.102539,730.000000,4.000000,,,,0.000000,4.000000,4.000000,4.000000,4.000000,4.000000,4.000000,4.000000,4.000000,4.000000,4.000000,4.000000,4.000000,4.000000,4.000000,100.000000
1602006609.989203,86.000000,0.000000,4161.538574,4157.948730,4143.077148,4140.000000,4117.436035,4110.256348,4121.538574,4134.358887,4140.000000,4133.333496,4111.282227,4130.256348,4093.846191,4112.820313,885.000000,4.000000,,,,0.000000,4.000000,4.000000,4.000000,4.000000,4.000000,4.000000,4.000000,4.000000,4.000000,4.000000,4.000000,4.000000,4.000000,4.000000,100.000000
1602006609.996984,87.000000,0.000000,4167.179688,4153.333496,4154.871582,4139.487305,4121.025879,4118.974121,4131.794922,4138.974121,4136.922852,4137.948730,4111.282227,4138.461426,4097.948730,4101.538574,837.000000,4.000000,,,,0.000000,4.000000,4.000000,4.000000,4.000000,4.000000,4.000000,4.000000,4.000000,4.000000,4.000000,4.000000,4.000000,4.000000,4.000000,100.000000
1602006610.004865,88.000000,0.000000,4162.563965,4153.333496,4154.358887,4138.461426,4126.153809,4126.666504,4140.000000,4139.487305,4135.384766,4142.051270,4111.794922,4144.615234,4094.871826,4114.358887,775.000000,4.000000,,,,0.000000,4.000000,4.000000,4.000000,4.000000,4.000000,4.000000,4.000000,4.000000,4.000000,4.000000,4.000000,4.000000,4.000000,4.000000,100.000000
1602006610.012746,89.000000,0.000000,4154.358887,4149.743652,4143.589844,4135.897461,4124.615234,4126.153809,4137.948730,4132.307617,4123.077148,4141.538574,4105.128418,4143.077148,4090.769287,4120.512695,730.000000,4.000000,,,,0.000000,4.000000,4.000000,4.000000,4.000000,4.000000,4.000000,4.000000,4.000000,4.000000,4.000000,4.000000,4.000000,4.000000,4.000000,100.000000
1602006610.020628,90.000000,0.000000,4151.794922,4149.230957,4133.846191,4134.871582,4128.717773,4123.077148,4130.769043,4123.077148,4114.358887,4125.128418,4098.461426,4137.436035,4089.230713,4106.666504,885.000000,4.000000,,,,0.000000,4.000000,4.000000,4.000000,4.000000,4.000000,4.000000,4.000000,4.000000,4.000000,4.000000,4.000000,4.000000,4.000000,4.000000,100.000000
1602006610.028509,91.000000,0.000000,4154.871582,4153.333496,4129.743652,4136.410156,4139.487305,4133.333496,4124.615234,4120.000000,4128.205078,4108.205078,4104.102539,4135.897461,4089.230713,4105.128418,837.000000,4.000000,,,,0.000000,4.000000,4.000000,4.000000,4.000000,4.000000,4.000000,4.000000,4.000000,4.000000,4.000000,4.000000,4.000000,4.000000,4.000000,100.000000
1602006610.036390,92.000000,0.000000,4155.384766,4153.333496,4123.077148,4136.410156,4138.461426,4136.922852,4120.000000,4124.102539,4135.384766,4115.897461,4107.692383,4137.948730,4092.820557,4114.358887,775.000000,4.000000,,,,0.000000,4.000000,4.000000,4.000000,4.000000,4.000000,4.000000,4.000000,4.000000,4.000000,4.000000,4.000000,4.000000,4.000000,4.000000,100.000000
1602006610.044271,93.000000,0.000000,4151.794922,4157.436035,4116.922852,4138.974121,4125.641113,4120.512695,4118.461426,4130.256348,4125.641113,4123.077148,4106.153809,4135.384766,4098.461426,4116.922852,730.000000,4.000000,,,,0.000000,4.000000,4.000000,4.000000,4.000000,4.000000,4.000000,4.000000,4.000000,4.000000,4.000000,4.000000,4.000000,4.000000,4.000000,100.000000
1602006610.052152,94.000000,0.000000,4152.820313,4168.717773,4127.692383,4149.743652,4124.102539,4121.025879,4121.538574,4137.948730,4136.922852,4123.589844,4113.333496,4132.307617,4109.743652,4123.077148,885.000000,4.000000,,,,0.000000,4.000000,4.000000,4.000000,4.000000,4.000000,4.000000,4.000000,4.000000,4.000000,4.000000,4.000000,4.000000,4.000000,4.000000,100.000000
1602006610.060133,95.000000,0.000000,4157.948730,4168.205078,4138.974121,4151.794922,4133.333496,4137.436035,4124.615234,4143.589844,4157.948730,4140.000000,4128.717773,4132.820313,4120.000000,4131.794922,837.000000,4.000000,,,,0.000000,4.000000,4.000000,4.000000,4.000000,4.000000,4.000000,4.000000,4.000000,4.000000,4.000000,4.000000,4.000000,4.000000,4.000000,100.000000
1602006610.068014,96.000000,0.000000,4150.256348,4154.358887,4129.743652,4139.487305,4128.717773,4130.256348,4128.717773,4145.641113,4155.384766,4156.922852,4126.153809,4129.230957,4113.846191,4127.692383,775.000000,4.000000,,,,0.000000,4.000000,4.000000,4.000000,4.000000,4.000000,4.000000,4.000000,4.000000,4.000000,4.000000,4.000000,4.000000,4.000000,4.000000,100.000000
1602006610.075896,97.000000,0.000000,4138.461426,4143.077148,4118.974121,4132.307617,4122.563965,4116.410156,4135.897461,4151.794922,4158.974121,4158.461426,4109.230957,4128.205078,4103.077148,4121.025879,730.000000,4.000000,,,,0.000000,4.000000,4.000000,4.000000,4.000000,4.000000,4.000000,4.000000,4.000000,4.000000,4.000000,4.000000,4.000000,4.000000,4.000000,100.000000
1602006610.083777,98.000000,0.000000,4139.487305,4140.000000,4125.128418,4136.410156,4130.769043,4124.615234,4142.563965,4157.948730,4173.846191,4152.820313,4111.282227,4133.333496,4111.794922,4123.077148,885.000000,4.000000,,,,0.000000,4.000000,4.000000,4.000000,4.000000,4.000000,4.000000,4.000000,4.000000,4.000000,4.000000,4.000000,4.000000,4.000000,4.000000,100.000000
1602006610.091658,99.000000,0.000000,4143.077148,4144.102539,4128.717773,4137.436035,4137.436035,4134.871582,4140.512695,4156.410156,4160.000000,4141.538574,4128.717773,4141.025879,4124.615234,4129.743652,837.000000,4.000000,,,,0.000000,4.000000,4.000000,4.000000,4.000000,4.000000,4.000000,4.000000,4.000000,4.000000,4.000000,4.000000,4.000000,4.000000,4.000000,100.000000
1602006610.099539,100.000000,0.000000,4146.153809,4151.282227,4121.538574,4131.794922,4134.358887,4137.948730,4137.436035,4148.717773,4136.410156,4123.589844,4134.358887,4149.743652,4121.025879,4133.846191,775.000000,4.000000,,,,0.000000,4.000000,4.000000,4.000000,4.000000,4.000000,4.000000,4.000000,4.000000,4.000000,4.000000,4.000000,4.000000,4.000000,4.000000,100.000000
1602006610.107420,101.000000,0.000000,4143.589844,4153.333496,4124.102539,4131.794922,4130.769043,4132.820313,4138.461426,4141.538574,4135.384766,4115.384766,4124.615234,4150.769043,4109.230957,4130.769043,730.000000,4.000000,,,,0.000000,4.000000,4.000000,4.000000,4.000000,4.000000,4.000000,4.000000,4.000000,4.000000,4.000000,4.000000,4.000000,4.000000,4.000000,100.000000
1602006610.115301,102.000000,0.000000,4140.512695,4150.769043,4136.922852,4136.922852,4125.128418,4121.538574,4132.307617,4132.820313,4134.358887,4124.615234,4118.461426,4143.077148,4106.153809,4126.153809,885.000000,4.000000,,,,0.000000,4.000000,4.000000,4.000000,4.000000,4.000000,4.000000,4.000000,4.000000,4.000000,4.000000,4.000000,4.000000,4.000000,4.000000,100.000000
1602006610.123183,103.000000,0.000000,4150.769043,4154.871582,4146.666504,4142.563965,4123.589844,4118.974121,4122.051270,4122.051270,4124.615234,4138.461426,4126.153809,4142.563965,4111.794922,4126.153809,837.000000,4.000000,,,,0.000000,4.000000,4.000000,4.000000,4.000000,4.000000,4.000000,4.000000,4.000000,4.000000,4.000000,4.000000,4.000000,4.000000,4.000000,100.000000
1602006610.130964,104.000000,0.000000,4161.538574,4159.487305,4146.666504,4142.051270,4134.358887,4123.589844,4120.000000,4124.102539,4124.102539,4140.512695,4133.333496,4146.666504,4113.333496,4129.230957,775.000000,4.000000,,,,0.000000,4.000000,4.000000,4.000000,4.000000,4.000000,4.000000,4.000000,4.000000,4.000000,4.000000,4.000000,4.000000,4.000000,4.000000,100.000000
1602006610.138845,105.000000,0.000000,4153.333496,4148.717773,4135.897461,4137.436035,4135.897461,4123.077148,4126.666504,4134.871582,4125.641113,4131.794922,4128.205078,4140.000000,4107.179688,4124.615234,730.000000,4.000000,,,,0.000000,4.000000,4.000000,4.000000,4.000000,4.000000,4.000000,4.000000,4.000000,4.000000,4.000000,4.000000,4.000000,4.000000,4.000000,100.000000
1602006610.146726,106.000000,0.000000,4142.563965,4140.512695,4125.128418,4135.384766,4125.641113,4126.153809,4135.897461,4142.563965,4124.615234,4137.948730,4120.000000,4132.307617,4107.179688,4123.077148,885.000000,4.000000,,,,0.000000,4.000000,4.000000,4.000000,4.000000,4.000000,4.000000,4.000000,4.000000,4.000000,4.000000,4.000000,4.000000,4.000000,4.000000,100.000000
1602006610.154607,107.000000,0.000000,4142.051270,4146.153809,4118.461426,4133.846191,4129.743652,4134.358887,4141.538574,4150.256348,4132.820313,4145.128418,4123.077148,4134.871582,4114.358887,4134.871582,837.000000,4.000000,,,,0.000000,4.000000,4.000000,4.000000,4.000000,4.000000,4.000000,4.000000,4.000000,4.000000,4.000000,4.000000,4.000000,4.000000,4.000000,100.000000
1602006610.162489,108.000000,0.000000,4134.358887,4146.153809,4111.282227,4132.307617,4137.436035,4139.487305,4143.077148,4156.922852,4146.666504,4133.846191,4124.615234,4136.410156,4115.384766,4138.461426,775.000000,4.000000,,,,0.000000,4.000000,4.000000,4.000000,4.000000,4.000000,4.000000,4.000000,4.000000,4.000000,4.000000,4.000000,4.000000,4.000000,4.000000,100.000000
1602006610.170370,109.000000,0.000000,4118.461426,4135.897461,4095.384521,4128.717773,4130.769043,4138.461426,4140.512695,4154.871582,4146.153809,4130.256348,4120.000000,4128.205078,4106.153809,4117.436035,730.000000,4.000000,,,,0.000000,4.000000,4.000000,4.000000,4.000000,4.000000,4.000000,4.000000,4.000000,4.000000,4.000000,4.000000,4.000000,4.000000,4.000000,100.000000
1602006610.178251,110.000000,0.000000,4113.846191,4132.820313,4088.205078,4123.077148,4128.717773,4129.743652,4133.333496,4150.256348,4136.410156,4145.641113,4121.025879,4116.922852,4100.000000,4104.615234,885.000000,4.000000,,,,0.000000,4.000000,4.000000,4.000000,4.000000,4.000000,4.000000,4.000000,4.000000,4.000000,4.000000,4.000000,4.000000,4.000000,4.000000,100.000000
1602006610.186132,111.000000,0.000000,4119.487305,4137.948730,4107.692383,4125.128418,4138.461426,4133.333496,4132.307617,4151.794922,4137.436035,4154.871582,4122.563965,4124.102539,4110.256348,4120.000000,837.000000,4.000000,,,,0.000000,4.000000,4.000000,4.000000,4.000000,4.000000,4.000000,4.000000,4.000000,4.000000,4.000000,4.000000,4.000000,4.000000,4.000000,100.000000
1602006610.194013,112.000000,0.000000,4121.538574,4139.487305,4128.205078,4135.897461,4137.948730,4148.717773,4139.487305,4156.410156,4146.666504,4151.282227,4122.051270,4140.512695,4120.512695,4131.794922,775.000000,4.000000,,,,0.000000,4.000000,4.000000,4.000000,4.000000,4.000000,4.000000,4.000000,4.000000,4.000000,4.000000,4.000000,4.000000,4.000000,4.000000,100.000000
1602006610.201894,113.000000,0.000000,4116.410156,4137.436035,4125.641113,4138.461426,4129.743652,4148.717773,4141.025879,4154.358887,4140.512695,4142.563965,4125.641113,4136.410156,4108.717773,4124.102539,730.000000,4.000000,,,,0.000000,4.000000,4.000000,4.000000,4.000000,4.000000,4.000000,4.000000,4.000000,4.000000,4.000000,4.000000,4.000000,4.000000,4.000000,100.000000
1602006610.209775,114.000000,0.000000,4123.589844,4136.410156,4120.512695,4130.769043,4125.128418,4140.512695,4135.897461,4141.538574,4115.384766,4125.128418,4126.153809,4123.589844,4097.436035,4121.025879,885.000000,4.000000,,,,0.000000,4.000000,4.000000,4.000000,4.000000,4.000000,4.000000,4.000000,4.000000,4.000000,4.000000,4.000000,4.000000,4.000000,4.000000,100.000000
1602006610.217755,115.000000,0.000000,4134.871582,4140.000000,4125.128418,4127.692383,4125.641113,4143.077148,4135.384766,4141.025879,4108.205078,4121.025879,4124.102539,4126.666504,4114.871582,4131.794922,837.000000,4.000000,,,,0.000000,4.000000,4.000000,4.000000,4.000000,4.000000,4.000000,4.000000,4.000000,4.000000,4.000000,4.000000,4.000000,4.000000,4.000000,100.000000
1602006610.225636,116.000000,0.000000,4130.769043,4140.512695,4118.461426,4123.589844,4125.128418,4142.051270,4135.897461,4152.307617,4122.563965,4133.333496,4126.666504,4130.769043,4127.692383,4133.333496,775.000000,4.000000,,,,0.000000,4.000000,4.000000,4.000000,4.000000,4.000000,4.000000,4.000000,4.000000,4.000000,4.000000,4.000000,4.000000,4.000000,4.000000,100.000000
1602006610.233517,117.000000,0.000000,4121.538574,4134.871582,4104.102539,4121.538574,4121.025879,4138.461426,4134.358887,4150.769043,4125.641113,4128.717773,4128.717773,4124.615234,4112.820313,4124.615234,730.000000,4.000000,,,,0.000000,4.000000,4.000000,4.000000,4.000000,4.000000,4.000000,4.000000,4.000000,4.000000,4.000000,4.000000,4.000000,4.000000,4.000000,100.000000
1602006610.241398,118.000000,0.000000,4126.153809,4140.512695,4106.666504,4132.820313,4123.077148,4137.948730,4137.948730,4145.128418,4118.974121,4116.922852,4124.102539,4123.589844,4106.153809,4121.538574,885.000000,4.000000,,,,0.000000,4.000000,4.000000,4.000000,4.000000,4.000000,4.000000,4.000000,4.000000,4.000000,4.000000,4.000000,4.000000,4.000000,4.000000,100.000000
1602006610.249279,119.000000,0.000000,4134.358887,4151.794922,4118.974121,4142.563965,4133.333496,4123.589844,4137.948730,4143.589844,4122.563965,4127.179688,4122.051270,4126.153809,4120.000000,4123.589844,837.000000,4.000000,,,,0.000000,4.000000,4.000000,4.000000,4.000000,4.000000,4.000000,4.000000,4.000000,4.000000,4.000000,4.000000,4.000000,4.000000,4.000000,100.000000
1602006610.257160,120.000000,0.000000,4134.871582,4152.820313,4124.615234,4142.563965,4138.974121,4117.948730,4130.256348,4137.436035,4128.205078,4147.692383,4125.128418,4124.615234,4125.128418,4129.230957,775.000000,4.000000,,,,0.000000,4.000000,4.000000,4.000000,4.000000,4.000000,4.000000,4.000000,4.000000,4.000000,4.000000,4.000000,4.000000,4.000000,4.000000,100.000000
1602006610.265041,121.000000,0.000000,4140.000000,4152.307617,4127.179688,4143.077148,4140.000000,4132.820313,4129.230957,4141.538574,4136.922852,4156.922852,4125.641113,4124.615234,4119.487305,4141.538574,730.000000,4.000000,,,,0.000000,4.000000,4.000000,4.000000,4.000000,4.000000,4.000000,4.000000,4.000000,4.000000,4.000000,4.000000,4.000000,4.000000,4.000000,100.000000
1602006610.272822,122.000000,0.000000,4144.615234,4152.820313,4128.717773,4143.589844,4142.563965,4138.974121,4135.384766,4152.820313,4154.871582,4157.436035,4121.538574,4128.717773,4123.589844,4143.077148,885.000000,4.000000,,,,0.000000,4.000000,4.000000,4.000000,4.000000,4.000000,4.000000,4.000000,4.000000,4.000000,4.000000,4.000000,4.000000,4.000000,4.000000,100.000000
1602006610.280703,123.000000,0.000000,4130.256348,4142.563965,4119.487305,4132.820313,4142.051270,4136.410156,4136.922852,4146.666504,4154.358887,4161.025879,4118.974121,4125.128418,4127.179688,4130.769043,837.000000,4.000000,,,,0.000000,4.000000,4.000000,4.000000,4.000000,4.000000,4.000000,4.000000,4.000000,4.000000,4.000000,4.000000,4.000000,4.000000,4.000000,100.000000
1602006610.288585,124.000000,0.000000,4116.922852,4133.846191,4105.641113,4123.077148,4140.000000,4140.512695,4136.922852,4135.897461,4140.512695,4164.102539,4121.538574,4113.846191,4124.615234,4126.153809,775.000000,4.000000,,,,0.000000,4.000000,4.000000,4.000000,4.000000,4.000000,4.000000,4.000000,4.000000,4.000000,4.000000,4.000000,4.000000,4.000000,4.000000,100.000000
1602006610.296466,125.000000,0.000000,4120.000000,4135.384766,4100.000000,4123.589844,4138.461426,4142.051270,4138.974121,4140.512695,4133.846191,4140.000000,4125.128418,4107.179688,4122.051270,4125.641113,730.000000,4.000000,,,,0.000000,4.000000,4.000000,4.000000,4.000000,4.000000,4.000000,4.000000,4.000000,4.000000,4.000000,4.000000,4.000000,4.000000,4.000000,100.000000
1602006610.304347,126.000000,0.000000,4123.589844,4129.230957,4096.922852,4122.563965,4132.307617,4132.820313,4136.922852,4141.025879,4122.563965,4100.512695,4121.538574,4108.717773,4111.282227,4121.538574,885.000000,4.000000,,,,0.000000,4.000000,4.000000,4.000000,4.000000,4.000000,4.000000,4.000000,4.000000,4.000000,4.000000,4.000000,4.000000,4.000000,4.000000,100.000000
1602006610.312228,127.000000,0.000000,4120.000000,4120.000000,4098.974121,4117.436035,4127.179688,4123.589844,4133.846191,4134.871582,4112.820313,4101.538574,4117.948730,4116.410156,4103.077148,4117.436035,837.000000,4.000000,,,,0.000000,4.000000,4.000000,4.000000,4.000000,4.000000,4.000000,4.000000,4.000000,4.000000,4.000000,4.000000,4.000000,4.000000,4.000000,100.000000
1602006610.320109,128.000000,0.000000,4120.512695,4126.153809,4112.307617,4117.436035,4127.692383,4120.000000,4134.871582,4136.922852,4115.384766,4131.794922,4118.974121,4127.692383,4113.333496,4120.512695,775.000000,4.000000,,,,0.000000,4.000000,4.000000,4.000000,4.000000,4.000000,4.000000,4.000000,4.000000,4.000000,4.000000,4.000000,4.000000,4.000000,4.000000,100.000000
1602006610.327990,0.000000,0.000000,4126.153809,4136.410156,4123.077148,4123.589844,4129.743652,4125.641113,4136.922852,4142.051270,4120.000000,4140.000000,4123.077148,4141.025879,4123.589844,4132.820313,789.000000,4.000000,,,,0.000000,4.000000,4.000000,4.000000,4.000000,4.000000,4.000000,4.000000,4.000000,4.000000,4.000000,4.000000,4.000000,4.000000,4.000000,100.000000
1602006610.335971,1.000000,0.000000,4132.307617,4136.410156,4128.205078,4130.256348,4134.358887,4133.846191,4137.948730,4142.563965,4126.153809,4137.948730,4130.769043,4152.820313,4129.230957,4141.538574,784.000000,4.000000,,,,0.000000,4.000000,4.000000,4.000000,4.000000,4.000000,4.000000,4.000000,4.000000,4.000000,4.000000,4.000000,4.000000,4.000000,4.000000,100.000000
1602006610.343852,2.000000,0.000000,4141.538574,4138.461426,4134.871582,4136.410156,4138.974121,4135.384766,4142.051270,4139.487305,4139.487305,4158.461426,4144.102539,4157.948730,4145.641113,4144.102539,849.000000,4.000000,,,,0.000000,4.000000,4.000000,4.000000,4.000000,4.000000,4.000000,4.000000,4.000000,4.000000,4.000000,4.000000,4.000000,4.000000,4.000000,100.000000
1602006610.351733,3.000000,0.000000,4150.769043,4148.717773,4140.000000,4138.974121,4140.512695,4136.410156,4149.743652,4140.512695,4141.025879,4176.410156,4155.384766,4157.948730,4164.615234,4151.282227,872.000000,4.000000,,,,0.000000,4.000000,4.000000,4.000000,4.000000,4.000000,4.000000,4.000000,4.000000,4.000000,4.000000,4.000000,4.000000,4.000000,4.000000,100.000000
1602006610.359614,4.000000,0.000000,4153.846191,4154.358887,4139.487305,4138.974121,4143.077148,4137.948730,4151.794922,4142.563965,4138.974121,4156.922852,4158.974121,4155.384766,4169.230957,4160.512695,811.000000,4.000000,,,,0.000000,4.000000,4.000000,4.000000,4.000000,4.000000,4.000000,4.000000,4.000000,4.000000,4.000000,4.000000,4.000000,4.000000,4.000000,100.000000
1602006610.367495,5.000000,0.000000,4148.717773,4152.307617,4141.538574,4142.051270,4142.563965,4133.333496,4141.538574,4140.000000,4143.589844,4138.461426,4155.897461,4151.282227,4161.025879,4152.307617,818.000000,4.000000,,,,0.000000,4.000000,4.000000,4.000000,4.000000,4.000000,4.000000,4.000000,4.000000,4.000000,4.000000,4.000000,4.000000,4.000000,4.000000,100.000000
1602006610.375376,6.000000,0.000000,4138.974121,4151.282227,4141.538574,4141.025879,4139.487305,4122.051270,4127.179688,4135.384766,4135.384766,4149.230957,4141.538574,4143.077148,4143.077148,4131.794922,761.000000,4.000000,,,,0.000000,4.000000,4.000000,4.000000,4.000000,4.000000,4.000000,4.000000,4.000000,4.000000,4.000000,4.000000,4.000000,4.000000,4.000000,100.000000
1602006610.383257,7.000000,0.000000,4138.974121,4153.333496,4137.436035,4136.922852,4140.512695,4113.846191,4119.487305,4128.205078,4122.051270,4151.282227,4124.102539,4134.871582,4126.666504,4118.461426,671.000000,4.000000,,,,0.000000,4.000000,4.000000,4.000000,4.000000,4.000000,4.000000,4.000000,4.000000,4.000000,4.000000,4.000000,4.000000,4.000000,4.000000,100.000000
1602006610.391138,8.000000,0.000000,4150.769043,4155.897461,4143.589844,4146.153809,4143.077148,4121.025879,4120.000000,4120.000000,4128.717773,4134.871582,4119.487305,4140.000000,4123.077148,4123.077148,780.000000,4.000000,,,,0.000000,4.000000,4.000000,4.000000,4.000000,4.000000,4.000000,4.000000,4.000000,4.000000,4.000000,4.000000,4.000000,4.000000,4.000000,100.000000
1602006610.398918,9.000000,0.000000,4158.461426,4156.410156,4154.358887,4155.897461,4142.051270,4138.461426,4121.025879,4126.153809,4141.025879,4135.897461,4120.512695,4155.384766,4125.641113,4136.410156,838.000000,4.000000,,,,0.000000,4.000000,4.000000,4.000000,4.000000,4.000000,4.000000,4.000000,4.000000,4.000000,4.000000,4.000000,4.000000,4.000000,4.000000,100.000000
1602006610.406799,10.000000,0.000000,4155.384766,4155.897461,4157.948730,4145.128418,4134.871582,4137.948730,4123.589844,4136.922852,4141.025879,4145.128418,4123.589844,4160.512695,4130.256348,4140.000000,879.000000,4.000000,,,,0.000000,4.000000,4.000000,4.000000,4.000000,4.000000,4.000000,4.000000,4.000000,4.000000,4.000000,4.000000,4.000000,4.000000,4.000000,100.000000
1602006610.414580,11.000000,0.000000,4152.307617,4154.871582,4151.794922,4133.846191,4124.102539,4123.589844,4133.333496,4138.461426,4144.102539,4143.589844,4136.410156,4156.922852,4138.974121,4141.025879,837.000000,4.000000,,,,0.000000,4.000000,4.000000,4.000000,4.000000,4.000000,4.000000,4.000000,4.000000,4.000000,4.000000,4.000000,4.000000,4.000000,4.000000,100.000000
1602006610.422462,12.000000,0.000000,4157.436035,4154.358887,4141.538574,4138.974121,4125.128418,4128.717773,4142.051270,4142.563965,4150.769043,4153.846191,4141.538574,4152.307617,4144.102539,4143.589844,770.000000,4.000000,,,,0.000000,4.000000,4.000000,4.000000,4.000000,4.000000,4.000000,4.000000,4.000000,4.000000,4.000000,4.000000,4.000000,4.000000,4.000000,100.000000
1602006610.430343,13.000000,0.000000,4155.897461,4151.282227,4130.769043,4141.025879,4134.358887,4144.102539,4141.538574,4144.102539,4146.666504,4164.615234,4126.153809,4139.487305,4134.358887,4134.358887,730.000000,4.000000,,,,0.000000,4.000000,4.000000,4.000000,4.000000,4.000000,4.000000,4.000000,4.000000,4.000000,4.000000,4.000000,4.000000,4.000000,4.000000,100.000000
1602006610.438224,14.000000,0.000000,4140.000000,4143.077148,4122.051270,4132.820313,4137.948730,4136.922852,4137.436035,4131.794922,4134.871582,4141.538574,4116.922852,4124.102539,4123.589844,4116.922852,879.000000,4.000000,,,,0.000000,4.000000,4.000000,4.000000,4.000000,4.000000,4.000000,4.000000,4.000000,4.000000,4.000000,4.000000,4.000000,4.000000,4.000000,100.000000
1602006610.446105,15.000000,0.000000,4127.692383,4138.461426,4117.436035,4133.846191,4141.538574,4123.077148,4130.769043,4119.487305,4125.128418,4113.333496,4123.589844,4122.051270,4123.589844,4106.153809,837.000000,4.000000,,,,0.000000,4.000000,4.000000,4.000000,4.000000,4.000000,4.000000,4.000000,4.000000,4.000000,4.000000,4.000000,4.000000,4.000000,4.000000,100.000000
1602006610.453986,16.000000,0.000000,4132.820313,4143.589844,4115.384766,4140.512695,4149.743652,4123.077148,4117.948730,4112.820313,4117.436035,4117.948730,4117.948730,4119.487305,4122.563965,4103.589844,0.000000,4.000000,,,,0.000000,4.000000,4.000000,4.000000,4.000000,4.000000,4.000000,4.000000,4.000000,4.000000,4.000000,4.000000,4.000000,4.000000,4.000000,100.000000
1602006610.461867,17.000000,0.000000,4137.948730,4152.820313,4118.974121,4141.025879,4153.333496,4122.051270,4107.692383,4103.077148,4110.256348,4132.820313,4104.102539,4112.820313,4116.922852,4105.641113,0.000000,4.000000,,,,0.000000,4.000000,4.000000,4.000000,4.000000,4.000000,4.000000,4.000000,4.000000,4.000000,4.000000,4.000000,4.000000,4.000000,4.000000,100.000000
1602006610.469749,18.000000,0.000000,4134.871582,4155.897461,4130.769043,4143.589844,4152.820313,4118.461426,4108.205078,4105.641113,4108.717773,4123.589844,4107.692383,4122.563965,4117.436035,4116.922852,0.000000,4.000000,,,,0.000000,4.000000,4.000000,4.000000,4.000000,4.000000,4.000000,4.000000,4.000000,4.000000,4.000000,4.000000,4.000000,4.000000,4.000000,100.000000
1602006610.477729,19.000000,0.000000,4142.563965,4154.871582,4144.615234,4150.769043,4154.871582,4123.077148,4113.846191,4119.487305,4118.461426,4116.410156,4122.051270,4144.102539,4125.128418,4131.794922,0.000000,4.000000,,,,0.000000,4.000000,4.000000,4.000000,4.000000,4.000000,4.000000,4.000000,4.000000,4.000000,4.000000,4.000000,4.000000,4.000000,4.000000,100.000000
1602006610.485610,20.000000,0.000000,4151.794922,4159.487305,4152.307617,4152.820313,4157.436035,4130.769043,4117.436035,4129.230957,4138.461426,4147.179688,4129.743652,4161.025879,4132.307617,4137.948730,0.000000,4.000000,,,,0.000000,4.000000,4.000000,4.000000,4.000000,4.000000,4.000000,4.000000,4.000000,4.000000,4.000000,4.000000,4.000000,4.000000,4.000000,100.000000
1602006610.493491,21.000000,0.000000,4162.051270,4168.717773,4158.974121,4154.871582,4152.820313,4130.256348,4124.102539,4140.512695,4155.897461,4181.538574,4136.410156,4172.307617,4150.769043,4150.256348,0.000000,4.000000,,,,0.000000,4.000000,4.000000,4.000000,4.000000,4.000000,4.000000,4.000000,4.000000,4.000000,4.000000,4.000000,4.000000,4.000000,4.000000,100.000000
1602006610.501372,22.000000,0.000000,4174.358887,4169.230957,4164.615234,4156.410156,4143.077148,4127.179688,4136.410156,4154.358887,4162.051270,4169.743652,4145.641113,4175.897461,4161.025879,4164.102539,0.000000,4.000000,,,,0.000000,4.000000,4.000000,4.000000,4.000000,4.000000,4.000000,4.000000,4.000000,4.000000,4.000000,4.000000,4.000000,4.000000,4.000000,100.000000
1602006610.509253,23.000000,0.000000,4169.743652,4157.436035,4162.051270,4147.692383,4136.922852,4125.641113,4144.615234,4156.410156,4157.436035,4154.358887,4140.512695,4173.333496,4143.589844,4153.333496,0.000000,4.000000,,,,0.000000,4.000000,4.000000,4.000000,4.000000,4.000000,4.000000,4.000000,4.000000,4.000000,4.000000,4.000000,4.000000,4.000000,4.000000,100.000000
1602006610.517134,24.000000,0.000000,4157.436035,4154.358887,4155.384766,4140.512695,4138.461426,4127.179688,4143.077148,4149.230957,4147.692383,4172.820313,4130.769043,4169.230957,4138.974121,4144.615234,0.000000,4.000000,,,,0.000000,4.000000,4.000000,4.000000,4.000000,4.000000,4.000000,4.000000,4.000000,4.000000,4.000000,4.000000,4.000000,4.000000,4.000000,100.000000
1602006610.525015,25.000000,0.000000,4151.794922,4156.922852,4147.179688,4144.615234,4138.461426,4131.794922,4135.384766,4138.974121,4131.794922,4164.102539,4138.974121,4164.102539,4158.461426,4155.897461,0.000000,4.000000,,,,0.000000,4.000000,4.000000,4.000000,4.000000,4.000000,4.000000,4.000000,4.000000,4.000000,4.000000,4.000000,4.000000,4.000000,4.000000,100.000000
1602006610.532896,26.000000,0.000000,4136.410156,4145.641113,4133.846191,4143.077148,4133.846191,4133.333496,4127.179688,4122.051270,4111.282227,4122.051270,4142.563965,4148.717773,4161.025879,4146.153809,0.000000,4.000000,,,,0.000000,4.000000,4.000000,4.000000,4.000000,4.000000,4.000000,4.000000,4.000000,4.000000,4.000000,4.000000,4.000000,4.000000,4.000000,100.000000
1602006610.540677,27.000000,0.000000,4121.538574,4128.717773,4125.641113,4132.820313,4143.589844,4136.410156,4125.641113,4113.846191,4105.641113,4123.589844,4137.436035,4138.974121,4157.436035,4132.307617,0.000000,4.000000,,,,0.000000,4.000000,4.000000,4.000000,4.000000,4.000000,4.000000,4.000000,4.000000,4.000000,4.000000,4.000000,4.000000,4.000000,4.000000,100.000000
1602006610.548557,28.000000,0.000000,4116.410156,4117.436035,4126.153809,4123.589844,4152.820313,4145.128418,4127.179688,4118.461426,4110.256348,4148.205078,4145.641113,4146.666504,4170.769043,4145.641113,0.000000,4.000000,,,,0.000000,4.000000,4.000000,4.000000,4.000000,4.000000,4.000000,4.000000,4.000000,4.000000,4.000000,4.000000,4.000000,4.000000,4.000000,100.000000
1602006610.556438,29.000000,0.000000,4097.948730,4106.153809,4123.589844,4118.974121,4146.666504,4147.692383,4122.563965,4116.922852,4109.743652,4133.333496,4152.307617,4149.230957,4169.743652,4148.205078,0.000000,4.000000,,,,0.000000,4.000000,4.000000,4.000000,4.000000,4.000000,4.000000,4.000000,4.000000,4.000000,4.000000,4.000000,4.000000,4.000000,4.000000,100.000000
1602006610.564319,30.000000,0.000000,4091.794922,4104.102539,4121.538574,4120.000000,4144.615234,4142.051270,4123.077148,4113.846191,4121.025879,4126.153809,4143.589844,4145.128418,4158.461426,4142.563965,0.000000,4.000000,,,,0.000000,4.000000,4.000000,4.000000,4.000000,4.000000,4.000000,4.000000,4.000000,4.000000,4.000000,4.000000,4.000000,4.000000,4.000000,100.000000
1602006610.572100,31.000000,0.000000,4107.179688,4105.641113,4125.128418,4118.461426,4150.769043,4141.025879,4132.820313,4127.179688,4147.179688,4164.615234,4140.000000,4147.692383,4161.025879,4149.230957,0.000000,4.000000,,,,0.000000,4.000000,4.000000,4.000000,4.000000,4.000000,4.000000,4.000000,4.000000,4.000000,4.000000,4.000000,4.000000,4.000000,4.000000,100.000000
1602006610.579981,32.000000,0.000000,4100.512695,4097.948730,4121.025879,4109.230957,4143.589844,4139.487305,4137.948730,4142.051270,4161.538574,4184.615234,4141.025879,4150.769043,4161.538574,4143.077148,0.000000,4.000000,,,,0.000000,4.000000,4.000000,4.000000,4.000000,4.000000,4.000000,4.000000,4.000000,4.000000,4.000000,4.000000,4.000000,4.000000,4.000000,100.000000
1602006610.587862,33.000000,0.000000,4086.153809,4095.384521,4118.974121,4104.102539,4131.794922,4128.717773,4136.922852,4149.743652,4156.922852,4157.436035,4136.410156,4148.717773,4153.846191,4134.358887,0.000000,4.000000,,,,0.000000,4.000000,4.000000,4.000000,4.000000,4.000000,4.000000,4.000000,4.000000,4.000000,4.000000,4.000000,4.000000,4.000000,4.000000,100.000000
1602006610.595743,34.000000,0.000000,4093.333252,4105.128418,4129.743652,4111.282227,4133.333496,4122.563965,4138.461426,4155.897461,4149.230957,4146.153809,4136.410156,4154.358887,4155.897461,4141.538574,0.000000,4.000000,,,,0.000000,4.000000,4.000000,4.000000,4.000000,4.000000,4.000000,4.000000,4.000000,4.000000,4.000000,4.000000,4.000000,4.000000,4.000000,100.000000
1602006610.603623,35.000000,0.000000,4107.179688,4113.846191,4138.461426,4121.025879,4137.436035,4125.641113,4140.512695,4151.282227,4144.102539,4166.153809,4143.589844,4160.000000,4162.563965,4141.025879,0.000000,4.000000,,,,0.000000,4.000000,4.000000,4.000000,4.000000,4.000000,4.000000,4.000000,4.000000,4.000000,4.000000,4.000000,4.000000,4.000000,4.000000,100.000000
1602006610.611504,36.000000,0.000000,4114.358887,4117.948730,4136.922852,4122.051270,4137.948730,4126.666504,4139.487305,4138.974121,4139.487305,4167.179688,4149.230957,4153.333496,4164.615234,4133.846191,0.000000,4.000000,,,,0.000000,4.000000,4.000000,4.000000,4.000000,4.000000,4.000000,4.000000,4.000000,4.000000,4.000000,4.000000,4.000000,4.000000,4.000000,100.000000
1602006610.619385,37.000000,0.000000,4116.922852,4122.051270,4138.461426,4120.000000,4138.461426,4130.769043,4139.487305,4136.922852,4137.948730,4164.102539,4154.358887,4153.333496,4168.205078,4143.077148,0.000000,4.000000,,,,0.000000,4.000000,4.000000,4.000000,4.000000,4.000000,4.000000,4.000000,4.000000,4.000000,4.000000,4.000000,4.000000,4.000000,4.000000,100.000000
1602006610.627266,38.000000,0.000000,4110.769043,4122.563965,4137.948730,4123.077148,4138.974121,4139.487305,4137.436035,4140.000000,4143.589844,4176.410156,4157.948730,4153.846191,4172.307617,4150.256348,0.000000,4.000000,,,,0.000000,4.000000,4.000000,4.000000,4.000000,4.000000,4.000000,4.000000,4.000000,4.000000,4.000000,4.000000,4.000000,4.000000,4.000000,100.000000
1602006610.635047,39.000000,0.000000,4101.538574,4115.897461,4126.666504,4124.102539,4138.461426,4134.358887,4131.794922,4138.974121,4143.077148,4166.153809,4150.256348,4140.512695,4168.205078,4143.077148,0.000000,4.000000,,,,0.000000,4.000000,4.000000,4.000000,4.000000,4.000000,4.000000,4.000000,4.000000,4.000000,4.000000,4.000000,4.000000,4.000000,4.000000,100.000000
1602006610.642929,40.000000,0.000000,4104.615234,4113.846191,4129.230957,4120.512695,4134.358887,4124.615234,4130.256348,4137.948730,4136.922852,4151.794922,4137.436035,4140.000000,4168.205078,4138.461426,0.000000,4.000000,,,,0.000000,4.000000,4.000000,4.000000,4.000000,4.000000,4.000000,4.000000,4.000000,4.000000,4.000000,4.000000,4.000000,4.000000,4.000000,100.000000
1602006610.650810,41.000000,0.000000,4120.512695,4121.025879,4152.820313,4129.743652,4136.410156,4133.333496,4133.846191,4139.487305,4144.102539,4168.205078,4145.641113,4165.128418,4180.512695,4149.230957,0.000000,4.000000,,,,0.000000,4.000000,4.000000,4.000000,4.000000,4.000000,4.000000,4.000000,4.000000,4.000000,4.000000,4.000000,4.000000,4.000000,4.000000,100.000000
1602006610.658691,42.000000,0.000000,4130.769043,4128.717773,4164.102539,4142.051270,4142.563965,4144.102539,4137.948730,4143.589844,4159.487305,4178.974121,4168.205078,4180.000000,4188.717773,4165.641113,0.000000,4.000000,,,,0.000000,4.000000,4.000000,4.000000,4.000000,4.000000,4.000000,4.000000,4.000000,4.000000,4.000000,4.000000,4.000000,4.000000,4.000000,100.000000
1602006610.666572,43.000000,0.000000,4118.974121,4123.077148,4149.743652,4133.846191,4138.974121,4140.512695,4139.487305,4142.563965,4157.436035,4162.563965,4166.153809,4166.666504,4180.000000,4168.717773,0.000000,4.000000,,,,0.000000,4.000000,4.000000,4.000000,4.000000,4.000000,4.000000,4.000000,4.000000,4.000000,4.000000,4.000000,4.000000,4.000000,4.000000,100.000000
1602006610.674453,44.000000,0.000000,4106.666504,4116.410156,4134.871582,4122.051270,4133.846191,4134.358887,4137.948730,4136.410156,4137.436035,4148.717773,4147.692383,4154.358887,4166.666504,4157.948730,0.000000,4.000000,,,,0.000000,4.000000,4.000000,4.000000,4.000000,4.000000,4.000000,4.000000,4.000000,4.000000,4.000000,4.000000,4.000000,4.000000,4.000000,100.000000
1602006610.682334,45.000000,0.000000,4113.846191,4119.487305,4130.256348,4123.077148,4136.922852,4135.897461,4136.922852,4130.256348,4120.512695,4151.282227,4140.512695,4151.282227,4160.000000,4138.974121,0.000000,4.000000,,,,0.000000,4.000000,4.000000,4.000000,4.000000,4.000000,4.000000,4.000000,4.000000,4.000000,4.000000,4.000000,4.000000,4.000000,4.000000,100.000000
1602006610.690216,46.000000,0.000000,4112.820313,4115.384766,4121.538574,4123.077148,4138.461426,4141.538574,4141.538574,4126.666504,4118.974121,4151.282227,4137.436035,4137.948730,4154.871582,4121.025879,0.000000,4.000000,,,,0.000000,4.000000,4.000000,4.000000,4.000000,4.000000,4.000000,4.000000,4.000000,4.000000,4.000000,4.000000,4.000000,4.000000,4.000000,100.000000
1602006610.698196,47.000000,0.000000,4096.922852,4106.666504,4113.846191,4119.487305,4136.922852,4142.563965,4143.589844,4129.743652,4120.000000,4132.820313,4133.333496,4127.179688,4150.769043,4116.922852,0.000000,4.000000,,,,0.000000,4.000000,4.000000,4.000000,4.000000,4.000000,4.000000,4.000000,4.000000,4.000000,4.000000,4.000000,4.000000,4.000000,4.000000,100.000000
1602006610.706077,48.000000,0.000000,4098.974121,4111.794922,4119.487305,4122.051270,4138.461426,4143.589844,4138.461426,4136.922852,4122.051270,4124.102539,4138.461426,4138.461426,4154.871582,4131.282227,0.000000,4.000000,,,,0.000000,4.000000,4.000000,4.000000,4.000000,4.000000,4.000000,4.000000,4.000000,4.000000,4.000000,4.000000,4.000000,4.000000,4.000000,100.000000
1602006610.713958,49.000000,0.000000,4112.307617,4120.000000,4126.153809,4125.641113,4142.563965,4152.820313,4137.436035,4138.974121,4140.000000,4146.666504,4144.102539,4153.846191,4160.512695,4146.153809,0.000000,4.000000,,,,0.000000,4.000000,4.000000,4.000000,4.000000,4.000000,4.000000,4.000000,4.000000,4.000000,4.000000,4.000000,4.000000,4.000000,4.000000,100.000000
1602006610.721839,50.000000,0.000000,4111.794922,4114.871582,4122.563965,4123.589844,4143.589844,4159.487305,4140.000000,4137.436035,4158.974121,4161.538574,4140.512695,4149.230957,4159.487305,4147.179688,0.000000,4.000000,,,,0.000000,4.000000,4.000000,4.000000,4.000000,4.000000,4.000000,4.000000,4.000000,4.000000,4.000000,4.000000,4.000000,4.000000,4.000000,100.000000
1602006610.729720,51.000000,0.000000,4106.153809,4111.282227,4115.897461,4116.410156,4142.563965,4154.358887,4139.487305,4137.436035,4151.282227,4153.846191,4140.000000,4136.410156,4158.461426,4141.025879,0.000000,4.000000,,,,0.000000,4.000000,4.000000,4.000000,4.000000,4.000000,4.000000,4.000000,4.000000,4.000000,4.000000,4.000000,4.000000,4.000000,4.000000,100.000000
1602006610.737701,52.000000,0.000000,4101.025879,4109.743652,4110.769043,4108.205078,4138.974121,4152.307617,4137.948730,4136.922852,4135.897461,4155.897461,4136.410156,4126.666504,4152.820313,4128.717773,0.000000,4.000000,,,,0.000000,4.000000,4.000000,4.000000,4.000000,4.000000,4.000000,4.000000,4.000000,4.000000,4.000000,4.000000,4.000000,4.000000,4.000000,100.000000
1602006610.745582,53.000000,0.000000,4090.769287,4100.000000,4104.615234,4105.641113,4135.897461,4152.307617,4138.974121,4135.384766,4131.282227,4151.794922,4124.102539,4120.000000,4142.563965,4112.307617,0.000000,4.000000,,,,0.000000,4.000000,4.000000,4.000000,4.000000,4.000000,4.000000,4.000000,4.000000,4.000000,4.000000,4.000000,4.000000,4.000000,4.000000,100.000000
1602006610.753463,54.000000,0.000000,4088.718018,4097.436035,4109.230957,4105.641113,4136.922852,4144.615234,4140.512695,4134.358887,4128.205078,4128.205078,4124.615234,4120.512695,4142.563965,4108.717773,0.000000,4.000000,,,,0.000000,4.000000,4.000000,4.000000,4.000000,4.000000,4.000000,4.000000,4.000000,4.000000,4.000000,4.000000,4.000000,4.000000,4.000000,100.000000
1602006610.761344,55.000000,0.000000,4098.461426,4104.615234,4123.589844,4107.692383,4138.974121,4138.974121,4143.077148,4135.897461,4125.128418,4132.820313,4138.974121,4126.666504,4147.692383,4122.563965,0.000000,4.000000,,,,0.000000,4.000000,4.000000,4.000000,4.000000,4.000000,4.000000,4.000000,4.000000,4.000000,4.000000,4.000000,4.000000,4.000000,4.000000,100.000000
1602006610.769225,56.000000,0.000000,4098.974121,4105.641113,4125.641113,4110.256348,4137.948730,4141.538574,4144.615234,4140.000000,4124.102539,4151.794922,4135.897461,4133.333496,4141.538574,4123.077148,0.000000,4.000000,,,,0.000000,4.000000,4.000000,4.000000,4.000000,4.000000,4.000000,4.000000,4.000000,4.000000,4.000000,4.000000,4.000000,4.000000,4.000000,100.000000
1602006610.777106,57.000000,0.000000,4093.333252,4103.077148,4120.000000,4108.205078,4135.384766,4138.974121,4139.487305,4137.948730,4124.102539,4133.333496,4125.128418,4135.897461,4131.794922,4110.256348,0.000000,4.000000,,,,0.000000,4.000000,4.000000,4.000000,4.000000,4.000000,4.000000,4.000000,4.000000,4.000000,4.000000,4.000000,4.000000,4.000000,4.000000,100.000000
1602006610.784987,58.000000,0.000000,4100.512695,4106.666504,4129.230957,4111.282227,4134.871582,4136.922852,4141.025879,4137.948730,4122.563965,4118.974121,4128.717773,4136.410156,4135.384766,4119.487305,0.000000,4.000000,,,,0.000000,4.000000,4.000000,4.000000,4.000000,4.000000,4.000000,4.000000,4.000000,4.000000,4.000000,4.000000,4.000000,4.000000,4.000000,100.000000
1602006610.792867,59.000000,0.000000,4118.974121,4117.948730,4144.615234,4128.717773,4137.436035,4142.051270,4153.846191,4148.205078,4128.717773,4145.641113,4140.512695,4140.000000,4149.230957,4141.025879,0.000000,4.000000,,,,0.000000,4.000000,4.000000,4.000000,4.000000,4.000000,4.000000,4.000000,4.000000,4.000000,4.000000,4.000000,4.000000,4.000000,4.000000,100.000000
1602006610.800648,60.000000,0.000000,4127.692383,4124.615234,4146.153809,4138.461426,4138.974121,4141.025879,4153.846191,4147.692383,4136.922852,4151.794922,4148.717773,4142.563965,4154.358887,4141.538574,0.000000,4.000000,,,,0.000000,4.000000,4.000000,4.000000,4.000000,4.000000,4.000000,4.000000,4.000000,4.000000,4.000000,4.000000,4.000000,4.000000,4.000000,100.000000
1602006610.808529,61.000000,0.000000,4119.487305,4121.025879,4140.512695,4129.743652,4136.922852,4134.358887,4141.025879,4136.922852,4138.461426,4131.794922,4147.692383,4138.974121,4150.256348,4134.871582,0.000000,4.000000,,,,0.000000,4.000000,4.000000,4.000000,4.000000,4.000000,4.000000,4.000000,4.000000,4.000000,4.000000,4.000000,4.000000,4.000000,4.000000,100.000000
1602006610.816410,62.000000,0.000000,4111.282227,4122.051270,4135.897461,4126.666504,4137.948730,4137.948730,4141.538574,4142.051270,4144.615234,4148.205078,4137.436035,4138.461426,4154.358887,4140.512695,0.000000,4.000000,,,,0.000000,4.000000,4.000000,4.000000,4.000000,4.000000,4.000000,4.000000,4.000000,4.000000,4.000000,4.000000,4.000000,4.000000,4.000000,100.000000
1602006610.824291,63.000000,0.000000,4112.820313,4126.666504,4129.230957,4129.230957,4139.487305,4142.563965,4147.692383,4155.384766,4152.820313,4176.410156,4136.410156,4146.666504,4158.461426,4138.461426,0.000000,4.000000,,,,0.000000,4.000000,4.000000,4.000000,4.000000,4.000000,4.000000,4.000000,4.000000,4.000000,4.000000,4.000000,4.000000,4.000000,4.000000,100.000000
1602006610.832172,64.000000,0.000000,4118.461426,4123.589844,4127.692383,4124.102539,4136.922852,4136.410156,4140.512695,4154.871582,4153.333496,4170.769043,4147.692383,4152.307617,4152.307617,4136.922852,790.000000,4.000000,,,,0.000000,4.000000,4.000000,4.000000,4.000000,4.000000,4.000000,4.000000,4.000000,4.000000,4.000000,4.000000,4.000000,4.000000,4.000000,100.000000
1602006610.840153,65.000000,0.000000,4123.077148,4121.538574,4134.871582,4120.000000,4136.922852,4133.333496,4132.307617,4153.333496,4154.871582,4159.487305,4153.333496,4157.948730,4156.410156,4157.948730,784.000000,4.000000,,,,0.000000,4.000000,4.000000,4.000000,4.000000,4.000000,4.000000,4.000000,4.000000,4.000000,4.000000,4.000000,4.000000,4.000000,4.000000,100.000000
1602006610.848034,66.000000,0.000000,4126.666504,4124.615234,4138.974121,4122.051270,4139.487305,4140.512695,4137.436035,4158.461426,4154.871582,4166.666504,4152.820313,4170.769043,4173.846191,4172.820313,849.000000,4.000000,,,,0.000000,4.000000,4.000000,4.000000,4.000000,4.000000,4.000000,4.000000,4.000000,4.000000,4.000000,4.000000,4.000000,4.000000,4.000000,100.000000
1602006610.855915,67.000000,0.000000,4124.615234,4121.025879,4137.948730,4123.077148,4137.436035,4137.948730,4142.051270,4158.974121,4146.666504,4168.717773,4155.384766,4174.871582,4175.897461,4164.615234,872.000000,4.000000,,,,0.000000,4.000000,4.000000,4.000000,4.000000,4.000000,4.000000,4.000000,4.000000,4.000000,4.000000,4.000000,4.000000,4.000000,4.000000,100.000000
1602006610.863796,68.000000,0.000000,4117.948730,4115.384766,4137.948730,4123.077148,4134.871582,4127.179688,4139.487305,4154.871582,4142.563965,4154.871582,4156.922852,4159.487305,4156.410156,4148.717773,811.000000,4.000000,,,,0.000000,4.000000,4.000000,4.000000,4.000000,4.000000,4.000000,4.000000,4.000000,4.000000,4.000000,4.000000,4.000000,4.000000,4.000000,100.000000
1602006610.871677,69.000000,0.000000,4118.974121,4116.922852,4133.846191,4123.589844,4134.871582,4131.794922,4139.487305,4154.871582,4143.077148,4152.307617,4152.307617,4145.641113,4144.102539,4142.051270,818.000000,4.000000,,,,0.000000,4.000000,4.000000,4.000000,4.000000,4.000000,4.000000,4.000000,4.000000,4.000000,4.000000,4.000000,4.000000,4.000000,4.000000,100.000000
1602006610.879558,70.000000,0.000000,4120.000000,4117.436035,4127.179688,4123.589844,4136.922852,4145.128418,4144.102539,4151.794922,4134.358887,4155.897461,4141.025879,4137.436035,4143.077148,4137.436035,761.000000,4.000000,,,,0.000000,4.000000,4.000000,4.000000,4.000000,4.000000,4.000000,4.000000,4.000000,4.000000,4.000000,4.000000,4.000000,4.000000,4.000000,100.000000
1602006610.887439,71.000000,0.000000,4103.589844,4108.717773,4119.487305,4120.512695,4135.384766,4138.461426,4141.025879,4143.077148,4128.205078,4139.487305,4118.974121,4125.128418,4127.179688,4121.025879,671.000000,4.000000,,,,0.000000,4.000000,4.000000,4.000000,4.000000,4.000000,4.000000,4.000000,4.000000,4.000000,4.000000,4.000000,4.000000,4.000000,4.000000,100.000000
1602006610.895420,72.000000,0.000000,4081.538574,4100.000000,4108.717773,4112.307617,4129.230957,4125.641113,4130.256348,4135.384766,4124.615234,4121.538574,4104.615234,4115.897461,4110.256348,4102.051270,780.000000,4.000000,,,,0.000000,4.000000,4.000000,4.000000,4.000000,4.000000,4.000000,4.000000,4.000000,4.000000,4.000000,4.000000,4.000000,4.000000,4.000000,100.000000
1602006610.903301,73.000000,0.000000,4078.461426,4100.512695,4106.153809,4106.666504,4126.153809,4128.717773,4125.641113,4127.692383,4110.769043,4120.000000,4115.897461,4113.333496,4112.820313,4099.487305,838.000000,4.000000,,,,0.000000,4.000000,4.000000,4.000000,4.000000,4.000000,4.000000,4.000000,4.000000,4.000000,4.000000,4.000000,4.000000,4.000000,4.000000,100.000000
1602006610.911182,74.000000,0.000000,4087.179443,4101.538574,4114.871582,4111.282227,4125.641113,4132.307617,4125.641113,4126.153809,4105.641113,4118.461426,4117.948730,4112.820313,4112.820313,4105.128418,879.000000,4.000000,,,,0.000000,4.000000,4.000000,4.000000,4.000000,4.000000,4.000000,4.000000,4.000000,4.000000,4.000000,4.000000,4.000000,4.000000,4.000000,100.000000
1602006610.919063,75.000000,0.000000,4097.436035,4107.179688,4124.615234,4121.538574,4126.666504,4127.692383,4124.615234,4131.794922,4114.358887,4122.051270,4106.153809,4115.384766,4107.179688,4102.563965,837.000000,4.000000,,,,0.000000,4.000000,4.000000,4.000000,4.000000,4.000000,4.000000,4.000000,4.000000,4.000000,4.000000,4.000000,4.000000,4.000000,4.000000,100.000000
1602006610.926944,76.000000,0.000000,4113.333496,4120.000000,4135.897461,4127.692383,4134.358887,4124.615234,4127.692383,4137.436035,4119.487305,4144.102539,4121.538574,4129.230957,4122.051270,4112.307617,770.000000,4.000000,,,,0.000000,4.000000,4.000000,4.000000,4.000000,4.000000,4.000000,4.000000,4.000000,4.000000,4.000000,4.000000,4.000000,4.000000,4.000000,100.000000
1602006610.934825,77.000000,0.000000,4128.205078,4128.205078,4151.282227,4129.230957,4137.948730,4127.179688,4137.948730,4146.666504,4128.717773,4158.974121,4156.410156,4150.769043,4149.743652,4142.051270,730.000000,4.000000,,,,0.000000,4.000000,4.000000,4.000000,4.000000,4.000000,4.000000,4.000000,4.000000,4.000000,4.000000,4.000000,4.000000,4.000000,4.000000,100.000000
1602006610.942707,78.000000,0.000000,4132.307617,4124.102539,4153.846191,4128.205078,4128.205078,4129.230957,4148.205078,4158.974121,4141.538574,4154.871582,4161.025879,4158.974121,4157.948730,4154.871582,879.000000,4.000000,,,,0.000000,4.000000,4.000000,4.000000,4.000000,4.000000,4.000000,4.000000,4.000000,4.000000,4.000000,4.000000,4.000000,4.000000,4.000000,100.000000
1602006610.950588,79.000000,0.000000,4129.230957,4115.384766,4145.128418,4126.153809,4121.025879,4126.153809,4147.179688,4156.410156,4138.461426,4149.743652,4143.589844,4148.205078,4146.153809,4143.589844,837.000000,4.000000,,,,0.000000,4.000000,4.000000,4.000000,4.000000,4.000000,4.000000,4.000000,4.000000,4.000000,4.000000,4.000000,4.000000,4.000000,4.000000,100.000000
1602006610.958469,80.000000,0.000000,4125.641113,4111.794922,4138.461426,4120.512695,4124.615234,4125.128418,4141.025879,4144.615234,4125.641113,4130.769043,4138.974121,4138.974121,4138.974121,4133.333496,770.000000,4.000000,,,,0.000000,4.000000,4.000000,4.000000,4.000000,4.000000,4.000000,4.000000,4.000000,4.000000,4.000000,4.000000,4.000000,4.000000,4.000000,100.000000
1602006610.966450,81.000000,0.000000,4114.871582,4108.205078,4128.717773,4112.820313,4122.563965,4131.794922,4137.436035,4141.025879,4123.589844,4118.974121,4132.307617,4132.820313,4134.358887,4127.692383,730.000000,4.000000,,,,0.000000,4.000000,4.000000,4.000000,4.000000,4.000000,4.000000,4.000000,4.000000,4.000000,4.000000,4.000000,4.000000,4.000000,4.000000,100.000000
1602006610.974331,82.000000,0.000000,4107.692383,4111.282227,4121.025879,4113.333496,4125.641113,4137.436035,4136.922852,4142.563965,4126.666504,4151.282227,4123.589844,4129.743652,4131.282227,4122.051270,879.000000,4.000000,,,,0.000000,4.000000,4.000000,4.000000,4.000000,4.000000,4.000000,4.000000,4.000000,4.000000,4.000000,4.000000,4.000000,4.000000,4.000000,100.000000
1602006610.982212,83.000000,0.000000,4116.922852,4120.000000,4124.102539,4121.538574,4145.641113,4137.436035,4136.410156,4146.153809,4132.820313,4182.563965,4130.769043,4135.384766,4140.000000,4130.256348,837.000000,4.000000,,,,0.000000,4.000000,4.000000,4.000000,4.000000,4.000000,4.000000,4.000000,4.000000,4.000000,4.000000,4.000000,4.000000,4.000000,4.000000,100.000000
1602006610.990093,84.000000,0.000000,4121.538574,4126.153809,4126.153809,4123.589844,4158.974121,4146.666504,4128.717773,4146.153809,4136.410156,4172.820313,4140.512695,4140.000000,4154.871582,4146.153809,770.000000,4.000000,,,,0.000000,4.000000,4.000000,4.000000,4.000000,4.000000,4.000000,4.000000,4.000000,4.000000,4.000000,4.000000,4.000000,4.000000,4.000000,100.000000
1602006610.997973,85.000000,0.000000,4112.820313,4127.179688,4121.538574,4122.051270,4154.358887,4154.871582,4125.641113,4140.000000,4129.743652,4150.256348,4141.025879,4140.000000,4158.974121,4148.717773,730.000000,4.000000,,,,0.000000,4.000000,4.000000,4.000000,4.000000,4.000000,4.000000,4.000000,4.000000,4.000000,4.000000,4.000000,4.000000,4.000000,4.000000,100.000000
1602006611.005854,86.000000,0.000000,4114.358887,4128.205078,4119.487305,4123.589844,4152.307617,4146.153809,4134.871582,4138.974121,4125.641113,4139.487305,4137.436035,4144.102539,4150.769043,4146.666504,879.000000,4.000000,,,,0.000000,4.000000,4.000000,4.000000,4.000000,4.000000,4.000000,4.000000,4.000000,4.000000,4.000000,4.000000,4.000000,4.000000,4.000000,100.000000
1602006611.013835,87.000000,0.000000,4122.563965,4126.153809,4122.051270,4122.563965,4150.769043,4135.384766,4138.974121,4140.512695,4117.948730,4134.358887,4139.487305,4143.077148,4140.512695,4150.769043,837.000000,4.000000,,,,0.000000,4.000000,4.000000,4.000000,4.000000,4.000000,4.000000,4.000000,4.000000,4.000000,4.000000,4.000000,4.000000,4.000000,4.000000,100.000000
1602006611.021717,88.000000,0.000000,4121.538574,4121.025879,4130.769043,4125.128418,4138.461426,4134.871582,4132.820313,4135.897461,4108.205078,4131.282227,4149.230957,4137.436035,4137.436035,4153.333496,770.000000,4.000000,,,,0.000000,4.000000,4.000000,4.000000,4.000000,4.000000,4.000000,4.000000,4.000000,4.000000,4.000000,4.000000,4.000000,4.000000,4.000000,100.000000
1602006611.029598,89.000000,0.000000,4127.179688,4129.230957,4144.615234,4136.410156,4132.820313,4137.436035,4135.384766,4138.974121,4120.000000,4137.948730,4151.794922,4144.615234,4147.179688,4154.358887,730.000000,4.000000,,,,0.000000,4.000000,4.000000,4.000000,4.000000,4.000000,4.000000,4.000000,4.000000,4.000000,4.000000,4.000000,4.000000,4.000000,4.000000,100.000000
1602006611.037479,90.000000,0.000000,4140.000000,4141.025879,4153.846191,4139.487305,4135.897461,4135.384766,4143.077148,4152.307617,4141.538574,4160.512695,4146.666504,4153.846191,4158.461426,4158.461426,879.000000,4.000000,,,,0.000000,4.000000,4.000000,4.000000,4.000000,4.000000,4.000000,4.000000,4.000000,4.000000,4.000000,4.000000,4.000000,4.000000,4.000000,100.000000
1602006611.045360,91.000000,0.000000,4141.538574,4140.000000,4156.410156,4134.358887,4135.384766,4127.692383,4138.974121,4157.436035,4144.615234,4178.461426,4154.358887,4156.922852,4158.974121,4157.948730,837.000000,4.000000,,,,0.000000,4.000000,4.000000,4.000000,4.000000,4.000000,4.000000,4.000000,4.000000,4.000000,4.000000,4.000000,4.000000,4.000000,4.000000,100.000000
1602006611.053241,92.000000,0.000000,4135.384766,4135.897461,4149.230957,4133.333496,4134.871582,4119.487305,4130.256348,4154.871582,4140.512695,4168.205078,4158.461426,4151.794922,4155.897461,4148.717773,770.000000,4.000000,,,,0.000000,4.000000,4.000000,4.000000,4.000000,4.000000,4.000000,4.000000,4.000000,4.000000,4.000000,4.000000,4.000000,4.000000,4.000000,100.000000
1602006611.061122,93.000000,0.000000,4134.358887,4139.487305,4139.487305,4137.436035,4136.410156,4120.000000,4124.615234,4152.307617,4143.589844,4149.743652,4145.128418,4140.512695,4157.436035,4149.743652,730.000000,4.000000,,,,0.000000,4.000000,4.000000,4.000000,4.000000,4.000000,4.000000,4.000000,4.000000,4.000000,4.000000,4.000000,4.000000,4.000000,4.000000,100.000000
1602006611.069004,94.000000,0.000000,4140.512695,4144.102539,4142.051270,4138.974121,4144.615234,4122.051270,4123.077148,4150.256348,4136.922852,4140.512695,4148.205078,4138.461426,4158.461426,4160.000000,879.000000,4.000000,,,,0.000000,4.000000,4.000000,4.000000,4.000000,4.000000,4.000000,4.000000,4.000000,4.000000,4.000000,4.000000,4.000000,4.000000,4.000000,100.000000
1602006611.076885,95.000000,0.000000,4137.436035,4141.538574,4143.589844,4134.871582,4149.230957,4112.307617,4120.000000,4139.487305,4114.358887,4127.179688,4155.384766,4142.051270,4145.128418,4153.846191,837.000000,4.000000,,,,0.000000,4.000000,4.000000,4.000000,4.000000,4.000000,4.000000,4.000000,4.000000,4.000000,4.000000,4.000000,4.000000,4.000000,4.000000,100.000000
1602006611.084666,96.000000,0.000000,4125.128418,4137.436035,4138.461426,4133.846191,4141.538574,4104.615234,4115.384766,4128.205078,4096.410156,4119.487305,4143.589844,4132.820313,4131.282227,4135.897461,770.000000,4.000000,,,,0.000000,4.000000,4.000000,4.000000,4.000000,4.000000,4.000000,4.000000,4.000000,4.000000,4.000000,4.000000,4.000000,4.000000,4.000000,100.000000
1602006611.092547,97.000000,0.000000,4122.563965,4134.871582,4144.615234,4136.922852,4138.974121,4113.333496,4117.948730,4129.743652,4096.922852,4128.717773,4131.282227,4124.615234,4135.384766,4134.358887,730.000000,4.000000,,,,0.000000,4.000000,4.000000,4.000000,4.000000,4.000000,4.000000,4.000000,4.000000,4.000000,4.000000,4.000000,4.000000,4.000000,4.000000,100.000000
1602006611.100428,98.000000,0.000000,4123.077148,4135.384766,4149.230957,4136.410156,4144.102539,4125.641113,4123.077148,4136.922852,4109.743652,4143.077148,4126.666504,4132.820313,4139.487305,4142.051270,879.000000,4.000000,,,,0.000000,4.000000,4.000000,4.000000,4.000000,4.000000,4.000000,4.000000,4.000000,4.000000,4.000000,4.000000,4.000000,4.000000,4.000000,100.000000
1602006611.108309,99.000000,0.000000,4116.410156,4136.410156,4137.436035,4134.358887,4141.025879,4123.589844,4120.512695,4138.461426,4121.538574,4138.461426,4129.743652,4137.436035,4134.358887,4140.000000,837.000000,4.000000,,,,0.000000,4.000000,4.000000,4.000000,4.000000,4.000000,4.000000,4.000000,4.000000,4.000000,4.000000,4.000000,4.000000,4.000000,4.000000,100.000000
1602006611.116190,100.000000,0.000000,4115.897461,4135.384766,4140.000000,4136.410156,4134.871582,4123.077148,4118.461426,4136.410156,4124.615234,4127.692383,4136.922852,4133.333496,4134.871582,4135.897461,770.000000,4.000000,,,,0.000000,4.000000,4.000000,4.000000,4.000000,4.000000,4.000000,4.000000,4.000000,4.000000,4.000000,4.000000,4.000000,4.000000,4.000000,100.000000
1602006611.123970,101.000000,0.000000,4126.666504,4137.436035,4153.846191,4140.000000,4139.487305,4136.410156,4127.692383,4140.512695,4125.641113,4132.307617,4140.512695,4136.922852,4140.512695,4138.461426,730.000000,4.000000,,,,0.000000,4.000000,4.000000,4.000000,4.000000,4.000000,4.000000,4.000000,4.000000,4.000000,4.000000,4.000000,4.000000,4.000000,4.000000,100.000000
1602006611.131851,102.000000,0.000000,4127.179688,4140.512695,4146.153809,4139.487305,4139.487305,4139.487305,4131.282227,4142.051270,4130.256348,4130.769043,4140.000000,4138.461426,4139.487305,4139.487305,879.000000,4.000000,,,,0.000000,4.000000,4.000000,4.000000,4.000000,4.000000,4.000000,4.000000,4.000000,4.000000,4.000000,4.000000,4.000000,4.000000,4.000000,100.000000
1602006611.139832,103.000000,0.000000,4112.820313,4131.282227,4131.282227,4128.205078,4129.230957,4122.051270,4124.615234,4137.436035,4127.179688,4117.436035,4132.820313,4127.179688,4127.179688,4137.948730,837.000000,4.000000,,,,0.000000,4.000000,4.000000,4.000000,4.000000,4.000000,4.000000,4.000000,4.000000,4.000000,4.000000,4.000000,4.000000,4.000000,4.000000,100.000000
1602006611.147713,104.000000,0.000000,4108.205078,4125.128418,4134.871582,4121.025879,4126.666504,4108.717773,4122.563965,4135.384766,4120.000000,4125.641113,4126.666504,4125.641113,4120.512695,4137.948730,770.000000,4.000000,,,,0.000000,4.000000,4.000000,4.000000,4.000000,4.000000,4.000000,4.000000,4.000000,4.000000,4.000000,4.000000,4.000000,4.000000,4.000000,100.000000
1602006611.155594,105.000000,0.000000,4119.487305,4133.846191,4142.051270,4129.743652,4135.384766,4116.410156,4125.641113,4135.897461,4118.974121,4141.538574,4134.871582,4136.922852,4127.692383,4135.897461,730.000000,4.000000,,,,0.000000,4.000000,4.000000,4.000000,4.000000,4.000000,4.000000,4.000000,4.000000,4.000000,4.000000,4.000000,4.000000,4.000000,4.000000,100.000000
1602006611.163476,106.000000,0.000000,4123.589844,4140.512695,4141.538574,4136.410156,4137.948730,4129.230957,4129.230957,4134.358887,4121.025879,4138.461426,4141.025879,4140.512695,4136.410156,4137.948730,879.000000,4.000000,,,,0.000000,4.000000,4.000000,4.000000,4.000000,4.000000,4.000000,4.000000,4.000000,4.000000,4.000000,4.000000,4.000000,4.000000,4.000000,100.000000
1602006611.171357,107.000000,0.000000,4117.436035,4135.897461,4139.487305,4132.307617,4133.333496,4130.769043,4135.384766,4134.871582,4126.153809,4139.487305,4133.333496,4137.436035,4134.871582,4141.538574,837.000000,4.000000,,,,0.000000,4.000000,4.000000,4.000000,4.000000,4.000000,4.000000,4.000000,4.000000,4.000000,4.000000,4.000000,4.000000,4.000000,4.000000,100.000000
1602006611.179238,108.000000,0.000000,4126.153809,4135.384766,4139.487305,4132.307617,4134.358887,4124.615234,4133.333496,4138.461426,4134.358887,4155.897461,4138.974121,4140.000000,4134.871582,4140.000000,770.000000,4.000000,,,,0.000000,4.000000,4.000000,4.000000,4.000000,4.000000,4.000000,4.000000,4.000000,4.000000,4.000000,4.000000,4.000000,4.000000,4.000000,100.000000
1602006611.187119,109.000000,0.000000,4146.666504,4145.641113,4147.179688,4140.000000,4140.512695,4125.128418,4121.025879,4139.487305,4137.948730,4156.410156,4149.743652,4142.563965,4144.615234,4142.563965,730.000000,4.000000,,,,0.000000,4.000000,4.000000,4.000000,4.000000,4.000000,4.000000,4.000000,4.000000,4.000000,4.000000,4.000000,4.000000,4.000000,4.000000,100.000000
1602006611.195000,110.000000,0.000000,4154.871582,4152.820313,4157.436035,4141.538574,4146.153809,4134.871582,4122.563965,4143.077148,4136.922852,4146.153809,4144.615234,4142.563965,4153.333496,4154.358887,879.000000,4.000000,,,,0.000000,4.000000,4.000000,4.000000,4.000000,4.000000,4.000000,4.000000,4.000000,4.000000,4.000000,4.000000,4.000000,4.000000,4.000000,100.000000
1602006611.202881,111.000000,0.000000,4151.282227,4150.256348,4155.897461,4137.436035,4147.692383,4142.051270,4135.897461,4150.769043,4137.436035,4145.128418,4146.153809,4143.077148,4157.436035,4161.025879,837.000000,4.000000,,,,0.000000,4.000000,4.000000,4.000000,4.000000,4.000000,4.000000,4.000000,4.000000,4.000000,4.000000,4.000000,4.000000,4.000000,4.000000,100.000000
1602006611.210762,112.000000,0.000000,4144.102539,4141.025879,4145.128418,4136.922852,4142.563965,4144.102539,4138.461426,4152.820313,4137.948730,4141.538574,4149.743652,4134.358887,4152.307617,4151.794922,770.000000,4.000000,,,,0.000000,4.000000,4.000000,4.000000,4.000000,4.000000,4.000000,4.000000,4.000000,4.000000,4.000000,4.000000,4.000000,4.000000,4.000000,100.000000
1602006611.218742,113.000000,0.000000,4136.410156,4130.256348,4134.871582,4135.384766,4136.410156,4141.025879,4136.410156,4149.743652,4136.410156,4137.948730,4135.384766,4122.563965,4135.897461,4141.538574,730.000000,4.000000,,,,0.000000,4.000000,4.000000,4.000000,4.000000,4.000000,4.000000,4.000000,4.000000,4.000000,4.000000,4.000000,4.000000,4.000000,4.000000,100.000000
1602006611.226623,114.000000,0.000000,4127.179688,4123.077148,4126.666504,4125.128418,4127.692383,4137.436035,4140.512695,4147.179688,4132.820313,4146.666504,4121.025879,4121.025879,4121.025879,4132.307617,879.000000,4.000000,,,,0.000000,4.000000,4.000000,4.000000,4.000000,4.000000,4.000000,4.000000,4.000000,4.000000,4.000000,4.000000,4.000000,4.000000,4.000000,100.000000
1602006611.234504,115.000000,0.000000,4121.025879,4120.512695,4122.051270,4115.897461,4125.128418,4140.000000,4141.538574,4144.615234,4133.333496,4155.897461,4118.974121,4125.641113,4120.000000,4124.102539,837.000000,4.000000,,,,0.000000,4.000000,4.000000,4.000000,4.000000,4.000000,4.000000,4.000000,4.000000,4.000000,4.000000,4.000000,4.000000,4.000000,4.000000,100.000000
1602006611.242284,116.000000,0.000000,4120.000000,4122.051270,4122.563965,4118.974121,4134.358887,4139.487305,4138.461426,4141.025879,4139.487305,4150.769043,4119.487305,4125.128418,4123.589844,4121.538574,770.000000,4.000000,,,,0.000000,4.000000,4.000000,4.000000,4.000000,4.000000,4.000000,4.000000,4.000000,4.000000,4.000000,4.000000,4.000000,4.000000,4.000000,100.000000
1602006611.250065,117.000000,0.000000,4120.000000,4120.512695,4122.563965,4121.538574,4138.461426,4130.256348,4136.922852,4138.974121,4142.051270,4136.922852,4120.000000,4121.538574,4118.461426,4121.538574,730.000000,4.000000,,,,0.000000,4.000000,4.000000,4.000000,4.000000,4.000000,4.000000,4.000000,4.000000,4.000000,4.000000,4.000000,4.000000,4.000000,4.000000,100.000000
1602006611.257947,118.000000,0.000000,4126.666504,4120.000000,4128.205078,4120.000000,4134.871582,4129.743652,4137.436035,4138.974121,4134.358887,4125.641113,4123.589844,4128.717773,4116.410156,4125.128418,879.000000,4.000000,,,,0.000000,4.000000,4.000000,4.000000,4.000000,4.000000,4.000000,4.000000,4.000000,4.000000,4.000000,4.000000,4.000000,4.000000,4.000000,100.000000
1602006611.265828,119.000000,0.000000,4136.922852,4126.666504,4137.948730,4123.589844,4137.436035,4140.000000,4135.384766,4140.000000,4127.179688,4122.051270,4127.179688,4140.512695,4123.077148,4129.743652,837.000000,4.000000,,,,0.000000,4.000000,4.000000,4.000000,4.000000,4.000000,4.000000,4.000000,4.000000,4.000000,4.000000,4.000000,4.000000,4.000000,4.000000,100.000000
1602006611.273709,120.000000,0.000000,4138.461426,4129.230957,4141.025879,4127.179688,4139.487305,4135.897461,4129.230957,4137.948730,4130.769043,4131.794922,4133.333496,4141.538574,4125.641113,4131.282227,770.000000,4.000000,,,,0.000000,4.000000,4.000000,4.000000,4.000000,4.000000,4.000000,4.000000,4.000000,4.000000,4.000000,4.000000,4.000000,4.000000,4.000000,100.000000
1602006611.281590,121.000000,0.000000,4136.410156,4122.563965,4137.948730,4125.641113,4136.410156,4122.563965,4124.102539,4134.358887,4137.436035,4147.692383,4136.922852,4137.948730,4121.025879,4130.769043,730.000000,4.000000,,,,0.000000,4.000000,4.000000,4.000000,4.000000,4.000000,4.000000,4.000000,4.000000,4.000000,4.000000,4.000000,4.000000,4.000000,4.000000,100.000000
1602006611.289471,122.000000,0.000000,4136.922852,4122.051270,4142.563965,4126.666504,4136.410156,4120.512695,4129.230957,4135.897461,4139.487305,4163.077148,4133.846191,4145.641113,4127.692383,4140.000000,879.000000,4.000000,,,,0.000000,4.000000,4.000000,4.000000,4.000000,4.000000,4.000000,4.000000,4.000000,4.000000,4.000000,4.000000,4.000000,4.000000,4.000000,100.000000
1602006611.297352,123.000000,0.000000,4137.436035,4134.871582,4154.358887,4136.410156,4138.461426,4128.205078,4135.384766,4140.512695,4136.922852,4171.282227,4141.025879,4156.410156,4141.025879,4155.384766,837.000000,4.000000,,,,0.000000,4.000000,4.000000,4.000000,4.000000,4.000000,4.000000,4.000000,4.000000,4.000000,4.000000,4.000000,4.000000,4.000000,4.000000,100.000000
1602006611.305234,124.000000,0.000000,4138.461426,4141.025879,4159.487305,4136.922852,4140.000000,4137.436035,4134.871582,4144.102539,4136.410156,4162.563965,4148.717773,4156.922852,4140.512695,4155.384766,770.000000,4.000000,,,,0.000000,4.000000,4.000000,4.000000,4.000000,4.000000,4.000000,4.000000,4.000000,4.000000,4.000000,4.000000,4.000000,4.000000,4.000000,100.000000
1602006611.313115,125.000000,0.000000,4132.820313,4131.794922,4150.769043,4124.615234,4138.974121,4137.948730,4135.897461,4142.563965,4135.897461,4148.205078,4142.563965,4152.820313,4135.384766,4140.512695,730.000000,4.000000,,,,0.000000,4.000000,4.000000,4.000000,4.000000,4.000000,4.000000,4.000000,4.000000,4.000000,4.000000,4.000000,4.000000,4.000000,4.000000,100.000000
1602006611.320896,126.000000,0.000000,4125.641113,4122.051270,4139.487305,4120.000000,4134.871582,4127.692383,4133.333496,4134.358887,4131.282227,4138.461426,4136.922852,4149.230957,4137.948730,4129.743652,879.000000,4.000000,,,,0.000000,4.000000,4.000000,4.000000,4.000000,4.000000,4.000000,4.000000,4.000000,4.000000,4.000000,4.000000,4.000000,4.000000,4.000000,100.000000
1602006611.328777,127.000000,0.000000,4132.307617,4124.102539,4137.436035,4124.615234,4135.384766,4121.538574,4126.153809,4130.256348,4131.794922,4134.871582,4138.461426,4150.769043,4139.487305,4136.922852,837.000000,4.000000,,,,0.000000,4.000000,4.000000,4.000000,4.000000,4.000000,4.000000,4.000000,4.000000,4.000000,4.000000,4.000000,4.000000,4.000000,4.000000,100.000000
1602006611.336658,128.000000,0.000000,4138.461426,4133.333496,4136.922852,4125.128418,4138.461426,4122.563965,4123.077148,4132.307617,4140.000000,4146.153809,4137.436035,4152.820313,4138.974121,4143.077148,770.000000,4.000000,,,,0.000000,4.000000,4.000000,4.000000,4.000000,4.000000,4.000000,4.000000,4.000000,4.000000,4.000000,4.000000,4.000000,4.000000,4.000000,100.000000
1602006611.344539,0.000000,0.000000,4134.358887,4137.948730,4136.410156,4130.256348,4137.436035,4118.974121,4124.615234,4134.871582,4139.487305,4160.512695,4136.922852,4155.897461,4141.538574,4134.358887,791.000000,4.000000,,,,0.000000,4.000000,4.000000,4.000000,4.000000,4.000000,4.000000,4.000000,4.000000,4.000000,4.000000,4.000000,4.000000,4.000000,4.000000,100.000000
1602006611.352421,1.000000,0.000000,4136.922852,4140.000000,4146.153809,4140.512695,4138.461426,4118.461426,4124.102539,4133.333496,4126.153809,4156.410156,4142.563965,4163.077148,4143.589844,4134.871582,784.000000,4.000000,,,,0.000000,4.000000,4.000000,4.000000,4.000000,4.000000,4.000000,4.000000,4.000000,4.000000,4.000000,4.000000,4.000000,4.000000,4.000000,100.000000
1602006611.360302,2.000000,0.000000,4141.538574,4143.589844,4151.794922,4142.051270,4142.051270,4127.179688,4122.563965,4128.205078,4123.077148,4136.922852,4138.461426,4164.615234,4140.512695,4148.205078,849.000000,4.000000,,,,0.000000,4.000000,4.000000,4.000000,4.000000,4.000000,4.000000,4.000000,4.000000,4.000000,4.000000,4.000000,4.000000,4.000000,4.000000,100.000000
1602006611.368183,3.000000,0.000000,4132.820313,4136.922852,4142.563965,4136.410156,4139.487305,4129.743652,4122.051270,4124.102539,4133.846191,4129.743652,4126.666504,4157.436035,4133.846191,4144.615234,839.000000,4.000000,,,,0.000000,4.000000,4.000000,4.000000,4.000000,4.000000,4.000000,4.000000,4.000000,4.000000,4.000000,4.000000,4.000000,4.000000,4.000000,100.000000
1602006611.376064,4.000000,0.000000,4122.563965,4125.128418,4134.358887,4134.358887,4138.461426,4126.666504,4122.051270,4123.589844,4142.051270,4139.487305,4124.615234,4153.846191,4132.307617,4123.589844,811.000000,4.000000,,,,0.000000,4.000000,4.000000,4.000000,4.000000,4.000000,4.000000,4.000000,4.000000,4.000000,4.000000,4.000000,4.000000,4.000000,4.000000,100.000000
1602006611.384045,5.000000,0.000000,4122.563965,4128.717773,4135.897461,4136.410156,4143.589844,4130.256348,4122.051270,4124.102539,4134.358887,4140.000000,4124.102539,4153.333496,4135.384766,4114.871582,818.000000,4.000000,,,,0.000000,4.000000,4.000000,4.000000,4.000000,4.000000,4.000000,4.000000,4.000000,4.000000,4.000000,4.000000,4.000000,4.000000,4.000000,100.000000
1602006611.391925,6.000000,0.000000,4128.717773,4138.461426,4143.077148,4135.897461,4142.051270,4130.769043,4120.512695,4121.025879,4121.538574,4130.769043,4123.077148,4150.769043,4135.897461,4126.153809,761.000000,4.000000,,,,0.000000,4.000000,4.000000,4.000000,4.000000,4.000000,4.000000,4.000000,4.000000,4.000000,4.000000,4.000000,4.000000,4.000000,4.000000,100.000000
1602006611.399806,7.000000,0.000000,4136.410156,4137.436035,4149.743652,4135.384766,4134.871582,4123.589844,4123.077148,4124.102539,4127.179688,4133.846191,4128.205078,4153.846191,4138.461426,4135.897461,668.000000,4.000000,,,,0.000000,4.000000,4.000000,4.000000,4.000000,4.000000,4.000000,4.000000,4.000000,4.000000,4.000000,4.000000,4.000000,4.000000,4.000000,100.000000
1602006611.407787,8.000000,0.000000,4138.461426,4134.871582,4145.128418,4136.410156,4134.358887,4121.025879,4131.282227,4134.871582,4146.153809,4143.077148,4137.948730,4156.410156,4135.897461,4131.794922,780.000000,4.000000,,,,0.000000,4.000000,4.000000,4.000000,4.000000,4.000000,4.000000,4.000000,4.000000,4.000000,4.000000,4.000000,4.000000,4.000000,4.000000,100.000000
1602006611.415667,9.000000,0.000000,4130.769043,4136.410156,4135.384766,4136.922852,4136.922852,4122.563965,4135.897461,4138.461426,4147.179688,4142.563965,4138.974121,4152.307617,4126.153809,4123.589844,838.000000,4.000000,,,,0.000000,4.000000,4.000000,4.000000,4.000000,4.000000,4.000000,4.000000,4.000000,4.000000,4.000000,4.000000,4.000000,4.000000,4.000000,100.000000
1602006611.423648,10.000000,0.000000,4125.641113,4136.410156,4137.436035,4134.871582,4134.871582,4122.563965,4134.358887,4134.871582,4129.743652,4138.974121,4127.179688,4156.410156,4126.666504,4128.717773,878.000000,4.000000,,,,0.000000,4.000000,4.000000,4.000000,4.000000,4.000000,4.000000,4.000000,4.000000,4.000000,4.000000,4.000000,4.000000,4.000000,4.000000,100.000000
1602006611.431529,11.000000,0.000000,4130.256348,4137.948730,4141.025879,4136.922852,4135.897461,4125.641113,4135.384766,4137.436035,4124.102539,4139.487305,4124.615234,4167.692383,4141.538574,4138.974121,837.000000,4.000000,,,,0.000000,4.000000,4.000000,4.000000,4.000000,4.000000,4.000000,4.000000,4.000000,4.000000,4.000000,4.000000,4.000000,4.000000,4.000000,100.000000
1602006611.439509,12.000000,0.000000,4140.000000,4140.000000,4138.974121,4141.538574,4140.000000,4128.205078,4137.436035,4138.461426,4128.205078,4138.974121,4139.487305,4172.820313,4143.589844,4139.487305,769.000000,4.000000,,,,0.000000,4.000000,4.000000,4.000000,4.000000,4.000000,4.000000,4.000000,4.000000,4.000000,4.000000,4.000000,4.000000,4.000000,4.000000,100.000000
1602006611.447390,13.000000,0.000000,4144.102539,4131.794922,4140.000000,4133.333496,4138.461426,4124.615234,4128.205078,4126.666504,4122.051270,4140.000000,4136.410156,4165.641113,4130.769043,4137.436035,730.000000,4.000000,,,,0.000000,4.000000,4.000000,4.000000,4.000000,4.000000,4.000000,4.000000,4.000000,4.000000,4.000000,4.000000,4.000000,4.000000,4.000000,100.000000
1602006611.455171,14.000000,0.000000,4133.846191,4126.153809,4140.512695,4125.128418,4136.410156,4122.563965,4120.000000,4120.000000,4117.948730,4135.384766,4118.461426,4155.897461,4128.717773,4136.922852,878.000000,4.000000,,,,0.000000,4.000000,4.000000,4.000000,4.000000,4.000000,4.000000,4.000000,4.000000,4.000000,4.000000,4.000000,4.000000,4.000000,4.000000,100.000000
1602006611.463051,15.000000,0.000000,4125.641113,4134.871582,4140.512695,4132.307617,4140.512695,4131.794922,4129.230957,4126.153809,4129.743652,4125.128418,4127.179688,4156.922852,4134.871582,4137.436035,837.000000,4.000000,,,,0.000000,4.000000,4.000000,4.000000,4.000000,4.000000,4.000000,4.000000,4.000000,4.000000,4.000000,4.000000,4.000000,4.000000,4.000000,100.000000
1602006611.470832,16.000000,0.000000,4133.846191,4143.589844,4142.051270,4139.487305,4143.589844,4141.538574,4140.000000,4133.333496,4142.051270,4129.230957,4146.666504,4166.666504,4137.436035,4141.538574,0.000000,4.000000,,,,0.000000,4.000000,4.000000,4.000000,4.000000,4.000000,4.000000,4.000000,4.000000,4.000000,4.000000,4.000000,4.000000,4.000000,4.000000,100.000000
1602006611.478713,17.000000,0.000000,4143.077148,4140.512695,4142.051270,4138.461426,4142.563965,4135.897461,4136.410156,4139.487305,4142.051270,4143.589844,4146.153809,4167.179688,4138.974121,4144.615234,0.000000,4.000000,,,,0.000000,4.000000,4.000000,4.000000,4.000000,4.000000,4.000000,4.000000,4.000000,4.000000,4.000000,4.000000,4.000000,4.000000,4.000000,100.000000
1602006611.486594,18.000000,0.000000,4141.538574,4136.410156,4138.461426,4139.487305,4141.025879,4123.589844,4130.256348,4136.410156,4138.461426,4143.077148,4135.384766,4156.410156,4136.410156,4138.461426,0.000000,4.000000,,,,0.000000,4.000000,4.000000,4.000000,4.000000,4.000000,4.000000,4.000000,4.000000,4.000000,4.000000,4.000000,4.000000,4.000000,4.000000,100.000000
1602006611.494474,19.000000,0.000000,4138.461426,4135.897461,4135.897461,4141.538574,4136.922852,4120.512695,4132.820313,4126.666504,4137.948730,4129.230957,4131.794922,4152.307617,4128.205078,4125.641113,0.000000,4.000000,,,,0.000000,4.000000,4.000000,4.000000,4.000000,4.000000,4.000000,4.000000,4.000000,4.000000,4.000000,4.000000,4.000000,4.000000,4.000000,100.000000
1602006611.502255,20.000000,0.000000,4134.871582,4128.717773,4135.897461,4134.358887,4134.358887,4122.051270,4133.333496,4121.538574,4135.897461,4122.563965,4126.666504,4153.333496,4121.025879,4117.948730,0.000000,4.000000,,,,0.000000,4.000000,4.000000,4.000000,4.000000,4.000000,4.000000,4.000000,4.000000,4.000000,4.000000,4.000000,4.000000,4.000000,4.000000,100.000000
1602006611.510136,21.000000,0.000000,4130.256348,4120.512695,4134.358887,4129.743652,4134.871582,4122.563965,4127.692383,4123.589844,4129.230957,4115.384766,4118.461426,4151.794922,4125.128418,4123.589844,0.000000,4.000000,,,,0.000000,4.000000,4.000000,4.000000,4.000000,4.000000,4.000000,4.000000,4.000000,4.000000,4.000000,4.000000,4.000000,4.000000,4.000000,100.000000
1602006611.518017,22.000000,0.000000,4133.846191,4126.666504,4135.384766,4133.846191,4133.846191,4121.538574,4127.179688,4128.717773,4128.205078,4107.692383,4124.102539,4156.922852,4133.333496,4135.897461,0.000000,4.000000,,,,0.000000,4.000000,4.000000,4.000000,4.000000,4.000000,4.000000,4.000000,4.000000,4.000000,4.000000,4.000000,4.000000,4.000000,4.000000,100.000000
1602006611.525898,23.000000,0.000000,4140.000000,4137.948730,4138.974121,4136.410156,4134.871582,4121.025879,4130.769043,4132.820313,4136.922852,4127.179688,4141.538574,4170.256348,4140.512695,4141.025879,0.000000,4.000000,,,,0.000000,4.000000,4.000000,4.000000,4.000000,4.000000,4.000000,4.000000,4.000000,4.000000,4.000000,4.000000,4.000000,4.000000,4.000000,100.000000
1602006611.533779,24.000000,0.000000,4145.641113,4140.000000,4141.538574,4137.436035,4140.000000,4124.102539,4129.230957,4129.230957,4143.589844,4155.897461,4143.589844,4177.948730,4143.589844,4140.000000,0.000000,4.000000,,,,0.000000,4.000000,4.000000,4.000000,4.000000,4.000000,4.000000,4.000000,4.000000,4.000000,4.000000,4.000000,4.000000,4.000000,4.000000,100.000000
1602006611.541660,25.000000,0.000000,4141.538574,4137.948730,4140.512695,4136.410156,4138.974121,4127.179688,4121.025879,4121.538574,4138.461426,4151.282227,4125.128418,4167.692383,4139.487305,4142.051270,0.000000,4.000000,,,,0.000000,4.000000,4.000000,4.000000,4.000000,4.000000,4.000000,4.000000,4.000000,4.000000,4.000000,4.000000,4.000000,4.000000,4.000000,100.000000
1602006611.549541,26.000000,0.000000,4126.153809,4136.410156,4136.410156,4131.794922,4135.384766,4127.692383,4120.000000,4119.487305,4130.256348,4137.948730,4122.051270,4153.846191,4135.897461,4142.051270,0.000000,4.000000,,,,0.000000,4.000000,4.000000,4.000000,4.000000,4.000000,4.000000,4.000000,4.000000,4.000000,4.000000,4.000000,4.000000,4.000000,4.000000,100.000000
1602006611.557422,27.000000,0.000000,4127.179688,4136.410156,4134.871582,4131.794922,4137.948730,4128.717773,4130.769043,4125.641113,4132.820313,4142.051270,4137.436035,4155.384766,4139.487305,4137.948730,0.000000,4.000000,,,,0.000000,4.000000,4.000000,4.000000,4.000000,4.000000,4.000000,4.000000,4.000000,4.000000,4.000000,4.000000,4.000000,4.000000,4.000000,100.000000
1602006611.565203,28.000000,0.000000,4143.077148,4137.436035,4138.974121,4136.410156,4139.487305,4125.641113,4137.436035,4130.256348,4141.025879,4126.666504,4143.589844,4160.512695,4144.102539,4138.974121,0.000000,4.000000,,,,0.000000,4.000000,4.000000,4.000000,4.000000,4.000000,4.000000,4.000000,4.000000,4.000000,4.000000,4.000000,4.000000,4.000000,4.000000,100.000000
1602006611.573084,29.000000,0.000000,4146.153809,4138.974121,4141.538574,4136.922852,4135.384766,4119.487305,4128.717773,4129.743652,4142.051270,4110.769043,4132.820313,4157.948730,4139.487305,4142.051270,0.000000,4.000000,,,,0.000000,4.000000,4.000000,4.000000,4.000000,4.000000,4.000000,4.000000,4.000000,4.000000,4.000000,4.000000,4.000000,4.000000,4.000000,100.000000
1602006611.580965,30.000000,0.000000,4139.487305,4137.436035,4139.487305,4136.922852,4136.410156,4124.102539,4123.589844,4126.153809,4136.410156,4134.871582,4128.205078,4151.282227,4136.410156,4140.512695,0.000000,4.000000,,,,0.000000,4.000000,4.000000,4.000000,4.000000,4.000000,4.000000,4.000000,4.000000,4.000000,4.000000,4.000000,4.000000,4.000000,4.000000,100.000000
1602006611.588846,31.000000,0.000000,4131.794922,4135.897461,4131.282227,4139.487305,4138.974121,4133.333496,4131.282227,4127.179688,4135.897461,4153.846191,4137.948730,4144.615234,4140.000000,4133.333496,0.000000,4.000000,,,,0.000000,4.000000,4.000000,4.000000,4.000000,4.000000,4.000000,4.000000,4.000000,4.000000,4.000000,4.000000,4.000000,4.000000,4.000000,100.000000
1602006611.596728,32.000000,0.000000,4123.077148,4135.897461,4117.436035,4137.948730,4137.436035,4129.230957,4131.282227,4124.102539,4133.333496,4139.487305,4136.922852,4137.436035,4136.410156,4125.128418,0.000000,4.000000,,,,0.000000,4.000000,4.000000,4.000000,4.000000,4.000000,4.000000,4.000000,4.000000,4.000000,4.000000,4.000000,4.000000,4.000000,4.000000,100.000000
1602006611.604609,33.000000,0.000000,4119.487305,4132.820313,4107.692383,4131.794922,4134.358887,4121.025879,4123.589844,4114.871582,4116.922852,4126.666504,4120.000000,4130.769043,4126.666504,4120.512695,0.000000,4.000000,,,,0.000000,4.000000,4.000000,4.000000,4.000000,4.000000,4.000000,4.000000,4.000000,4.000000,4.000000,4.000000,4.000000,4.000000,4.000000,100.000000
1602006611.612490,34.000000,0.000000,4122.563965,4131.282227,4112.820313,4130.256348,4133.846191,4120.000000,4122.563965,4109.230957,4105.641113,4133.333496,4119.487305,4129.230957,4120.512695,4122.051270,0.000000,4.000000,,,,0.000000,4.000000,4.000000,4.000000,4.000000,4.000000,4.000000,4.000000,4.000000,4.000000,4.000000,4.000000,4.000000,4.000000,4.000000,100.000000
1602006611.620371,35.000000,0.000000,4129.230957,4136.410156,4128.717773,4135.384766,4134.871582,4123.589844,4122.563965,4110.769043,4110.256348,4124.615234,4136.410156,4138.461426,4121.538574,4131.282227,0.000000,4.000000,,,,0.000000,4.000000,4.000000,4.000000,4.000000,4.000000,4.000000,4.000000,4.000000,4.000000,4.000000,4.000000,4.000000,4.000000,4.000000,100.000000
1602006611.628252,36.000000,0.000000,4135.897461,4141.025879,4138.461426,4142.051270,4135.384766,4120.000000,4114.871582,4112.820313,4114.871582,4098.461426,4136.410156,4151.282227,4123.589844,4139.487305,0.000000,4.000000,,,,0.000000,4.000000,4.000000,4.000000,4.000000,4.000000,4.000000,4.000000,4.000000,4.000000,4.000000,4.000000,4.000000,4.000000,4.000000,100.000000
1602006611.636034,37.000000,0.000000,4138.974121,4140.000000,4141.538574,4142.563965,4135.897461,4109.230957,4106.666504,4110.256348,4116.410156,4103.589844,4127.179688,4154.358887,4125.128418,4131.282227,0.000000,4.000000,,,,0.000000,4.000000,4.000000,4.000000,4.000000,4.000000,4.000000,4.000000,4.000000,4.000000,4.000000,4.000000,4.000000,4.000000,4.000000,100.000000
1602006611.643915,38.000000,0.000000,4133.846191,4138.461426,4141.025879,4140.000000,4136.922852,4109.230957,4111.794922,4113.333496,4118.974121,4133.846191,4133.333496,4152.820313,4128.205078,4123.589844,0.000000,4.000000,,,,0.000000,4.000000,4.000000,4.000000,4.000000,4.000000,4.000000,4.000000,4.000000,4.000000,4.000000,4.000000,4.000000,4.000000,4.000000,100.000000
1602006611.651796,39.000000,0.000000,4125.128418,4138.974121,4137.948730,4137.948730,4138.974121,4120.512695,4121.025879,4119.487305,4118.974121,4134.871582,4142.051270,4155.384766,4127.179688,4133.846191,0.000000,4.000000,,,,0.000000,4.000000,4.000000,4.000000,4.000000,4.000000,4.000000,4.000000,4.000000,4.000000,4.000000,4.000000,4.000000,4.000000,4.000000,100.000000
1602006611.659677,40.000000,0.000000,4121.538574,4136.410156,4136.410156,4136.922852,4137.948730,4132.307617,4124.102539,4118.974121,4117.436035,4120.000000,4137.436035,4156.922852,4123.077148,4142.563965,0.000000,4.000000,,,,0.000000,4.000000,4.000000,4.000000,4.000000,4.000000,4.000000,4.000000,4.000000,4.000000,4.000000,4.000000,4.000000,4.000000,4.000000,100.000000
1602006611.667558,41.000000,0.000000,4128.205078,4136.922852,4134.358887,4138.461426,4135.897461,4138.461426,4126.153809,4120.512695,4123.077148,4131.282227,4128.205078,4154.871582,4124.102539,4136.410156,0.000000,4.000000,,,,0.000000,4.000000,4.000000,4.000000,4.000000,4.000000,4.000000,4.000000,4.000000,4.000000,4.000000,4.000000,4.000000,4.000000,4.000000,100.000000
1602006611.675439,42.000000,0.000000,4124.102539,4134.358887,4125.641113,4137.948730,4135.384766,4135.897461,4126.153809,4120.512695,4122.563965,4131.794922,4123.589844,4145.641113,4126.666504,4123.077148,0.000000,4.000000,,,,0.000000,4.000000,4.000000,4.000000,4.000000,4.000000,4.000000,4.000000,4.000000,4.000000,4.000000,4.000000,4.000000,4.000000,4.000000,100.000000
1602006611.683321,43.000000,0.000000,4114.871582,4126.153809,4118.461426,4135.384766,4137.436035,4127.179688,4123.077148,4115.384766,4120.000000,4115.897461,4121.025879,4138.461426,4123.077148,4113.333496,0.000000,4.000000,,,,0.000000,4.000000,4.000000,4.000000,4.000000,4.000000,4.000000,4.000000,4.000000,4.000000,4.000000,4.000000,4.000000,4.000000,4.000000,100.000000
1602006611.691202,44.000000,0.000000,4128.205078,4124.102539,4128.205078,4135.384766,4136.922852,4122.051270,4119.487305,4115.897461,4131.794922,4120.000000,4118.974121,4140.000000,4119.487305,4118.461426,0.000000,4.000000,,,,0.000000,4.000000,4.000000,4.000000,4.000000,4.000000,4.000000,4.000000,4.000000,4.000000,4.000000,4.000000,4.000000,4.000000,4.000000,100.000000
1602006611.699183,45.000000,0.000000,4139.487305,4128.205078,4141.025879,4137.436035,4132.820313,4122.051270,4114.358887,4121.538574,4137.948730,4120.000000,4121.538574,4144.615234,4123.077148,4126.153809,0.000000,4.000000,,,,0.000000,4.000000,4.000000,4.000000,4.000000,4.000000,4.000000,4.000000,4.000000,4.000000,4.000000,4.000000,4.000000,4.000000,4.000000,100.000000
1602006611.707063,46.000000,0.000000,4133.846191,4128.205078,4142.051270,4137.948730,4132.307617,4119.487305,4111.282227,4122.051270,4135.384766,4111.794922,4132.307617,4148.205078,4125.128418,4127.692383,0.000000,4.000000,,,,0.000000,4.000000,4.000000,4.000000,4.000000,4.000000,4.000000,4.000000,4.000000,4.000000,4.000000,4.000000,4.000000,4.000000,4.000000,100.000000
1602006611.714944,47.000000,0.000000,4133.846191,4125.641113,4138.461426,4134.871582,4133.333496,4120.000000,4117.436035,4123.077148,4138.974121,4128.205078,4134.358887,4151.282227,4122.563965,4134.871582,0.000000,4.000000,,,,0.000000,4.000000,4.000000,4.000000,4.000000,4.000000,4.000000,4.000000,4.000000,4.000000,4.000000,4.000000,4.000000,4.000000,4.000000,100.000000
1602006611.722825,48.000000,0.000000,4137.436035,4123.589844,4139.487305,4131.282227,4127.692383,4127.179688,4127.692383,4126.153809,4138.974121,4147.179688,4126.153809,4153.846191,4123.077148,4134.871582,0.000000,4.000000,,,,0.000000,4.000000,4.000000,4.000000,4.000000,4.000000,4.000000,4.000000,4.000000,4.000000,4.000000,4.000000,4.000000,4.000000,4.000000,100.000000
1602006611.730706,49.000000,0.000000,4128.205078,4119.487305,4141.025879,4128.717773,4122.051270,4136.410156,4135.384766,4125.128418,4129.230957,4134.358887,4124.102539,4153.846191,4122.563965,4123.589844,0.000000,4.000000,,,,0.000000,4.000000,4.000000,4.000000,4.000000,4.000000,4.000000,4.000000,4.000000,4.000000,4.000000,4.000000,4.000000,4.000000,4.000000,100.000000
1602006611.738587,50.000000,0.000000,4121.025879,4120.000000,4136.410156,4124.615234,4123.077148,4140.000000,4141.025879,4126.666504,4130.769043,4123.077148,4125.641113,4148.717773,4114.358887,4120.512695,0.000000,4.000000,,,,0.000000,4.000000,4.000000,4.000000,4.000000,4.000000,4.000000,4.000000,4.000000,4.000000,4.000000,4.000000,4.000000,4.000000,4.000000,100.000000
1602006611.746368,51.000000,0.000000,4123.077148,4121.025879,4129.743652,4123.589844,4125.128418,4137.948730,4140.000000,4127.179688,4136.410156,4138.974121,4128.717773,4140.512695,4107.692383,4123.589844,0.000000,4.000000,,,,0.000000,4.000000,4.000000,4.000000,4.000000,4.000000,4.000000,4.000000,4.000000,4.000000,4.000000,4.000000,4.000000,4.000000,4.000000,100.000000
1602006611.754249,52.000000,0.000000,4119.487305,4113.333496,4121.538574,4124.615234,4123.077148,4135.897461,4134.871582,4120.000000,4123.077148,4140.512695,4131.282227,4131.794922,4113.333496,4119.487305,0.000000,4.000000,,,,0.000000,4.000000,4.000000,4.000000,4.000000,4.000000,4.000000,4.000000,4.000000,4.000000,4.000000,4.000000,4.000000,4.000000,4.000000,100.000000
1602006611.762129,53.000000,0.000000,4119.487305,4111.794922,4123.589844,4123.589844,4123.589844,4140.000000,4134.871582,4118.974121,4115.897461,4115.897461,4127.692383,4129.743652,4121.025879,4117.436035,0.000000,4.000000,,,,0.000000,4.000000,4.000000,4.000000,4.000000,4.000000,4.000000,4.000000,4.000000,4.000000,4.000000,4.000000,4.000000,4.000000,4.000000,100.000000
1602006611.770010,54.000000,0.000000,4125.641113,4121.025879,4133.333496,4125.641113,4123.589844,4146.153809,4134.358887,4122.051270,4126.153809,4111.282227,4128.205078,4135.897461,4122.563965,4122.563965,0.000000,4.000000,,,,0.000000,4.000000,4.000000,4.000000,4.000000,4.000000,4.000000,4.000000,4.000000,4.000000,4.000000,4.000000,4.000000,4.000000,4.000000,100.000000
1602006611.777791,55.000000,0.000000,4121.538574,4124.102539,4130.769043,4129.230957,4123.077148,4135.897461,4125.128418,4115.897461,4121.538574,4123.077148,4127.179688,4133.846191,4123.077148,4126.153809,0.000000,4.000000,,,,0.000000,4.000000,4.000000,4.000000,4.000000,4.000000,4.000000,4.000000,4.000000,4.000000,4.000000,4.000000,4.000000,4.000000,4.000000,100.000000
1602006611.785672,56.000000,0.000000,4115.384766,4120.512695,4119.487305,4124.102539,4124.102539,4120.000000,4116.922852,4105.128418,4109.743652,4114.358887,4109.230957,4124.102539,4118.974121,4123.077148,0.000000,4.000000,,,,0.000000,4.000000,4.000000,4.000000,4.000000,4.000000,4.000000,4.000000,4.000000,4.000000,4.000000,4.000000,4.000000,4.000000,4.000000,100.000000
1602006611.793554,57.000000,0.000000,4119.487305,4123.077148,4120.000000,4123.077148,4126.666504,4126.666504,4119.487305,4106.153809,4114.358887,4107.692383,4104.102539,4127.692383,4114.358887,4117.948730,0.000000,4.000000,,,,0.000000,4.000000,4.000000,4.000000,4.000000,4.000000,4.000000,4.000000,4.000000,4.000000,4.000000,4.000000,4.000000,4.000000,4.000000,100.000000
1602006611.801435,58.000000,0.000000,4124.615234,4126.153809,4126.666504,4131.794922,4132.820313,4143.589844,4123.589844,4117.948730,4122.563965,4121.538574,4121.538574,4139.487305,4117.948730,4122.051270,0.000000,4.000000,,,,0.000000,4.000000,4.000000,4.000000,4.000000,4.000000,4.000000,4.000000,4.000000,4.000000,4.000000,4.000000,4.000000,4.000000,4.000000,100.000000
1602006611.809316,59.000000,0.000000,4126.153809,4124.615234,4125.128418,4131.282227,4134.358887,4147.179688,4126.153809,4123.077148,4127.179688,4132.307617,4127.692383,4138.461426,4124.102539,4129.743652,0.000000,4.000000,,,,0.000000,4.000000,4.000000,4.000000,4.000000,4.000000,4.000000,4.000000,4.000000,4.000000,4.000000,4.000000,4.000000,4.000000,4.000000,100.000000
1602006611.817197,60.000000,0.000000,4133.333496,4126.153809,4128.717773,4129.743652,4130.769043,4144.102539,4133.333496,4126.153809,4128.205078,4135.897461,4128.205078,4137.948730,4129.743652,4130.769043,0.000000,4.000000,,,,0.000000,4.000000,4.000000,4.000000,4.000000,4.000000,4.000000,4.000000,4.000000,4.000000,4.000000,4.000000,4.000000,4.000000,4.000000,100.000000
1602006611.825078,61.000000,0.000000,4141.538574,4126.666504,4138.461426,4135.384766,4126.666504,4141.538574,4139.487305,4133.333496,4123.077148,4136.410156,4136.410156,4149.743652,4138.461426,4141.025879,0.000000,4.000000,,,,0.000000,4.000000,4.000000,4.000000,4.000000,4.000000,4.000000,4.000000,4.000000,4.000000,4.000000,4.000000,4.000000,4.000000,4.000000,100.000000
1602006611.832959,62.000000,0.000000,4142.051270,4124.102539,4142.051270,4136.410156,4123.589844,4134.358887,4140.000000,4138.461426,4120.512695,4120.000000,4138.974121,4157.948730,4144.102539,4153.333496,0.000000,4.000000,,,,0.000000,4.000000,4.000000,4.000000,4.000000,4.000000,4.000000,4.000000,4.000000,4.000000,4.000000,4.000000,4.000000,4.000000,4.000000,100.000000
1602006611.840841,63.000000,0.000000,4135.384766,4124.102539,4141.025879,4135.384766,4123.589844,4129.743652,4143.589844,4136.922852,4120.000000,4109.743652,4136.922852,4151.794922,4135.384766,4141.538574,0.000000,4.000000,,,,0.000000,4.000000,4.000000,4.000000,4.000000,4.000000,4.000000,4.000000,4.000000,4.000000,4.000000,4.000000,4.000000,4.000000,4.000000,100.000000
1602006611.848622,64.000000,0.000000,4124.615234,4122.563965,4136.922852,4133.846191,4121.025879,4124.102539,4139.487305,4130.769043,4110.769043,4122.563965,4131.794922,4138.461426,4122.563965,4117.948730,791.000000,4.000000,,,,0.000000,4.000000,4.000000,4.000000,4.000000,4.000000,4.000000,4.000000,4.000000,4.000000,4.000000,4.000000,4.000000,4.000000,4.000000,100.000000
1602006611.856503,65.000000,0.000000,4122.563965,4121.025879,4133.846191,4132.820313,4119.487305,4120.000000,4123.589844,4123.589844,4111.282227,4134.871582,4125.128418,4138.461426,4120.000000,4121.025879,784.000000,4.000000,,,,0.000000,4.000000,4.000000,4.000000,4.000000,4.000000,4.000000,4.000000,4.000000,4.000000,4.000000,4.000000,4.000000,4.000000,4.000000,100.000000
1602006611.864384,66.000000,0.000000,4130.769043,4130.256348,4140.000000,4136.410156,4128.717773,4127.179688,4116.922852,4123.077148,4130.769043,4140.512695,4126.153809,4151.794922,4125.128418,4137.948730,849.000000,4.000000,,,,0.000000,4.000000,4.000000,4.000000,4.000000,4.000000,4.000000,4.000000,4.000000,4.000000,4.000000,4.000000,4.000000,4.000000,4.000000,100.000000
1602006611.872265,67.000000,0.000000,4136.922852,4141.025879,4151.282227,4145.641113,4140.000000,4137.948730,4117.948730,4130.256348,4138.974121,4144.102539,4131.282227,4158.461426,4129.230957,4138.461426,849.000000,4.000000,,,,0.000000,4.000000,4.000000,4.000000,4.000000,4.000000,4.000000,4.000000,4.000000,4.000000,4.000000,4.000000,4.000000,4.000000,4.000000,100.000000
1602006611.880147,68.000000,0.000000,4141.538574,4141.538574,4152.820313,4148.717773,4141.025879,4146.153809,4117.948730,4135.897461,4134.871582,4143.077148,4133.846191,4155.384766,4129.230957,4135.897461,811.000000,4.000000,,,,0.000000,4.000000,4.000000,4.000000,4.000000,4.000000,4.000000,4.000000,4.000000,4.000000,4.000000,4.000000,4.000000,4.000000,4.000000,100.000000
1602006611.888028,69.000000,0.000000,4142.563965,4134.871582,4144.615234,4145.128418,4138.461426,4151.282227,4128.205078,4136.410156,4137.948730,4135.384766,4138.461426,4150.256348,4127.179688,4140.000000,818.000000,4.000000,,,,0.000000,4.000000,4.000000,4.000000,4.000000,4.000000,4.000000,4.000000,4.000000,4.000000,4.000000,4.000000,4.000000,4.000000,4.000000,100.000000
1602006611.895909,70.000000,0.000000,4133.846191,4126.666504,4140.512695,4135.897461,4134.871582,4154.871582,4143.077148,4135.897461,4141.538574,4123.589844,4141.538574,4144.102539,4126.153809,4132.820313,785.000000,4.000000,,,,0.000000,4.000000,4.000000,4.000000,4.000000,4.000000,4.000000,4.000000,4.000000,4.000000,4.000000,4.000000,4.000000,4.000000,4.000000,100.000000
1602006611.903790,71.000000,0.000000,4125.641113,4120.000000,4138.461426,4127.692383,4125.641113,4153.333496,4143.589844,4138.974121,4137.436035,4114.358887,4135.384766,4142.563965,4124.615234,4124.615234,668.000000,4.000000,,,,0.000000,4.000000,4.000000,4.000000,4.000000,4.000000,4.000000,4.000000,4.000000,4.000000,4.000000,4.000000,4.000000,4.000000,4.000000,100.000000
1602006611.911671,72.000000,0.000000,4127.179688,4116.922852,4136.410156,4128.717773,4123.077148,4145.128418,4138.461426,4139.487305,4134.358887,4122.563965,4126.153809,4146.153809,4123.589844,4132.820313,780.000000,4.000000,,,,0.000000,4.000000,4.000000,4.000000,4.000000,4.000000,4.000000,4.000000,4.000000,4.000000,4.000000,4.000000,4.000000,4.000000,4.000000,100.000000
1602006611.919452,73.000000,0.000000,4142.563965,4128.717773,4144.102539,4134.871582,4130.256348,4138.461426,4141.538574,4138.974121,4136.922852,4147.179688,4132.820313,4149.230957,4135.897461,4141.538574,838.000000,4.000000,,,,0.000000,4.000000,4.000000,4.000000,4.000000,4.000000,4.000000,4.000000,4.000000,4.000000,4.000000,4.000000,4.000000,4.000000,4.000000,100.000000
1602006611.927334,74.000000,0.000000,4160.000000,4147.179688,4158.974121,4148.205078,4138.974121,4134.871582,4145.641113,4149.743652,4141.538574,4168.205078,4153.333496,4161.025879,4157.948730,4145.128418,878.000000,4.000000,,,,0.000000,4.000000,4.000000,4.000000,4.000000,4.000000,4.000000,4.000000,4.000000,4.000000,4.000000,4.000000,4.000000,4.000000,4.000000,100.000000
1602006611.935215,75.000000,0.000000,4155.384766,4149.230957,4160.512695,4152.820313,4141.025879,4129.743652,4141.538574,4153.846191,4146.666504,4160.000000,4153.333496,4166.666504,4156.410156,4151.282227,837.000000,4.000000,,,,0.000000,4.000000,4.000000,4.000000,4.000000,4.000000,4.000000,4.000000,4.000000,4.000000,4.000000,4.000000,4.000000,4.000000,4.000000,100.000000
1602006611.943096,76.000000,0.000000,4139.487305,4138.461426,4147.179688,4141.025879,4132.307617,4126.666504,4134.358887,4141.025879,4129.230957,4140.512695,4133.846191,4149.230957,4139.487305,4149.743652,769.000000,4.000000,,,,0.000000,4.000000,4.000000,4.000000,4.000000,4.000000,4.000000,4.000000,4.000000,4.000000,4.000000,4.000000,4.000000,4.000000,4.000000,100.000000
1602006611.950977,77.000000,0.000000,4132.820313,4132.307617,4138.461426,4135.384766,4129.230957,4138.974121,4132.820313,4133.333496,4102.563965,4135.897461,4126.666504,4134.871582,4133.333496,4133.333496,730.000000,4.000000,,,,0.000000,4.000000,4.000000,4.000000,4.000000,4.000000,4.000000,4.000000,4.000000,4.000000,4.000000,4.000000,4.000000,4.000000,4.000000,100.000000
1602006611.958858,78.000000,0.000000,4130.769043,4129.230957,4134.358887,4135.384766,4135.897461,4150.769043,4137.436035,4131.282227,4105.641113,4121.538574,4123.589844,4137.436035,4122.051270,4117.436035,878.000000,4.000000,,,,0.000000,4.000000,4.000000,4.000000,4.000000,4.000000,4.000000,4.000000,4.000000,4.000000,4.000000,4.000000,4.000000,4.000000,4.000000,100.000000
1602006611.966739,79.000000,0.000000,4121.538574,4117.436035,4120.000000,4126.153809,4131.794922,4143.077148,4136.410156,4124.102539,4124.102539,4105.128418,4114.358887,4131.282227,4105.128418,4115.384766,837.000000,4.000000,,,,0.000000,4.000000,4.000000,4.000000,4.000000,4.000000,4.000000,4.000000,4.000000,4.000000,4.000000,4.000000,4.000000,4.000000,4.000000,100.000000
1602006611.974621,80.000000,0.000000,4111.794922,4110.769043,4106.666504,4116.922852,4121.538574,4137.436035,4132.307617,4128.717773,4128.205078,4114.871582,4109.230957,4122.563965,4103.589844,4121.025879,769.000000,4.000000,,,,0.000000,4.000000,4.000000,4.000000,4.000000,4.000000,4.000000,4.000000,4.000000,4.000000,4.000000,4.000000,4.000000,4.000000,4.000000,100.000000
1602006611.982602,81.000000,0.000000,4115.897461,4118.461426,4112.307617,4123.589844,4129.743652,4143.589844,4132.307617,4136.922852,4131.282227,4125.641113,4110.256348,4131.794922,4112.820313,4120.000000,730.000000,4.000000,,,,0.000000,4.000000,4.000000,4.000000,4.000000,4.000000,4.000000,4.000000,4.000000,4.000000,4.000000,4.000000,4.000000,4.000000,4.000000,100.000000
1602006611.990483,82.000000,0.000000,4123.077148,4126.666504,4122.051270,4128.205078,4137.948730,4144.102539,4135.384766,4133.846191,4143.077148,4126.153809,4115.384766,4137.436035,4114.871582,4117.436035,878.000000,4.000000,,,,0.000000,4.000000,4.000000,4.000000,4.000000,4.000000,4.000000,4.000000,4.000000,4.000000,4.000000,4.000000,4.000000,4.000000,4.000000,100.000000
1602006611.998364,83.000000,0.000000,4120.512695,4124.615234,4121.025879,4123.077148,4127.692383,4136.410156,4135.384766,4141.538574,4143.077148,4142.563965,4123.077148,4140.000000,4118.974121,4127.692383,837.000000,4.000000,,,,0.000000,4.000000,4.000000,4.000000,4.000000,4.000000,4.000000,4.000000,4.000000,4.000000,4.000000,4.000000,4.000000,4.000000,4.000000,100.000000
1602006612.006245,84.000000,0.000000,4126.153809,4122.563965,4129.230957,4124.102539,4121.538574,4134.871582,4136.410156,4154.871582,4138.461426,4150.256348,4127.179688,4154.358887,4129.743652,4143.589844,769.000000,4.000000,,,,0.000000,4.000000,4.000000,4.000000,4.000000,4.000000,4.000000,4.000000,4.000000,4.000000,4.000000,4.000000,4.000000,4.000000,4.000000,100.000000
1602006612.014126,85.000000,0.000000,4141.538574,4125.641113,4147.692383,4128.717773,4124.615234,4136.922852,4138.974121,4149.743652,4137.436035,4129.743652,4125.128418,4156.922852,4130.769043,4144.615234,730.000000,4.000000,,,,0.000000,4.000000,4.000000,4.000000,4.000000,4.000000,4.000000,4.000000,4.000000,4.000000,4.000000,4.000000,4.000000,4.000000,4.000000,100.000000
1602006612.022008,86.000000,0.000000,4140.512695,4122.563965,4148.717773,4125.641113,4123.077148,4133.846191,4138.974121,4138.974121,4128.205078,4122.563965,4122.563965,4139.487305,4120.000000,4128.717773,878.000000,4.000000,,,,0.000000,4.000000,4.000000,4.000000,4.000000,4.000000,4.000000,4.000000,4.000000,4.000000,4.000000,4.000000,4.000000,4.000000,4.000000,100.000000
1602006612.029889,87.000000,0.000000,4132.307617,4123.589844,4137.436035,4125.641113,4123.077148,4134.358887,4141.538574,4141.025879,4113.333496,4128.205078,4125.128418,4132.820313,4116.922852,4121.025879,837.000000,4.000000,,,,0.000000,4.000000,4.000000,4.000000,4.000000,4.000000,4.000000,4.000000,4.000000,4.000000,4.000000,4.000000,4.000000,4.000000,4.000000,100.000000
1602006612.037770,88.000000,0.000000,4139.487305,4135.384766,4138.461426,4137.948730,4130.769043,4137.948730,4146.153809,4138.974121,4108.717773,4119.487305,4136.922852,4142.051270,4130.769043,4135.897461,769.000000,4.000000,,,,0.000000,4.000000,4.000000,4.000000,4.000000,4.000000,4.000000,4.000000,4.000000,4.000000,4.000000,4.000000,4.000000,4.000000,4.000000,100.000000
1602006612.045651,89.000000,0.000000,4144.102539,4142.051270,4145.128418,4143.589844,4132.307617,4140.000000,4141.025879,4128.205078,4111.794922,4121.025879,4146.153809,4143.077148,4137.948730,4145.641113,730.000000,4.000000,,,,0.000000,4.000000,4.000000,4.000000,4.000000,4.000000,4.000000,4.000000,4.000000,4.000000,4.000000,4.000000,4.000000,4.000000,4.000000,100.000000
1602006612.053632,90.000000,0.000000,4138.461426,4136.922852,4140.512695,4134.358887,4127.692383,4133.333496,4133.333496,4120.000000,4111.282227,4136.922852,4143.589844,4137.436035,4129.743652,4141.025879,878.000000,4.000000,,,,0.000000,4.000000,4.000000,4.000000,4.000000,4.000000,4.000000,4.000000,4.000000,4.000000,4.000000,4.000000,4.000000,4.000000,4.000000,100.000000
1602006612.061513,91.000000,0.000000,4134.871582,4129.230957,4133.846191,4128.205078,4125.641113,4125.128418,4132.307617,4117.948730,4114.358887,4141.025879,4137.948730,4135.897461,4122.563965,4138.974121,837.000000,4.000000,,,,0.000000,4.000000,4.000000,4.000000,4.000000,4.000000,4.000000,4.000000,4.000000,4.000000,4.000000,4.000000,4.000000,4.000000,4.000000,100.000000
1602006612.069394,92.000000,0.000000,4130.769043,4125.641113,4137.948730,4126.666504,4125.641113,4128.205078,4134.871582,4128.717773,4128.717773,4141.025879,4132.307617,4138.974121,4129.230957,4142.563965,769.000000,4.000000,,,,0.000000,4.000000,4.000000,4.000000,4.000000,4.000000,4.000000,4.000000,4.000000,4.000000,4.000000,4.000000,4.000000,4.000000,4.000000,100.000000
1602006612.077276,93.000000,0.000000,4126.666504,4127.179688,4136.922852,4128.205078,4129.743652,4138.974121,4138.461426,4144.102539,4142.563965,4146.153809,4124.102539,4142.563965,4138.461426,4141.538574,730.000000,4.000000,,,,0.000000,4.000000,4.000000,4.000000,4.000000,4.000000,4.000000,4.000000,4.000000,4.000000,4.000000,4.000000,4.000000,4.000000,4.000000,100.000000
1602006612.085157,94.000000,0.000000,4125.641113,4125.641113,4124.615234,4128.717773,4129.743652,4142.563965,4139.487305,4146.666504,4136.922852,4129.743652,4123.589844,4135.384766,4126.666504,4136.922852,878.000000,4.000000,,,,0.000000,4.000000,4.000000,4.000000,4.000000,4.000000,4.000000,4.000000,4.000000,4.000000,4.000000,4.000000,4.000000,4.000000,4.000000,100.000000
1602006612.093038,95.000000,0.000000,4117.948730,4108.205078,4117.948730,4115.897461,4125.128418,4137.948730,4136.922852,4140.000000,4123.589844,4112.307617,4122.563965,4122.563965,4106.666504,4126.666504,837.000000,4.000000,,,,0.000000,4.000000,4.000000,4.000000,4.000000,4.000000,4.000000,4.000000,4.000000,4.000000,4.000000,4.000000,4.000000,4.000000,4.000000,100.000000
1602006612.100919,96.000000,0.000000,4105.128418,4095.897461,4119.487305,4108.205078,4122.051270,4138.461426,4137.436035,4140.000000,4121.538574,4121.538574,4110.769043,4118.974121,4102.563965,4110.769043,769.000000,4.000000,,,,0.000000,4.000000,4.000000,4.000000,4.000000,4.000000,4.000000,4.000000,4.000000,4.000000,4.000000,4.000000,4.000000,4.000000,4.000000,100.000000
