Timestamp,EEG.Counter,EEG.Interpolated,EEG.AF3,EEG.F7,EEG.F3,EEG.FC5,EEG.T7,EEG.P7,EEG.O1,EEG.O2,EEG.P8,EEG.T8,EEG.FC6,EEG.F4,EEG.F8,EEG.AF4,EEG.RawCq,EEG.Battery,MarkerIndex,MarkerType,MarkerValueInt,EEG.MarkerHardware,CQ.AF3,CQ.F7,CQ.F3,CQ.FC5,CQ.T7,CQ.P7,CQ.O1,CQ.O2,CQ.P8,CQ.T8,CQ.FC6,CQ.F4,CQ.F8,CQ.AF4,CQ.Overall
1602006622.116581,77.000000,0.000000,4154.358887,4153.333496,4153.333496,4141.538574,4151.282227,4135.384766,4107.179688,4120.000000,4151.794922,4156.410156,4152.307617,4181.025879,4166.153809,4170.769043,728.000000,4.000000,,,,0.000000,4.000000,4.000000,4.000000,4.000000,4.000000,4.000000,4.000000,4.000000,4.000000,4.000000,4.000000,4.000000,4.000000,4.000000,100.000000
1602006622.124563,78.000000,0.000000,4160.000000,4157.948730,4151.282227,4144.615234,4158.461426,4135.897461,4117.948730,4123.589844,4144.615234,4158.974121,4152.820313,4171.794922,4161.025879,4174.358887,870.000000,4.000000,,,,0.000000,4.000000,4.000000,4.000000,4.000000,4.000000,4.000000,4.000000,4.000000,4.000000,4.000000,4.000000,4.000000,4.000000,4.000000,100.000000
1602006622.132444,79.000000,0.000000,4158.974121,4157.436035,4138.974121,4143.077148,4153.846191,4140.000000,4122.563965,4125.641113,4139.487305,4138.461426,4141.025879,4156.922852,4149.230957,4164.102539,865.000000,4.000000,,,,0.000000,4.000000,4.000000,4.000000,4.000000,4.000000,4.000000,4.000000,4.000000,4.000000,4.000000,4.000000,4.000000,4.000000,4.000000,100.000000
1602006622.140325,80.000000,0.000000,4153.333496,4151.794922,4121.025879,4141.538574,4146.666504,4140.000000,4127.692383,4120.000000,4128.717773,4123.589844,4131.794922,4138.974121,4137.436035,4137.948730,761.000000,4.000000,,,,0.000000,4.000000,4.000000,4.000000,4.000000,4.000000,4.000000,4.000000,4.000000,4.000000,4.000000,4.000000,4.000000,4.000000,4.000000,100.000000
1602006622.148206,81.000000,0.000000,4148.717773,4152.820313,4110.256348,4139.487305,4141.025879,4145.128418,4143.589844,4128.205078,4126.153809,4131.282227,4133.333496,4130.256348,4138.461426,4132.307617,728.000000,4.000000,,,,0.000000,4.000000,4.000000,4.000000,4.000000,4.000000,4.000000,4.000000,4.000000,4.000000,4.000000,4.000000,4.000000,4.000000,4.000000,100.000000
1602006622.156087,82.000000,0.000000,4151.794922,4157.948730,4115.384766,4144.615234,4134.358887,4155.897461,4155.897461,4149.230957,4144.102539,4143.077148,4125.641113,4140.512695,4145.641113,4144.615234,870.000000,4.000000,,,,0.000000,4.000000,4.000000,4.000000,4.000000,4.000000,4.000000,4.000000,4.000000,4.000000,4.000000,4.000000,4.000000,4.000000,4.000000,100.000000
1602006622.163968,83.000000,0.000000,4157.948730,4158.974121,4122.051270,4151.794922,4124.102539,4150.769043,4157.436035,4158.974121,4161.538574,4148.205078,4117.948730,4153.333496,4141.025879,4140.000000,865.000000,4.000000,,,,0.000000,4.000000,4.000000,4.000000,4.000000,4.000000,4.000000,4.000000,4.000000,4.000000,4.000000,4.000000,4.000000,4.000000,4.000000,100.000000
1602006622.171850,84.000000,0.000000,4154.358887,4156.922852,4126.153809,4145.641113,4115.897461,4142.563965,4157.436035,4156.410156,4166.666504,4162.051270,4127.692383,4155.897461,4134.871582,4126.153809,761.000000,4.000000,,,,0.000000,4.000000,4.000000,4.000000,4.000000,4.000000,4.000000,4.000000,4.000000,4.000000,4.000000,4.000000,4.000000,4.000000,4.000000,100.000000
1602006622.179731,85.000000,0.000000,4149.743652,4153.333496,4136.410156,4137.948730,4118.461426,4148.205078,4155.384766,4156.922852,4174.871582,4170.256348,4143.077148,4156.922852,4141.538574,4134.871582,728.000000,4.000000,,,,0.000000,4.000000,4.000000,4.000000,4.000000,4.000000,4.000000,4.000000,4.000000,4.000000,4.000000,4.000000,4.000000,4.000000,4.000000,100.000000
1602006622.187612,86.000000,0.000000,4151.282227,4145.641113,4143.589844,4138.974121,4119.487305,4141.538574,4136.922852,4150.256348,4170.769043,4150.256348,4147.179688,4160.512695,4146.153809,4151.794922,870.000000,4.000000,,,,0.000000,4.000000,4.000000,4.000000,4.000000,4.000000,4.000000,4.000000,4.000000,4.000000,4.000000,4.000000,4.000000,4.000000,4.000000,100.000000
1602006622.195393,87.000000,0.000000,4144.102539,4132.820313,4138.461426,4131.282227,4115.897461,4117.436035,4114.358887,4133.333496,4147.179688,4130.769043,4132.307617,4161.025879,4134.871582,4138.974121,865.000000,4.000000,,,,0.000000,4.000000,4.000000,4.000000,4.000000,4.000000,4.000000,4.000000,4.000000,4.000000,4.000000,4.000000,4.000000,4.000000,4.000000,100.000000
1602006622.203274,88.000000,0.000000,4118.974121,4114.871582,4126.666504,4111.794922,4118.974121,4111.794922,4111.794922,4120.000000,4120.512695,4121.025879,4112.820313,4151.794922,4110.769043,4106.666504,761.000000,4.000000,,,,0.000000,4.000000,4.000000,4.000000,4.000000,4.000000,4.000000,4.000000,4.000000,4.000000,4.000000,4.000000,4.000000,4.000000,4.000000,100.000000
1602006622.211155,89.000000,0.000000,4097.436035,4098.974121,4116.410156,4104.102539,4121.025879,4120.512695,4119.487305,4108.717773,4090.256348,4100.000000,4096.922852,4139.487305,4089.230713,4093.846191,728.000000,4.000000,,,,0.000000,4.000000,4.000000,4.000000,4.000000,4.000000,4.000000,4.000000,4.000000,4.000000,4.000000,4.000000,4.000000,4.000000,4.000000,100.000000
1602006622.219037,90.000000,0.000000,4090.769287,4096.922852,4109.230957,4112.307617,4120.512695,4120.000000,4121.538574,4106.153809,4072.820557,4084.615479,4078.461426,4133.333496,4079.487061,4091.281982,870.000000,4.000000,,,,0.000000,4.000000,4.000000,4.000000,4.000000,4.000000,4.000000,4.000000,4.000000,4.000000,4.000000,4.000000,4.000000,4.000000,4.000000,100.000000
1602006622.226918,91.000000,0.000000,4081.538574,4104.102539,4109.743652,4118.461426,4128.717773,4123.077148,4124.615234,4115.897461,4086.666748,4092.307617,4073.846191,4129.230957,4077.948730,4076.923096,865.000000,4.000000,,,,0.000000,4.000000,4.000000,4.000000,4.000000,4.000000,4.000000,4.000000,4.000000,4.000000,4.000000,4.000000,4.000000,4.000000,4.000000,100.000000
1602006622.234799,92.000000,0.000000,4071.794922,4107.179688,4115.384766,4116.410156,4138.461426,4130.256348,4126.666504,4122.051270,4105.641113,4103.589844,4088.205078,4121.538574,4075.897461,4068.718018,761.000000,4.000000,,,,0.000000,4.000000,4.000000,4.000000,4.000000,4.000000,4.000000,4.000000,4.000000,4.000000,4.000000,4.000000,4.000000,4.000000,4.000000,100.000000
1602006622.242680,93.000000,0.000000,4076.923096,4107.179688,4120.512695,4116.410156,4134.871582,4125.128418,4122.563965,4124.615234,4116.922852,4109.230957,4092.307617,4122.051270,4081.538574,4085.128174,728.000000,4.000000,,,,0.000000,4.000000,4.000000,4.000000,4.000000,4.000000,4.000000,4.000000,4.000000,4.000000,4.000000,4.000000,4.000000,4.000000,4.000000,100.000000
1602006622.250561,94.000000,0.000000,4087.692383,4115.897461,4129.230957,4123.589844,4125.128418,4121.538574,4124.102539,4135.384766,4131.794922,4117.436035,4093.846191,4137.436035,4098.974121,4113.333496,870.000000,4.000000,,,,0.000000,4.000000,4.000000,4.000000,4.000000,4.000000,4.000000,4.000000,4.000000,4.000000,4.000000,4.000000,4.000000,4.000000,4.000000,100.000000
1602006622.258442,95.000000,0.000000,4095.897461,4126.153809,4137.948730,4128.205078,4123.589844,4126.153809,4129.743652,4148.205078,4145.641113,4124.102539,4118.461426,4153.333496,4115.897461,4125.641113,865.000000,4.000000,,,,0.000000,4.000000,4.000000,4.000000,4.000000,4.000000,4.000000,4.000000,4.000000,4.000000,4.000000,4.000000,4.000000,4.000000,4.000000,100.000000
1602006622.266223,96.000000,0.000000,4107.179688,4120.512695,4141.025879,4126.153809,4119.487305,4125.641113,4129.743652,4154.358887,4150.256348,4143.077148,4140.000000,4162.563965,4129.230957,4123.589844,761.000000,4.000000,,,,0.000000,4.000000,4.000000,4.000000,4.000000,4.000000,4.000000,4.000000,4.000000,4.000000,4.000000,4.000000,4.000000,4.000000,4.000000,100.000000
1602006622.274204,97.000000,0.000000,4110.769043,4111.794922,4141.538574,4124.102539,4109.743652,4125.641113,4133.846191,4156.410156,4149.230957,4172.307617,4138.461426,4166.153809,4137.436035,4134.358887,728.000000,4.000000,,,,0.000000,4.000000,4.000000,4.000000,4.000000,4.000000,4.000000,4.000000,4.000000,4.000000,4.000000,4.000000,4.000000,4.000000,4.000000,100.000000
1602006622.282084,98.000000,0.000000,4097.948730,4109.230957,4134.871582,4120.000000,4104.615234,4127.692383,4137.948730,4148.717773,4135.384766,4167.179688,4126.666504,4158.461426,4128.205078,4141.538574,870.000000,4.000000,,,,0.000000,4.000000,4.000000,4.000000,4.000000,4.000000,4.000000,4.000000,4.000000,4.000000,4.000000,4.000000,4.000000,4.000000,4.000000,100.000000
1602006622.290065,99.000000,0.000000,4092.307617,4112.307617,4123.077148,4120.000000,4107.692383,4124.615234,4129.743652,4135.384766,4126.666504,4139.487305,4112.307617,4142.563965,4108.205078,4117.436035,865.000000,4.000000,,,,0.000000,4.000000,4.000000,4.000000,4.000000,4.000000,4.000000,4.000000,4.000000,4.000000,4.000000,4.000000,4.000000,4.000000,4.000000,100.000000
1602006622.297946,100.000000,0.000000,4101.538574,4118.974121,4120.000000,4123.589844,4115.384766,4128.205078,4121.025879,4128.205078,4123.077148,4135.897461,4108.717773,4133.846191,4104.615234,4095.384521,761.000000,4.000000,,,,0.000000,4.000000,4.000000,4.000000,4.000000,4.000000,4.000000,4.000000,4.000000,4.000000,4.000000,4.000000,4.000000,4.000000,4.000000,100.000000
1602006622.305826,101.000000,0.000000,4103.077148,4121.538574,4122.563965,4123.589844,4120.000000,4135.897461,4122.051270,4124.102539,4103.077148,4130.256348,4109.230957,4135.384766,4107.692383,4103.077148,728.000000,4.000000,,,,0.000000,4.000000,4.000000,4.000000,4.000000,4.000000,4.000000,4.000000,4.000000,4.000000,4.000000,4.000000,4.000000,4.000000,4.000000,100.000000
1602006622.313608,102.000000,0.000000,4108.205078,4120.000000,4119.487305,4125.641113,4121.538574,4137.436035,4125.128418,4121.025879,4088.205078,4093.333252,4097.436035,4135.384766,4095.384521,4109.230957,870.000000,4.000000,,,,0.000000,4.000000,4.000000,4.000000,4.000000,4.000000,4.000000,4.000000,4.000000,4.000000,4.000000,4.000000,4.000000,4.000000,4.000000,100.000000
1602006622.321489,103.000000,0.000000,4122.051270,4124.102539,4125.641113,4128.205078,4124.615234,4136.922852,4127.179688,4118.974121,4101.025879,4076.923096,4093.333252,4134.871582,4090.256348,4103.589844,865.000000,4.000000,,,,0.000000,4.000000,4.000000,4.000000,4.000000,4.000000,4.000000,4.000000,4.000000,4.000000,4.000000,4.000000,4.000000,4.000000,4.000000,100.000000
1602006622.329370,104.000000,0.000000,4125.128418,4128.205078,4137.948730,4125.128418,4124.615234,4132.820313,4128.717773,4124.615234,4115.897461,4102.563965,4106.666504,4138.461426,4104.102539,4105.641113,761.000000,4.000000,,,,0.000000,4.000000,4.000000,4.000000,4.000000,4.000000,4.000000,4.000000,4.000000,4.000000,4.000000,4.000000,4.000000,4.000000,4.000000,100.000000
1602006622.337251,105.000000,0.000000,4126.153809,4129.743652,4137.948730,4127.179688,4120.512695,4124.102539,4124.615234,4133.846191,4115.384766,4126.153809,4108.205078,4140.000000,4113.333496,4117.948730,728.000000,4.000000,,,,0.000000,4.000000,4.000000,4.000000,4.000000,4.000000,4.000000,4.000000,4.000000,4.000000,4.000000,4.000000,4.000000,4.000000,4.000000,100.000000
1602006622.345132,106.000000,0.000000,4135.897461,4135.897461,4134.358887,4136.922852,4118.461426,4120.000000,4123.589844,4138.461426,4110.769043,4132.307617,4102.051270,4136.410156,4111.282227,4135.384766,870.000000,4.000000,,,,0.000000,4.000000,4.000000,4.000000,4.000000,4.000000,4.000000,4.000000,4.000000,4.000000,4.000000,4.000000,4.000000,4.000000,4.000000,100.000000
1602006622.353013,107.000000,0.000000,4141.025879,4138.974121,4137.948730,4137.436035,4119.487305,4122.051270,4131.794922,4139.487305,4108.205078,4133.333496,4115.897461,4138.461426,4121.025879,4145.641113,865.000000,4.000000,,,,0.000000,4.000000,4.000000,4.000000,4.000000,4.000000,4.000000,4.000000,4.000000,4.000000,4.000000,4.000000,4.000000,4.000000,4.000000,100.000000
1602006622.360894,108.000000,0.000000,4136.922852,4137.436035,4140.512695,4134.358887,4124.102539,4129.743652,4138.974121,4142.051270,4114.358887,4146.153809,4128.205078,4145.641113,4140.000000,4141.025879,761.000000,4.000000,,,,0.000000,4.000000,4.000000,4.000000,4.000000,4.000000,4.000000,4.000000,4.000000,4.000000,4.000000,4.000000,4.000000,4.000000,4.000000,100.000000
1602006622.368776,109.000000,0.000000,4135.897461,4141.538574,4140.000000,4137.436035,4129.230957,4131.794922,4138.461426,4142.563965,4122.563965,4155.384766,4122.051270,4145.128418,4138.461426,4138.461426,728.000000,4.000000,,,,0.000000,4.000000,4.000000,4.000000,4.000000,4.000000,4.000000,4.000000,4.000000,4.000000,4.000000,4.000000,4.000000,4.000000,4.000000,100.000000
1602006622.376757,110.000000,0.000000,4146.153809,4145.128418,4142.563965,4140.000000,4127.179688,4122.051270,4136.922852,4136.410156,4120.000000,4129.743652,4124.102539,4137.436035,4128.717773,4140.512695,870.000000,4.000000,,,,0.000000,4.000000,4.000000,4.000000,4.000000,4.000000,4.000000,4.000000,4.000000,4.000000,4.000000,4.000000,4.000000,4.000000,4.000000,100.000000
1602006622.384638,111.000000,0.000000,4149.230957,4137.436035,4144.615234,4137.948730,4128.205078,4126.666504,4135.384766,4134.871582,4117.436035,4106.666504,4132.307617,4137.436035,4126.153809,4134.358887,865.000000,4.000000,,,,0.000000,4.000000,4.000000,4.000000,4.000000,4.000000,4.000000,4.000000,4.000000,4.000000,4.000000,4.000000,4.000000,4.000000,4.000000,100.000000
1602006622.392519,112.000000,0.000000,4139.487305,4132.820313,4148.205078,4135.897461,4138.461426,4137.948730,4131.282227,4132.820313,4118.461426,4124.102539,4123.077148,4142.563965,4122.051270,4124.615234,761.000000,4.000000,,,,0.000000,4.000000,4.000000,4.000000,4.000000,4.000000,4.000000,4.000000,4.000000,4.000000,4.000000,4.000000,4.000000,4.000000,4.000000,100.000000
1602006622.400400,113.000000,0.000000,4141.538574,4146.153809,4147.179688,4141.538574,4137.948730,4127.692383,4123.589844,4122.051270,4112.307617,4135.384766,4107.692383,4141.025879,4108.205078,4124.615234,728.000000,4.000000,,,,0.000000,4.000000,4.000000,4.000000,4.000000,4.000000,4.000000,4.000000,4.000000,4.000000,4.000000,4.000000,4.000000,4.000000,4.000000,100.000000
1602006622.408281,114.000000,0.000000,4160.000000,4161.538574,4138.974121,4150.256348,4125.641113,4117.436035,4119.487305,4124.102539,4107.692383,4122.051270,4102.563965,4137.948730,4098.974121,4125.128418,870.000000,4.000000,,,,0.000000,4.000000,4.000000,4.000000,4.000000,4.000000,4.000000,4.000000,4.000000,4.000000,4.000000,4.000000,4.000000,4.000000,4.000000,100.000000
1602006622.416163,115.000000,0.000000,4171.282227,4169.743652,4143.077148,4152.820313,4128.717773,4132.307617,4127.179688,4143.589844,4124.615234,4135.897461,4102.563965,4142.051270,4103.589844,4126.153809,865.000000,4.000000,,,,0.000000,4.000000,4.000000,4.000000,4.000000,4.000000,4.000000,4.000000,4.000000,4.000000,4.000000,4.000000,4.000000,4.000000,4.000000,100.000000
1602006622.424044,116.000000,0.000000,4174.358887,4179.487305,4156.410156,4152.307617,4137.436035,4144.102539,4140.000000,4156.410156,4141.538574,4160.000000,4108.205078,4144.615234,4104.102539,4127.692383,761.000000,4.000000,,,,0.000000,4.000000,4.000000,4.000000,4.000000,4.000000,4.000000,4.000000,4.000000,4.000000,4.000000,4.000000,4.000000,4.000000,4.000000,100.000000
1602006622.431925,117.000000,0.000000,4168.717773,4177.436035,4146.153809,4149.743652,4130.256348,4143.077148,4142.563965,4155.384766,4133.846191,4138.461426,4107.179688,4135.897461,4087.179443,4113.333496,728.000000,4.000000,,,,0.000000,4.000000,4.000000,4.000000,4.000000,4.000000,4.000000,4.000000,4.000000,4.000000,4.000000,4.000000,4.000000,4.000000,4.000000,100.000000
1602006622.439806,118.000000,0.000000,4149.230957,4158.974121,4123.589844,4139.487305,4120.000000,4137.948730,4134.358887,4148.205078,4121.025879,4098.461426,4092.820557,4119.487305,4065.641113,4092.307617,870.000000,4.000000,,,,0.000000,4.000000,4.000000,4.000000,4.000000,4.000000,4.000000,4.000000,4.000000,4.000000,4.000000,4.000000,4.000000,4.000000,4.000000,100.000000
1602006622.447587,119.000000,0.000000,4136.410156,4145.641113,4117.948730,4131.282227,4116.922852,4128.205078,4131.794922,4142.563965,4112.820313,4085.641113,4078.974365,4109.230957,4057.948730,4080.000000,865.000000,4.000000,,,,0.000000,4.000000,4.000000,4.000000,4.000000,4.000000,4.000000,4.000000,4.000000,4.000000,4.000000,4.000000,4.000000,4.000000,4.000000,100.000000
1602006622.455468,120.000000,0.000000,4133.333496,4142.563965,4115.384766,4132.820313,4112.820313,4127.692383,4133.846191,4138.461426,4102.051270,4091.794922,4077.435791,4110.256348,4050.256348,4076.923096,761.000000,4.000000,,,,0.000000,4.000000,4.000000,4.000000,4.000000,4.000000,4.000000,4.000000,4.000000,4.000000,4.000000,4.000000,4.000000,4.000000,4.000000,100.000000
1602006622.463349,121.000000,0.000000,4130.769043,4143.077148,4112.820313,4134.871582,4113.333496,4136.410156,4129.743652,4132.307617,4096.410156,4093.333252,4074.358887,4114.358887,4040.512939,4076.410156,728.000000,4.000000,,,,0.000000,4.000000,4.000000,4.000000,4.000000,4.000000,4.000000,4.000000,4.000000,4.000000,4.000000,4.000000,4.000000,4.000000,4.000000,100.000000
1602006622.471230,122.000000,0.000000,4132.820313,4149.743652,4118.461426,4135.897461,4120.512695,4139.487305,4123.589844,4123.077148,4099.487305,4093.333252,4063.589844,4114.871582,4041.025635,4071.281982,870.000000,4.000000,,,,0.000000,4.000000,4.000000,4.000000,4.000000,4.000000,4.000000,4.000000,4.000000,4.000000,4.000000,4.000000,4.000000,4.000000,4.000000,100.000000
1602006622.479111,123.000000,0.000000,4138.974121,4152.820313,4122.563965,4135.384766,4121.025879,4131.282227,4120.512695,4115.384766,4092.307617,4082.564209,4063.076904,4110.769043,4040.512939,4066.153809,865.000000,4.000000,,,,0.000000,4.000000,4.000000,4.000000,4.000000,4.000000,4.000000,4.000000,4.000000,4.000000,4.000000,4.000000,4.000000,4.000000,4.000000,100.000000
1602006622.486992,124.000000,0.000000,4141.025879,4153.333496,4127.692383,4135.897461,4123.077148,4125.128418,4118.461426,4108.717773,4079.487061,4058.974365,4077.948730,4108.205078,4043.076904,4077.435791,761.000000,4.000000,,,,0.000000,4.000000,4.000000,4.000000,4.000000,4.000000,4.000000,4.000000,4.000000,4.000000,4.000000,4.000000,4.000000,4.000000,4.000000,100.000000
1602006622.494873,125.000000,0.000000,4140.000000,4158.974121,4134.358887,4138.461426,4129.743652,4125.128418,4118.974121,4109.743652,4080.000000,4061.538574,4083.589844,4109.743652,4053.333252,4090.256348,728.000000,4.000000,,,,0.000000,4.000000,4.000000,4.000000,4.000000,4.000000,4.000000,4.000000,4.000000,4.000000,4.000000,4.000000,4.000000,4.000000,4.000000,100.000000
1602006622.502754,126.000000,0.000000,4136.410156,4153.333496,4128.717773,4136.410156,4127.179688,4116.410156,4119.487305,4118.461426,4081.025635,4085.641113,4074.358887,4108.717773,4056.410156,4082.051270,870.000000,4.000000,,,,0.000000,4.000000,4.000000,4.000000,4.000000,4.000000,4.000000,4.000000,4.000000,4.000000,4.000000,4.000000,4.000000,4.000000,4.000000,100.000000
1602006622.510535,127.000000,0.000000,4135.384766,4140.512695,4124.102539,4129.230957,4118.974121,4107.692383,4120.000000,4121.025879,4078.974365,4085.128174,4079.487061,4105.641113,4063.076904,4075.897461,865.000000,4.000000,,,,0.000000,4.000000,4.000000,4.000000,4.000000,4.000000,4.000000,4.000000,4.000000,4.000000,4.000000,4.000000,4.000000,4.000000,4.000000,100.000000
1602006622.518415,128.000000,0.000000,4143.077148,4137.948730,4131.794922,4123.077148,4118.974121,4120.000000,4128.205078,4125.128418,4088.205078,4073.333252,4098.461426,4111.282227,4074.871826,4084.615479,761.000000,4.000000,,,,0.000000,4.000000,4.000000,4.000000,4.000000,4.000000,4.000000,4.000000,4.000000,4.000000,4.000000,4.000000,4.000000,4.000000,4.000000,100.000000
1602006622.526296,0.000000,0.000000,4149.230957,4141.538574,4137.948730,4127.692383,4124.102539,4142.051270,4138.461426,4138.974121,4102.563965,4090.256348,4107.692383,4124.615234,4075.384521,4098.974121,791.000000,4.000000,,,,0.000000,4.000000,4.000000,4.000000,4.000000,4.000000,4.000000,4.000000,4.000000,4.000000,4.000000,4.000000,4.000000,4.000000,4.000000,100.000000
1602006622.534177,1.000000,0.000000,4150.769043,4138.461426,4145.128418,4134.358887,4118.461426,4137.948730,4138.461426,4144.102539,4114.871582,4126.666504,4109.230957,4134.358887,4077.435791,4104.615234,786.000000,4.000000,,,,0.000000,4.000000,4.000000,4.000000,4.000000,4.000000,4.000000,4.000000,4.000000,4.000000,4.000000,4.000000,4.000000,4.000000,4.000000,100.000000
1602006622.542058,2.000000,0.000000,4153.846191,4137.948730,4155.384766,4136.410156,4108.717773,4122.051270,4135.897461,4140.512695,4120.512695,4140.512695,4108.717773,4143.589844,4091.794922,4103.589844,855.000000,4.000000,,,,0.000000,4.000000,4.000000,4.000000,4.000000,4.000000,4.000000,4.000000,4.000000,4.000000,4.000000,4.000000,4.000000,4.000000,4.000000,100.000000
1602006622.549939,3.000000,0.000000,4156.922852,4148.717773,4158.461426,4140.512695,4114.871582,4126.666504,4137.948730,4140.512695,4113.333496,4128.717773,4105.128418,4153.846191,4094.871826,4111.282227,865.000000,4.000000,,,,0.000000,4.000000,4.000000,4.000000,4.000000,4.000000,4.000000,4.000000,4.000000,4.000000,4.000000,4.000000,4.000000,4.000000,4.000000,100.000000
1602006622.557820,4.000000,0.000000,4151.282227,4155.897461,4157.436035,4143.077148,4125.641113,4136.410156,4138.974121,4141.538574,4111.282227,4125.641113,4113.333496,4154.358887,4088.205078,4125.128418,811.000000,4.000000,,,,0.000000,4.000000,4.000000,4.000000,4.000000,4.000000,4.000000,4.000000,4.000000,4.000000,4.000000,4.000000,4.000000,4.000000,4.000000,100.000000
1602006622.565701,5.000000,0.000000,4151.282227,4153.333496,4156.922852,4140.000000,4124.615234,4134.871582,4134.358887,4136.922852,4120.000000,4125.641113,4122.563965,4146.666504,4091.281982,4127.179688,834.000000,4.000000,,,,0.000000,4.000000,4.000000,4.000000,4.000000,4.000000,4.000000,4.000000,4.000000,4.000000,4.000000,4.000000,4.000000,4.000000,4.000000,100.000000
1602006622.573482,6.000000,0.000000,4167.179688,4152.307617,4151.282227,4138.461426,4122.563965,4132.307617,4128.717773,4134.358887,4114.358887,4103.589844,4117.948730,4138.974121,4095.897461,4117.436035,760.000000,4.000000,,,,0.000000,4.000000,4.000000,4.000000,4.000000,4.000000,4.000000,4.000000,4.000000,4.000000,4.000000,4.000000,4.000000,4.000000,4.000000,100.000000
1602006622.581363,7.000000,0.000000,4172.307617,4157.436035,4141.538574,4141.025879,4127.692383,4136.922852,4130.769043,4136.922852,4101.538574,4095.897461,4116.410156,4135.384766,4093.846191,4109.743652,666.000000,4.000000,,,,0.000000,4.000000,4.000000,4.000000,4.000000,4.000000,4.000000,4.000000,4.000000,4.000000,4.000000,4.000000,4.000000,4.000000,4.000000,100.000000
1602006622.589245,8.000000,0.000000,4155.897461,4154.871582,4134.871582,4137.948730,4128.205078,4137.436035,4136.410156,4134.871582,4105.641113,4127.692383,4121.025879,4135.897461,4094.358887,4108.205078,780.000000,4.000000,,,,0.000000,4.000000,4.000000,4.000000,4.000000,4.000000,4.000000,4.000000,4.000000,4.000000,4.000000,4.000000,4.000000,4.000000,4.000000,100.000000
1602006622.597126,9.000000,0.000000,4147.692383,4150.256348,4133.333496,4134.358887,4125.128418,4133.846191,4132.307617,4127.179688,4112.820313,4142.563965,4116.922852,4138.461426,4101.538574,4117.436035,838.000000,4.000000,,,,0.000000,4.000000,4.000000,4.000000,4.000000,4.000000,4.000000,4.000000,4.000000,4.000000,4.000000,4.000000,4.000000,4.000000,4.000000,100.000000
1602006622.605007,10.000000,0.000000,4163.077148,4152.820313,4137.948730,4139.487305,4125.128418,4137.436035,4128.205078,4131.282227,4111.282227,4127.692383,4117.436035,4147.692383,4108.717773,4127.692383,870.000000,4.000000,,,,0.000000,4.000000,4.000000,4.000000,4.000000,4.000000,4.000000,4.000000,4.000000,4.000000,4.000000,4.000000,4.000000,4.000000,4.000000,100.000000
1602006622.612888,11.000000,0.000000,4170.256348,4155.897461,4140.512695,4142.563965,4125.641113,4140.512695,4129.743652,4138.461426,4109.230957,4130.256348,4130.769043,4152.307617,4109.743652,4130.256348,849.000000,4.000000,,,,0.000000,4.000000,4.000000,4.000000,4.000000,4.000000,4.000000,4.000000,4.000000,4.000000,4.000000,4.000000,4.000000,4.000000,4.000000,100.000000
1602006622.620769,12.000000,0.000000,4154.871582,4155.897461,4138.974121,4136.922852,4123.077148,4132.820313,4125.641113,4129.230957,4102.563965,4129.743652,4132.307617,4143.077148,4107.692383,4127.179688,761.000000,4.000000,,,,0.000000,4.000000,4.000000,4.000000,4.000000,4.000000,4.000000,4.000000,4.000000,4.000000,4.000000,4.000000,4.000000,4.000000,4.000000,100.000000
1602006622.628650,13.000000,0.000000,4140.000000,4149.230957,4137.436035,4132.307617,4120.512695,4118.461426,4122.563965,4120.000000,4102.051270,4106.666504,4115.897461,4137.948730,4103.077148,4115.897461,728.000000,4.000000,,,,0.000000,4.000000,4.000000,4.000000,4.000000,4.000000,4.000000,4.000000,4.000000,4.000000,4.000000,4.000000,4.000000,4.000000,4.000000,100.000000
1602006622.636532,14.000000,0.000000,4137.948730,4142.051270,4132.307617,4134.358887,4121.538574,4113.846191,4124.102539,4123.077148,4104.615234,4105.641113,4104.102539,4134.358887,4093.846191,4108.205078,870.000000,4.000000,,,,0.000000,4.000000,4.000000,4.000000,4.000000,4.000000,4.000000,4.000000,4.000000,4.000000,4.000000,4.000000,4.000000,4.000000,4.000000,100.000000
1602006622.644312,15.000000,0.000000,4142.051270,4145.641113,4120.000000,4135.897461,4122.563965,4114.358887,4115.897461,4124.615234,4101.538574,4124.615234,4101.538574,4117.436035,4087.179443,4103.589844,849.000000,4.000000,,,,0.000000,4.000000,4.000000,4.000000,4.000000,4.000000,4.000000,4.000000,4.000000,4.000000,4.000000,4.000000,4.000000,4.000000,4.000000,100.000000
1602006622.652193,16.000000,0.000000,4137.948730,4150.256348,4113.333496,4134.358887,4120.512695,4110.769043,4106.666504,4122.563965,4104.615234,4123.077148,4106.153809,4107.179688,4085.641113,4088.718018,0.000000,4.000000,,,,0.000000,4.000000,4.000000,4.000000,4.000000,4.000000,4.000000,4.000000,4.000000,4.000000,4.000000,4.000000,4.000000,4.000000,4.000000,100.000000
1602006622.660174,17.000000,0.000000,4133.846191,4150.769043,4119.487305,4136.410156,4122.051270,4111.794922,4112.820313,4130.769043,4121.025879,4121.538574,4112.820313,4116.922852,4090.769287,4088.205078,0.000000,4.000000,,,,0.000000,4.000000,4.000000,4.000000,4.000000,4.000000,4.000000,4.000000,4.000000,4.000000,4.000000,4.000000,4.000000,4.000000,4.000000,100.000000
1602006622.668055,18.000000,0.000000,4146.666504,4154.358887,4131.794922,4142.563965,4127.692383,4119.487305,4122.563965,4143.589844,4130.769043,4148.717773,4122.051270,4131.282227,4104.102539,4114.358887,0.000000,4.000000,,,,0.000000,4.000000,4.000000,4.000000,4.000000,4.000000,4.000000,4.000000,4.000000,4.000000,4.000000,4.000000,4.000000,4.000000,4.000000,100.000000
1602006622.675936,19.000000,0.000000,4151.282227,4156.410156,4140.512695,4142.563965,4126.153809,4120.000000,4122.563965,4146.153809,4125.128418,4162.051270,4135.897461,4137.948730,4112.820313,4126.666504,0.000000,4.000000,,,,0.000000,4.000000,4.000000,4.000000,4.000000,4.000000,4.000000,4.000000,4.000000,4.000000,4.000000,4.000000,4.000000,4.000000,4.000000,100.000000
1602006622.683817,20.000000,0.000000,4140.000000,4153.333496,4141.025879,4138.461426,4118.974121,4120.512695,4120.512695,4142.563965,4119.487305,4143.589844,4141.025879,4138.461426,4110.769043,4122.563965,0.000000,4.000000,,,,0.000000,4.000000,4.000000,4.000000,4.000000,4.000000,4.000000,4.000000,4.000000,4.000000,4.000000,4.000000,4.000000,4.000000,4.000000,100.000000
1602006622.691698,21.000000,0.000000,4144.102539,4152.307617,4139.487305,4139.487305,4118.974121,4127.179688,4129.743652,4143.077148,4120.512695,4132.820313,4129.743652,4138.974121,4111.794922,4128.205078,0.000000,4.000000,,,,0.000000,4.000000,4.000000,4.000000,4.000000,4.000000,4.000000,4.000000,4.000000,4.000000,4.000000,4.000000,4.000000,4.000000,4.000000,100.000000
1602006622.699579,22.000000,0.000000,4150.256348,4146.153809,4141.025879,4136.922852,4122.563965,4134.871582,4140.512695,4142.051270,4117.948730,4137.436035,4121.025879,4136.922852,4113.846191,4126.666504,0.000000,4.000000,,,,0.000000,4.000000,4.000000,4.000000,4.000000,4.000000,4.000000,4.000000,4.000000,4.000000,4.000000,4.000000,4.000000,4.000000,4.000000,100.000000
1602006622.707559,23.000000,0.000000,4140.000000,4136.410156,4137.436035,4130.256348,4121.538574,4164.615234,4140.512695,4136.922852,4107.692383,4129.230957,4118.974121,4128.205078,4105.641113,4110.256348,0.000000,4.000000,,,,0.000000,4.000000,4.000000,4.000000,4.000000,4.000000,4.000000,4.000000,4.000000,4.000000,4.000000,4.000000,4.000000,4.000000,4.000000,100.000000
1602006622.715440,24.000000,0.000000,4129.230957,4137.948730,4123.589844,4130.256348,4122.051270,4214.358887,4132.820313,4134.871582,4106.666504,4114.871582,4108.717773,4121.538574,4092.307617,4103.077148,0.000000,4.000000,,,,0.000000,4.000000,4.000000,4.000000,4.000000,4.000000,4.000000,4.000000,4.000000,4.000000,4.000000,4.000000,4.000000,4.000000,4.000000,100.000000
1602006622.723321,25.000000,0.000000,4124.102539,4137.436035,4114.871582,4127.179688,4128.717773,4231.282227,4126.666504,4137.436035,4121.025879,4128.205078,4103.077148,4125.641113,4091.281982,4110.769043,0.000000,4.000000,,,,0.000000,4.000000,4.000000,4.000000,4.000000,4.000000,4.000000,4.000000,4.000000,4.000000,4.000000,4.000000,4.000000,4.000000,4.000000,100.000000
1602006622.731202,26.000000,0.000000,4125.641113,4133.333496,4125.641113,4121.538574,4135.384766,4213.333496,4129.230957,4141.025879,4126.666504,4146.153809,4115.897461,4133.846191,4106.666504,4120.000000,0.000000,4.000000,,,,0.000000,4.000000,4.000000,4.000000,4.000000,4.000000,4.000000,4.000000,4.000000,4.000000,4.000000,4.000000,4.000000,4.000000,4.000000,100.000000
1602006622.739083,27.000000,0.000000,4136.410156,4135.897461,4137.948730,4129.743652,4136.922852,4198.974121,4136.922852,4146.153809,4122.051270,4140.512695,4125.641113,4138.974121,4121.538574,4123.077148,0.000000,4.000000,,,,0.000000,4.000000,4.000000,4.000000,4.000000,4.000000,4.000000,4.000000,4.000000,4.000000,4.000000,4.000000,4.000000,4.000000,4.000000,100.000000
1602006622.746964,28.000000,0.000000,4142.051270,4140.512695,4140.000000,4138.461426,4135.384766,4183.077148,4137.436035,4145.641113,4120.512695,4134.871582,4120.512695,4142.051270,4120.512695,4121.025879,0.000000,4.000000,,,,0.000000,4.000000,4.000000,4.000000,4.000000,4.000000,4.000000,4.000000,4.000000,4.000000,4.000000,4.000000,4.000000,4.000000,4.000000,100.000000
1602006622.754845,29.000000,0.000000,4145.641113,4146.153809,4146.153809,4136.922852,4135.897461,4164.102539,4133.846191,4139.487305,4124.615234,4138.461426,4119.487305,4148.205078,4118.461426,4125.641113,0.000000,4.000000,,,,0.000000,4.000000,4.000000,4.000000,4.000000,4.000000,4.000000,4.000000,4.000000,4.000000,4.000000,4.000000,4.000000,4.000000,4.000000,100.000000
1602006622.762726,30.000000,0.000000,4164.102539,4156.410156,4157.436035,4141.025879,4140.512695,4163.589844,4137.436035,4136.922852,4134.358887,4133.846191,4131.794922,4161.538574,4128.717773,4141.025879,0.000000,4.000000,,,,0.000000,4.000000,4.000000,4.000000,4.000000,4.000000,4.000000,4.000000,4.000000,4.000000,4.000000,4.000000,4.000000,4.000000,4.000000,100.000000
1602006622.770706,31.000000,0.000000,4174.871582,4163.077148,4162.051270,4146.153809,4143.589844,4169.230957,4134.358887,4132.307617,4134.871582,4132.820313,4141.538574,4171.794922,4139.487305,4154.871582,0.000000,4.000000,,,,0.000000,4.000000,4.000000,4.000000,4.000000,4.000000,4.000000,4.000000,4.000000,4.000000,4.000000,4.000000,4.000000,4.000000,4.000000,100.000000
1602006622.778587,32.000000,0.000000,4172.307617,4161.025879,4160.512695,4144.102539,4141.025879,4165.128418,4123.077148,4123.077148,4128.717773,4153.333496,4134.358887,4171.794922,4141.025879,4154.871582,0.000000,4.000000,,,,0.000000,4.000000,4.000000,4.000000,4.000000,4.000000,4.000000,4.000000,4.000000,4.000000,4.000000,4.000000,4.000000,4.000000,4.000000,100.000000
1602006622.786468,33.000000,0.000000,4166.153809,4156.410156,4156.410156,4140.512695,4138.974121,4156.922852,4118.974121,4117.948730,4130.769043,4161.538574,4127.179688,4170.769043,4137.948730,4146.153809,0.000000,4.000000,,,,0.000000,4.000000,4.000000,4.000000,4.000000,4.000000,4.000000,4.000000,4.000000,4.000000,4.000000,4.000000,4.000000,4.000000,4.000000,100.000000
1602006622.794349,34.000000,0.000000,4158.974121,4154.358887,4151.794922,4140.000000,4141.025879,4155.897461,4123.589844,4122.563965,4140.000000,4150.769043,4131.282227,4169.743652,4140.000000,4139.487305,0.000000,4.000000,,,,0.000000,4.000000,4.000000,4.000000,4.000000,4.000000,4.000000,4.000000,4.000000,4.000000,4.000000,4.000000,4.000000,4.000000,4.000000,100.000000
1602006622.802229,35.000000,0.000000,4150.769043,4151.794922,4149.743652,4140.000000,4136.922852,4155.897461,4123.589844,4126.153809,4146.153809,4153.333496,4131.282227,4162.563965,4141.538574,4132.820313,0.000000,4.000000,,,,0.000000,4.000000,4.000000,4.000000,4.000000,4.000000,4.000000,4.000000,4.000000,4.000000,4.000000,4.000000,4.000000,4.000000,4.000000,100.000000
1602006622.810010,36.000000,0.000000,4137.948730,4144.615234,4140.000000,4135.384766,4125.128418,4153.333496,4122.051270,4123.589844,4144.102539,4151.794922,4124.102539,4152.307617,4128.717773,4116.410156,0.000000,4.000000,,,,0.000000,4.000000,4.000000,4.000000,4.000000,4.000000,4.000000,4.000000,4.000000,4.000000,4.000000,4.000000,4.000000,4.000000,4.000000,100.000000
1602006622.817892,37.000000,0.000000,4133.846191,4138.974121,4123.589844,4131.282227,4122.563965,4152.820313,4126.153809,4128.205078,4137.436035,4127.179688,4121.025879,4150.256348,4113.333496,4102.051270,0.000000,4.000000,,,,0.000000,4.000000,4.000000,4.000000,4.000000,4.000000,4.000000,4.000000,4.000000,4.000000,4.000000,4.000000,4.000000,4.000000,4.000000,100.000000
1602006622.825773,38.000000,0.000000,4144.102539,4138.974121,4119.487305,4133.333496,4125.128418,4146.666504,4126.666504,4135.384766,4136.922852,4121.538574,4122.051270,4150.769043,4114.358887,4105.641113,0.000000,4.000000,,,,0.000000,4.000000,4.000000,4.000000,4.000000,4.000000,4.000000,4.000000,4.000000,4.000000,4.000000,4.000000,4.000000,4.000000,4.000000,100.000000
1602006622.833654,39.000000,0.000000,4153.846191,4140.512695,4129.230957,4137.436035,4123.589844,4134.358887,4121.538574,4128.717773,4140.512695,4147.692383,4128.717773,4154.871582,4130.769043,4118.974121,0.000000,4.000000,,,,0.000000,4.000000,4.000000,4.000000,4.000000,4.000000,4.000000,4.000000,4.000000,4.000000,4.000000,4.000000,4.000000,4.000000,4.000000,100.000000
1602006622.841535,40.000000,0.000000,4154.871582,4146.153809,4138.974121,4136.410156,4130.256348,4138.461426,4118.974121,4121.025879,4135.384766,4161.025879,4136.410156,4163.077148,4143.077148,4133.846191,0.000000,4.000000,,,,0.000000,4.000000,4.000000,4.000000,4.000000,4.000000,4.000000,4.000000,4.000000,4.000000,4.000000,4.000000,4.000000,4.000000,4.000000,100.000000
1602006622.849416,41.000000,0.000000,4154.871582,4155.384766,4139.487305,4137.436035,4139.487305,4151.282227,4120.000000,4122.563965,4129.230957,4151.282227,4137.436035,4165.128418,4142.051270,4142.051270,0.000000,4.000000,,,,0.000000,4.000000,4.000000,4.000000,4.000000,4.000000,4.000000,4.000000,4.000000,4.000000,4.000000,4.000000,4.000000,4.000000,4.000000,100.000000
1602006622.857297,42.000000,0.000000,4158.461426,4159.487305,4139.487305,4149.743652,4138.974121,4146.666504,4120.000000,4120.000000,4128.717773,4143.589844,4138.461426,4164.615234,4138.461426,4142.051270,0.000000,4.000000,,,,0.000000,4.000000,4.000000,4.000000,4.000000,4.000000,4.000000,4.000000,4.000000,4.000000,4.000000,4.000000,4.000000,4.000000,4.000000,100.000000
1602006622.865179,43.000000,0.000000,4163.589844,4158.461426,4144.615234,4154.871582,4134.871582,4135.897461,4121.025879,4117.436035,4124.102539,4143.589844,4137.436035,4169.743652,4140.512695,4141.538574,0.000000,4.000000,,,,0.000000,4.000000,4.000000,4.000000,4.000000,4.000000,4.000000,4.000000,4.000000,4.000000,4.000000,4.000000,4.000000,4.000000,4.000000,100.000000
1602006622.873159,44.000000,0.000000,4156.410156,4155.897461,4140.000000,4145.641113,4128.717773,4136.410156,4122.051270,4122.563965,4119.487305,4137.948730,4128.205078,4168.717773,4138.974121,4135.384766,0.000000,4.000000,,,,0.000000,4.000000,4.000000,4.000000,4.000000,4.000000,4.000000,4.000000,4.000000,4.000000,4.000000,4.000000,4.000000,4.000000,4.000000,100.000000
1602006622.881040,45.000000,0.000000,4138.974121,4150.769043,4125.128418,4136.410156,4122.051270,4138.461426,4121.025879,4119.487305,4118.461426,4123.077148,4124.102539,4157.436035,4127.179688,4126.153809,0.000000,4.000000,,,,0.000000,4.000000,4.000000,4.000000,4.000000,4.000000,4.000000,4.000000,4.000000,4.000000,4.000000,4.000000,4.000000,4.000000,4.000000,100.000000
1602006622.888921,46.000000,0.000000,4134.871582,4143.077148,4120.512695,4132.307617,4121.538574,4136.922852,4121.538574,4114.871582,4126.666504,4117.948730,4123.589844,4150.769043,4119.487305,4122.051270,0.000000,4.000000,,,,0.000000,4.000000,4.000000,4.000000,4.000000,4.000000,4.000000,4.000000,4.000000,4.000000,4.000000,4.000000,4.000000,4.000000,4.000000,100.000000
1602006622.896802,47.000000,0.000000,4141.538574,4140.512695,4124.615234,4129.743652,4124.102539,4141.538574,4123.589844,4119.487305,4137.948730,4132.820313,4118.461426,4154.358887,4119.487305,4114.358887,0.000000,4.000000,,,,0.000000,4.000000,4.000000,4.000000,4.000000,4.000000,4.000000,4.000000,4.000000,4.000000,4.000000,4.000000,4.000000,4.000000,4.000000,100.000000
1602006622.904683,48.000000,0.000000,4141.025879,4144.102539,4123.589844,4134.358887,4125.128418,4151.282227,4126.153809,4124.615234,4144.615234,4143.589844,4118.974121,4156.410156,4122.051270,4103.589844,0.000000,4.000000,,,,0.000000,4.000000,4.000000,4.000000,4.000000,4.000000,4.000000,4.000000,4.000000,4.000000,4.000000,4.000000,4.000000,4.000000,4.000000,100.000000
1602006622.912564,49.000000,0.000000,4137.948730,4145.641113,4120.512695,4140.000000,4128.205078,4158.461426,4126.666504,4126.153809,4145.128418,4140.000000,4119.487305,4149.743652,4124.615234,4106.153809,0.000000,4.000000,,,,0.000000,4.000000,4.000000,4.000000,4.000000,4.000000,4.000000,4.000000,4.000000,4.000000,4.000000,4.000000,4.000000,4.000000,4.000000,100.000000
1602006622.920545,50.000000,0.000000,4141.538574,4141.025879,4120.512695,4132.820313,4128.717773,4151.282227,4123.077148,4123.077148,4135.384766,4138.974121,4111.794922,4143.589844,4117.948730,4110.256348,0.000000,4.000000,,,,0.000000,4.000000,4.000000,4.000000,4.000000,4.000000,4.000000,4.000000,4.000000,4.000000,4.000000,4.000000,4.000000,4.000000,4.000000,100.000000
1602006622.928425,51.000000,0.000000,4141.538574,4133.846191,4121.538574,4125.128418,4123.589844,4133.333496,4119.487305,4120.512695,4120.000000,4137.948730,4103.077148,4143.077148,4105.128418,4099.487305,0.000000,4.000000,,,,0.000000,4.000000,4.000000,4.000000,4.000000,4.000000,4.000000,4.000000,4.000000,4.000000,4.000000,4.000000,4.000000,4.000000,4.000000,100.000000
1602006622.936406,52.000000,0.000000,4135.897461,4128.717773,4126.666504,4123.589844,4120.000000,4125.128418,4120.000000,4122.051270,4108.717773,4114.358887,4103.077148,4143.077148,4103.077148,4100.512695,0.000000,4.000000,,,,0.000000,4.000000,4.000000,4.000000,4.000000,4.000000,4.000000,4.000000,4.000000,4.000000,4.000000,4.000000,4.000000,4.000000,4.000000,100.000000
1602006622.944287,53.000000,0.000000,4142.563965,4130.769043,4135.384766,4122.563965,4120.512695,4126.153809,4116.410156,4118.461426,4098.461426,4088.718018,4113.333496,4144.615234,4107.179688,4115.897461,0.000000,4.000000,,,,0.000000,4.000000,4.000000,4.000000,4.000000,4.000000,4.000000,4.000000,4.000000,4.000000,4.000000,4.000000,4.000000,4.000000,4.000000,100.000000
1602006622.952168,54.000000,0.000000,4154.358887,4135.897461,4140.000000,4123.589844,4122.051270,4127.692383,4108.717773,4100.512695,4078.461426,4094.871826,4123.589844,4147.692383,4102.051270,4116.922852,0.000000,4.000000,,,,0.000000,4.000000,4.000000,4.000000,4.000000,4.000000,4.000000,4.000000,4.000000,4.000000,4.000000,4.000000,4.000000,4.000000,4.000000,100.000000
1602006622.960049,55.000000,0.000000,4153.846191,4137.948730,4141.538574,4128.717773,4121.025879,4132.307617,4106.153809,4087.179443,4066.153809,4104.102539,4120.512695,4148.717773,4105.641113,4109.230957,0.000000,4.000000,,,,0.000000,4.000000,4.000000,4.000000,4.000000,4.000000,4.000000,4.000000,4.000000,4.000000,4.000000,4.000000,4.000000,4.000000,4.000000,100.000000
1602006622.967930,56.000000,0.000000,4149.230957,4140.512695,4141.025879,4134.358887,4125.641113,4141.025879,4107.692383,4086.666748,4078.461426,4103.077148,4115.384766,4150.256348,4121.538574,4110.769043,0.000000,4.000000,,,,0.000000,4.000000,4.000000,4.000000,4.000000,4.000000,4.000000,4.000000,4.000000,4.000000,4.000000,4.000000,4.000000,4.000000,4.000000,100.000000
1602006622.975811,57.000000,0.000000,4154.871582,4147.179688,4138.461426,4136.410156,4134.871582,4142.051270,4109.230957,4096.922852,4108.205078,4127.179688,4126.153809,4158.974121,4131.794922,4118.974121,0.000000,4.000000,,,,0.000000,4.000000,4.000000,4.000000,4.000000,4.000000,4.000000,4.000000,4.000000,4.000000,4.000000,4.000000,4.000000,4.000000,4.000000,100.000000
1602006622.983692,58.000000,0.000000,4169.230957,4161.025879,4143.077148,4145.641113,4138.461426,4138.974121,4116.410156,4118.461426,4143.589844,4168.717773,4135.897461,4168.717773,4146.666504,4133.846191,0.000000,4.000000,,,,0.000000,4.000000,4.000000,4.000000,4.000000,4.000000,4.000000,4.000000,4.000000,4.000000,4.000000,4.000000,4.000000,4.000000,4.000000,100.000000
1602006622.991473,59.000000,0.000000,4183.077148,4170.769043,4156.410156,4153.846191,4139.487305,4138.974121,4130.769043,4140.512695,4171.794922,4177.948730,4135.384766,4173.333496,4165.641113,4151.282227,0.000000,4.000000,,,,0.000000,4.000000,4.000000,4.000000,4.000000,4.000000,4.000000,4.000000,4.000000,4.000000,4.000000,4.000000,4.000000,4.000000,4.000000,100.000000
1602006622.999354,60.000000,0.000000,4181.025879,4163.589844,4153.846191,4147.179688,4138.974121,4135.384766,4135.384766,4147.179688,4175.384766,4158.461426,4141.538574,4174.358887,4165.128418,4151.282227,0.000000,4.000000,,,,0.000000,4.000000,4.000000,4.000000,4.000000,4.000000,4.000000,4.000000,4.000000,4.000000,4.000000,4.000000,4.000000,4.000000,4.000000,100.000000
1602006623.007235,61.000000,0.000000,4161.538574,4154.358887,4137.948730,4137.436035,4134.871582,4132.307617,4125.128418,4140.512695,4152.820313,4149.230957,4146.666504,4166.153809,4150.256348,4137.948730,0.000000,4.000000,,,,0.000000,4.000000,4.000000,4.000000,4.000000,4.000000,4.000000,4.000000,4.000000,4.000000,4.000000,4.000000,4.000000,4.000000,4.000000,100.000000
1602006623.015116,62.000000,0.000000,4150.256348,4151.282227,4134.871582,4139.487305,4133.333496,4137.436035,4123.077148,4132.820313,4130.256348,4156.410156,4134.871582,4154.871582,4143.077148,4137.948730,0.000000,4.000000,,,,0.000000,4.000000,4.000000,4.000000,4.000000,4.000000,4.000000,4.000000,4.000000,4.000000,4.000000,4.000000,4.000000,4.000000,4.000000,100.000000
1602006623.022996,63.000000,0.000000,4151.282227,4140.512695,4133.846191,4134.358887,4133.846191,4140.512695,4128.717773,4124.615234,4112.820313,4154.358887,4120.000000,4150.256348,4138.974121,4138.461426,0.000000,4.000000,,,,0.000000,4.000000,4.000000,4.000000,4.000000,4.000000,4.000000,4.000000,4.000000,4.000000,4.000000,4.000000,4.000000,4.000000,4.000000,100.000000
1602006623.030877,64.000000,0.000000,4150.769043,4134.871582,4126.153809,4127.692383,4128.205078,4133.846191,4127.179688,4115.384766,4087.692383,4132.820313,4121.538574,4151.794922,4130.256348,4127.179688,791.000000,4.000000,,,,0.000000,4.000000,4.000000,4.000000,4.000000,4.000000,4.000000,4.000000,4.000000,4.000000,4.000000,4.000000,4.000000,4.000000,4.000000,100.000000
1602006623.038858,65.000000,0.000000,4149.230957,4138.974121,4130.769043,4135.384766,4123.589844,4128.205078,4121.538574,4109.743652,4074.358887,4126.153809,4128.717773,4153.333496,4128.717773,4121.025879,786.000000,4.000000,,,,0.000000,4.000000,4.000000,4.000000,4.000000,4.000000,4.000000,4.000000,4.000000,4.000000,4.000000,4.000000,4.000000,4.000000,4.000000,100.000000
1602006623.046739,66.000000,0.000000,4150.256348,4134.358887,4138.974121,4133.846191,4121.538574,4124.102539,4119.487305,4105.641113,4087.692383,4126.666504,4117.948730,4151.282227,4134.871582,4120.512695,854.000000,4.000000,,,,0.000000,4.000000,4.000000,4.000000,4.000000,4.000000,4.000000,4.000000,4.000000,4.000000,4.000000,4.000000,4.000000,4.000000,4.000000,100.000000
1602006623.054620,67.000000,0.000000,4155.384766,4136.922852,4138.461426,4127.179688,4120.000000,4120.512695,4116.922852,4102.563965,4103.077148,4105.641113,4105.641113,4151.794922,4137.436035,4126.666504,865.000000,4.000000,,,,0.000000,4.000000,4.000000,4.000000,4.000000,4.000000,4.000000,4.000000,4.000000,4.000000,4.000000,4.000000,4.000000,4.000000,4.000000,100.000000
1602006623.062501,68.000000,0.000000,4164.102539,4154.871582,4142.563965,4135.897461,4131.794922,4124.615234,4120.000000,4108.205078,4117.436035,4107.692383,4120.000000,4154.871582,4138.461426,4134.358887,811.000000,4.000000,,,,0.000000,4.000000,4.000000,4.000000,4.000000,4.000000,4.000000,4.000000,4.000000,4.000000,4.000000,4.000000,4.000000,4.000000,4.000000,100.000000
1602006623.070382,69.000000,0.000000,4160.512695,4151.282227,4142.051270,4143.077148,4137.436035,4126.153809,4121.538574,4118.461426,4135.384766,4146.666504,4131.282227,4154.358887,4137.436035,4127.692383,828.000000,4.000000,,,,0.000000,4.000000,4.000000,4.000000,4.000000,4.000000,4.000000,4.000000,4.000000,4.000000,4.000000,4.000000,4.000000,4.000000,4.000000,100.000000
1602006623.078363,70.000000,0.000000,4154.358887,4142.563965,4137.436035,4137.948730,4124.102539,4117.948730,4115.897461,4123.589844,4148.717773,4169.230957,4124.615234,4152.307617,4136.922852,4126.666504,760.000000,4.000000,,,,0.000000,4.000000,4.000000,4.000000,4.000000,4.000000,4.000000,4.000000,4.000000,4.000000,4.000000,4.000000,4.000000,4.000000,4.000000,100.000000
1602006623.086244,71.000000,0.000000,4165.641113,4153.846191,4147.179688,4138.461426,4124.102539,4123.077148,4118.461426,4134.358887,4167.179688,4175.897461,4131.794922,4157.436035,4140.512695,4141.538574,666.000000,4.000000,,,,0.000000,4.000000,4.000000,4.000000,4.000000,4.000000,4.000000,4.000000,4.000000,4.000000,4.000000,4.000000,4.000000,4.000000,4.000000,100.000000
1602006623.094125,72.000000,0.000000,4170.256348,4155.384766,4151.282227,4144.102539,4137.436035,4138.461426,4126.666504,4149.743652,4175.384766,4171.282227,4140.000000,4158.461426,4130.256348,4136.922852,780.000000,4.000000,,,,0.000000,4.000000,4.000000,4.000000,4.000000,4.000000,4.000000,4.000000,4.000000,4.000000,4.000000,4.000000,4.000000,4.000000,4.000000,100.000000
1602006623.102006,73.000000,0.000000,4155.897461,4141.025879,4140.512695,4141.025879,4134.871582,4133.846191,4124.615234,4149.230957,4151.282227,4137.436035,4129.743652,4146.153809,4121.025879,4120.512695,838.000000,4.000000,,,,0.000000,4.000000,4.000000,4.000000,4.000000,4.000000,4.000000,4.000000,4.000000,4.000000,4.000000,4.000000,4.000000,4.000000,4.000000,100.000000
1602006623.109886,74.000000,0.000000,4143.077148,4133.333496,4134.358887,4130.256348,4124.102539,4126.666504,4121.538574,4140.000000,4125.641113,4112.820313,4124.615234,4140.000000,4134.358887,4126.153809,870.000000,4.000000,,,,0.000000,4.000000,4.000000,4.000000,4.000000,4.000000,4.000000,4.000000,4.000000,4.000000,4.000000,4.000000,4.000000,4.000000,4.000000,100.000000
1602006623.117767,75.000000,0.000000,4130.769043,4119.487305,4128.205078,4118.461426,4122.563965,4134.871582,4128.205078,4131.282227,4116.922852,4117.948730,4126.666504,4139.487305,4141.025879,4126.666504,844.000000,4.000000,,,,0.000000,4.000000,4.000000,4.000000,4.000000,4.000000,4.000000,4.000000,4.000000,4.000000,4.000000,4.000000,4.000000,4.000000,4.000000,100.000000
1602006623.125648,76.000000,0.000000,4113.846191,4102.563965,4120.000000,4117.436035,4122.563965,4138.461426,4136.410156,4122.563965,4107.179688,4122.051270,4125.641113,4135.384766,4140.000000,4124.615234,761.000000,4.000000,,,,0.000000,4.000000,4.000000,4.000000,4.000000,4.000000,4.000000,4.000000,4.000000,4.000000,4.000000,4.000000,4.000000,4.000000,4.000000,100.000000
1602006623.133529,77.000000,0.000000,4109.743652,4105.128418,4128.205078,4124.102539,4122.051270,4137.948730,4139.487305,4121.538574,4105.128418,4131.282227,4133.846191,4141.538574,4161.538574,4143.589844,728.000000,4.000000,,,,0.000000,4.000000,4.000000,4.000000,4.000000,4.000000,4.000000,4.000000,4.000000,4.000000,4.000000,4.000000,4.000000,4.000000,4.000000,100.000000
1602006623.141311,78.000000,0.000000,4110.769043,4109.230957,4140.000000,4124.615234,4122.563965,4136.410156,4142.563965,4124.615234,4106.666504,4143.077148,4144.615234,4152.820313,4175.897461,4146.666504,870.000000,4.000000,,,,0.000000,4.000000,4.000000,4.000000,4.000000,4.000000,4.000000,4.000000,4.000000,4.000000,4.000000,4.000000,4.000000,4.000000,4.000000,100.000000
1602006623.149192,79.000000,0.000000,4105.128418,4105.128418,4137.436035,4123.589844,4123.589844,4124.615234,4139.487305,4116.922852,4093.846191,4136.410156,4141.025879,4156.922852,4167.179688,4136.410156,844.000000,4.000000,,,,0.000000,4.000000,4.000000,4.000000,4.000000,4.000000,4.000000,4.000000,4.000000,4.000000,4.000000,4.000000,4.000000,4.000000,4.000000,100.000000
1602006623.157073,80.000000,0.000000,4105.641113,4109.230957,4141.538574,4130.769043,4124.615234,4118.461426,4126.666504,4109.743652,4093.333252,4135.384766,4137.436035,4162.051270,4169.230957,4149.230957,761.000000,4.000000,,,,0.000000,4.000000,4.000000,4.000000,4.000000,4.000000,4.000000,4.000000,4.000000,4.000000,4.000000,4.000000,4.000000,4.000000,4.000000,100.000000
1602006623.164954,81.000000,0.000000,4113.333496,4113.333496,4151.794922,4137.436035,4123.077148,4120.000000,4119.487305,4114.871582,4106.666504,4140.000000,4148.717773,4168.717773,4175.384766,4159.487305,728.000000,4.000000,,,,0.000000,4.000000,4.000000,4.000000,4.000000,4.000000,4.000000,4.000000,4.000000,4.000000,4.000000,4.000000,4.000000,4.000000,4.000000,100.000000
1602006623.172835,82.000000,0.000000,4121.538574,4114.871582,4154.358887,4136.410156,4122.051270,4112.307617,4119.487305,4120.512695,4107.692383,4138.974121,4157.948730,4169.743652,4173.846191,4151.794922,870.000000,4.000000,,,,0.000000,4.000000,4.000000,4.000000,4.000000,4.000000,4.000000,4.000000,4.000000,4.000000,4.000000,4.000000,4.000000,4.000000,4.000000,100.000000
1602006623.180716,83.000000,0.000000,4123.077148,4117.948730,4155.384766,4134.871582,4125.128418,4107.692383,4111.794922,4126.153809,4109.743652,4151.282227,4160.000000,4165.128418,4174.358887,4154.358887,844.000000,4.000000,,,,0.000000,4.000000,4.000000,4.000000,4.000000,4.000000,4.000000,4.000000,4.000000,4.000000,4.000000,4.000000,4.000000,4.000000,4.000000,100.000000
1602006623.188597,84.000000,0.000000,4116.922852,4118.974121,4153.846191,4133.846191,4127.179688,4120.512695,4110.256348,4134.358887,4122.051270,4155.384766,4162.563965,4159.487305,4176.922852,4163.077148,761.000000,4.000000,,,,0.000000,4.000000,4.000000,4.000000,4.000000,4.000000,4.000000,4.000000,4.000000,4.000000,4.000000,4.000000,4.000000,4.000000,4.000000,100.000000
1602006623.196479,85.000000,0.000000,4108.717773,4111.794922,4143.077148,4125.641113,4125.128418,4131.282227,4125.641113,4141.025879,4131.794922,4140.512695,4157.948730,4154.358887,4176.922852,4151.794922,728.000000,4.000000,,,,0.000000,4.000000,4.000000,4.000000,4.000000,4.000000,4.000000,4.000000,4.000000,4.000000,4.000000,4.000000,4.000000,4.000000,4.000000,100.000000
1602006623.204459,86.000000,0.000000,4101.025879,4099.487305,4134.871582,4113.846191,4122.563965,4136.410156,4142.051270,4148.205078,4141.025879,4145.128418,4150.769043,4149.230957,4173.846191,4140.512695,870.000000,4.000000,,,,0.000000,4.000000,4.000000,4.000000,4.000000,4.000000,4.000000,4.000000,4.000000,4.000000,4.000000,4.000000,4.000000,4.000000,4.000000,100.000000
1602006623.212340,87.000000,0.000000,4094.358887,4094.871826,4135.384766,4109.743652,4122.563965,4147.692383,4151.794922,4154.358887,4155.384766,4158.974121,4156.410156,4144.102539,4168.717773,4149.230957,844.000000,4.000000,,,,0.000000,4.000000,4.000000,4.000000,4.000000,4.000000,4.000000,4.000000,4.000000,4.000000,4.000000,4.000000,4.000000,4.000000,4.000000,100.000000
1602006623.220221,88.000000,0.000000,4092.307617,4094.358887,4126.666504,4110.769043,4124.102539,4152.820313,4152.307617,4148.205078,4153.846191,4146.666504,4150.256348,4140.000000,4156.410156,4153.846191,761.000000,4.000000,,,,0.000000,4.000000,4.000000,4.000000,4.000000,4.000000,4.000000,4.000000,4.000000,4.000000,4.000000,4.000000,4.000000,4.000000,4.000000,100.000000
1602006623.228001,89.000000,0.000000,4088.205078,4088.718018,4110.256348,4106.666504,4121.025879,4140.512695,4140.512695,4132.820313,4128.717773,4122.563965,4125.128418,4131.282227,4140.512695,4132.307617,728.000000,4.000000,,,,0.000000,4.000000,4.000000,4.000000,4.000000,4.000000,4.000000,4.000000,4.000000,4.000000,4.000000,4.000000,4.000000,4.000000,4.000000,100.000000
1602006623.235882,90.000000,0.000000,4083.076904,4087.692383,4105.641113,4106.153809,4117.948730,4124.102539,4125.641113,4124.102539,4108.205078,4106.666504,4127.692383,4124.102539,4138.974121,4120.512695,870.000000,4.000000,,,,0.000000,4.000000,4.000000,4.000000,4.000000,4.000000,4.000000,4.000000,4.000000,4.000000,4.000000,4.000000,4.000000,4.000000,4.000000,100.000000
1602006623.243763,91.000000,0.000000,4091.281982,4103.077148,4115.897461,4117.948730,4120.512695,4119.487305,4118.461426,4127.179688,4111.282227,4109.230957,4151.282227,4130.769043,4155.897461,4133.846191,844.000000,4.000000,,,,0.000000,4.000000,4.000000,4.000000,4.000000,4.000000,4.000000,4.000000,4.000000,4.000000,4.000000,4.000000,4.000000,4.000000,4.000000,100.000000
1602006623.251744,92.000000,0.000000,4107.179688,4120.512695,4131.282227,4128.717773,4125.128418,4122.051270,4114.358887,4134.871582,4130.769043,4143.077148,4158.461426,4143.077148,4171.282227,4139.487305,761.000000,4.000000,,,,0.000000,4.000000,4.000000,4.000000,4.000000,4.000000,4.000000,4.000000,4.000000,4.000000,4.000000,4.000000,4.000000,4.000000,4.000000,100.000000
1602006623.259625,93.000000,0.000000,4114.871582,4120.512695,4136.922852,4130.769043,4124.102539,4121.025879,4108.717773,4138.974121,4142.563965,4169.743652,4158.461426,4143.077148,4170.256348,4140.000000,728.000000,4.000000,,,,0.000000,4.000000,4.000000,4.000000,4.000000,4.000000,4.000000,4.000000,4.000000,4.000000,4.000000,4.000000,4.000000,4.000000,4.000000,100.000000
1602006623.267505,94.000000,0.000000,4108.205078,4110.256348,4126.153809,4128.205078,4120.512695,4116.922852,4105.641113,4135.897461,4134.871582,4163.589844,4156.922852,4131.282227,4160.512695,4135.384766,870.000000,4.000000,,,,0.000000,4.000000,4.000000,4.000000,4.000000,4.000000,4.000000,4.000000,4.000000,4.000000,4.000000,4.000000,4.000000,4.000000,4.000000,100.000000
1602006623.275386,95.000000,0.000000,4093.333252,4106.153809,4113.846191,4117.436035,4122.563965,4117.436035,4112.307617,4129.743652,4119.487305,4144.615234,4145.641113,4121.538574,4148.205078,4118.461426,844.000000,4.000000,,,,0.000000,4.000000,4.000000,4.000000,4.000000,4.000000,4.000000,4.000000,4.000000,4.000000,4.000000,4.000000,4.000000,4.000000,4.000000,100.000000
1602006623.283267,96.000000,0.000000,4089.743652,4106.666504,4116.410156,4112.307617,4125.128418,4131.282227,4128.205078,4129.230957,4117.948730,4116.922852,4133.333496,4124.102539,4140.000000,4115.384766,761.000000,4.000000,,,,0.000000,4.000000,4.000000,4.000000,4.000000,4.000000,4.000000,4.000000,4.000000,4.000000,4.000000,4.000000,4.000000,4.000000,4.000000,100.000000
1602006623.291148,97.000000,0.000000,4095.384521,4103.589844,4117.436035,4117.436035,4123.589844,4148.205078,4137.948730,4135.897461,4125.641113,4108.205078,4129.230957,4128.205078,4137.436035,4128.205078,728.000000,4.000000,,,,0.000000,4.000000,4.000000,4.000000,4.000000,4.000000,4.000000,4.000000,4.000000,4.000000,4.000000,4.000000,4.000000,4.000000,4.000000,100.000000
1602006623.298929,98.000000,0.000000,4091.794922,4097.436035,4107.692383,4115.897461,4126.666504,4153.846191,4140.512695,4138.974121,4116.410156,4131.282227,4131.282227,4121.025879,4135.897461,4124.615234,870.000000,4.000000,,,,0.000000,4.000000,4.000000,4.000000,4.000000,4.000000,4.000000,4.000000,4.000000,4.000000,4.000000,4.000000,4.000000,4.000000,4.000000,100.000000
1602006623.306810,99.000000,0.000000,4083.589844,4095.897461,4102.563965,4109.230957,4130.769043,4154.358887,4141.025879,4133.846191,4101.538574,4136.922852,4136.410156,4112.307617,4135.384766,4112.307617,844.000000,4.000000,,,,0.000000,4.000000,4.000000,4.000000,4.000000,4.000000,4.000000,4.000000,4.000000,4.000000,4.000000,4.000000,4.000000,4.000000,4.000000,100.000000
1602006623.314791,100.000000,0.000000,4083.076904,4099.487305,4101.538574,4111.794922,4128.717773,4149.743652,4138.461426,4125.641113,4101.025879,4119.487305,4137.436035,4110.256348,4133.333496,4107.692383,761.000000,4.000000,,,,0.000000,4.000000,4.000000,4.000000,4.000000,4.000000,4.000000,4.000000,4.000000,4.000000,4.000000,4.000000,4.000000,4.000000,4.000000,100.000000
1602006623.322671,101.000000,0.000000,4084.102539,4105.128418,4106.153809,4119.487305,4126.153809,4140.512695,4135.897461,4119.487305,4104.615234,4119.487305,4132.820313,4110.769043,4131.794922,4106.153809,728.000000,4.000000,,,,0.000000,4.000000,4.000000,4.000000,4.000000,4.000000,4.000000,4.000000,4.000000,4.000000,4.000000,4.000000,4.000000,4.000000,4.000000,100.000000
1602006623.330552,102.000000,0.000000,4085.641113,4110.256348,4118.461426,4124.615234,4126.153809,4138.974121,4132.820313,4122.563965,4104.615234,4124.102539,4140.000000,4117.436035,4141.538574,4113.333496,870.000000,4.000000,,,,0.000000,4.000000,4.000000,4.000000,4.000000,4.000000,4.000000,4.000000,4.000000,4.000000,4.000000,4.000000,4.000000,4.000000,4.000000,100.000000
1602006623.338433,103.000000,0.000000,4092.820557,4107.692383,4125.128418,4124.102539,4122.563965,4135.384766,4124.102539,4127.692383,4106.153809,4121.025879,4152.820313,4126.153809,4154.871582,4120.512695,844.000000,4.000000,,,,0.000000,4.000000,4.000000,4.000000,4.000000,4.000000,4.000000,4.000000,4.000000,4.000000,4.000000,4.000000,4.000000,4.000000,4.000000,100.000000
1602006623.346314,104.000000,0.000000,4104.615234,4108.205078,4126.153809,4122.563965,4120.512695,4122.051270,4117.436035,4129.230957,4116.410156,4143.589844,4153.846191,4135.384766,4158.974121,4128.205078,761.000000,4.000000,,,,0.000000,4.000000,4.000000,4.000000,4.000000,4.000000,4.000000,4.000000,4.000000,4.000000,4.000000,4.000000,4.000000,4.000000,4.000000,100.000000
1602006623.354195,105.000000,0.000000,4112.820313,4118.461426,4135.384766,4129.230957,4120.512695,4124.102539,4118.461426,4134.871582,4130.256348,4160.512695,4154.358887,4151.282227,4157.948730,4146.153809,728.000000,4.000000,,,,0.000000,4.000000,4.000000,4.000000,4.000000,4.000000,4.000000,4.000000,4.000000,4.000000,4.000000,4.000000,4.000000,4.000000,4.000000,100.000000
1602006623.361976,106.000000,0.000000,4108.717773,4121.538574,4142.563965,4132.307617,4123.589844,4136.922852,4121.025879,4142.051270,4138.974121,4141.538574,4163.077148,4156.410156,4158.461426,4150.769043,870.000000,4.000000,,,,0.000000,4.000000,4.000000,4.000000,4.000000,4.000000,4.000000,4.000000,4.000000,4.000000,4.000000,4.000000,4.000000,4.000000,4.000000,100.000000
1602006623.369857,107.000000,0.000000,4105.128418,4118.974121,4140.000000,4127.692383,4133.846191,4137.948730,4127.692383,4148.717773,4148.205078,4142.051270,4171.794922,4144.615234,4163.589844,4146.153809,844.000000,4.000000,,,,0.000000,4.000000,4.000000,4.000000,4.000000,4.000000,4.000000,4.000000,4.000000,4.000000,4.000000,4.000000,4.000000,4.000000,4.000000,100.000000
1602006623.377738,108.000000,0.000000,4112.307617,4118.974121,4140.000000,4125.641113,4135.897461,4138.461426,4138.974121,4151.794922,4154.871582,4163.077148,4173.846191,4138.974121,4165.641113,4152.307617,761.000000,4.000000,,,,0.000000,4.000000,4.000000,4.000000,4.000000,4.000000,4.000000,4.000000,4.000000,4.000000,4.000000,4.000000,4.000000,4.000000,4.000000,100.000000
1602006623.385619,109.000000,0.000000,4114.358887,4113.846191,4139.487305,4125.641113,4127.692383,4146.153809,4142.051270,4145.641113,4142.563965,4150.769043,4168.205078,4143.077148,4160.512695,4159.487305,728.000000,4.000000,,,,0.000000,4.000000,4.000000,4.000000,4.000000,4.000000,4.000000,4.000000,4.000000,4.000000,4.000000,4.000000,4.000000,4.000000,4.000000,100.000000
1602006623.393500,110.000000,0.000000,4109.743652,4104.615234,4132.307617,4115.897461,4120.512695,4142.563965,4138.461426,4135.384766,4125.641113,4127.179688,4155.897461,4138.974121,4152.307617,4150.769043,870.000000,4.000000,,,,0.000000,4.000000,4.000000,4.000000,4.000000,4.000000,4.000000,4.000000,4.000000,4.000000,4.000000,4.000000,4.000000,4.000000,4.000000,100.000000
1602006623.401381,111.000000,0.000000,4111.282227,4102.563965,4131.794922,4108.205078,4112.307617,4128.205078,4137.436035,4133.333496,4126.153809,4140.000000,4152.820313,4136.922852,4149.743652,4143.077148,844.000000,4.000000,,,,0.000000,4.000000,4.000000,4.000000,4.000000,4.000000,4.000000,4.000000,4.000000,4.000000,4.000000,4.000000,4.000000,4.000000,4.000000,100.000000
1602006623.409262,112.000000,0.000000,4111.282227,4106.153809,4135.897461,4115.384766,4111.794922,4128.717773,4136.410156,4135.384766,4126.153809,4160.512695,4155.897461,4142.051270,4152.307617,4137.948730,761.000000,4.000000,,,,0.000000,4.000000,4.000000,4.000000,4.000000,4.000000,4.000000,4.000000,4.000000,4.000000,4.000000,4.000000,4.000000,4.000000,4.000000,100.000000
1602006623.417143,113.000000,0.000000,4103.077148,4108.717773,4130.256348,4122.051270,4122.051270,4141.025879,4135.384766,4135.897461,4117.948730,4150.769043,4148.205078,4135.897461,4152.307617,4125.128418,728.000000,4.000000,,,,0.000000,4.000000,4.000000,4.000000,4.000000,4.000000,4.000000,4.000000,4.000000,4.000000,4.000000,4.000000,4.000000,4.000000,4.000000,100.000000
1602006623.424924,114.000000,0.000000,4093.846191,4109.743652,4118.461426,4119.487305,4126.666504,4145.128418,4137.436035,4134.871582,4120.512695,4118.974121,4133.846191,4119.487305,4141.538574,4120.000000,870.000000,4.000000,,,,0.000000,4.000000,4.000000,4.000000,4.000000,4.000000,4.000000,4.000000,4.000000,4.000000,4.000000,4.000000,4.000000,4.000000,4.000000,100.000000
1602006623.432805,115.000000,0.000000,4084.102539,4103.077148,4110.256348,4111.282227,4123.589844,4140.000000,4133.333496,4131.794922,4124.102539,4104.615234,4131.282227,4112.307617,4126.666504,4120.512695,844.000000,4.000000,,,,0.000000,4.000000,4.000000,4.000000,4.000000,4.000000,4.000000,4.000000,4.000000,4.000000,4.000000,4.000000,4.000000,4.000000,4.000000,100.000000
1602006623.440686,116.000000,0.000000,4077.948730,4100.000000,4108.205078,4106.153809,4123.589844,4130.256348,4123.077148,4132.307617,4119.487305,4124.615234,4140.512695,4114.358887,4121.538574,4109.743652,761.000000,4.000000,,,,0.000000,4.000000,4.000000,4.000000,4.000000,4.000000,4.000000,4.000000,4.000000,4.000000,4.000000,4.000000,4.000000,4.000000,4.000000,100.000000
1602006623.448567,117.000000,0.000000,4084.102539,4105.128418,4110.769043,4113.333496,4123.077148,4123.589844,4121.025879,4137.436035,4127.692383,4140.000000,4150.769043,4120.512695,4123.077148,4101.538574,728.000000,4.000000,,,,0.000000,4.000000,4.000000,4.000000,4.000000,4.000000,4.000000,4.000000,4.000000,4.000000,4.000000,4.000000,4.000000,4.000000,4.000000,100.000000
1602006623.456449,118.000000,0.000000,4100.000000,4108.205078,4123.589844,4123.077148,4124.615234,4131.282227,4127.179688,4140.000000,4140.512695,4140.512695,4153.846191,4131.282227,4129.230957,4119.487305,870.000000,4.000000,,,,0.000000,4.000000,4.000000,4.000000,4.000000,4.000000,4.000000,4.000000,4.000000,4.000000,4.000000,4.000000,4.000000,4.000000,4.000000,100.000000
1602006623.464330,119.000000,0.000000,4112.307617,4108.205078,4137.436035,4121.025879,4127.692383,4142.563965,4126.666504,4139.487305,4136.410156,4146.153809,4152.307617,4139.487305,4135.897461,4143.077148,844.000000,4.000000,,,,0.000000,4.000000,4.000000,4.000000,4.000000,4.000000,4.000000,4.000000,4.000000,4.000000,4.000000,4.000000,4.000000,4.000000,4.000000,100.000000
1602006623.472211,120.000000,0.000000,4110.769043,4108.205078,4141.025879,4118.974121,4122.051270,4137.436035,4125.128418,4135.897461,4131.794922,4145.641113,4154.358887,4139.487305,4138.974121,4139.487305,761.000000,4.000000,,,,0.000000,4.000000,4.000000,4.000000,4.000000,4.000000,4.000000,4.000000,4.000000,4.000000,4.000000,4.000000,4.000000,4.000000,4.000000,100.000000
1602006623.480092,121.000000,0.000000,4105.128418,4114.871582,4137.436035,4124.102539,4118.974121,4134.871582,4135.384766,4136.922852,4141.538574,4137.948730,4153.333496,4134.871582,4139.487305,4125.128418,728.000000,4.000000,,,,0.000000,4.000000,4.000000,4.000000,4.000000,4.000000,4.000000,4.000000,4.000000,4.000000,4.000000,4.000000,4.000000,4.000000,4.000000,100.000000
1602006623.488073,122.000000,0.000000,4104.102539,4120.512695,4135.384766,4124.102539,4121.538574,4142.051270,4140.512695,4139.487305,4143.077148,4138.461426,4142.563965,4126.153809,4132.307617,4120.512695,870.000000,4.000000,,,,0.000000,4.000000,4.000000,4.000000,4.000000,4.000000,4.000000,4.000000,4.000000,4.000000,4.000000,4.000000,4.000000,4.000000,4.000000,100.000000
1602006623.495954,123.000000,0.000000,4106.153809,4118.461426,4131.794922,4121.538574,4120.512695,4136.922852,4137.948730,4141.025879,4136.922852,4140.512695,4136.410156,4121.538574,4122.051270,4122.563965,844.000000,4.000000,,,,0.000000,4.000000,4.000000,4.000000,4.000000,4.000000,4.000000,4.000000,4.000000,4.000000,4.000000,4.000000,4.000000,4.000000,4.000000,100.000000
1602006623.503835,124.000000,0.000000,4096.410156,4109.743652,4123.077148,4123.077148,4119.487305,4126.153809,4137.436035,4146.153809,4138.974121,4143.077148,4142.051270,4121.538574,4117.948730,4121.538574,761.000000,4.000000,,,,0.000000,4.000000,4.000000,4.000000,4.000000,4.000000,4.000000,4.000000,4.000000,4.000000,4.000000,4.000000,4.000000,4.000000,4.000000,100.000000
1602006623.511716,125.000000,0.000000,4079.487061,4104.615234,4119.487305,4121.025879,4121.538574,4122.563965,4134.358887,4151.794922,4141.025879,4152.307617,4146.666504,4122.051270,4126.153809,4118.974121,728.000000,4.000000,,,,0.000000,4.000000,4.000000,4.000000,4.000000,4.000000,4.000000,4.000000,4.000000,4.000000,4.000000,4.000000,4.000000,4.000000,4.000000,100.000000
1602006623.519597,126.000000,0.000000,4084.615479,4111.282227,4126.666504,4118.974121,4126.153809,4122.563965,4126.153809,4147.692383,4138.974121,4155.897461,4151.794922,4128.717773,4142.563965,4123.077148,870.000000,4.000000,,,,0.000000,4.000000,4.000000,4.000000,4.000000,4.000000,4.000000,4.000000,4.000000,4.000000,4.000000,4.000000,4.000000,4.000000,4.000000,100.000000
1602006623.527478,127.000000,0.000000,4108.205078,4119.487305,4137.948730,4122.563965,4129.230957,4122.563965,4123.077148,4141.025879,4139.487305,4153.333496,4165.641113,4138.461426,4154.358887,4134.358887,844.000000,4.000000,,,,0.000000,4.000000,4.000000,4.000000,4.000000,4.000000,4.000000,4.000000,4.000000,4.000000,4.000000,4.000000,4.000000,4.000000,4.000000,100.000000
1602006623.535458,128.000000,0.000000,4111.794922,4123.077148,4148.717773,4130.769043,4128.717773,4123.589844,4124.615234,4138.461426,4139.487305,4157.948730,4177.948730,4140.512695,4161.538574,4147.692383,761.000000,4.000000,,,,0.000000,4.000000,4.000000,4.000000,4.000000,4.000000,4.000000,4.000000,4.000000,4.000000,4.000000,4.000000,4.000000,4.000000,4.000000,100.000000
1602006623.543339,0.000000,0.000000,4107.692383,4126.153809,4154.358887,4138.974121,4127.179688,4126.153809,4123.077148,4138.974121,4138.974121,4168.717773,4175.897461,4139.487305,4171.282227,4157.948730,791.000000,4.000000,,,,0.000000,4.000000,4.000000,4.000000,4.000000,4.000000,4.000000,4.000000,4.000000,4.000000,4.000000,4.000000,4.000000,4.000000,4.000000,100.000000
1602006623.551220,1.000000,0.000000,4120.512695,4128.205078,4152.307617,4137.436035,4125.128418,4118.974121,4123.077148,4141.025879,4134.358887,4169.743652,4161.025879,4142.051270,4168.717773,4161.025879,786.000000,4.000000,,,,0.000000,4.000000,4.000000,4.000000,4.000000,4.000000,4.000000,4.000000,4.000000,4.000000,4.000000,4.000000,4.000000,4.000000,4.000000,100.000000
1602006623.559101,2.000000,0.000000,4120.512695,4123.589844,4144.615234,4128.205078,4121.025879,4106.666504,4124.615234,4142.563965,4127.692383,4162.051270,4149.743652,4145.641113,4154.358887,4152.307617,854.000000,4.000000,,,,0.000000,4.000000,4.000000,4.000000,4.000000,4.000000,4.000000,4.000000,4.000000,4.000000,4.000000,4.000000,4.000000,4.000000,4.000000,100.000000
1602006623.566982,3.000000,0.000000,4097.436035,4114.358887,4132.820313,4117.948730,4119.487305,4109.743652,4126.153809,4140.000000,4122.051270,4143.589844,4152.820313,4145.128418,4151.794922,4140.512695,865.000000,4.000000,,,,0.000000,4.000000,4.000000,4.000000,4.000000,4.000000,4.000000,4.000000,4.000000,4.000000,4.000000,4.000000,4.000000,4.000000,4.000000,100.000000
1602006623.574863,4.000000,0.000000,4086.666748,4107.692383,4122.563965,4107.179688,4121.025879,4124.102539,4130.769043,4135.897461,4119.487305,4121.538574,4165.128418,4139.487305,4153.846191,4137.948730,811.000000,4.000000,,,,0.000000,4.000000,4.000000,4.000000,4.000000,4.000000,4.000000,4.000000,4.000000,4.000000,4.000000,4.000000,4.000000,4.000000,4.000000,100.000000
1602006623.582744,5.000000,0.000000,4090.256348,4105.128418,4120.000000,4108.205078,4123.077148,4127.692383,4135.897461,4134.358887,4122.563965,4127.179688,4165.128418,4134.358887,4150.256348,4140.512695,828.000000,4.000000,,,,0.000000,4.000000,4.000000,4.000000,4.000000,4.000000,4.000000,4.000000,4.000000,4.000000,4.000000,4.000000,4.000000,4.000000,4.000000,100.000000
1602006623.590525,6.000000,0.000000,4094.871826,4107.692383,4123.077148,4121.538574,4128.205078,4124.102539,4135.897461,4136.922852,4125.641113,4156.922852,4156.922852,4132.307617,4154.358887,4138.974121,760.000000,4.000000,,,,0.000000,4.000000,4.000000,4.000000,4.000000,4.000000,4.000000,4.000000,4.000000,4.000000,4.000000,4.000000,4.000000,4.000000,4.000000,100.000000
1602006623.598406,7.000000,0.000000,4093.333252,4108.205078,4116.410156,4120.512695,4128.717773,4125.128418,4131.794922,4133.333496,4125.128418,4158.974121,4151.282227,4122.051270,4151.282227,4121.025879,666.000000,4.000000,,,,0.000000,4.000000,4.000000,4.000000,4.000000,4.000000,4.000000,4.000000,4.000000,4.000000,4.000000,4.000000,4.000000,4.000000,4.000000,100.000000
1602006623.606288,8.000000,0.000000,4079.487061,4103.589844,4097.436035,4105.128418,4123.077148,4129.743652,4127.179688,4123.077148,4121.025879,4132.307617,4139.487305,4105.128418,4127.179688,4091.281982,780.000000,4.000000,,,,0.000000,4.000000,4.000000,4.000000,4.000000,4.000000,4.000000,4.000000,4.000000,4.000000,4.000000,4.000000,4.000000,4.000000,4.000000,100.000000
1602006623.614169,9.000000,0.000000,4068.205078,4103.589844,4085.641113,4105.128418,4126.666504,4135.384766,4123.077148,4120.000000,4118.461426,4115.897461,4122.563965,4096.410156,4111.794922,4086.153809,838.000000,4.000000,,,,0.000000,4.000000,4.000000,4.000000,4.000000,4.000000,4.000000,4.000000,4.000000,4.000000,4.000000,4.000000,4.000000,4.000000,4.000000,100.000000
1602006623.622050,10.000000,0.000000,4081.538574,4114.358887,4094.358887,4119.487305,4136.922852,4136.922852,4123.077148,4125.641113,4126.153809,4107.692383,4117.948730,4106.153809,4120.512695,4105.128418,870.000000,4.000000,,,,0.000000,4.000000,4.000000,4.000000,4.000000,4.000000,4.000000,4.000000,4.000000,4.000000,4.000000,4.000000,4.000000,4.000000,4.000000,100.000000
1602006623.629931,11.000000,0.000000,4104.102539,4125.128418,4115.897461,4126.666504,4139.487305,4136.922852,4123.077148,4126.153809,4137.948730,4109.230957,4130.769043,4135.897461,4133.846191,4112.820313,844.000000,4.000000,,,,0.000000,4.000000,4.000000,4.000000,4.000000,4.000000,4.000000,4.000000,4.000000,4.000000,4.000000,4.000000,4.000000,4.000000,4.000000,100.000000
1602006623.637812,12.000000,0.000000,4119.487305,4126.666504,4136.410156,4131.794922,4137.948730,4141.538574,4121.538574,4123.589844,4140.000000,4131.794922,4145.641113,4162.051270,4140.512695,4122.051270,761.000000,4.000000,,,,0.000000,4.000000,4.000000,4.000000,4.000000,4.000000,4.000000,4.000000,4.000000,4.000000,4.000000,4.000000,4.000000,4.000000,4.000000,100.000000
1602006623.645693,13.000000,0.000000,4125.641113,4125.128418,4145.641113,4133.846191,4134.358887,4140.512695,4127.692383,4123.589844,4134.871582,4146.666504,4156.410156,4163.077148,4145.128418,4141.538574,728.000000,4.000000,,,,0.000000,4.000000,4.000000,4.000000,4.000000,4.000000,4.000000,4.000000,4.000000,4.000000,4.000000,4.000000,4.000000,4.000000,4.000000,100.000000
1602006623.653575,14.000000,0.000000,4112.307617,4116.410156,4138.461426,4124.615234,4124.615234,4131.794922,4138.461426,4123.589844,4137.436035,4146.153809,4147.179688,4149.230957,4133.333496,4130.769043,870.000000,4.000000,,,,0.000000,4.000000,4.000000,4.000000,4.000000,4.000000,4.000000,4.000000,4.000000,4.000000,4.000000,4.000000,4.000000,4.000000,4.000000,100.000000
1602006623.661556,15.000000,0.000000,4091.281982,4103.589844,4121.538574,4116.922852,4121.025879,4130.769043,4143.077148,4123.077148,4142.563965,4135.897461,4122.051270,4134.358887,4108.717773,4095.897461,844.000000,4.000000,,,,0.000000,4.000000,4.000000,4.000000,4.000000,4.000000,4.000000,4.000000,4.000000,4.000000,4.000000,4.000000,4.000000,4.000000,4.000000,100.000000
1602006623.669437,16.000000,0.000000,4087.179443,4101.025879,4110.256348,4116.922852,4125.128418,4135.897461,4143.589844,4124.615234,4133.333496,4116.410156,4112.307617,4121.025879,4101.025879,4082.051270,0.000000,4.000000,,,,0.000000,4.000000,4.000000,4.000000,4.000000,4.000000,4.000000,4.000000,4.000000,4.000000,4.000000,4.000000,4.000000,4.000000,4.000000,100.000000
1602006623.677318,17.000000,0.000000,4088.205078,4106.153809,4107.179688,4111.282227,4125.128418,4136.922852,4144.615234,4129.230957,4124.102539,4112.307617,4118.974121,4119.487305,4113.333496,4089.230713,0.000000,4.000000,,,,0.000000,4.000000,4.000000,4.000000,4.000000,4.000000,4.000000,4.000000,4.000000,4.000000,4.000000,4.000000,4.000000,4.000000,4.000000,100.000000
1602006623.685199,18.000000,0.000000,4078.461426,4104.102539,4101.538574,4107.692383,4126.153809,4130.256348,4136.922852,4131.282227,4129.230957,4126.666504,4124.102539,4133.846191,4121.025879,4090.256348,0.000000,4.000000,,,,0.000000,4.000000,4.000000,4.000000,4.000000,4.000000,4.000000,4.000000,4.000000,4.000000,4.000000,4.000000,4.000000,4.000000,4.000000,100.000000
1602006623.693080,19.000000,0.000000,4079.487061,4103.077148,4103.077148,4116.922852,4133.333496,4124.102539,4123.077148,4124.102539,4132.820313,4125.128418,4126.666504,4148.205078,4120.000000,4086.153809,0.000000,4.000000,,,,0.000000,4.000000,4.000000,4.000000,4.000000,4.000000,4.000000,4.000000,4.000000,4.000000,4.000000,4.000000,4.000000,4.000000,4.000000,100.000000
1602006623.700961,20.000000,0.000000,4098.974121,4113.846191,4121.025879,4124.102539,4137.436035,4127.179688,4114.358887,4117.948730,4119.487305,4116.410156,4130.769043,4154.358887,4126.666504,4103.077148,0.000000,4.000000,,,,0.000000,4.000000,4.000000,4.000000,4.000000,4.000000,4.000000,4.000000,4.000000,4.000000,4.000000,4.000000,4.000000,4.000000,4.000000,100.000000
1602006623.708843,21.000000,0.000000,4113.333496,4125.641113,4138.974121,4130.256348,4140.000000,4137.436035,4117.436035,4120.000000,4115.384766,4133.333496,4139.487305,4167.692383,4144.615234,4137.436035,0.000000,4.000000,,,,0.000000,4.000000,4.000000,4.000000,4.000000,4.000000,4.000000,4.000000,4.000000,4.000000,4.000000,4.000000,4.000000,4.000000,4.000000,100.000000
1602006623.716724,22.000000,0.000000,4117.436035,4125.128418,4148.205078,4133.846191,4136.922852,4139.487305,4129.743652,4122.051270,4130.256348,4154.358887,4150.769043,4181.025879,4156.922852,4153.846191,0.000000,4.000000,,,,0.000000,4.000000,4.000000,4.000000,4.000000,4.000000,4.000000,4.000000,4.000000,4.000000,4.000000,4.000000,4.000000,4.000000,4.000000,100.000000
1602006623.724705,23.000000,0.000000,4122.051270,4111.794922,4154.871582,4126.666504,4126.666504,4129.230957,4137.948730,4126.666504,4140.000000,4150.769043,4154.358887,4178.461426,4153.846191,4148.717773,0.000000,4.000000,,,,0.000000,4.000000,4.000000,4.000000,4.000000,4.000000,4.000000,4.000000,4.000000,4.000000,4.000000,4.000000,4.000000,4.000000,4.000000,100.000000
1602006623.732585,24.000000,0.000000,4126.666504,4104.102539,4153.333496,4119.487305,4125.128418,4129.743652,4138.974121,4135.897461,4144.615234,4145.641113,4151.794922,4169.230957,4150.256348,4141.538574,0.000000,4.000000,,,,0.000000,4.000000,4.000000,4.000000,4.000000,4.000000,4.000000,4.000000,4.000000,4.000000,4.000000,4.000000,4.000000,4.000000,4.000000,100.000000
1602006623.740466,25.000000,0.000000,4117.948730,4107.692383,4140.512695,4120.512695,4132.307617,4141.538574,4141.025879,4141.538574,4153.846191,4143.589844,4147.692383,4161.538574,4151.282227,4130.256348,0.000000,4.000000,,,,0.000000,4.000000,4.000000,4.000000,4.000000,4.000000,4.000000,4.000000,4.000000,4.000000,4.000000,4.000000,4.000000,4.000000,4.000000,100.000000
1602006623.748347,26.000000,0.000000,4095.384521,4105.128418,4118.974121,4112.307617,4128.205078,4136.922852,4137.948730,4142.051270,4160.000000,4136.922852,4135.897461,4146.666504,4144.615234,4111.794922,0.000000,4.000000,,,,0.000000,4.000000,4.000000,4.000000,4.000000,4.000000,4.000000,4.000000,4.000000,4.000000,4.000000,4.000000,4.000000,4.000000,4.000000,100.000000
1602006623.756228,27.000000,0.000000,4079.487061,4093.333252,4095.384521,4102.051270,4118.974121,4120.000000,4126.153809,4136.922852,4150.256348,4134.871582,4124.102539,4135.384766,4127.179688,4098.461426,0.000000,4.000000,,,,0.000000,4.000000,4.000000,4.000000,4.000000,4.000000,4.000000,4.000000,4.000000,4.000000,4.000000,4.000000,4.000000,4.000000,4.000000,100.000000
1602006623.764109,28.000000,0.000000,4080.000000,4094.871826,4091.794922,4109.743652,4126.153809,4116.922852,4118.974121,4126.153809,4137.948730,4137.948730,4125.128418,4145.641113,4117.436035,4100.000000,0.000000,4.000000,,,,0.000000,4.000000,4.000000,4.000000,4.000000,4.000000,4.000000,4.000000,4.000000,4.000000,4.000000,4.000000,4.000000,4.000000,4.000000,100.000000
1602006623.771890,29.000000,0.000000,4090.256348,4113.846191,4111.282227,4122.051270,4136.922852,4125.128418,4125.128418,4123.589844,4140.000000,4140.000000,4134.358887,4156.410156,4126.666504,4110.256348,0.000000,4.000000,,,,0.000000,4.000000,4.000000,4.000000,4.000000,4.000000,4.000000,4.000000,4.000000,4.000000,4.000000,4.000000,4.000000,4.000000,4.000000,100.000000
1602006623.779771,30.000000,0.000000,4103.077148,4126.666504,4124.102539,4130.769043,4137.436035,4126.153809,4128.717773,4132.307617,4146.666504,4144.615234,4147.179688,4156.410156,4144.615234,4120.512695,0.000000,4.000000,,,,0.000000,4.000000,4.000000,4.000000,4.000000,4.000000,4.000000,4.000000,4.000000,4.000000,4.000000,4.000000,4.000000,4.000000,4.000000,100.000000
1602006623.787651,31.000000,0.000000,4110.769043,4126.153809,4123.077148,4138.974121,4136.922852,4124.102539,4127.692383,4130.769043,4141.025879,4143.077148,4149.743652,4155.384766,4151.282227,4125.641113,0.000000,4.000000,,,,0.000000,4.000000,4.000000,4.000000,4.000000,4.000000,4.000000,4.000000,4.000000,4.000000,4.000000,4.000000,4.000000,4.000000,4.000000,100.000000
1602006623.795632,32.000000,0.000000,4107.692383,4125.641113,4121.025879,4137.948730,4141.025879,4125.128418,4130.769043,4120.512695,4133.333496,4133.846191,4137.948730,4148.205078,4144.102539,4116.410156,0.000000,4.000000,,,,0.000000,4.000000,4.000000,4.000000,4.000000,4.000000,4.000000,4.000000,4.000000,4.000000,4.000000,4.000000,4.000000,4.000000,4.000000,100.000000
1602006623.803612,33.000000,0.000000,4107.179688,4131.794922,4125.641113,4131.794922,4144.102539,4125.641113,4135.384766,4122.563965,4137.948730,4137.948730,4134.871582,4141.025879,4138.974121,4104.615234,0.000000,4.000000,,,,0.000000,4.000000,4.000000,4.000000,4.000000,4.000000,4.000000,4.000000,4.000000,4.000000,4.000000,4.000000,4.000000,4.000000,4.000000,100.000000
1602006623.811493,34.000000,0.000000,4116.922852,4136.922852,4134.358887,4133.846191,4141.538574,4124.615234,4136.922852,4132.820313,4138.461426,4142.563965,4141.538574,4147.692383,4140.000000,4107.179688,0.000000,4.000000,,,,0.000000,4.000000,4.000000,4.000000,4.000000,4.000000,4.000000,4.000000,4.000000,4.000000,4.000000,4.000000,4.000000,4.000000,4.000000,100.000000
1602006623.819274,35.000000,0.000000,4125.641113,4135.897461,4143.077148,4141.025879,4139.487305,4125.128418,4135.384766,4136.922852,4133.846191,4137.948730,4142.563965,4161.025879,4143.589844,4122.563965,0.000000,4.000000,,,,0.000000,4.000000,4.000000,4.000000,4.000000,4.000000,4.000000,4.000000,4.000000,4.000000,4.000000,4.000000,4.000000,4.000000,4.000000,100.000000
1602006623.827154,36.000000,0.000000,4130.769043,4134.358887,4148.717773,4140.512695,4135.384766,4126.153809,4141.538574,4137.948730,4142.563965,4143.077148,4138.461426,4168.717773,4149.743652,4135.897461,0.000000,4.000000,,,,0.000000,4.000000,4.000000,4.000000,4.000000,4.000000,4.000000,4.000000,4.000000,4.000000,4.000000,4.000000,4.000000,4.000000,4.000000,100.000000
1602006623.834935,37.000000,0.000000,4138.461426,4136.922852,4160.000000,4137.948730,4126.666504,4128.717773,4153.333496,4143.077148,4154.871582,4152.307617,4137.948730,4181.025879,4154.358887,4142.563965,0.000000,4.000000,,,,0.000000,4.000000,4.000000,4.000000,4.000000,4.000000,4.000000,4.000000,4.000000,4.000000,4.000000,4.000000,4.000000,4.000000,4.000000,100.000000
1602006623.842816,38.000000,0.000000,4142.563965,4138.974121,4171.794922,4137.436035,4120.000000,4134.871582,4153.333496,4145.641113,4155.897461,4157.948730,4144.102539,4189.230957,4155.384766,4143.077148,0.000000,4.000000,,,,0.000000,4.000000,4.000000,4.000000,4.000000,4.000000,4.000000,4.000000,4.000000,4.000000,4.000000,4.000000,4.000000,4.000000,4.000000,100.000000
1602006623.850697,39.000000,0.000000,4142.051270,4135.384766,4163.589844,4138.461426,4118.461426,4138.974121,4142.051270,4140.512695,4153.846191,4163.589844,4153.846191,4180.000000,4154.871582,4139.487305,0.000000,4.000000,,,,0.000000,4.000000,4.000000,4.000000,4.000000,4.000000,4.000000,4.000000,4.000000,4.000000,4.000000,4.000000,4.000000,4.000000,4.000000,100.000000
1602006623.858578,40.000000,0.000000,4140.000000,4131.282227,4141.538574,4137.948730,4119.487305,4133.846191,4136.410156,4137.948730,4151.282227,4156.922852,4157.436035,4168.205078,4153.333496,4140.000000,0.000000,4.000000,,,,0.000000,4.000000,4.000000,4.000000,4.000000,4.000000,4.000000,4.000000,4.000000,4.000000,4.000000,4.000000,4.000000,4.000000,4.000000,100.000000
1602006623.866459,41.000000,0.000000,4131.282227,4133.333496,4131.794922,4136.922852,4127.179688,4133.846191,4136.922852,4140.512695,4147.692383,4151.794922,4156.922852,4166.666504,4152.820313,4139.487305,0.000000,4.000000,,,,0.000000,4.000000,4.000000,4.000000,4.000000,4.000000,4.000000,4.000000,4.000000,4.000000,4.000000,4.000000,4.000000,4.000000,4.000000,100.000000
1602006623.874340,42.000000,0.000000,4127.692383,4138.974121,4135.897461,4138.461426,4138.461426,4137.948730,4129.230957,4138.974121,4155.897461,4168.717773,4162.051270,4170.769043,4163.077148,4131.282227,0.000000,4.000000,,,,0.000000,4.000000,4.000000,4.000000,4.000000,4.000000,4.000000,4.000000,4.000000,4.000000,4.000000,4.000000,4.000000,4.000000,4.000000,100.000000
1602006623.882221,43.000000,0.000000,4124.102539,4134.358887,4130.769043,4135.897461,4140.512695,4130.256348,4126.153809,4134.871582,4156.410156,4165.128418,4157.948730,4165.641113,4167.692383,4126.153809,0.000000,4.000000,,,,0.000000,4.000000,4.000000,4.000000,4.000000,4.000000,4.000000,4.000000,4.000000,4.000000,4.000000,4.000000,4.000000,4.000000,4.000000,100.000000
1602006623.890201,44.000000,0.000000,4106.153809,4123.589844,4121.025879,4126.666504,4141.025879,4125.641113,4133.333496,4133.846191,4135.897461,4137.948730,4143.589844,4156.922852,4156.922852,4129.230957,0.000000,4.000000,,,,0.000000,4.000000,4.000000,4.000000,4.000000,4.000000,4.000000,4.000000,4.000000,4.000000,4.000000,4.000000,4.000000,4.000000,4.000000,100.000000
1602006623.898082,45.000000,0.000000,4094.871826,4117.948730,4119.487305,4122.051270,4136.922852,4136.410156,4139.487305,4129.743652,4130.769043,4144.102539,4136.922852,4153.846191,4149.230957,4135.384766,0.000000,4.000000,,,,0.000000,4.000000,4.000000,4.000000,4.000000,4.000000,4.000000,4.000000,4.000000,4.000000,4.000000,4.000000,4.000000,4.000000,4.000000,100.000000
1602006623.905963,46.000000,0.000000,4109.230957,4120.512695,4125.641113,4128.205078,4124.102539,4139.487305,4140.512695,4126.666504,4142.051270,4161.538574,4137.948730,4152.307617,4150.769043,4135.384766,0.000000,4.000000,,,,0.000000,4.000000,4.000000,4.000000,4.000000,4.000000,4.000000,4.000000,4.000000,4.000000,4.000000,4.000000,4.000000,4.000000,4.000000,100.000000
1602006623.913844,47.000000,0.000000,4131.794922,4134.358887,4143.077148,4137.948730,4121.025879,4132.820313,4140.512695,4136.410156,4141.538574,4151.794922,4145.128418,4161.025879,4153.333496,4138.461426,0.000000,4.000000,,,,0.000000,4.000000,4.000000,4.000000,4.000000,4.000000,4.000000,4.000000,4.000000,4.000000,4.000000,4.000000,4.000000,4.000000,4.000000,100.000000
1602006623.921725,48.000000,0.000000,4142.051270,4144.615234,4158.974121,4142.051270,4124.615234,4136.410156,4141.538574,4144.102539,4137.948730,4152.307617,4157.948730,4173.333496,4160.000000,4155.897461,0.000000,4.000000,,,,0.000000,4.000000,4.000000,4.000000,4.000000,4.000000,4.000000,4.000000,4.000000,4.000000,4.000000,4.000000,4.000000,4.000000,4.000000,100.000000
1602006623.929706,49.000000,0.000000,4136.922852,4134.871582,4153.333496,4137.948730,4119.487305,4136.922852,4133.846191,4130.769043,4134.871582,4155.897461,4149.743652,4160.000000,4157.948730,4155.384766,0.000000,4.000000,,,,0.000000,4.000000,4.000000,4.000000,4.000000,4.000000,4.000000,4.000000,4.000000,4.000000,4.000000,4.000000,4.000000,4.000000,4.000000,100.000000
1602006623.937586,50.000000,0.000000,4126.153809,4123.077148,4133.333496,4131.794922,4122.563965,4127.179688,4126.666504,4117.436035,4118.461426,4123.589844,4124.615234,4129.743652,4141.538574,4123.077148,0.000000,4.000000,,,,0.000000,4.000000,4.000000,4.000000,4.000000,4.000000,4.000000,4.000000,4.000000,4.000000,4.000000,4.000000,4.000000,4.000000,4.000000,100.000000
1602006623.945467,51.000000,0.000000,4115.384766,4128.205078,4116.410156,4126.153809,4138.461426,4125.128418,4130.769043,4118.974121,4102.051270,4105.128418,4116.922852,4120.000000,4126.666504,4098.461426,0.000000,4.000000,,,,0.000000,4.000000,4.000000,4.000000,4.000000,4.000000,4.000000,4.000000,4.000000,4.000000,4.000000,4.000000,4.000000,4.000000,4.000000,100.000000
1602006623.953348,52.000000,0.000000,4106.153809,4134.871582,4103.589844,4124.615234,4145.128418,4131.282227,4136.410156,4120.512695,4104.102539,4129.230957,4120.512695,4121.538574,4119.487305,4102.051270,0.000000,4.000000,,,,0.000000,4.000000,4.000000,4.000000,4.000000,4.000000,4.000000,4.000000,4.000000,4.000000,4.000000,4.000000,4.000000,4.000000,4.000000,100.000000
1602006623.961228,53.000000,0.000000,4110.256348,4137.436035,4106.666504,4133.846191,4143.589844,4144.102539,4137.948730,4124.102539,4118.461426,4144.102539,4126.666504,4118.461426,4127.179688,4113.333496,0.000000,4.000000,,,,0.000000,4.000000,4.000000,4.000000,4.000000,4.000000,4.000000,4.000000,4.000000,4.000000,4.000000,4.000000,4.000000,4.000000,4.000000,100.000000
1602006623.969009,54.000000,0.000000,4123.589844,4138.974121,4119.487305,4142.051270,4146.153809,4154.358887,4142.051270,4135.897461,4129.743652,4134.871582,4139.487305,4126.153809,4148.717773,4117.948730,0.000000,4.000000,,,,0.000000,4.000000,4.000000,4.000000,4.000000,4.000000,4.000000,4.000000,4.000000,4.000000,4.000000,4.000000,4.000000,4.000000,4.000000,100.000000
1602006623.976890,55.000000,0.000000,4121.538574,4135.384766,4121.025879,4137.436035,4140.512695,4144.102539,4142.563965,4139.487305,4126.153809,4132.307617,4146.153809,4137.436035,4155.897461,4120.512695,0.000000,4.000000,,,,0.000000,4.000000,4.000000,4.000000,4.000000,4.000000,4.000000,4.000000,4.000000,4.000000,4.000000,4.000000,4.000000,4.000000,4.000000,100.000000
1602006623.984871,56.000000,0.000000,4118.974121,4134.871582,4127.179688,4130.769043,4125.641113,4124.615234,4135.897461,4134.358887,4122.051270,4146.666504,4145.641113,4139.487305,4149.743652,4129.230957,0.000000,4.000000,,,,0.000000,4.000000,4.000000,4.000000,4.000000,4.000000,4.000000,4.000000,4.000000,4.000000,4.000000,4.000000,4.000000,4.000000,4.000000,100.000000
1602006623.992752,57.000000,0.000000,4140.000000,4142.563965,4150.256348,4140.000000,4118.974121,4123.077148,4135.384766,4135.897461,4131.282227,4166.153809,4154.358887,4149.230957,4160.000000,4142.051270,0.000000,4.000000,,,,0.000000,4.000000,4.000000,4.000000,4.000000,4.000000,4.000000,4.000000,4.000000,4.000000,4.000000,4.000000,4.000000,4.000000,4.000000,100.000000
1602006624.000633,58.000000,0.000000,4161.025879,4145.128418,4165.128418,4150.769043,4121.538574,4129.230957,4138.461426,4140.512695,4138.461426,4172.820313,4160.512695,4170.256348,4175.897461,4150.769043,0.000000,4.000000,,,,0.000000,4.000000,4.000000,4.000000,4.000000,4.000000,4.000000,4.000000,4.000000,4.000000,4.000000,4.000000,4.000000,4.000000,4.000000,100.000000
1602006624.008513,59.000000,0.000000,4159.487305,4140.512695,4157.948730,4145.128418,4121.538574,4115.384766,4136.922852,4137.948730,4136.922852,4152.820313,4152.820313,4176.410156,4171.282227,4154.358887,0.000000,4.000000,,,,0.000000,4.000000,4.000000,4.000000,4.000000,4.000000,4.000000,4.000000,4.000000,4.000000,4.000000,4.000000,4.000000,4.000000,4.000000,100.000000
1602006624.016394,60.000000,0.000000,4154.358887,4135.897461,4146.153809,4136.410156,4118.461426,4103.077148,4133.333496,4131.282227,4132.820313,4123.077148,4148.717773,4168.205078,4152.820313,4155.384766,0.000000,4.000000,,,,0.000000,4.000000,4.000000,4.000000,4.000000,4.000000,4.000000,4.000000,4.000000,4.000000,4.000000,4.000000,4.000000,4.000000,4.000000,100.000000
1602006624.024275,61.000000,0.000000,4153.333496,4140.512695,4145.128418,4141.538574,4121.538574,4113.333496,4134.358887,4127.692383,4125.128418,4118.461426,4152.820313,4171.794922,4152.820313,4157.948730,0.000000,4.000000,,,,0.000000,4.000000,4.000000,4.000000,4.000000,4.000000,4.000000,4.000000,4.000000,4.000000,4.000000,4.000000,4.000000,4.000000,4.000000,100.000000
1602006624.032256,62.000000,0.000000,4144.615234,4141.025879,4142.563965,4145.641113,4123.589844,4116.922852,4138.461426,4126.666504,4120.512695,4132.820313,4148.717773,4172.820313,4156.410156,4157.948730,0.000000,4.000000,,,,0.000000,4.000000,4.000000,4.000000,4.000000,4.000000,4.000000,4.000000,4.000000,4.000000,4.000000,4.000000,4.000000,4.000000,4.000000,100.000000
1602006624.040137,63.000000,0.000000,4133.846191,4125.128418,4126.666504,4135.384766,4121.025879,4104.102539,4132.307617,4121.025879,4118.974121,4131.282227,4130.769043,4152.307617,4136.922852,4136.922852,0.000000,4.000000,,,,0.000000,4.000000,4.000000,4.000000,4.000000,4.000000,4.000000,4.000000,4.000000,4.000000,4.000000,4.000000,4.000000,4.000000,4.000000,100.000000
1602006624.048018,64.000000,0.000000,4133.846191,4123.589844,4117.436035,4133.333496,4122.051270,4109.230957,4121.025879,4116.922852,4119.487305,4123.077148,4122.563965,4138.974121,4122.563965,4118.974121,791.000000,4.000000,,,,0.000000,4.000000,4.000000,4.000000,4.000000,4.000000,4.000000,4.000000,4.000000,4.000000,4.000000,4.000000,4.000000,4.000000,4.000000,100.000000
1602006624.055899,65.000000,0.000000,4141.025879,4141.025879,4130.769043,4141.025879,4126.666504,4127.692383,4119.487305,4120.512695,4122.051270,4127.692383,4137.948730,4147.692383,4134.871582,4130.256348,786.000000,4.000000,,,,0.000000,4.000000,4.000000,4.000000,4.000000,4.000000,4.000000,4.000000,4.000000,4.000000,4.000000,4.000000,4.000000,4.000000,4.000000,100.000000
1602006624.063780,66.000000,0.000000,4148.205078,4145.641113,4144.102539,4143.077148,4130.256348,4132.307617,4123.077148,4122.051270,4123.589844,4123.589844,4144.102539,4155.897461,4147.692383,4144.615234,854.000000,4.000000,,,,0.000000,4.000000,4.000000,4.000000,4.000000,4.000000,4.000000,4.000000,4.000000,4.000000,4.000000,4.000000,4.000000,4.000000,4.000000,100.000000
1602006624.071761,67.000000,0.000000,4154.871582,4139.487305,4143.589844,4140.000000,4127.692383,4124.102539,4123.589844,4125.641113,4129.743652,4126.666504,4137.436035,4148.205078,4150.769043,4144.102539,865.000000,4.000000,,,,0.000000,4.000000,4.000000,4.000000,4.000000,4.000000,4.000000,4.000000,4.000000,4.000000,4.000000,4.000000,4.000000,4.000000,4.000000,100.000000
1602006624.079642,68.000000,0.000000,4158.461426,4142.563965,4138.974121,4139.487305,4123.077148,4121.538574,4124.615234,4135.384766,4137.436035,4152.820313,4145.641113,4139.487305,4155.384766,4140.000000,811.000000,4.000000,,,,0.000000,4.000000,4.000000,4.000000,4.000000,4.000000,4.000000,4.000000,4.000000,4.000000,4.000000,4.000000,4.000000,4.000000,4.000000,100.000000
1602006624.087523,69.000000,0.000000,4153.333496,4145.128418,4130.769043,4141.025879,4122.563965,4130.769043,4127.692383,4138.461426,4138.461426,4155.897461,4154.358887,4139.487305,4159.487305,4140.512695,827.000000,4.000000,,,,0.000000,4.000000,4.000000,4.000000,4.000000,4.000000,4.000000,4.000000,4.000000,4.000000,4.000000,4.000000,4.000000,4.000000,4.000000,100.000000
1602006624.095404,70.000000,0.000000,4137.948730,4132.820313,4124.615234,4133.846191,4122.051270,4129.743652,4129.230957,4135.897461,4135.384766,4132.820313,4144.102539,4141.025879,4151.794922,4141.538574,760.000000,4.000000,,,,0.000000,4.000000,4.000000,4.000000,4.000000,4.000000,4.000000,4.000000,4.000000,4.000000,4.000000,4.000000,4.000000,4.000000,4.000000,100.000000
1602006624.103286,71.000000,0.000000,4117.948730,4116.410156,4122.563965,4123.077148,4120.000000,4114.871582,4132.307617,4136.922852,4127.179688,4125.128418,4131.282227,4140.512695,4133.333496,4135.384766,666.000000,4.000000,,,,0.000000,4.000000,4.000000,4.000000,4.000000,4.000000,4.000000,4.000000,4.000000,4.000000,4.000000,4.000000,4.000000,4.000000,4.000000,100.000000
1602006624.111167,72.000000,0.000000,4106.153809,4107.692383,4120.000000,4117.436035,4121.538574,4112.307617,4135.384766,4134.871582,4117.948730,4127.692383,4125.641113,4137.948730,4122.051270,4119.487305,780.000000,4.000000,,,,0.000000,4.000000,4.000000,4.000000,4.000000,4.000000,4.000000,4.000000,4.000000,4.000000,4.000000,4.000000,4.000000,4.000000,4.000000,100.000000
1602006624.119048,73.000000,0.000000,4106.153809,4107.179688,4117.436035,4116.410156,4123.077148,4123.589844,4136.922852,4126.153809,4124.615234,4129.743652,4121.025879,4131.794922,4123.589844,4105.641113,838.000000,4.000000,,,,0.000000,4.000000,4.000000,4.000000,4.000000,4.000000,4.000000,4.000000,4.000000,4.000000,4.000000,4.000000,4.000000,4.000000,4.000000,100.000000
1602006624.126929,74.000000,0.000000,4103.589844,4107.179688,4114.871582,4115.384766,4122.563965,4125.641113,4136.922852,4120.000000,4130.256348,4134.871582,4119.487305,4124.615234,4124.102539,4100.512695,870.000000,4.000000,,,,0.000000,4.000000,4.000000,4.000000,4.000000,4.000000,4.000000,4.000000,4.000000,4.000000,4.000000,4.000000,4.000000,4.000000,4.000000,100.000000
1602006624.134810,75.000000,0.000000,4094.358887,4107.179688,4109.230957,4111.282227,4122.051270,4124.102539,4133.846191,4120.000000,4116.410156,4129.743652,4117.948730,4117.436035,4121.025879,4095.384521,844.000000,4.000000,,,,0.000000,4.000000,4.000000,4.000000,4.000000,4.000000,4.000000,4.000000,4.000000,4.000000,4.000000,4.000000,4.000000,4.000000,4.000000,100.000000
1602006624.142791,76.000000,0.000000,4093.846191,4106.666504,4104.615234,4107.179688,4114.358887,4124.102539,4131.282227,4123.077148,4112.307617,4113.846191,4113.333496,4110.769043,4115.384766,4090.769287,761.000000,4.000000,,,,0.000000,4.000000,4.000000,4.000000,4.000000,4.000000,4.000000,4.000000,4.000000,4.000000,4.000000,4.000000,4.000000,4.000000,4.000000,100.000000
1602006624.150672,77.000000,0.000000,4109.743652,4105.128418,4104.615234,4112.307617,4103.077148,4122.563965,4131.794922,4124.615234,4122.051270,4102.051270,4113.846191,4113.846191,4110.256348,4098.461426,728.000000,4.000000,,,,0.000000,4.000000,4.000000,4.000000,4.000000,4.000000,4.000000,4.000000,4.000000,4.000000,4.000000,4.000000,4.000000,4.000000,4.000000,100.000000
1602006624.158554,78.000000,0.000000,4123.077148,4115.384766,4113.846191,4120.000000,4110.256348,4127.692383,4137.948730,4130.769043,4125.641113,4108.205078,4123.589844,4127.179688,4120.000000,4113.846191,870.000000,4.000000,,,,0.000000,4.000000,4.000000,4.000000,4.000000,4.000000,4.000000,4.000000,4.000000,4.000000,4.000000,4.000000,4.000000,4.000000,4.000000,100.000000
1602006624.166435,79.000000,0.000000,4122.051270,4122.563965,4120.000000,4118.461426,4123.077148,4129.230957,4137.436035,4135.384766,4126.153809,4131.282227,4136.922852,4130.769043,4132.307617,4114.358887,844.000000,4.000000,,,,0.000000,4.000000,4.000000,4.000000,4.000000,4.000000,4.000000,4.000000,4.000000,4.000000,4.000000,4.000000,4.000000,4.000000,4.000000,100.000000
1602006624.174316,80.000000,0.000000,4117.948730,4113.846191,4113.846191,4115.897461,4121.538574,4116.410156,4132.307617,4128.205078,4127.179688,4143.077148,4131.794922,4124.102539,4132.307617,4103.077148,761.000000,4.000000,,,,0.000000,4.000000,4.000000,4.000000,4.000000,4.000000,4.000000,4.000000,4.000000,4.000000,4.000000,4.000000,4.000000,4.000000,4.000000,100.000000
1602006624.182197,81.000000,0.000000,4123.077148,4114.358887,4114.358887,4122.051270,4120.512695,4116.922852,4133.846191,4122.051270,4122.051270,4140.000000,4122.563965,4132.307617,4137.948730,4108.717773,728.000000,4.000000,,,,0.000000,4.000000,4.000000,4.000000,4.000000,4.000000,4.000000,4.000000,4.000000,4.000000,4.000000,4.000000,4.000000,4.000000,4.000000,100.000000
1602006624.190078,82.000000,0.000000,4136.410156,4129.743652,4132.307617,4133.333496,4135.384766,4133.333496,4135.384766,4126.666504,4111.794922,4140.000000,4130.769043,4149.743652,4147.692383,4134.871582,870.000000,4.000000,,,,0.000000,4.000000,4.000000,4.000000,4.000000,4.000000,4.000000,4.000000,4.000000,4.000000,4.000000,4.000000,4.000000,4.000000,4.000000,100.000000
1602006624.197959,83.000000,0.000000,4138.974121,4129.743652,4138.974121,4137.436035,4141.025879,4132.307617,4129.743652,4127.179688,4112.820313,4137.436035,4129.230957,4146.666504,4140.000000,4142.563965,844.000000,4.000000,,,,0.000000,4.000000,4.000000,4.000000,4.000000,4.000000,4.000000,4.000000,4.000000,4.000000,4.000000,4.000000,4.000000,4.000000,4.000000,100.000000
1602006624.205841,84.000000,0.000000,4131.794922,4121.025879,4133.333496,4134.871582,4127.179688,4115.897461,4122.563965,4120.512695,4123.589844,4130.769043,4111.794922,4131.282227,4126.153809,4128.205078,761.000000,4.000000,,,,0.000000,4.000000,4.000000,4.000000,4.000000,4.000000,4.000000,4.000000,4.000000,4.000000,4.000000,4.000000,4.000000,4.000000,4.000000,100.000000
1602006624.213621,85.000000,0.000000,4139.487305,4131.794922,4145.128418,4136.410156,4128.205078,4116.922852,4121.025879,4124.615234,4126.153809,4131.794922,4117.436035,4138.461426,4130.256348,4134.358887,728.000000,4.000000,,,,0.000000,4.000000,4.000000,4.000000,4.000000,4.000000,4.000000,4.000000,4.000000,4.000000,4.000000,4.000000,4.000000,4.000000,4.000000,100.000000
1602006624.221502,86.000000,0.000000,4155.897461,4146.153809,4160.000000,4141.538574,4141.025879,4125.128418,4121.538574,4135.897461,4119.487305,4146.666504,4139.487305,4163.589844,4150.769043,4158.974121,870.000000,4.000000,,,,0.000000,4.000000,4.000000,4.000000,4.000000,4.000000,4.000000,4.000000,4.000000,4.000000,4.000000,4.000000,4.000000,4.000000,4.000000,100.000000
1602006624.229383,87.000000,0.000000,4157.436035,4142.051270,4157.948730,4140.512695,4134.871582,4123.589844,4126.153809,4147.692383,4121.025879,4154.871582,4140.512695,4169.743652,4162.051270,4161.025879,844.000000,4.000000,,,,0.000000,4.000000,4.000000,4.000000,4.000000,4.000000,4.000000,4.000000,4.000000,4.000000,4.000000,4.000000,4.000000,4.000000,4.000000,100.000000
1602006624.237263,88.000000,0.000000,4155.384766,4137.948730,4155.384766,4137.948730,4121.025879,4127.692383,4135.897461,4155.384766,4128.717773,4142.563965,4134.871582,4157.948730,4149.230957,4149.230957,761.000000,4.000000,,,,0.000000,4.000000,4.000000,4.000000,4.000000,4.000000,4.000000,4.000000,4.000000,4.000000,4.000000,4.000000,4.000000,4.000000,4.000000,100.000000
1602006624.245045,89.000000,0.000000,4158.974121,4138.974121,4154.358887,4134.358887,4122.563965,4141.538574,4140.000000,4152.307617,4132.307617,4134.358887,4140.512695,4149.230957,4139.487305,4144.102539,728.000000,4.000000,,,,0.000000,4.000000,4.000000,4.000000,4.000000,4.000000,4.000000,4.000000,4.000000,4.000000,4.000000,4.000000,4.000000,4.000000,4.000000,100.000000
1602006624.252925,90.000000,0.000000,4147.179688,4129.230957,4138.461426,4124.102539,4125.641113,4143.589844,4138.974121,4141.538574,4130.256348,4143.077148,4137.948730,4139.487305,4140.512695,4133.846191,870.000000,4.000000,,,,0.000000,4.000000,4.000000,4.000000,4.000000,4.000000,4.000000,4.000000,4.000000,4.000000,4.000000,4.000000,4.000000,4.000000,4.000000,100.000000
1602006624.260806,91.000000,0.000000,4125.128418,4117.948730,4120.000000,4121.025879,4122.563965,4131.282227,4141.538574,4136.922852,4119.487305,4142.563965,4119.487305,4126.153809,4129.743652,4121.538574,844.000000,4.000000,,,,0.000000,4.000000,4.000000,4.000000,4.000000,4.000000,4.000000,4.000000,4.000000,4.000000,4.000000,4.000000,4.000000,4.000000,4.000000,100.000000
1602006624.268687,92.000000,0.000000,4117.436035,4120.512695,4117.948730,4124.102539,4123.077148,4123.077148,4143.077148,4135.384766,4108.717773,4137.436035,4104.615234,4118.461426,4115.897461,4110.256348,761.000000,4.000000,,,,0.000000,4.000000,4.000000,4.000000,4.000000,4.000000,4.000000,4.000000,4.000000,4.000000,4.000000,4.000000,4.000000,4.000000,4.000000,100.000000
1602006624.276568,93.000000,0.000000,4119.487305,4123.077148,4121.025879,4123.077148,4124.102539,4120.000000,4129.743652,4126.666504,4104.615234,4134.871582,4106.153809,4118.974121,4120.000000,4098.974121,728.000000,4.000000,,,,0.000000,4.000000,4.000000,4.000000,4.000000,4.000000,4.000000,4.000000,4.000000,4.000000,4.000000,4.000000,4.000000,4.000000,4.000000,100.000000
1602006624.284449,94.000000,0.000000,4120.512695,4121.025879,4122.051270,4124.102539,4122.563965,4107.692383,4111.794922,4115.897461,4099.487305,4111.794922,4111.282227,4117.436035,4124.615234,4104.102539,870.000000,4.000000,,,,0.000000,4.000000,4.000000,4.000000,4.000000,4.000000,4.000000,4.000000,4.000000,4.000000,4.000000,4.000000,4.000000,4.000000,4.000000,100.000000
1602006624.292430,95.000000,0.000000,4126.153809,4129.230957,4130.769043,4135.384766,4124.102539,4096.922852,4108.717773,4117.436035,4101.025879,4113.333496,4116.410156,4120.512695,4124.615234,4121.538574,844.000000,4.000000,,,,0.000000,4.000000,4.000000,4.000000,4.000000,4.000000,4.000000,4.000000,4.000000,4.000000,4.000000,4.000000,4.000000,4.000000,4.000000,100.000000
1602006624.300311,96.000000,0.000000,4134.871582,4141.025879,4140.512695,4146.153809,4127.692383,4107.692383,4110.769043,4131.282227,4122.051270,4161.538574,4128.205078,4131.282227,4138.461426,4126.153809,761.000000,4.000000,,,,0.000000,4.000000,4.000000,4.000000,4.000000,4.000000,4.000000,4.000000,4.000000,4.000000,4.000000,4.000000,4.000000,4.000000,4.000000,100.000000
1602006624.308192,97.000000,0.000000,4137.948730,4141.538574,4140.000000,4145.641113,4131.282227,4121.538574,4112.307617,4141.025879,4139.487305,4177.948730,4141.538574,4137.436035,4155.897461,4126.666504,728.000000,4.000000,,,,0.000000,4.000000,4.000000,4.000000,4.000000,4.000000,4.000000,4.000000,4.000000,4.000000,4.000000,4.000000,4.000000,4.000000,4.000000,100.000000
1602006624.316073,98.000000,0.000000,4139.487305,4138.974121,4137.948730,4139.487305,4134.358887,4121.538574,4119.487305,4143.077148,4138.461426,4154.871582,4148.205078,4139.487305,4157.948730,4135.384766,870.000000,4.000000,,,,0.000000,4.000000,4.000000,4.000000,4.000000,4.000000,4.000000,4.000000,4.000000,4.000000,4.000000,4.000000,4.000000,4.000000,4.000000,100.000000
1602006624.323954,99.000000,0.000000,4144.102539,4141.025879,4140.512695,4138.974121,4138.974121,4122.563965,4125.641113,4145.641113,4140.000000,4153.846191,4145.641113,4142.563965,4153.333496,4136.410156,844.000000,4.000000,,,,0.000000,4.000000,4.000000,4.000000,4.000000,4.000000,4.000000,4.000000,4.000000,4.000000,4.000000,4.000000,4.000000,4.000000,4.000000,100.000000
1602006624.331835,100.000000,0.000000,4140.512695,4135.897461,4137.436035,4135.897461,4133.333496,4127.692383,4123.589844,4143.589844,4138.461426,4150.256348,4131.794922,4135.897461,4141.025879,4121.538574,761.000000,4.000000,,,,0.000000,4.000000,4.000000,4.000000,4.000000,4.000000,4.000000,4.000000,4.000000,4.000000,4.000000,4.000000,4.000000,4.000000,4.000000,100.000000
1602006624.339716,101.000000,0.000000,4124.615234,4116.922852,4127.179688,4126.666504,4115.384766,4122.563965,4125.128418,4129.743652,4110.769043,4110.256348,4108.717773,4115.897461,4115.897461,4104.615234,728.000000,4.000000,,,,0.000000,4.000000,4.000000,4.000000,4.000000,4.000000,4.000000,4.000000,4.000000,4.000000,4.000000,4.000000,4.000000,4.000000,4.000000,100.000000
1602006624.347496,102.000000,0.000000,4108.717773,4105.128418,4120.000000,4122.051270,4109.230957,4116.410156,4135.384766,4119.487305,4085.128174,4088.205078,4097.948730,4106.153809,4103.589844,4102.051270,870.000000,4.000000,,,,0.000000,4.000000,4.000000,4.000000,4.000000,4.000000,4.000000,4.000000,4.000000,4.000000,4.000000,4.000000,4.000000,4.000000,4.000000,100.000000
1602006624.355477,103.000000,0.000000,4104.615234,4112.307617,4120.512695,4121.025879,4117.948730,4121.538574,4137.948730,4120.512695,4094.358887,4109.743652,4100.512695,4113.846191,4105.641113,4108.717773,844.000000,4.000000,,,,0.000000,4.000000,4.000000,4.000000,4.000000,4.000000,4.000000,4.000000,4.000000,4.000000,4.000000,4.000000,4.000000,4.000000,4.000000,100.000000
1602006624.363358,104.000000,0.000000,4114.871582,4118.974121,4123.077148,4120.000000,4120.512695,4120.512695,4131.794922,4122.051270,4109.743652,4132.820313,4105.128418,4117.948730,4107.692383,4107.692383,761.000000,4.000000,,,,0.000000,4.000000,4.000000,4.000000,4.000000,4.000000,4.000000,4.000000,4.000000,4.000000,4.000000,4.000000,4.000000,4.000000,4.000000,100.000000
1602006624.371239,105.000000,0.000000,4128.205078,4121.538574,4132.307617,4128.717773,4119.487305,4109.743652,4126.666504,4123.077148,4106.153809,4130.256348,4121.538574,4125.641113,4124.102539,4111.794922,728.000000,4.000000,,,,0.000000,4.000000,4.000000,4.000000,4.000000,4.000000,4.000000,4.000000,4.000000,4.000000,4.000000,4.000000,4.000000,4.000000,4.000000,100.000000
1602006624.379121,106.000000,0.000000,4138.974121,4134.871582,4146.666504,4141.538574,4125.128418,4110.769043,4124.102539,4131.282227,4109.230957,4132.307617,4139.487305,4145.128418,4144.102539,4131.794922,870.000000,4.000000,,,,0.000000,4.000000,4.000000,4.000000,4.000000,4.000000,4.000000,4.000000,4.000000,4.000000,4.000000,4.000000,4.000000,4.000000,4.000000,100.000000
1602006624.387002,107.000000,0.000000,4147.179688,4142.051270,4154.871582,4139.487305,4129.230957,4118.461426,4122.563965,4138.974121,4130.256348,4152.820313,4140.512695,4154.871582,4144.102539,4143.589844,844.000000,4.000000,,,,0.000000,4.000000,4.000000,4.000000,4.000000,4.000000,4.000000,4.000000,4.000000,4.000000,4.000000,4.000000,4.000000,4.000000,4.000000,100.000000
1602006624.394883,108.000000,0.000000,4154.871582,4141.025879,4163.077148,4140.512695,4132.820313,4121.025879,4122.563965,4141.025879,4144.102539,4164.102539,4138.461426,4156.410156,4147.692383,4147.692383,761.000000,4.000000,,,,0.000000,4.000000,4.000000,4.000000,4.000000,4.000000,4.000000,4.000000,4.000000,4.000000,4.000000,4.000000,4.000000,4.000000,4.000000,100.000000
1602006624.402764,109.000000,0.000000,4162.051270,4148.205078,4175.384766,4153.846191,4140.512695,4129.230957,4120.000000,4141.538574,4134.871582,4157.948730,4143.077148,4166.153809,4162.563965,4158.974121,728.000000,4.000000,,,,0.000000,4.000000,4.000000,4.000000,4.000000,4.000000,4.000000,4.000000,4.000000,4.000000,4.000000,4.000000,4.000000,4.000000,4.000000,100.000000
1602006624.410645,110.000000,0.000000,4156.922852,4149.743652,4170.256348,4155.384766,4137.948730,4136.410156,4117.436035,4141.025879,4124.615234,4151.282227,4139.487305,4162.051270,4156.410156,4155.897461,870.000000,4.000000,,,,0.000000,4.000000,4.000000,4.000000,4.000000,4.000000,4.000000,4.000000,4.000000,4.000000,4.000000,4.000000,4.000000,4.000000,4.000000,100.000000
1602006624.418526,111.000000,0.000000,4144.615234,4140.512695,4147.692383,4142.563965,4126.666504,4127.179688,4118.461426,4140.000000,4125.641113,4146.666504,4137.436035,4141.025879,4143.077148,4141.538574,844.000000,4.000000,,,,0.000000,4.000000,4.000000,4.000000,4.000000,4.000000,4.000000,4.000000,4.000000,4.000000,4.000000,4.000000,4.000000,4.000000,4.000000,100.000000
1602006624.426508,112.000000,0.000000,4133.846191,4135.384766,4137.436035,4137.436035,4124.102539,4121.025879,4122.051270,4140.000000,4121.025879,4132.307617,4142.051270,4135.384766,4143.589844,4140.000000,761.000000,4.000000,,,,0.000000,4.000000,4.000000,4.000000,4.000000,4.000000,4.000000,4.000000,4.000000,4.000000,4.000000,4.000000,4.000000,4.000000,4.000000,100.000000
1602006624.434389,113.000000,0.000000,4129.230957,4130.256348,4137.436035,4139.487305,4125.641113,4126.666504,4130.769043,4134.358887,4107.179688,4122.051270,4131.794922,4135.897461,4139.487305,4131.794922,728.000000,4.000000,,,,0.000000,4.000000,4.000000,4.000000,4.000000,4.000000,4.000000,4.000000,4.000000,4.000000,4.000000,4.000000,4.000000,4.000000,4.000000,100.000000
1602006624.442270,114.000000,0.000000,4123.077148,4116.922852,4123.589844,4131.282227,4122.051270,4124.615234,4137.436035,4118.461426,4096.922852,4126.153809,4111.794922,4117.948730,4125.128418,4113.333496,870.000000,4.000000,,,,0.000000,4.000000,4.000000,4.000000,4.000000,4.000000,4.000000,4.000000,4.000000,4.000000,4.000000,4.000000,4.000000,4.000000,4.000000,100.000000
1602006624.450151,115.000000,0.000000,4107.692383,4109.743652,4103.589844,4120.512695,4120.512695,4124.615234,4138.974121,4106.153809,4088.718018,4120.000000,4103.077148,4102.563965,4110.256348,4101.025879,844.000000,4.000000,,,,0.000000,4.000000,4.000000,4.000000,4.000000,4.000000,4.000000,4.000000,4.000000,4.000000,4.000000,4.000000,4.000000,4.000000,4.000000,100.000000
1602006624.458032,116.000000,0.000000,4100.512695,4111.282227,4097.436035,4117.948730,4125.641113,4131.794922,4139.487305,4103.589844,4082.564209,4098.461426,4106.666504,4100.512695,4101.025879,4095.384521,761.000000,4.000000,,,,0.000000,4.000000,4.000000,4.000000,4.000000,4.000000,4.000000,4.000000,4.000000,4.000000,4.000000,4.000000,4.000000,4.000000,4.000000,100.000000
1602006624.465913,117.000000,0.000000,4107.692383,4115.384766,4105.641113,4123.589844,4132.820313,4130.769043,4133.846191,4104.102539,4085.128174,4090.256348,4105.641113,4103.077148,4104.615234,4095.897461,728.000000,4.000000,,,,0.000000,4.000000,4.000000,4.000000,4.000000,4.000000,4.000000,4.000000,4.000000,4.000000,4.000000,4.000000,4.000000,4.000000,4.000000,100.000000
1602006624.473795,118.000000,0.000000,4118.974121,4127.179688,4117.948730,4133.333496,4136.922852,4132.307617,4124.102539,4112.307617,4096.410156,4107.179688,4100.512695,4116.410156,4116.922852,4109.743652,870.000000,4.000000,,,,0.000000,4.000000,4.000000,4.000000,4.000000,4.000000,4.000000,4.000000,4.000000,4.000000,4.000000,4.000000,4.000000,4.000000,4.000000,100.000000
1602006624.481676,119.000000,0.000000,4131.282227,4146.153809,4131.794922,4142.051270,4142.051270,4136.410156,4120.512695,4126.153809,4120.512695,4130.256348,4115.897461,4138.461426,4133.846191,4126.153809,844.000000,4.000000,,,,0.000000,4.000000,4.000000,4.000000,4.000000,4.000000,4.000000,4.000000,4.000000,4.000000,4.000000,4.000000,4.000000,4.000000,4.000000,100.000000
1602006624.489557,120.000000,0.000000,4135.384766,4157.436035,4137.436035,4149.230957,4146.666504,4125.641113,4116.410156,4129.743652,4140.000000,4146.666504,4139.487305,4151.794922,4153.333496,4134.358887,761.000000,4.000000,,,,0.000000,4.000000,4.000000,4.000000,4.000000,4.000000,4.000000,4.000000,4.000000,4.000000,4.000000,4.000000,4.000000,4.000000,4.000000,100.000000
1602006624.497338,121.000000,0.000000,4131.794922,4154.358887,4141.538574,4150.769043,4150.256348,4114.871582,4107.179688,4129.743652,4140.512695,4157.948730,4144.102539,4152.307617,4163.077148,4145.641113,728.000000,4.000000,,,,0.000000,4.000000,4.000000,4.000000,4.000000,4.000000,4.000000,4.000000,4.000000,4.000000,4.000000,4.000000,4.000000,4.000000,4.000000,100.000000
1602006624.505219,122.000000,0.000000,4135.897461,4155.384766,4149.230957,4147.179688,4153.333496,4123.589844,4107.692383,4136.410156,4139.487305,4165.641113,4142.563965,4156.922852,4160.512695,4155.384766,870.000000,4.000000,,,,0.000000,4.000000,4.000000,4.000000,4.000000,4.000000,4.000000,4.000000,4.000000,4.000000,4.000000,4.000000,4.000000,4.000000,4.000000,100.000000
1602006624.513100,123.000000,0.000000,4142.051270,4155.897461,4153.846191,4142.051270,4147.692383,4120.000000,4110.769043,4133.846191,4135.897461,4149.230957,4141.025879,4161.025879,4158.461426,4150.256348,844.000000,4.000000,,,,0.000000,4.000000,4.000000,4.000000,4.000000,4.000000,4.000000,4.000000,4.000000,4.000000,4.000000,4.000000,4.000000,4.000000,4.000000,100.000000
1602006624.520982,124.000000,0.000000,4133.846191,4144.102539,4152.307617,4140.512695,4134.871582,4104.102539,4110.256348,4121.538574,4119.487305,4122.563965,4127.692383,4157.436035,4152.307617,4134.871582,761.000000,4.000000,,,,0.000000,4.000000,4.000000,4.000000,4.000000,4.000000,4.000000,4.000000,4.000000,4.000000,4.000000,4.000000,4.000000,4.000000,4.000000,100.000000
1602006624.528863,125.000000,0.000000,4127.692383,4134.871582,4148.717773,4136.922852,4131.794922,4115.897461,4116.410156,4117.948730,4108.717773,4128.205078,4111.282227,4154.871582,4133.846191,4123.589844,728.000000,4.000000,,,,0.000000,4.000000,4.000000,4.000000,4.000000,4.000000,4.000000,4.000000,4.000000,4.000000,4.000000,4.000000,4.000000,4.000000,4.000000,100.000000
1602006624.536744,126.000000,0.000000,4126.153809,4130.256348,4141.538574,4124.615234,4134.871582,4142.051270,4128.205078,4119.487305,4103.589844,4136.410156,4108.205078,4154.871582,4120.000000,4122.051270,870.000000,4.000000,,,,0.000000,4.000000,4.000000,4.000000,4.000000,4.000000,4.000000,4.000000,4.000000,4.000000,4.000000,4.000000,4.000000,4.000000,4.000000,100.000000
1602006624.544625,127.000000,0.000000,4121.025879,4128.205078,4134.871582,4122.051270,4134.871582,4153.333496,4134.871582,4120.000000,4106.666504,4123.077148,4115.384766,4156.410156,4126.153809,4122.563965,844.000000,4.000000,,,,0.000000,4.000000,4.000000,4.000000,4.000000,4.000000,4.000000,4.000000,4.000000,4.000000,4.000000,4.000000,4.000000,4.000000,4.000000,100.000000
1602006624.552506,128.000000,0.000000,4127.179688,4133.846191,4138.974121,4134.358887,4142.563965,4155.384766,4133.333496,4122.563965,4134.871582,4143.589844,4128.717773,4162.563965,4144.615234,4123.589844,761.000000,4.000000,,,,0.000000,4.000000,4.000000,4.000000,4.000000,4.000000,4.000000,4.000000,4.000000,4.000000,4.000000,4.000000,4.000000,4.000000,4.000000,100.000000
1602006624.560487,0.000000,0.000000,4138.461426,4143.589844,4141.025879,4143.589844,4151.282227,4152.820313,4127.692383,4120.000000,4149.230957,4168.717773,4138.974121,4167.179688,4155.384766,4127.179688,791.000000,4.000000,,,,0.000000,4.000000,4.000000,4.000000,4.000000,4.000000,4.000000,4.000000,4.000000,4.000000,4.000000,4.000000,4.000000,4.000000,4.000000,100.000000
1602006624.568368,1.000000,0.000000,4142.563965,4149.230957,4136.922852,4137.948730,4143.589844,4134.871582,4116.922852,4107.692383,4127.179688,4135.384766,4138.974121,4164.615234,4154.871582,4136.922852,786.000000,4.000000,,,,0.000000,4.000000,4.000000,4.000000,4.000000,4.000000,4.000000,4.000000,4.000000,4.000000,4.000000,4.000000,4.000000,4.000000,4.000000,100.000000
1602006624.576249,2.000000,0.000000,4146.153809,4150.769043,4143.589844,4138.461426,4135.897461,4113.846191,4106.153809,4104.615234,4120.512695,4121.538574,4140.000000,4169.743652,4157.948730,4149.743652,854.000000,4.000000,,,,0.000000,4.000000,4.000000,4.000000,4.000000,4.000000,4.000000,4.000000,4.000000,4.000000,4.000000,4.000000,4.000000,4.000000,4.000000,100.000000
1602006624.584130,3.000000,0.000000,4155.897461,4152.307617,4162.051270,4149.230957,4140.000000,4105.641113,4105.128418,4111.282227,4145.641113,4161.538574,4139.487305,4183.589844,4163.077148,4156.410156,865.000000,4.000000,,,,0.000000,4.000000,4.000000,4.000000,4.000000,4.000000,4.000000,4.000000,4.000000,4.000000,4.000000,4.000000,4.000000,4.000000,4.000000,100.000000
1602006624.592011,4.000000,0.000000,4163.589844,4154.871582,4170.769043,4148.205078,4143.077148,4108.205078,4104.102539,4113.333496,4155.384766,4172.307617,4139.487305,4189.743652,4160.000000,4154.358887,811.000000,4.000000,,,,0.000000,4.000000,4.000000,4.000000,4.000000,4.000000,4.000000,4.000000,4.000000,4.000000,4.000000,4.000000,4.000000,4.000000,4.000000,100.000000
1602006624.599992,5.000000,0.000000,4155.384766,4152.307617,4158.461426,4140.512695,4144.615234,4112.307617,4097.436035,4114.871582,4143.077148,4156.922852,4143.077148,4184.615234,4154.358887,4145.641113,826.000000,4.000000,,,,0.000000,4.000000,4.000000,4.000000,4.000000,4.000000,4.000000,4.000000,4.000000,4.000000,4.000000,4.000000,4.000000,4.000000,4.000000,100.000000
1602006624.607873,6.000000,0.000000,4135.384766,4140.512695,4138.974121,4135.897461,4143.589844,4108.205078,4095.897461,4120.000000,4137.436035,4151.794922,4138.974121,4175.384766,4149.743652,4132.820313,760.000000,4.000000,,,,0.000000,4.000000,4.000000,4.000000,4.000000,4.000000,4.000000,4.000000,4.000000,4.000000,4.000000,4.000000,4.000000,4.000000,4.000000,100.000000
1602006624.615753,7.000000,0.000000,4123.077148,4133.846191,4125.128418,4129.743652,4140.000000,4109.230957,4105.641113,4122.563965,4137.436035,4124.615234,4126.666504,4165.128418,4142.563965,4117.948730,705.000000,4.000000,,,,0.000000,4.000000,4.000000,4.000000,4.000000,4.000000,4.000000,4.000000,4.000000,4.000000,4.000000,4.000000,4.000000,4.000000,4.000000,100.000000
1602006624.623634,8.000000,0.000000,4125.641113,4136.922852,4122.563965,4127.179688,4147.692383,4128.205078,4115.897461,4122.563965,4135.384766,4099.487305,4123.589844,4155.897461,4137.436035,4115.384766,780.000000,4.000000,,,,0.000000,4.000000,4.000000,4.000000,4.000000,4.000000,4.000000,4.000000,4.000000,4.000000,4.000000,4.000000,4.000000,4.000000,4.000000,100.000000
1602006624.631515,9.000000,0.000000,4124.102539,4138.974121,4126.666504,4133.333496,4152.820313,4144.615234,4127.692383,4124.615234,4138.461426,4127.179688,4127.179688,4151.794922,4138.974121,4123.589844,861.000000,4.000000,,,,0.000000,4.000000,4.000000,4.000000,4.000000,4.000000,4.000000,4.000000,4.000000,4.000000,4.000000,4.000000,4.000000,4.000000,4.000000,100.000000
