Timestamp,EEG.Counter,EEG.Interpolated,EEG.AF3,EEG.F7,EEG.F3,EEG.FC5,EEG.T7,EEG.P7,EEG.O1,EEG.O2,EEG.P8,EEG.T8,EEG.FC6,EEG.F4,EEG.F8,EEG.AF4,EEG.RawCq,EEG.Battery,MarkerIndex,MarkerType,MarkerValueInt,EEG.MarkerHardware,CQ.AF3,CQ.F7,CQ.F3,CQ.FC5,CQ.T7,CQ.P7,CQ.O1,CQ.O2,CQ.P8,CQ.T8,CQ.FC6,CQ.F4,CQ.F8,CQ.AF4,CQ.Overall
1602006771.374964,53.000000,0.000000,4135.897461,4140.512695,4118.974121,4137.436035,4140.000000,4137.436035,4111.282227,4122.563965,4123.589844,4140.000000,4138.974121,4136.410156,4141.025879,4143.589844,0.000000,4.000000,,,,0.000000,4.000000,4.000000,4.000000,4.000000,4.000000,4.000000,4.000000,4.000000,4.000000,4.000000,4.000000,4.000000,4.000000,4.000000,100.000000
1602006771.382745,54.000000,0.000000,4138.461426,4139.487305,4118.974121,4136.410156,4138.461426,4130.769043,4117.948730,4134.358887,4124.102539,4144.615234,4133.333496,4138.974121,4136.922852,4141.025879,0.000000,4.000000,,,,0.000000,4.000000,4.000000,4.000000,4.000000,4.000000,4.000000,4.000000,4.000000,4.000000,4.000000,4.000000,4.000000,4.000000,4.000000,100.000000
1602006771.390626,55.000000,0.000000,4138.461426,4140.000000,4119.487305,4138.461426,4135.384766,4128.205078,4125.641113,4140.512695,4123.077148,4136.922852,4124.615234,4137.436035,4123.589844,4134.871582,0.000000,4.000000,,,,0.000000,4.000000,4.000000,4.000000,4.000000,4.000000,4.000000,4.000000,4.000000,4.000000,4.000000,4.000000,4.000000,4.000000,4.000000,100.000000
1602006771.398507,56.000000,0.000000,4138.974121,4136.922852,4120.000000,4135.897461,4130.256348,4128.717773,4132.307617,4135.384766,4124.102539,4137.436035,4124.102539,4134.871582,4119.487305,4139.487305,0.000000,4.000000,,,,0.000000,4.000000,4.000000,4.000000,4.000000,4.000000,4.000000,4.000000,4.000000,4.000000,4.000000,4.000000,4.000000,4.000000,4.000000,100.000000
1602006771.406388,57.000000,0.000000,4134.871582,4127.692383,4122.051270,4127.179688,4123.077148,4123.589844,4138.974121,4135.384766,4129.743652,4156.410156,4125.641113,4137.436035,4123.077148,4143.077148,0.000000,4.000000,,,,0.000000,4.000000,4.000000,4.000000,4.000000,4.000000,4.000000,4.000000,4.000000,4.000000,4.000000,4.000000,4.000000,4.000000,4.000000,100.000000
1602006771.414269,58.000000,0.000000,4126.666504,4122.563965,4124.615234,4123.077148,4122.563965,4123.077148,4141.025879,4138.974121,4127.692383,4146.666504,4123.077148,4137.948730,4121.538574,4135.384766,0.000000,4.000000,,,,0.000000,4.000000,4.000000,4.000000,4.000000,4.000000,4.000000,4.000000,4.000000,4.000000,4.000000,4.000000,4.000000,4.000000,4.000000,100.000000
1602006771.422151,59.000000,0.000000,4124.615234,4122.051270,4123.077148,4123.077148,4120.512695,4134.358887,4137.948730,4138.461426,4115.897461,4101.025879,4118.461426,4135.897461,4114.871582,4131.794922,0.000000,4.000000,,,,0.000000,4.000000,4.000000,4.000000,4.000000,4.000000,4.000000,4.000000,4.000000,4.000000,4.000000,4.000000,4.000000,4.000000,4.000000,100.000000
1602006771.430032,60.000000,0.000000,4134.358887,4123.589844,4123.589844,4125.641113,4119.487305,4142.051270,4137.948730,4137.948730,4112.820313,4101.025879,4122.563965,4138.974121,4117.436035,4139.487305,0.000000,4.000000,,,,0.000000,4.000000,4.000000,4.000000,4.000000,4.000000,4.000000,4.000000,4.000000,4.000000,4.000000,4.000000,4.000000,4.000000,4.000000,100.000000
1602006771.437913,61.000000,0.000000,4146.666504,4134.358887,4128.717773,4134.871582,4131.794922,4142.563965,4139.487305,4137.948730,4121.025879,4145.128418,4135.384766,4146.666504,4130.769043,4144.102539,0.000000,4.000000,,,,0.000000,4.000000,4.000000,4.000000,4.000000,4.000000,4.000000,4.000000,4.000000,4.000000,4.000000,4.000000,4.000000,4.000000,4.000000,100.000000
1602006771.445794,62.000000,0.000000,4144.102539,4140.000000,4129.230957,4137.948730,4143.077148,4144.615234,4136.922852,4138.461426,4125.641113,4152.820313,4143.589844,4154.358887,4142.051270,4137.948730,0.000000,4.000000,,,,0.000000,4.000000,4.000000,4.000000,4.000000,4.000000,4.000000,4.000000,4.000000,4.000000,4.000000,4.000000,4.000000,4.000000,4.000000,100.000000
1602006771.453775,63.000000,0.000000,4132.820313,4128.717773,4123.589844,4128.717773,4138.461426,4143.077148,4129.743652,4135.897461,4130.769043,4130.769043,4145.128418,4152.307617,4137.948730,4135.384766,0.000000,4.000000,,,,0.000000,4.000000,4.000000,4.000000,4.000000,4.000000,4.000000,4.000000,4.000000,4.000000,4.000000,4.000000,4.000000,4.000000,4.000000,100.000000
1602006771.461656,64.000000,0.000000,4133.846191,4121.025879,4119.487305,4122.051270,4133.846191,4131.794922,4122.051270,4128.717773,4137.948730,4133.333496,4137.948730,4140.512695,4124.102539,4139.487305,790.000000,4.000000,,,,0.000000,4.000000,4.000000,4.000000,4.000000,4.000000,4.000000,4.000000,4.000000,4.000000,4.000000,4.000000,4.000000,4.000000,4.000000,100.000000
1602006771.469537,65.000000,0.000000,4140.000000,4125.128418,4120.000000,4124.102539,4137.436035,4122.051270,4120.512695,4123.589844,4136.922852,4138.461426,4125.641113,4137.436035,4123.077148,4134.358887,791.000000,4.000000,,,,0.000000,4.000000,4.000000,4.000000,4.000000,4.000000,4.000000,4.000000,4.000000,4.000000,4.000000,4.000000,4.000000,4.000000,4.000000,100.000000
1602006771.477418,66.000000,0.000000,4136.922852,4130.769043,4126.153809,4129.743652,4135.897461,4123.589844,4119.487305,4121.025879,4132.820313,4121.025879,4124.102539,4148.717773,4135.897461,4126.153809,852.000000,4.000000,,,,0.000000,4.000000,4.000000,4.000000,4.000000,4.000000,4.000000,4.000000,4.000000,4.000000,4.000000,4.000000,4.000000,4.000000,4.000000,100.000000
1602006771.485299,67.000000,0.000000,4139.487305,4139.487305,4134.871582,4136.410156,4136.410156,4133.333496,4121.025879,4123.589844,4136.922852,4118.974121,4136.410156,4158.974121,4142.051270,4135.384766,868.000000,4.000000,,,,0.000000,4.000000,4.000000,4.000000,4.000000,4.000000,4.000000,4.000000,4.000000,4.000000,4.000000,4.000000,4.000000,4.000000,4.000000,100.000000
1602006771.493180,68.000000,0.000000,4153.333496,4145.128418,4138.461426,4141.025879,4143.077148,4138.461426,4128.717773,4127.179688,4140.000000,4137.436035,4141.025879,4157.436035,4138.461426,4149.743652,814.000000,4.000000,,,,0.000000,4.000000,4.000000,4.000000,4.000000,4.000000,4.000000,4.000000,4.000000,4.000000,4.000000,4.000000,4.000000,4.000000,4.000000,100.000000
1602006771.501061,69.000000,0.000000,4154.358887,4142.051270,4137.948730,4139.487305,4142.563965,4142.563965,4137.948730,4126.666504,4135.384766,4146.153809,4132.820313,4154.871582,4137.948730,4140.512695,807.000000,4.000000,,,,0.000000,4.000000,4.000000,4.000000,4.000000,4.000000,4.000000,4.000000,4.000000,4.000000,4.000000,4.000000,4.000000,4.000000,4.000000,100.000000
1602006771.509041,70.000000,0.000000,4143.589844,4137.436035,4131.794922,4132.820313,4129.743652,4146.666504,4141.025879,4128.205078,4132.307617,4136.410156,4129.230957,4153.846191,4132.820313,4126.153809,793.000000,4.000000,,,,0.000000,4.000000,4.000000,4.000000,4.000000,4.000000,4.000000,4.000000,4.000000,4.000000,4.000000,4.000000,4.000000,4.000000,4.000000,100.000000
1602006771.516922,71.000000,0.000000,4137.948730,4136.410156,4125.641113,4128.717773,4125.128418,4142.051270,4138.461426,4134.358887,4137.436035,4130.256348,4133.846191,4154.358887,4120.512695,4130.769043,684.000000,4.000000,,,,0.000000,4.000000,4.000000,4.000000,4.000000,4.000000,4.000000,4.000000,4.000000,4.000000,4.000000,4.000000,4.000000,4.000000,4.000000,100.000000
1602006771.524803,72.000000,0.000000,4138.974121,4137.436035,4133.333496,4133.333496,4133.846191,4137.436035,4140.000000,4140.512695,4146.153809,4141.025879,4139.487305,4159.487305,4125.641113,4142.563965,779.000000,4.000000,,,,0.000000,4.000000,4.000000,4.000000,4.000000,4.000000,4.000000,4.000000,4.000000,4.000000,4.000000,4.000000,4.000000,4.000000,4.000000,100.000000
1602006771.532684,73.000000,0.000000,4138.461426,4141.025879,4137.948730,4137.436035,4140.000000,4135.897461,4142.051270,4136.410156,4145.641113,4133.846191,4139.487305,4159.487305,4141.538574,4144.615234,837.000000,4.000000,,,,0.000000,4.000000,4.000000,4.000000,4.000000,4.000000,4.000000,4.000000,4.000000,4.000000,4.000000,4.000000,4.000000,4.000000,4.000000,100.000000
1602006771.540565,74.000000,0.000000,4138.974121,4142.051270,4126.666504,4135.384766,4138.461426,4128.205078,4131.794922,4125.641113,4135.384766,4112.820313,4134.358887,4151.282227,4142.051270,4138.974121,871.000000,4.000000,,,,0.000000,4.000000,4.000000,4.000000,4.000000,4.000000,4.000000,4.000000,4.000000,4.000000,4.000000,4.000000,4.000000,4.000000,4.000000,100.000000
1602006771.548446,75.000000,0.000000,4140.512695,4140.512695,4122.563965,4136.410156,4136.922852,4121.025879,4120.512695,4122.563965,4138.461426,4123.077148,4136.410156,4147.692383,4134.358887,4138.461426,836.000000,4.000000,,,,0.000000,4.000000,4.000000,4.000000,4.000000,4.000000,4.000000,4.000000,4.000000,4.000000,4.000000,4.000000,4.000000,4.000000,4.000000,100.000000
1602006771.556327,76.000000,0.000000,4142.563965,4140.512695,4128.205078,4136.410156,4138.461426,4124.102539,4120.512695,4129.230957,4152.307617,4149.230957,4138.974121,4154.358887,4141.025879,4140.512695,766.000000,4.000000,,,,0.000000,4.000000,4.000000,4.000000,4.000000,4.000000,4.000000,4.000000,4.000000,4.000000,4.000000,4.000000,4.000000,4.000000,4.000000,100.000000
1602006771.564208,77.000000,0.000000,4138.461426,4135.384766,4125.128418,4127.692383,4134.871582,4127.179688,4117.436035,4126.666504,4147.692383,4135.384766,4127.179688,4153.333496,4136.922852,4128.717773,729.000000,4.000000,,,,0.000000,4.000000,4.000000,4.000000,4.000000,4.000000,4.000000,4.000000,4.000000,4.000000,4.000000,4.000000,4.000000,4.000000,4.000000,100.000000
1602006771.571989,78.000000,0.000000,4125.128418,4125.128418,4118.461426,4120.000000,4128.205078,4123.589844,4106.153809,4111.282227,4125.128418,4107.179688,4106.153809,4138.974121,4114.871582,4110.256348,871.000000,4.000000,,,,0.000000,4.000000,4.000000,4.000000,4.000000,4.000000,4.000000,4.000000,4.000000,4.000000,4.000000,4.000000,4.000000,4.000000,4.000000,100.000000
1602006771.579870,79.000000,0.000000,4123.077148,4122.051270,4118.974121,4123.589844,4128.717773,4123.589844,4105.128418,4101.538574,4122.051270,4110.769043,4101.025879,4131.282227,4109.743652,4110.256348,836.000000,4.000000,,,,0.000000,4.000000,4.000000,4.000000,4.000000,4.000000,4.000000,4.000000,4.000000,4.000000,4.000000,4.000000,4.000000,4.000000,4.000000,100.000000
1602006771.587751,80.000000,0.000000,4134.871582,4129.230957,4127.179688,4133.333496,4133.846191,4130.769043,4113.846191,4104.102539,4134.358887,4109.743652,4113.846191,4139.487305,4121.025879,4126.666504,766.000000,4.000000,,,,0.000000,4.000000,4.000000,4.000000,4.000000,4.000000,4.000000,4.000000,4.000000,4.000000,4.000000,4.000000,4.000000,4.000000,4.000000,100.000000
1602006771.595632,81.000000,0.000000,4141.538574,4135.897461,4138.461426,4136.410156,4137.948730,4138.974121,4122.051270,4110.769043,4137.948730,4103.589844,4125.641113,4152.307617,4129.230957,4136.922852,729.000000,4.000000,,,,0.000000,4.000000,4.000000,4.000000,4.000000,4.000000,4.000000,4.000000,4.000000,4.000000,4.000000,4.000000,4.000000,4.000000,4.000000,100.000000
1602006771.603513,82.000000,0.000000,4143.589844,4136.922852,4145.641113,4136.410156,4137.436035,4141.025879,4130.769043,4118.974121,4144.615234,4125.641113,4126.666504,4161.538574,4136.410156,4147.179688,871.000000,4.000000,,,,0.000000,4.000000,4.000000,4.000000,4.000000,4.000000,4.000000,4.000000,4.000000,4.000000,4.000000,4.000000,4.000000,4.000000,4.000000,100.000000
1602006771.611394,83.000000,0.000000,4153.846191,4137.436035,4144.615234,4138.461426,4133.333496,4141.538574,4141.538574,4131.282227,4156.922852,4152.307617,4126.153809,4166.153809,4146.666504,4156.922852,836.000000,4.000000,,,,0.000000,4.000000,4.000000,4.000000,4.000000,4.000000,4.000000,4.000000,4.000000,4.000000,4.000000,4.000000,4.000000,4.000000,4.000000,100.000000
1602006771.619174,84.000000,0.000000,4158.974121,4138.974121,4142.051270,4138.974121,4132.820313,4141.538574,4148.717773,4141.025879,4156.922852,4157.436035,4135.384766,4167.692383,4147.179688,4148.205078,766.000000,4.000000,,,,0.000000,4.000000,4.000000,4.000000,4.000000,4.000000,4.000000,4.000000,4.000000,4.000000,4.000000,4.000000,4.000000,4.000000,4.000000,100.000000
1602006771.627055,85.000000,0.000000,4149.743652,4138.974121,4143.077148,4137.948730,4136.410156,4139.487305,4146.666504,4141.025879,4152.307617,4161.025879,4144.102539,4165.641113,4140.512695,4135.384766,729.000000,4.000000,,,,0.000000,4.000000,4.000000,4.000000,4.000000,4.000000,4.000000,4.000000,4.000000,4.000000,4.000000,4.000000,4.000000,4.000000,4.000000,100.000000
1602006771.634836,86.000000,0.000000,4139.487305,4136.410156,4140.512695,4138.461426,4134.871582,4142.051270,4142.563965,4138.974121,4154.871582,4155.384766,4136.410156,4159.487305,4138.974121,4139.487305,871.000000,4.000000,,,,0.000000,4.000000,4.000000,4.000000,4.000000,4.000000,4.000000,4.000000,4.000000,4.000000,4.000000,4.000000,4.000000,4.000000,4.000000,100.000000
1602006771.642716,87.000000,0.000000,4137.436035,4134.871582,4129.743652,4135.384766,4134.358887,4146.666504,4142.051270,4138.974121,4154.358887,4129.230957,4124.615234,4153.333496,4142.051270,4145.128418,836.000000,4.000000,,,,0.000000,4.000000,4.000000,4.000000,4.000000,4.000000,4.000000,4.000000,4.000000,4.000000,4.000000,4.000000,4.000000,4.000000,4.000000,100.000000
1602006771.650497,88.000000,0.000000,4136.410156,4135.897461,4120.000000,4127.692383,4133.846191,4142.051270,4134.871582,4133.846191,4149.743652,4124.102539,4120.512695,4147.179688,4137.948730,4132.307617,766.000000,4.000000,,,,0.000000,4.000000,4.000000,4.000000,4.000000,4.000000,4.000000,4.000000,4.000000,4.000000,4.000000,4.000000,4.000000,4.000000,4.000000,100.000000
1602006771.658378,89.000000,0.000000,4128.205078,4135.384766,4119.487305,4124.102539,4124.102539,4134.871582,4123.589844,4122.051270,4152.307617,4134.871582,4120.000000,4140.512695,4122.051270,4116.922852,729.000000,4.000000,,,,0.000000,4.000000,4.000000,4.000000,4.000000,4.000000,4.000000,4.000000,4.000000,4.000000,4.000000,4.000000,4.000000,4.000000,4.000000,100.000000
1602006771.666259,90.000000,0.000000,4126.153809,4135.897461,4123.077148,4125.641113,4123.077148,4137.436035,4121.025879,4117.948730,4153.333496,4132.820313,4123.589844,4138.461426,4123.589844,4125.128418,871.000000,4.000000,,,,0.000000,4.000000,4.000000,4.000000,4.000000,4.000000,4.000000,4.000000,4.000000,4.000000,4.000000,4.000000,4.000000,4.000000,4.000000,100.000000
1602006771.674140,91.000000,0.000000,4135.384766,4136.922852,4122.563965,4127.692383,4136.410156,4140.000000,4123.589844,4120.000000,4143.077148,4128.205078,4129.230957,4142.563965,4138.974121,4140.000000,836.000000,4.000000,,,,0.000000,4.000000,4.000000,4.000000,4.000000,4.000000,4.000000,4.000000,4.000000,4.000000,4.000000,4.000000,4.000000,4.000000,4.000000,100.000000
1602006771.682021,92.000000,0.000000,4142.051270,4137.948730,4125.128418,4131.282227,4137.948730,4136.410156,4123.589844,4118.461426,4135.897461,4134.871582,4127.692383,4146.153809,4139.487305,4136.410156,766.000000,4.000000,,,,0.000000,4.000000,4.000000,4.000000,4.000000,4.000000,4.000000,4.000000,4.000000,4.000000,4.000000,4.000000,4.000000,4.000000,4.000000,100.000000
1602006771.689902,93.000000,0.000000,4139.487305,4137.436035,4133.333496,4136.410156,4133.846191,4138.461426,4122.563965,4116.410156,4142.051270,4145.641113,4125.128418,4150.256348,4133.846191,4130.769043,729.000000,4.000000,,,,0.000000,4.000000,4.000000,4.000000,4.000000,4.000000,4.000000,4.000000,4.000000,4.000000,4.000000,4.000000,4.000000,4.000000,4.000000,100.000000
1602006771.697883,94.000000,0.000000,4137.436035,4133.333496,4138.461426,4136.410156,4136.922852,4139.487305,4125.641113,4118.461426,4142.051270,4138.974121,4125.641113,4153.846191,4138.461426,4138.974121,871.000000,4.000000,,,,0.000000,4.000000,4.000000,4.000000,4.000000,4.000000,4.000000,4.000000,4.000000,4.000000,4.000000,4.000000,4.000000,4.000000,4.000000,100.000000
1602006771.705764,95.000000,0.000000,4139.487305,4128.205078,4136.410156,4130.769043,4133.846191,4135.384766,4132.820313,4123.077148,4132.820313,4120.512695,4123.589844,4154.871582,4144.102539,4136.922852,836.000000,4.000000,,,,0.000000,4.000000,4.000000,4.000000,4.000000,4.000000,4.000000,4.000000,4.000000,4.000000,4.000000,4.000000,4.000000,4.000000,4.000000,100.000000
1602006771.713645,96.000000,0.000000,4134.358887,4123.589844,4128.717773,4123.589844,4125.128418,4136.922852,4136.922852,4123.589844,4135.384766,4124.615234,4122.051270,4151.794922,4135.897461,4125.128418,766.000000,4.000000,,,,0.000000,4.000000,4.000000,4.000000,4.000000,4.000000,4.000000,4.000000,4.000000,4.000000,4.000000,4.000000,4.000000,4.000000,4.000000,100.000000
1602006771.721526,97.000000,0.000000,4127.179688,4122.051270,4124.102539,4121.025879,4122.051270,4141.025879,4136.410156,4125.128418,4148.717773,4146.153809,4125.128418,4144.102539,4122.563965,4127.692383,729.000000,4.000000,,,,0.000000,4.000000,4.000000,4.000000,4.000000,4.000000,4.000000,4.000000,4.000000,4.000000,4.000000,4.000000,4.000000,4.000000,4.000000,100.000000
1602006771.729407,98.000000,0.000000,4129.230957,4118.974121,4129.230957,4116.922852,4121.025879,4138.974121,4138.974121,4134.358887,4153.333496,4150.256348,4124.102539,4146.153809,4126.666504,4130.256348,871.000000,4.000000,,,,0.000000,4.000000,4.000000,4.000000,4.000000,4.000000,4.000000,4.000000,4.000000,4.000000,4.000000,4.000000,4.000000,4.000000,4.000000,100.000000
1602006771.737288,99.000000,0.000000,4128.205078,4110.256348,4133.333496,4112.307617,4122.051270,4136.410156,4143.077148,4143.077148,4151.282227,4137.436035,4126.153809,4152.820313,4141.025879,4123.589844,836.000000,4.000000,,,,0.000000,4.000000,4.000000,4.000000,4.000000,4.000000,4.000000,4.000000,4.000000,4.000000,4.000000,4.000000,4.000000,4.000000,4.000000,100.000000
1602006771.745168,100.000000,0.000000,4121.538574,4113.333496,4127.692383,4117.436035,4125.641113,4140.512695,4140.512695,4138.461426,4146.666504,4135.384766,4130.769043,4145.128418,4137.436035,4122.051270,766.000000,4.000000,,,,0.000000,4.000000,4.000000,4.000000,4.000000,4.000000,4.000000,4.000000,4.000000,4.000000,4.000000,4.000000,4.000000,4.000000,4.000000,100.000000
1602006771.753149,101.000000,0.000000,4125.128418,4131.282227,4120.000000,4123.589844,4127.179688,4141.025879,4133.333496,4127.692383,4137.948730,4137.436035,4125.641113,4134.871582,4121.538574,4121.025879,729.000000,4.000000,,,,0.000000,4.000000,4.000000,4.000000,4.000000,4.000000,4.000000,4.000000,4.000000,4.000000,4.000000,4.000000,4.000000,4.000000,4.000000,100.000000
1602006771.761030,102.000000,0.000000,4137.948730,4141.538574,4123.589844,4127.179688,4133.333496,4137.436035,4128.717773,4125.641113,4140.000000,4133.846191,4117.436035,4138.461426,4119.487305,4116.922852,871.000000,4.000000,,,,0.000000,4.000000,4.000000,4.000000,4.000000,4.000000,4.000000,4.000000,4.000000,4.000000,4.000000,4.000000,4.000000,4.000000,4.000000,100.000000
1602006771.768911,103.000000,0.000000,4144.102539,4137.948730,4136.410156,4135.897461,4138.974121,4137.948730,4126.153809,4123.589844,4141.538574,4130.769043,4121.538574,4141.538574,4125.641113,4121.538574,836.000000,4.000000,,,,0.000000,4.000000,4.000000,4.000000,4.000000,4.000000,4.000000,4.000000,4.000000,4.000000,4.000000,4.000000,4.000000,4.000000,4.000000,100.000000
1602006771.776792,104.000000,0.000000,4143.589844,4137.436035,4135.384766,4137.436035,4131.282227,4137.436035,4121.538574,4115.384766,4125.128418,4122.563965,4125.128418,4136.922852,4124.615234,4125.641113,766.000000,4.000000,,,,0.000000,4.000000,4.000000,4.000000,4.000000,4.000000,4.000000,4.000000,4.000000,4.000000,4.000000,4.000000,4.000000,4.000000,4.000000,100.000000
1602006771.784673,105.000000,0.000000,4138.461426,4136.922852,4122.563965,4128.717773,4125.128418,4131.794922,4116.410156,4107.692383,4121.538574,4123.077148,4121.538574,4133.846191,4120.512695,4120.000000,729.000000,4.000000,,,,0.000000,4.000000,4.000000,4.000000,4.000000,4.000000,4.000000,4.000000,4.000000,4.000000,4.000000,4.000000,4.000000,4.000000,4.000000,100.000000
1602006771.792554,106.000000,0.000000,4133.846191,4129.230957,4118.974121,4126.666504,4133.846191,4124.615234,4118.461426,4109.230957,4137.948730,4129.230957,4121.025879,4133.846191,4121.025879,4118.974121,871.000000,4.000000,,,,0.000000,4.000000,4.000000,4.000000,4.000000,4.000000,4.000000,4.000000,4.000000,4.000000,4.000000,4.000000,4.000000,4.000000,4.000000,100.000000
1602006771.800435,107.000000,0.000000,4134.871582,4126.153809,4123.077148,4128.717773,4139.487305,4121.025879,4124.615234,4116.922852,4139.487305,4128.717773,4124.615234,4135.384766,4125.641113,4123.077148,836.000000,4.000000,,,,0.000000,4.000000,4.000000,4.000000,4.000000,4.000000,4.000000,4.000000,4.000000,4.000000,4.000000,4.000000,4.000000,4.000000,4.000000,100.000000
1602006771.808316,108.000000,0.000000,4137.948730,4132.820313,4121.538574,4128.205078,4134.871582,4125.641113,4126.153809,4123.589844,4131.282227,4130.769043,4124.102539,4135.384766,4126.153809,4124.102539,766.000000,4.000000,,,,0.000000,4.000000,4.000000,4.000000,4.000000,4.000000,4.000000,4.000000,4.000000,4.000000,4.000000,4.000000,4.000000,4.000000,4.000000,100.000000
1602006771.816297,109.000000,0.000000,4139.487305,4139.487305,4121.538574,4134.358887,4134.358887,4134.871582,4130.769043,4123.589844,4138.974121,4132.307617,4124.615234,4135.897461,4125.128418,4124.102539,729.000000,4.000000,,,,0.000000,4.000000,4.000000,4.000000,4.000000,4.000000,4.000000,4.000000,4.000000,4.000000,4.000000,4.000000,4.000000,4.000000,4.000000,100.000000
1602006771.824178,110.000000,0.000000,4137.436035,4138.974121,4126.153809,4138.974121,4138.974121,4139.487305,4137.948730,4121.538574,4144.615234,4132.820313,4128.717773,4137.948730,4132.820313,4126.666504,871.000000,4.000000,,,,0.000000,4.000000,4.000000,4.000000,4.000000,4.000000,4.000000,4.000000,4.000000,4.000000,4.000000,4.000000,4.000000,4.000000,4.000000,100.000000
1602006771.832059,111.000000,0.000000,4134.871582,4138.461426,4126.153809,4133.846191,4134.358887,4136.410156,4139.487305,4125.641113,4138.974121,4145.128418,4129.743652,4138.461426,4136.922852,4127.179688,836.000000,4.000000,,,,0.000000,4.000000,4.000000,4.000000,4.000000,4.000000,4.000000,4.000000,4.000000,4.000000,4.000000,4.000000,4.000000,4.000000,4.000000,100.000000
1602006771.839940,112.000000,0.000000,4136.410156,4136.410156,4125.128418,4128.205078,4124.102539,4130.769043,4136.922852,4129.230957,4137.948730,4153.846191,4126.666504,4134.358887,4128.205078,4124.615234,766.000000,4.000000,,,,0.000000,4.000000,4.000000,4.000000,4.000000,4.000000,4.000000,4.000000,4.000000,4.000000,4.000000,4.000000,4.000000,4.000000,4.000000,100.000000
1602006771.847822,113.000000,0.000000,4131.794922,4127.179688,4124.615234,4125.641113,4120.512695,4123.589844,4130.256348,4125.641113,4138.461426,4138.461426,4126.153809,4125.128418,4121.538574,4123.077148,729.000000,4.000000,,,,0.000000,4.000000,4.000000,4.000000,4.000000,4.000000,4.000000,4.000000,4.000000,4.000000,4.000000,4.000000,4.000000,4.000000,4.000000,100.000000
1602006771.855703,114.000000,0.000000,4123.589844,4121.025879,4124.615234,4125.641113,4124.615234,4118.974121,4121.538574,4122.563965,4137.436035,4133.846191,4125.128418,4120.000000,4124.102539,4125.128418,871.000000,4.000000,,,,0.000000,4.000000,4.000000,4.000000,4.000000,4.000000,4.000000,4.000000,4.000000,4.000000,4.000000,4.000000,4.000000,4.000000,4.000000,100.000000
1602006771.863584,115.000000,0.000000,4122.051270,4124.102539,4123.077148,4125.128418,4125.128418,4121.538574,4118.461426,4122.051270,4140.000000,4144.615234,4123.077148,4121.538574,4123.589844,4124.615234,836.000000,4.000000,,,,0.000000,4.000000,4.000000,4.000000,4.000000,4.000000,4.000000,4.000000,4.000000,4.000000,4.000000,4.000000,4.000000,4.000000,4.000000,100.000000
1602006771.871465,116.000000,0.000000,4124.615234,4124.102539,4122.563965,4123.077148,4122.563965,4121.538574,4117.948730,4123.077148,4143.589844,4134.358887,4124.102539,4126.153809,4120.512695,4119.487305,766.000000,4.000000,,,,0.000000,4.000000,4.000000,4.000000,4.000000,4.000000,4.000000,4.000000,4.000000,4.000000,4.000000,4.000000,4.000000,4.000000,4.000000,100.000000
1602006771.879346,117.000000,0.000000,4122.563965,4120.512695,4124.615234,4125.128418,4124.102539,4122.051270,4111.794922,4124.615234,4143.077148,4127.692383,4125.641113,4134.358887,4122.563965,4118.461426,729.000000,4.000000,,,,0.000000,4.000000,4.000000,4.000000,4.000000,4.000000,4.000000,4.000000,4.000000,4.000000,4.000000,4.000000,4.000000,4.000000,4.000000,100.000000
1602006771.887327,118.000000,0.000000,4117.948730,4122.051270,4123.589844,4133.333496,4127.692383,4129.230957,4110.769043,4123.077148,4138.974121,4140.000000,4125.641113,4138.974121,4121.538574,4122.563965,871.000000,4.000000,,,,0.000000,4.000000,4.000000,4.000000,4.000000,4.000000,4.000000,4.000000,4.000000,4.000000,4.000000,4.000000,4.000000,4.000000,4.000000,100.000000
1602006771.895208,119.000000,0.000000,4118.974121,4124.615234,4122.051270,4134.871582,4128.717773,4134.871582,4118.974121,4123.077148,4136.410156,4147.692383,4123.077148,4136.922852,4121.538574,4123.077148,836.000000,4.000000,,,,0.000000,4.000000,4.000000,4.000000,4.000000,4.000000,4.000000,4.000000,4.000000,4.000000,4.000000,4.000000,4.000000,4.000000,4.000000,100.000000
1602006771.903090,120.000000,0.000000,4124.615234,4123.589844,4123.589844,4129.230957,4127.692383,4135.897461,4123.589844,4130.769043,4143.589844,4142.563965,4118.974121,4136.410156,4125.128418,4122.051270,766.000000,4.000000,,,,0.000000,4.000000,4.000000,4.000000,4.000000,4.000000,4.000000,4.000000,4.000000,4.000000,4.000000,4.000000,4.000000,4.000000,4.000000,100.000000
1602006771.910971,121.000000,0.000000,4122.051270,4123.589844,4124.102539,4127.179688,4126.666504,4138.974121,4129.230957,4138.461426,4152.307617,4142.051270,4122.051270,4136.410156,4126.153809,4126.153809,729.000000,4.000000,,,,0.000000,4.000000,4.000000,4.000000,4.000000,4.000000,4.000000,4.000000,4.000000,4.000000,4.000000,4.000000,4.000000,4.000000,4.000000,100.000000
1602006771.918852,122.000000,0.000000,4114.358887,4125.128418,4121.025879,4128.205078,4124.615234,4141.025879,4137.948730,4138.974121,4150.256348,4145.641113,4129.230957,4129.230957,4123.589844,4122.051270,871.000000,4.000000,,,,0.000000,4.000000,4.000000,4.000000,4.000000,4.000000,4.000000,4.000000,4.000000,4.000000,4.000000,4.000000,4.000000,4.000000,4.000000,100.000000
1602006771.926733,123.000000,0.000000,4118.461426,4123.077148,4120.512695,4127.179688,4124.102539,4137.948730,4135.384766,4133.333496,4142.051270,4138.974121,4129.230957,4126.153809,4123.077148,4111.282227,836.000000,4.000000,,,,0.000000,4.000000,4.000000,4.000000,4.000000,4.000000,4.000000,4.000000,4.000000,4.000000,4.000000,4.000000,4.000000,4.000000,4.000000,100.000000
1602006771.934614,124.000000,0.000000,4123.589844,4124.102539,4122.563965,4126.666504,4125.641113,4138.461426,4125.641113,4125.128418,4137.436035,4132.307617,4125.641113,4128.717773,4125.128418,4114.358887,766.000000,4.000000,,,,0.000000,4.000000,4.000000,4.000000,4.000000,4.000000,4.000000,4.000000,4.000000,4.000000,4.000000,4.000000,4.000000,4.000000,4.000000,100.000000
1602006771.942495,125.000000,0.000000,4120.512695,4127.692383,4121.538574,4127.692383,4127.179688,4141.025879,4129.230957,4120.000000,4136.410156,4137.948730,4127.179688,4126.666504,4125.128418,4121.025879,729.000000,4.000000,,,,0.000000,4.000000,4.000000,4.000000,4.000000,4.000000,4.000000,4.000000,4.000000,4.000000,4.000000,4.000000,4.000000,4.000000,4.000000,100.000000
1602006771.950377,126.000000,0.000000,4121.538574,4125.128418,4120.000000,4126.153809,4126.666504,4139.487305,4134.871582,4121.538574,4136.922852,4139.487305,4124.102539,4126.153809,4122.563965,4116.922852,871.000000,4.000000,,,,0.000000,4.000000,4.000000,4.000000,4.000000,4.000000,4.000000,4.000000,4.000000,4.000000,4.000000,4.000000,4.000000,4.000000,4.000000,100.000000
1602006771.958258,127.000000,0.000000,4124.102539,4121.538574,4123.589844,4128.205078,4123.589844,4138.974121,4126.153809,4127.692383,4141.025879,4134.871582,4118.974121,4133.333496,4120.000000,4116.922852,836.000000,4.000000,,,,0.000000,4.000000,4.000000,4.000000,4.000000,4.000000,4.000000,4.000000,4.000000,4.000000,4.000000,4.000000,4.000000,4.000000,4.000000,100.000000
1602006771.966039,128.000000,0.000000,4126.666504,4124.615234,4127.692383,4134.871582,4124.615234,4140.000000,4122.051270,4136.410156,4150.256348,4143.077148,4122.563965,4140.000000,4122.563965,4126.666504,766.000000,4.000000,,,,0.000000,4.000000,4.000000,4.000000,4.000000,4.000000,4.000000,4.000000,4.000000,4.000000,4.000000,4.000000,4.000000,4.000000,4.000000,100.000000
1602006771.973920,0.000000,0.000000,4124.615234,4125.641113,4124.102539,4133.846191,4128.205078,4134.871582,4124.102539,4138.461426,4151.282227,4144.102539,4123.077148,4135.384766,4124.615234,4125.641113,790.000000,4.000000,,,,0.000000,4.000000,4.000000,4.000000,4.000000,4.000000,4.000000,4.000000,4.000000,4.000000,4.000000,4.000000,4.000000,4.000000,4.000000,100.000000
1602006771.981801,1.000000,0.000000,4114.358887,4121.025879,4120.512695,4124.615234,4126.153809,4125.641113,4118.974121,4130.256348,4142.051270,4137.948730,4120.512695,4124.615234,4119.487305,4120.000000,791.000000,4.000000,,,,0.000000,4.000000,4.000000,4.000000,4.000000,4.000000,4.000000,4.000000,4.000000,4.000000,4.000000,4.000000,4.000000,4.000000,4.000000,100.000000
1602006771.989682,2.000000,0.000000,4114.871582,4123.589844,4122.051270,4122.563965,4121.025879,4120.000000,4114.871582,4124.615234,4136.410156,4142.563965,4123.589844,4122.563965,4114.871582,4125.128418,852.000000,4.000000,,,,0.000000,4.000000,4.000000,4.000000,4.000000,4.000000,4.000000,4.000000,4.000000,4.000000,4.000000,4.000000,4.000000,4.000000,4.000000,100.000000
1602006771.997562,3.000000,0.000000,4119.487305,4123.589844,4117.436035,4124.615234,4122.051270,4120.000000,4119.487305,4123.077148,4132.820313,4141.538574,4114.871582,4124.615234,4105.128418,4116.410156,868.000000,4.000000,,,,0.000000,4.000000,4.000000,4.000000,4.000000,4.000000,4.000000,4.000000,4.000000,4.000000,4.000000,4.000000,4.000000,4.000000,4.000000,100.000000
1602006772.005443,4.000000,0.000000,4108.205078,4115.384766,4109.743652,4121.538574,4125.128418,4122.563965,4121.025879,4120.512695,4123.077148,4134.871582,4105.641113,4116.410156,4097.436035,4096.922852,814.000000,4.000000,,,,0.000000,4.000000,4.000000,4.000000,4.000000,4.000000,4.000000,4.000000,4.000000,4.000000,4.000000,4.000000,4.000000,4.000000,4.000000,100.000000
1602006772.013324,5.000000,0.000000,4104.102539,4117.436035,4109.230957,4118.461426,4124.102539,4123.077148,4120.512695,4119.487305,4119.487305,4128.717773,4123.589844,4109.743652,4111.282227,4108.205078,814.000000,4.000000,,,,0.000000,4.000000,4.000000,4.000000,4.000000,4.000000,4.000000,4.000000,4.000000,4.000000,4.000000,4.000000,4.000000,4.000000,4.000000,100.000000
1602006772.021305,6.000000,0.000000,4117.948730,4120.512695,4109.230957,4119.487305,4122.563965,4124.102539,4123.077148,4121.538574,4126.153809,4123.589844,4140.512695,4116.922852,4135.384766,4143.077148,773.000000,4.000000,,,,0.000000,4.000000,4.000000,4.000000,4.000000,4.000000,4.000000,4.000000,4.000000,4.000000,4.000000,4.000000,4.000000,4.000000,4.000000,100.000000
1602006772.029186,7.000000,0.000000,4122.563965,4114.358887,4109.743652,4121.538574,4124.102539,4133.333496,4122.563965,4127.692383,4136.410156,4136.922852,4140.512695,4124.102539,4150.769043,4156.922852,665.000000,4.000000,,,,0.000000,4.000000,4.000000,4.000000,4.000000,4.000000,4.000000,4.000000,4.000000,4.000000,4.000000,4.000000,4.000000,4.000000,4.000000,100.000000
1602006772.037067,8.000000,0.000000,4111.282227,4107.179688,4114.358887,4118.974121,4127.179688,4143.077148,4129.230957,4134.358887,4142.051270,4158.974121,4152.307617,4130.769043,4166.153809,4156.410156,779.000000,4.000000,,,,0.000000,4.000000,4.000000,4.000000,4.000000,4.000000,4.000000,4.000000,4.000000,4.000000,4.000000,4.000000,4.000000,4.000000,4.000000,100.000000
1602006772.044948,9.000000,0.000000,4099.487305,4096.922852,4114.358887,4108.717773,4125.641113,4140.000000,4137.948730,4136.410156,4137.436035,4155.384766,4159.487305,4134.358887,4175.384766,4152.820313,837.000000,4.000000,,,,0.000000,4.000000,4.000000,4.000000,4.000000,4.000000,4.000000,4.000000,4.000000,4.000000,4.000000,4.000000,4.000000,4.000000,4.000000,100.000000
1602006772.052829,10.000000,0.000000,4091.281982,4088.205078,4114.358887,4106.666504,4120.512695,4133.846191,4133.333496,4132.307617,4132.820313,4149.230957,4144.102539,4128.205078,4164.615234,4140.512695,871.000000,4.000000,,,,0.000000,4.000000,4.000000,4.000000,4.000000,4.000000,4.000000,4.000000,4.000000,4.000000,4.000000,4.000000,4.000000,4.000000,4.000000,100.000000
1602006772.060710,11.000000,0.000000,4090.769287,4091.281982,4118.974121,4111.794922,4120.512695,4132.307617,4123.589844,4123.589844,4128.717773,4158.974121,4134.358887,4121.025879,4154.358887,4133.846191,836.000000,4.000000,,,,0.000000,4.000000,4.000000,4.000000,4.000000,4.000000,4.000000,4.000000,4.000000,4.000000,4.000000,4.000000,4.000000,4.000000,4.000000,100.000000
1602006772.068491,12.000000,0.000000,4089.743652,4092.307617,4115.897461,4109.230957,4123.077148,4125.641113,4118.461426,4117.436035,4126.666504,4155.897461,4138.461426,4119.487305,4154.358887,4137.948730,766.000000,4.000000,,,,0.000000,4.000000,4.000000,4.000000,4.000000,4.000000,4.000000,4.000000,4.000000,4.000000,4.000000,4.000000,4.000000,4.000000,4.000000,100.000000
1602006772.076372,13.000000,0.000000,4086.666748,4088.718018,4108.205078,4105.641113,4126.153809,4121.538574,4122.563965,4125.641113,4135.384766,4147.692383,4140.512695,4121.538574,4152.307617,4137.436035,729.000000,4.000000,,,,0.000000,4.000000,4.000000,4.000000,4.000000,4.000000,4.000000,4.000000,4.000000,4.000000,4.000000,4.000000,4.000000,4.000000,4.000000,100.000000
1602006772.084253,14.000000,0.000000,4087.179443,4091.794922,4112.820313,4113.333496,4132.307617,4132.820313,4132.307617,4134.358887,4135.384766,4145.641113,4140.000000,4124.615234,4152.307617,4136.922852,871.000000,4.000000,,,,0.000000,4.000000,4.000000,4.000000,4.000000,4.000000,4.000000,4.000000,4.000000,4.000000,4.000000,4.000000,4.000000,4.000000,4.000000,100.000000
1602006772.092135,15.000000,0.000000,4089.230713,4094.871826,4120.512695,4120.512695,4136.922852,4140.000000,4136.922852,4127.179688,4118.974121,4138.461426,4140.512695,4126.666504,4154.871582,4138.461426,836.000000,4.000000,,,,0.000000,4.000000,4.000000,4.000000,4.000000,4.000000,4.000000,4.000000,4.000000,4.000000,4.000000,4.000000,4.000000,4.000000,4.000000,100.000000
1602006772.100016,16.000000,0.000000,4089.743652,4098.461426,4121.538574,4122.051270,4134.871582,4136.922852,4135.384766,4125.641113,4113.333496,4141.025879,4144.615234,4129.230957,4154.871582,4135.384766,0.000000,4.000000,,,,0.000000,4.000000,4.000000,4.000000,4.000000,4.000000,4.000000,4.000000,4.000000,4.000000,4.000000,4.000000,4.000000,4.000000,4.000000,100.000000
1602006772.107897,17.000000,0.000000,4091.794922,4103.589844,4121.025879,4123.077148,4133.333496,4143.589844,4138.461426,4136.410156,4121.538574,4155.384766,4144.102539,4137.436035,4159.487305,4140.512695,0.000000,4.000000,,,,0.000000,4.000000,4.000000,4.000000,4.000000,4.000000,4.000000,4.000000,4.000000,4.000000,4.000000,4.000000,4.000000,4.000000,4.000000,100.000000
1602006772.115778,18.000000,0.000000,4100.512695,4105.128418,4124.102539,4124.615234,4134.358887,4152.820313,4142.051270,4141.025879,4128.717773,4158.461426,4142.051270,4141.538574,4168.205078,4153.333496,0.000000,4.000000,,,,0.000000,4.000000,4.000000,4.000000,4.000000,4.000000,4.000000,4.000000,4.000000,4.000000,4.000000,4.000000,4.000000,4.000000,4.000000,100.000000
1602006772.123659,19.000000,0.000000,4109.230957,4108.205078,4132.820313,4128.717773,4135.897461,4147.179688,4140.000000,4138.974121,4137.436035,4151.282227,4150.256348,4145.128418,4170.769043,4157.436035,0.000000,4.000000,,,,0.000000,4.000000,4.000000,4.000000,4.000000,4.000000,4.000000,4.000000,4.000000,4.000000,4.000000,4.000000,4.000000,4.000000,4.000000,100.000000
1602006772.131540,20.000000,0.000000,4110.769043,4110.256348,4136.410156,4129.743652,4134.871582,4138.974121,4137.436035,4140.000000,4141.025879,4157.948730,4155.384766,4151.794922,4165.128418,4152.820313,0.000000,4.000000,,,,0.000000,4.000000,4.000000,4.000000,4.000000,4.000000,4.000000,4.000000,4.000000,4.000000,4.000000,4.000000,4.000000,4.000000,4.000000,100.000000
1602006772.139521,21.000000,0.000000,4111.794922,4106.666504,4137.948730,4126.153809,4131.282227,4139.487305,4136.410156,4140.000000,4138.461426,4173.846191,4148.205078,4154.871582,4163.077148,4156.410156,0.000000,4.000000,,,,0.000000,4.000000,4.000000,4.000000,4.000000,4.000000,4.000000,4.000000,4.000000,4.000000,4.000000,4.000000,4.000000,4.000000,4.000000,100.000000
1602006772.147403,22.000000,0.000000,4115.897461,4104.615234,4142.563965,4123.077148,4128.717773,4140.512695,4136.922852,4138.461426,4142.051270,4166.666504,4143.589844,4156.410156,4163.077148,4167.692383,0.000000,4.000000,,,,0.000000,4.000000,4.000000,4.000000,4.000000,4.000000,4.000000,4.000000,4.000000,4.000000,4.000000,4.000000,4.000000,4.000000,4.000000,100.000000
1602006772.155284,23.000000,0.000000,4108.717773,4101.538574,4137.948730,4116.922852,4126.153809,4137.436035,4134.358887,4134.358887,4134.871582,4141.538574,4142.563965,4151.794922,4160.512695,4171.794922,0.000000,4.000000,,,,0.000000,4.000000,4.000000,4.000000,4.000000,4.000000,4.000000,4.000000,4.000000,4.000000,4.000000,4.000000,4.000000,4.000000,4.000000,100.000000
1602006772.163165,24.000000,0.000000,4094.358887,4090.769287,4123.077148,4107.179688,4119.487305,4129.743652,4126.153809,4125.128418,4107.179688,4133.846191,4135.384766,4137.436035,4155.384766,4161.538574,0.000000,4.000000,,,,0.000000,4.000000,4.000000,4.000000,4.000000,4.000000,4.000000,4.000000,4.000000,4.000000,4.000000,4.000000,4.000000,4.000000,4.000000,100.000000
1602006772.171046,25.000000,0.000000,4097.436035,4091.794922,4117.436035,4109.230957,4119.487305,4121.538574,4123.077148,4121.538574,4098.461426,4145.641113,4133.846191,4130.769043,4153.333496,4148.717773,0.000000,4.000000,,,,0.000000,4.000000,4.000000,4.000000,4.000000,4.000000,4.000000,4.000000,4.000000,4.000000,4.000000,4.000000,4.000000,4.000000,4.000000,100.000000
1602006772.178927,26.000000,0.000000,4107.692383,4106.153809,4123.077148,4121.538574,4127.692383,4122.563965,4126.153809,4122.051270,4117.436035,4151.282227,4140.512695,4137.948730,4155.384766,4147.179688,0.000000,4.000000,,,,0.000000,4.000000,4.000000,4.000000,4.000000,4.000000,4.000000,4.000000,4.000000,4.000000,4.000000,4.000000,4.000000,4.000000,4.000000,100.000000
1602006772.186808,27.000000,0.000000,4108.717773,4111.282227,4127.179688,4125.128418,4129.230957,4127.179688,4129.743652,4126.153809,4126.153809,4158.461426,4140.512695,4143.589844,4157.436035,4152.307617,0.000000,4.000000,,,,0.000000,4.000000,4.000000,4.000000,4.000000,4.000000,4.000000,4.000000,4.000000,4.000000,4.000000,4.000000,4.000000,4.000000,4.000000,100.000000
1602006772.194690,28.000000,0.000000,4114.358887,4110.256348,4128.717773,4125.641113,4132.307617,4125.641113,4135.384766,4136.410156,4122.051270,4171.282227,4138.974121,4141.025879,4163.077148,4165.128418,0.000000,4.000000,,,,0.000000,4.000000,4.000000,4.000000,4.000000,4.000000,4.000000,4.000000,4.000000,4.000000,4.000000,4.000000,4.000000,4.000000,4.000000,100.000000
1602006772.202571,29.000000,0.000000,4113.846191,4105.641113,4125.641113,4121.538574,4135.384766,4122.563965,4137.436035,4143.589844,4123.077148,4160.512695,4139.487305,4138.974121,4164.615234,4168.717773,0.000000,4.000000,,,,0.000000,4.000000,4.000000,4.000000,4.000000,4.000000,4.000000,4.000000,4.000000,4.000000,4.000000,4.000000,4.000000,4.000000,4.000000,100.000000
1602006772.210452,30.000000,0.000000,4092.820557,4092.820557,4120.512695,4109.230957,4129.743652,4126.153809,4131.282227,4139.487305,4122.051270,4142.051270,4138.974121,4138.461426,4158.461426,4154.358887,0.000000,4.000000,,,,0.000000,4.000000,4.000000,4.000000,4.000000,4.000000,4.000000,4.000000,4.000000,4.000000,4.000000,4.000000,4.000000,4.000000,4.000000,100.000000
1602006772.218233,31.000000,0.000000,4089.743652,4088.718018,4120.512695,4104.102539,4131.282227,4128.717773,4123.589844,4134.871582,4117.436035,4141.025879,4136.410156,4135.897461,4153.846191,4148.205078,0.000000,4.000000,,,,0.000000,4.000000,4.000000,4.000000,4.000000,4.000000,4.000000,4.000000,4.000000,4.000000,4.000000,4.000000,4.000000,4.000000,4.000000,100.000000
1602006772.226113,32.000000,0.000000,4106.153809,4097.948730,4124.102539,4108.717773,4141.025879,4123.589844,4126.666504,4136.410156,4121.025879,4141.025879,4135.384766,4134.358887,4155.384766,4154.871582,0.000000,4.000000,,,,0.000000,4.000000,4.000000,4.000000,4.000000,4.000000,4.000000,4.000000,4.000000,4.000000,4.000000,4.000000,4.000000,4.000000,4.000000,100.000000
1602006772.234094,33.000000,0.000000,4097.948730,4097.436035,4124.615234,4107.692383,4133.333496,4130.256348,4136.410156,4138.461426,4126.153809,4141.025879,4134.358887,4140.000000,4157.948730,4147.692383,0.000000,4.000000,,,,0.000000,4.000000,4.000000,4.000000,4.000000,4.000000,4.000000,4.000000,4.000000,4.000000,4.000000,4.000000,4.000000,4.000000,4.000000,100.000000
1602006772.241975,34.000000,0.000000,4090.256348,4092.820557,4121.025879,4106.666504,4119.487305,4136.922852,4136.410156,4132.307617,4122.563965,4155.897461,4135.897461,4142.051270,4154.358887,4135.384766,0.000000,4.000000,,,,0.000000,4.000000,4.000000,4.000000,4.000000,4.000000,4.000000,4.000000,4.000000,4.000000,4.000000,4.000000,4.000000,4.000000,4.000000,100.000000
1602006772.249856,35.000000,0.000000,4103.589844,4096.922852,4123.589844,4111.794922,4125.128418,4118.974121,4123.077148,4121.538574,4115.897461,4157.948730,4138.461426,4139.487305,4152.307617,4141.025879,0.000000,4.000000,,,,0.000000,4.000000,4.000000,4.000000,4.000000,4.000000,4.000000,4.000000,4.000000,4.000000,4.000000,4.000000,4.000000,4.000000,4.000000,100.000000
1602006772.257737,36.000000,0.000000,4111.282227,4105.128418,4133.333496,4117.948730,4135.897461,4108.717773,4118.974121,4120.512695,4123.589844,4138.461426,4140.000000,4145.641113,4158.974121,4154.358887,0.000000,4.000000,,,,0.000000,4.000000,4.000000,4.000000,4.000000,4.000000,4.000000,4.000000,4.000000,4.000000,4.000000,4.000000,4.000000,4.000000,4.000000,100.000000
1602006772.265618,37.000000,0.000000,4111.794922,4113.333496,4137.436035,4122.563965,4138.461426,4124.615234,4124.102539,4125.128418,4138.461426,4140.000000,4146.153809,4153.846191,4169.230957,4156.410156,0.000000,4.000000,,,,0.000000,4.000000,4.000000,4.000000,4.000000,4.000000,4.000000,4.000000,4.000000,4.000000,4.000000,4.000000,4.000000,4.000000,4.000000,100.000000
1602006772.273599,38.000000,0.000000,4118.461426,4115.384766,4132.820313,4126.153809,4138.974121,4131.282227,4123.077148,4127.692383,4143.589844,4169.230957,4155.897461,4158.461426,4172.820313,4153.333496,0.000000,4.000000,,,,0.000000,4.000000,4.000000,4.000000,4.000000,4.000000,4.000000,4.000000,4.000000,4.000000,4.000000,4.000000,4.000000,4.000000,4.000000,100.000000
1602006772.281480,39.000000,0.000000,4123.077148,4116.410156,4130.769043,4126.153809,4141.025879,4123.077148,4125.641113,4133.333496,4142.051270,4176.922852,4154.871582,4164.102539,4170.256348,4164.615234,0.000000,4.000000,,,,0.000000,4.000000,4.000000,4.000000,4.000000,4.000000,4.000000,4.000000,4.000000,4.000000,4.000000,4.000000,4.000000,4.000000,4.000000,100.000000
1602006772.289361,40.000000,0.000000,4116.410156,4117.948730,4127.179688,4124.615234,4141.025879,4124.102539,4135.384766,4137.436035,4141.025879,4152.307617,4150.769043,4166.666504,4171.794922,4169.743652,0.000000,4.000000,,,,0.000000,4.000000,4.000000,4.000000,4.000000,4.000000,4.000000,4.000000,4.000000,4.000000,4.000000,4.000000,4.000000,4.000000,4.000000,100.000000
1602006772.297241,41.000000,0.000000,4114.871582,4120.512695,4128.205078,4124.102539,4140.512695,4128.717773,4138.461426,4144.615234,4150.769043,4153.333496,4156.922852,4165.641113,4181.538574,4158.974121,0.000000,4.000000,,,,0.000000,4.000000,4.000000,4.000000,4.000000,4.000000,4.000000,4.000000,4.000000,4.000000,4.000000,4.000000,4.000000,4.000000,4.000000,100.000000
1602006772.305122,42.000000,0.000000,4123.589844,4119.487305,4134.871582,4125.641113,4142.051270,4128.205078,4137.436035,4152.820313,4166.153809,4186.666504,4156.922852,4167.179688,4186.153809,4161.025879,0.000000,4.000000,,,,0.000000,4.000000,4.000000,4.000000,4.000000,4.000000,4.000000,4.000000,4.000000,4.000000,4.000000,4.000000,4.000000,4.000000,4.000000,100.000000
1602006772.313003,43.000000,0.000000,4120.512695,4110.256348,4130.256348,4123.077148,4132.820313,4122.051270,4135.897461,4145.641113,4157.436035,4174.358887,4141.538574,4161.538574,4168.205078,4160.512695,0.000000,4.000000,,,,0.000000,4.000000,4.000000,4.000000,4.000000,4.000000,4.000000,4.000000,4.000000,4.000000,4.000000,4.000000,4.000000,4.000000,4.000000,100.000000
1602006772.320784,44.000000,0.000000,4105.641113,4103.077148,4120.512695,4116.922852,4123.077148,4116.922852,4130.769043,4128.717773,4133.333496,4127.179688,4134.871582,4156.922852,4150.256348,4141.025879,0.000000,4.000000,,,,0.000000,4.000000,4.000000,4.000000,4.000000,4.000000,4.000000,4.000000,4.000000,4.000000,4.000000,4.000000,4.000000,4.000000,4.000000,100.000000
1602006772.328665,45.000000,0.000000,4105.641113,4106.153809,4122.563965,4118.974121,4129.230957,4126.666504,4127.692383,4125.128418,4132.307617,4123.589844,4140.512695,4167.692383,4153.333496,4137.948730,0.000000,4.000000,,,,0.000000,4.000000,4.000000,4.000000,4.000000,4.000000,4.000000,4.000000,4.000000,4.000000,4.000000,4.000000,4.000000,4.000000,4.000000,100.000000
1602006772.336546,46.000000,0.000000,4113.846191,4112.307617,4126.666504,4123.077148,4140.000000,4140.000000,4128.205078,4129.743652,4143.589844,4146.666504,4141.025879,4171.282227,4159.487305,4157.948730,0.000000,4.000000,,,,0.000000,4.000000,4.000000,4.000000,4.000000,4.000000,4.000000,4.000000,4.000000,4.000000,4.000000,4.000000,4.000000,4.000000,4.000000,100.000000
1602006772.344426,47.000000,0.000000,4109.743652,4113.333496,4122.563965,4121.538574,4145.641113,4136.922852,4124.615234,4127.692383,4137.948730,4143.589844,4135.384766,4160.512695,4162.563965,4163.077148,0.000000,4.000000,,,,0.000000,4.000000,4.000000,4.000000,4.000000,4.000000,4.000000,4.000000,4.000000,4.000000,4.000000,4.000000,4.000000,4.000000,4.000000,100.000000
1602006772.352207,48.000000,0.000000,4110.769043,4119.487305,4121.025879,4121.538574,4151.794922,4135.897461,4123.589844,4127.692383,4131.282227,4140.000000,4141.538574,4160.000000,4168.205078,4154.871582,0.000000,4.000000,,,,0.000000,4.000000,4.000000,4.000000,4.000000,4.000000,4.000000,4.000000,4.000000,4.000000,4.000000,4.000000,4.000000,4.000000,4.000000,100.000000
1602006772.360088,49.000000,0.000000,4123.077148,4124.102539,4122.563965,4124.102539,4155.897461,4141.538574,4125.128418,4130.256348,4138.974121,4162.563965,4153.846191,4167.692383,4170.769043,4154.871582,0.000000,4.000000,,,,0.000000,4.000000,4.000000,4.000000,4.000000,4.000000,4.000000,4.000000,4.000000,4.000000,4.000000,4.000000,4.000000,4.000000,4.000000,100.000000
1602006772.367968,50.000000,0.000000,4126.153809,4116.922852,4122.051270,4123.589844,4150.769043,4140.512695,4129.230957,4129.743652,4143.589844,4171.282227,4155.384766,4164.102539,4169.743652,4157.948730,0.000000,4.000000,,,,0.000000,4.000000,4.000000,4.000000,4.000000,4.000000,4.000000,4.000000,4.000000,4.000000,4.000000,4.000000,4.000000,4.000000,4.000000,100.000000
1602006772.375749,51.000000,0.000000,4116.410156,4108.205078,4123.077148,4124.102539,4142.563965,4138.461426,4135.897461,4125.128418,4141.025879,4153.846191,4149.743652,4155.897461,4169.743652,4151.794922,0.000000,4.000000,,,,0.000000,4.000000,4.000000,4.000000,4.000000,4.000000,4.000000,4.000000,4.000000,4.000000,4.000000,4.000000,4.000000,4.000000,4.000000,100.000000
1602006772.383530,52.000000,0.000000,4112.820313,4105.128418,4124.615234,4123.077148,4137.948730,4141.025879,4138.974121,4121.025879,4138.461426,4145.641113,4150.256348,4155.384766,4166.666504,4141.538574,0.000000,4.000000,,,,0.000000,4.000000,4.000000,4.000000,4.000000,4.000000,4.000000,4.000000,4.000000,4.000000,4.000000,4.000000,4.000000,4.000000,4.000000,100.000000
1602006772.391411,53.000000,0.000000,4122.563965,4105.128418,4125.128418,4114.871582,4138.974121,4138.974121,4136.922852,4121.538574,4136.922852,4152.307617,4155.384766,4156.922852,4164.615234,4141.025879,0.000000,4.000000,,,,0.000000,4.000000,4.000000,4.000000,4.000000,4.000000,4.000000,4.000000,4.000000,4.000000,4.000000,4.000000,4.000000,4.000000,4.000000,100.000000
1602006772.399292,54.000000,0.000000,4124.615234,4104.615234,4124.102539,4112.820313,4138.461426,4136.922852,4136.922852,4128.717773,4144.102539,4161.538574,4150.256348,4155.384766,4167.692383,4149.230957,0.000000,4.000000,,,,0.000000,4.000000,4.000000,4.000000,4.000000,4.000000,4.000000,4.000000,4.000000,4.000000,4.000000,4.000000,4.000000,4.000000,4.000000,100.000000
1602006772.407173,55.000000,0.000000,4115.384766,4104.102539,4125.128418,4120.000000,4134.871582,4138.974121,4138.974121,4137.948730,4150.256348,4155.897461,4143.077148,4157.948730,4163.589844,4150.769043,0.000000,4.000000,,,,0.000000,4.000000,4.000000,4.000000,4.000000,4.000000,4.000000,4.000000,4.000000,4.000000,4.000000,4.000000,4.000000,4.000000,4.000000,100.000000
1602006772.415054,56.000000,0.000000,4112.307617,4105.641113,4125.128418,4121.025879,4135.897461,4135.897461,4137.948730,4138.974121,4141.025879,4143.077148,4144.102539,4161.025879,4154.871582,4142.051270,0.000000,4.000000,,,,0.000000,4.000000,4.000000,4.000000,4.000000,4.000000,4.000000,4.000000,4.000000,4.000000,4.000000,4.000000,4.000000,4.000000,4.000000,100.000000
1602006772.422935,57.000000,0.000000,4118.974121,4107.692383,4124.102539,4117.948730,4135.384766,4129.230957,4136.410156,4136.410156,4131.794922,4145.128418,4146.153809,4165.128418,4154.871582,4141.538574,0.000000,4.000000,,,,0.000000,4.000000,4.000000,4.000000,4.000000,4.000000,4.000000,4.000000,4.000000,4.000000,4.000000,4.000000,4.000000,4.000000,4.000000,100.000000
1602006772.430816,58.000000,0.000000,4121.025879,4108.205078,4127.692383,4120.512695,4135.897461,4133.846191,4138.461426,4136.410156,4137.948730,4152.820313,4143.077148,4166.153809,4162.051270,4151.282227,0.000000,4.000000,,,,0.000000,4.000000,4.000000,4.000000,4.000000,4.000000,4.000000,4.000000,4.000000,4.000000,4.000000,4.000000,4.000000,4.000000,4.000000,100.000000
1602006772.438797,59.000000,0.000000,4111.794922,4106.666504,4129.230957,4121.538574,4140.000000,4142.051270,4142.563965,4134.871582,4141.025879,4145.641113,4137.948730,4160.000000,4160.000000,4148.205078,0.000000,4.000000,,,,0.000000,4.000000,4.000000,4.000000,4.000000,4.000000,4.000000,4.000000,4.000000,4.000000,4.000000,4.000000,4.000000,4.000000,4.000000,100.000000
1602006772.446677,60.000000,0.000000,4104.615234,4104.615234,4127.692383,4118.974121,4140.512695,4139.487305,4142.051270,4129.230957,4133.846191,4130.769043,4136.922852,4153.333496,4153.333496,4138.461426,0.000000,4.000000,,,,0.000000,4.000000,4.000000,4.000000,4.000000,4.000000,4.000000,4.000000,4.000000,4.000000,4.000000,4.000000,4.000000,4.000000,4.000000,100.000000
1602006772.454558,61.000000,0.000000,4111.794922,4105.128418,4127.692383,4122.051270,4139.487305,4140.000000,4140.000000,4124.102539,4142.563965,4143.589844,4144.615234,4154.871582,4154.871582,4140.512695,0.000000,4.000000,,,,0.000000,4.000000,4.000000,4.000000,4.000000,4.000000,4.000000,4.000000,4.000000,4.000000,4.000000,4.000000,4.000000,4.000000,4.000000,100.000000
1602006772.462439,62.000000,0.000000,4116.922852,4107.179688,4125.641113,4125.128418,4138.974121,4137.948730,4133.846191,4121.538574,4153.333496,4158.974121,4144.102539,4155.384766,4157.436035,4139.487305,0.000000,4.000000,,,,0.000000,4.000000,4.000000,4.000000,4.000000,4.000000,4.000000,4.000000,4.000000,4.000000,4.000000,4.000000,4.000000,4.000000,4.000000,100.000000
1602006772.470320,63.000000,0.000000,4114.358887,4105.641113,4126.153809,4122.051270,4136.922852,4124.102539,4127.692383,4122.051270,4144.102539,4147.179688,4135.897461,4155.384766,4155.384766,4133.846191,0.000000,4.000000,,,,0.000000,4.000000,4.000000,4.000000,4.000000,4.000000,4.000000,4.000000,4.000000,4.000000,4.000000,4.000000,4.000000,4.000000,4.000000,100.000000
1602006772.478201,64.000000,0.000000,4117.948730,4105.641113,4135.897461,4122.051270,4136.922852,4123.077148,4132.820313,4124.102539,4133.333496,4139.487305,4143.589844,4165.641113,4155.897461,4139.487305,790.000000,4.000000,,,,0.000000,4.000000,4.000000,4.000000,4.000000,4.000000,4.000000,4.000000,4.000000,4.000000,4.000000,4.000000,4.000000,4.000000,4.000000,100.000000
1602006772.485982,65.000000,0.000000,4125.641113,4112.307617,4143.077148,4128.717773,4138.461426,4133.846191,4135.897461,4125.128418,4141.025879,4152.307617,4159.487305,4175.384766,4158.974121,4146.153809,791.000000,4.000000,,,,0.000000,4.000000,4.000000,4.000000,4.000000,4.000000,4.000000,4.000000,4.000000,4.000000,4.000000,4.000000,4.000000,4.000000,4.000000,100.000000
1602006772.493863,66.000000,0.000000,4119.487305,4111.794922,4135.384766,4129.230957,4135.897461,4126.666504,4126.153809,4123.589844,4144.102539,4153.846191,4152.307617,4165.128418,4154.871582,4141.538574,852.000000,4.000000,,,,0.000000,4.000000,4.000000,4.000000,4.000000,4.000000,4.000000,4.000000,4.000000,4.000000,4.000000,4.000000,4.000000,4.000000,4.000000,100.000000
1602006772.501744,67.000000,0.000000,4110.256348,4104.615234,4125.128418,4122.051270,4133.846191,4116.410156,4124.615234,4127.692383,4134.871582,4137.948730,4133.846191,4153.333496,4149.230957,4135.897461,868.000000,4.000000,,,,0.000000,4.000000,4.000000,4.000000,4.000000,4.000000,4.000000,4.000000,4.000000,4.000000,4.000000,4.000000,4.000000,4.000000,4.000000,100.000000
1602006772.509625,68.000000,0.000000,4111.794922,4106.153809,4122.563965,4120.000000,4136.410156,4129.743652,4135.897461,4137.948730,4135.897461,4140.512695,4137.436035,4160.512695,4151.282227,4140.512695,814.000000,4.000000,,,,0.000000,4.000000,4.000000,4.000000,4.000000,4.000000,4.000000,4.000000,4.000000,4.000000,4.000000,4.000000,4.000000,4.000000,4.000000,100.000000
1602006772.517506,69.000000,0.000000,4113.846191,4111.282227,4123.077148,4123.589844,4136.922852,4141.025879,4137.436035,4138.461426,4141.538574,4158.461426,4153.333496,4168.205078,4156.410156,4146.153809,814.000000,4.000000,,,,0.000000,4.000000,4.000000,4.000000,4.000000,4.000000,4.000000,4.000000,4.000000,4.000000,4.000000,4.000000,4.000000,4.000000,4.000000,100.000000
1602006772.525387,70.000000,0.000000,4105.641113,4108.205078,4121.025879,4124.102539,4134.358887,4136.410156,4133.333496,4127.692383,4141.025879,4157.436035,4149.743652,4160.512695,4151.794922,4135.384766,769.000000,4.000000,,,,0.000000,4.000000,4.000000,4.000000,4.000000,4.000000,4.000000,4.000000,4.000000,4.000000,4.000000,4.000000,4.000000,4.000000,4.000000,100.000000
1602006772.533268,71.000000,0.000000,4100.512695,4105.641113,4121.025879,4120.000000,4136.410156,4133.846191,4132.820313,4122.051270,4137.948730,4132.820313,4135.384766,4152.307617,4139.487305,4124.102539,663.000000,4.000000,,,,0.000000,4.000000,4.000000,4.000000,4.000000,4.000000,4.000000,4.000000,4.000000,4.000000,4.000000,4.000000,4.000000,4.000000,4.000000,100.000000
1602006772.541149,72.000000,0.000000,4113.333496,4111.282227,4125.641113,4121.025879,4138.974121,4132.307617,4130.256348,4123.589844,4136.410156,4117.436035,4136.410156,4153.333496,4143.077148,4133.846191,779.000000,4.000000,,,,0.000000,4.000000,4.000000,4.000000,4.000000,4.000000,4.000000,4.000000,4.000000,4.000000,4.000000,4.000000,4.000000,4.000000,4.000000,100.000000
1602006772.549130,73.000000,0.000000,4121.025879,4111.794922,4125.641113,4126.153809,4133.333496,4127.179688,4126.666504,4124.615234,4136.922852,4132.307617,4146.153809,4156.922852,4156.922852,4145.128418,837.000000,4.000000,,,,0.000000,4.000000,4.000000,4.000000,4.000000,4.000000,4.000000,4.000000,4.000000,4.000000,4.000000,4.000000,4.000000,4.000000,4.000000,100.000000
1602006772.557010,74.000000,0.000000,4110.256348,4106.153809,4121.538574,4120.000000,4123.589844,4124.102539,4123.077148,4122.051270,4140.000000,4146.666504,4145.128418,4156.922852,4150.769043,4134.871582,871.000000,4.000000,,,,0.000000,4.000000,4.000000,4.000000,4.000000,4.000000,4.000000,4.000000,4.000000,4.000000,4.000000,4.000000,4.000000,4.000000,4.000000,100.000000
1602006772.564891,75.000000,0.000000,4102.051270,4101.025879,4119.487305,4111.794922,4122.563965,4128.717773,4122.051270,4124.615234,4141.538574,4142.051270,4134.871582,4148.717773,4135.897461,4120.000000,836.000000,4.000000,,,,0.000000,4.000000,4.000000,4.000000,4.000000,4.000000,4.000000,4.000000,4.000000,4.000000,4.000000,4.000000,4.000000,4.000000,4.000000,100.000000
1602006772.572772,76.000000,0.000000,4107.179688,4104.102539,4121.538574,4117.948730,4128.205078,4130.256348,4126.153809,4134.871582,4137.948730,4141.538574,4133.333496,4144.102539,4137.436035,4119.487305,766.000000,4.000000,,,,0.000000,4.000000,4.000000,4.000000,4.000000,4.000000,4.000000,4.000000,4.000000,4.000000,4.000000,4.000000,4.000000,4.000000,4.000000,100.000000
1602006772.580653,77.000000,0.000000,4108.717773,4108.717773,4121.538574,4123.077148,4128.205078,4125.641113,4127.179688,4137.436035,4137.436035,4141.025879,4140.000000,4150.256348,4140.512695,4124.615234,729.000000,4.000000,,,,0.000000,4.000000,4.000000,4.000000,4.000000,4.000000,4.000000,4.000000,4.000000,4.000000,4.000000,4.000000,4.000000,4.000000,4.000000,100.000000
1602006772.588534,78.000000,0.000000,4095.384521,4100.000000,4111.282227,4111.282227,4123.077148,4121.538574,4123.589844,4126.666504,4136.922852,4126.153809,4134.871582,4147.692383,4130.256348,4122.563965,871.000000,4.000000,,,,0.000000,4.000000,4.000000,4.000000,4.000000,4.000000,4.000000,4.000000,4.000000,4.000000,4.000000,4.000000,4.000000,4.000000,4.000000,100.000000
1602006772.596415,79.000000,0.000000,4090.769287,4091.794922,4106.666504,4103.589844,4120.000000,4120.000000,4125.128418,4121.538574,4130.256348,4124.102539,4127.179688,4141.025879,4128.717773,4117.436035,836.000000,4.000000,,,,0.000000,4.000000,4.000000,4.000000,4.000000,4.000000,4.000000,4.000000,4.000000,4.000000,4.000000,4.000000,4.000000,4.000000,4.000000,100.000000
1602006772.604296,80.000000,0.000000,4104.102539,4101.538574,4117.948730,4113.846191,4123.589844,4122.051270,4128.205078,4126.153809,4125.128418,4137.436035,4144.615234,4147.179688,4145.128418,4120.512695,766.000000,4.000000,,,,0.000000,4.000000,4.000000,4.000000,4.000000,4.000000,4.000000,4.000000,4.000000,4.000000,4.000000,4.000000,4.000000,4.000000,4.000000,100.000000
1602006772.612277,81.000000,0.000000,4112.307617,4108.717773,4122.563965,4116.922852,4124.102539,4124.615234,4128.717773,4125.641113,4127.179688,4141.538574,4156.922852,4155.384766,4153.333496,4125.128418,729.000000,4.000000,,,,0.000000,4.000000,4.000000,4.000000,4.000000,4.000000,4.000000,4.000000,4.000000,4.000000,4.000000,4.000000,4.000000,4.000000,4.000000,100.000000
1602006772.620158,82.000000,0.000000,4104.102539,4101.025879,4115.384766,4107.692383,4116.922852,4123.589844,4127.179688,4121.538574,4121.025879,4133.333496,4142.563965,4149.230957,4143.077148,4122.563965,871.000000,4.000000,,,,0.000000,4.000000,4.000000,4.000000,4.000000,4.000000,4.000000,4.000000,4.000000,4.000000,4.000000,4.000000,4.000000,4.000000,4.000000,100.000000
1602006772.628039,83.000000,0.000000,4105.128418,4096.922852,4114.358887,4108.205078,4115.384766,4121.538574,4125.128418,4120.512695,4116.410156,4134.358887,4138.461426,4148.205078,4134.358887,4126.153809,836.000000,4.000000,,,,0.000000,4.000000,4.000000,4.000000,4.000000,4.000000,4.000000,4.000000,4.000000,4.000000,4.000000,4.000000,4.000000,4.000000,4.000000,100.000000
1602006772.635920,84.000000,0.000000,4118.461426,4106.666504,4124.615234,4121.025879,4126.153809,4128.717773,4129.230957,4129.230957,4139.487305,4149.230957,4152.307617,4162.051270,4143.077148,4139.487305,766.000000,4.000000,,,,0.000000,4.000000,4.000000,4.000000,4.000000,4.000000,4.000000,4.000000,4.000000,4.000000,4.000000,4.000000,4.000000,4.000000,4.000000,100.000000
1602006772.643801,85.000000,0.000000,4126.153809,4119.487305,4133.846191,4126.666504,4135.897461,4139.487305,4137.436035,4139.487305,4160.512695,4151.794922,4156.922852,4172.820313,4158.974121,4147.692383,729.000000,4.000000,,,,0.000000,4.000000,4.000000,4.000000,4.000000,4.000000,4.000000,4.000000,4.000000,4.000000,4.000000,4.000000,4.000000,4.000000,4.000000,100.000000
1602006772.651781,86.000000,0.000000,4127.692383,4124.615234,4137.948730,4125.128418,4136.922852,4141.538574,4137.948730,4138.461426,4150.769043,4137.436035,4151.282227,4169.743652,4162.051270,4148.717773,871.000000,4.000000,,,,0.000000,4.000000,4.000000,4.000000,4.000000,4.000000,4.000000,4.000000,4.000000,4.000000,4.000000,4.000000,4.000000,4.000000,4.000000,100.000000
1602006772.659662,87.000000,0.000000,4126.153809,4123.589844,4140.512695,4127.179688,4137.436035,4140.512695,4135.897461,4135.897461,4140.000000,4133.333496,4151.794922,4167.692383,4156.922852,4154.358887,836.000000,4.000000,,,,0.000000,4.000000,4.000000,4.000000,4.000000,4.000000,4.000000,4.000000,4.000000,4.000000,4.000000,4.000000,4.000000,4.000000,4.000000,100.000000
1602006772.667543,88.000000,0.000000,4123.589844,4116.922852,4140.000000,4126.666504,4135.897461,4134.871582,4135.384766,4134.358887,4140.512695,4153.846191,4156.922852,4173.846191,4155.384766,4153.846191,766.000000,4.000000,,,,0.000000,4.000000,4.000000,4.000000,4.000000,4.000000,4.000000,4.000000,4.000000,4.000000,4.000000,4.000000,4.000000,4.000000,4.000000,100.000000
1602006772.675424,89.000000,0.000000,4120.512695,4111.282227,4131.794922,4123.077148,4129.230957,4125.128418,4130.256348,4125.641113,4137.436035,4165.641113,4157.436035,4169.230957,4154.871582,4133.333496,729.000000,4.000000,,,,0.000000,4.000000,4.000000,4.000000,4.000000,4.000000,4.000000,4.000000,4.000000,4.000000,4.000000,4.000000,4.000000,4.000000,4.000000,100.000000
1602006772.683305,90.000000,0.000000,4117.948730,4116.410156,4127.179688,4122.563965,4125.641113,4123.589844,4125.128418,4122.051270,4135.897461,4155.384766,4154.871582,4158.461426,4152.820313,4127.179688,871.000000,4.000000,,,,0.000000,4.000000,4.000000,4.000000,4.000000,4.000000,4.000000,4.000000,4.000000,4.000000,4.000000,4.000000,4.000000,4.000000,4.000000,100.000000
1602006772.691186,91.000000,0.000000,4122.563965,4122.051270,4134.871582,4125.641113,4125.128418,4127.692383,4124.102539,4128.205078,4134.871582,4147.692383,4155.384766,4165.128418,4152.820313,4147.179688,836.000000,4.000000,,,,0.000000,4.000000,4.000000,4.000000,4.000000,4.000000,4.000000,4.000000,4.000000,4.000000,4.000000,4.000000,4.000000,4.000000,4.000000,100.000000
1602006772.699167,92.000000,0.000000,4122.563965,4116.410156,4142.051270,4125.641113,4123.589844,4124.102539,4122.563965,4125.128418,4131.794922,4151.794922,4157.948730,4172.820313,4150.769043,4151.794922,766.000000,4.000000,,,,0.000000,4.000000,4.000000,4.000000,4.000000,4.000000,4.000000,4.000000,4.000000,4.000000,4.000000,4.000000,4.000000,4.000000,4.000000,100.000000
1602006772.707048,93.000000,0.000000,4111.794922,4114.358887,4138.974121,4123.589844,4122.051270,4118.974121,4118.974121,4119.487305,4136.410156,4153.333496,4154.358887,4168.205078,4149.230957,4136.922852,729.000000,4.000000,,,,0.000000,4.000000,4.000000,4.000000,4.000000,4.000000,4.000000,4.000000,4.000000,4.000000,4.000000,4.000000,4.000000,4.000000,4.000000,100.000000
1602006772.714929,94.000000,0.000000,4110.769043,4121.025879,4138.461426,4122.563965,4123.077148,4115.384766,4116.922852,4127.179688,4136.922852,4143.077148,4149.230957,4164.615234,4146.666504,4135.384766,871.000000,4.000000,,,,0.000000,4.000000,4.000000,4.000000,4.000000,4.000000,4.000000,4.000000,4.000000,4.000000,4.000000,4.000000,4.000000,4.000000,4.000000,100.000000
1602006772.722811,95.000000,0.000000,4123.077148,4122.563965,4141.025879,4124.102539,4124.615234,4112.820313,4124.615234,4137.436035,4131.794922,4140.512695,4152.307617,4171.282227,4143.077148,4142.563965,836.000000,4.000000,,,,0.000000,4.000000,4.000000,4.000000,4.000000,4.000000,4.000000,4.000000,4.000000,4.000000,4.000000,4.000000,4.000000,4.000000,4.000000,100.000000
1602006772.730692,96.000000,0.000000,4128.717773,4122.051270,4144.615234,4127.692383,4123.589844,4115.384766,4135.897461,4139.487305,4135.897461,4154.358887,4155.897461,4181.025879,4147.692383,4144.102539,766.000000,4.000000,,,,0.000000,4.000000,4.000000,4.000000,4.000000,4.000000,4.000000,4.000000,4.000000,4.000000,4.000000,4.000000,4.000000,4.000000,4.000000,100.000000
1602006772.738573,97.000000,0.000000,4124.102539,4124.102539,4151.282227,4127.692383,4127.692383,4125.128418,4139.487305,4137.948730,4140.512695,4159.487305,4151.282227,4182.563965,4156.410156,4152.307617,729.000000,4.000000,,,,0.000000,4.000000,4.000000,4.000000,4.000000,4.000000,4.000000,4.000000,4.000000,4.000000,4.000000,4.000000,4.000000,4.000000,4.000000,100.000000
1602006772.746454,98.000000,0.000000,4126.153809,4124.615234,4151.794922,4127.179688,4136.922852,4134.871582,4135.897461,4137.948730,4139.487305,4155.384766,4150.256348,4173.846191,4154.358887,4160.512695,871.000000,4.000000,,,,0.000000,4.000000,4.000000,4.000000,4.000000,4.000000,4.000000,4.000000,4.000000,4.000000,4.000000,4.000000,4.000000,4.000000,4.000000,100.000000
1602006772.754335,99.000000,0.000000,4130.256348,4126.153809,4146.153809,4128.717773,4135.897461,4134.358887,4136.410156,4136.410156,4131.794922,4154.358887,4156.410156,4168.717773,4151.282227,4154.358887,836.000000,4.000000,,,,0.000000,4.000000,4.000000,4.000000,4.000000,4.000000,4.000000,4.000000,4.000000,4.000000,4.000000,4.000000,4.000000,4.000000,4.000000,100.000000
1602006772.762216,100.000000,0.000000,4126.153809,4125.641113,4141.025879,4125.641113,4126.153809,4123.589844,4139.487305,4131.282227,4117.436035,4149.743652,4152.307617,4167.179688,4153.333496,4144.615234,766.000000,4.000000,,,,0.000000,4.000000,4.000000,4.000000,4.000000,4.000000,4.000000,4.000000,4.000000,4.000000,4.000000,4.000000,4.000000,4.000000,4.000000,100.000000
1602006772.770098,101.000000,0.000000,4123.589844,4123.077148,4139.487305,4121.025879,4128.205078,4122.051270,4135.897461,4126.153809,4114.358887,4140.000000,4141.025879,4157.948730,4144.615234,4143.077148,729.000000,4.000000,,,,0.000000,4.000000,4.000000,4.000000,4.000000,4.000000,4.000000,4.000000,4.000000,4.000000,4.000000,4.000000,4.000000,4.000000,4.000000,100.000000
1602006772.777879,102.000000,0.000000,4125.128418,4122.051270,4138.974121,4124.102539,4136.410156,4130.256348,4128.717773,4124.615234,4126.153809,4137.436035,4138.461426,4150.769043,4135.384766,4141.025879,871.000000,4.000000,,,,0.000000,4.000000,4.000000,4.000000,4.000000,4.000000,4.000000,4.000000,4.000000,4.000000,4.000000,4.000000,4.000000,4.000000,4.000000,100.000000
1602006772.785759,103.000000,0.000000,4122.563965,4121.025879,4136.922852,4125.641113,4136.410156,4127.179688,4124.102539,4124.102539,4127.179688,4139.487305,4138.461426,4150.256348,4133.846191,4135.384766,836.000000,4.000000,,,,0.000000,4.000000,4.000000,4.000000,4.000000,4.000000,4.000000,4.000000,4.000000,4.000000,4.000000,4.000000,4.000000,4.000000,4.000000,100.000000
1602006772.793640,104.000000,0.000000,4117.948730,4120.000000,4135.384766,4121.538574,4134.871582,4119.487305,4123.589844,4121.538574,4120.512695,4134.871582,4141.538574,4148.717773,4131.794922,4137.436035,766.000000,4.000000,,,,0.000000,4.000000,4.000000,4.000000,4.000000,4.000000,4.000000,4.000000,4.000000,4.000000,4.000000,4.000000,4.000000,4.000000,4.000000,100.000000
1602006772.801521,105.000000,0.000000,4123.077148,4121.538574,4138.461426,4125.128418,4133.333496,4122.051270,4123.077148,4122.563965,4125.641113,4132.307617,4153.333496,4150.769043,4133.846191,4142.051270,729.000000,4.000000,,,,0.000000,4.000000,4.000000,4.000000,4.000000,4.000000,4.000000,4.000000,4.000000,4.000000,4.000000,4.000000,4.000000,4.000000,4.000000,100.000000
1602006772.809402,106.000000,0.000000,4125.128418,4121.025879,4141.025879,4128.717773,4132.820313,4122.563965,4121.538574,4124.102539,4129.743652,4144.102539,4156.410156,4155.384766,4142.051270,4139.487305,871.000000,4.000000,,,,0.000000,4.000000,4.000000,4.000000,4.000000,4.000000,4.000000,4.000000,4.000000,4.000000,4.000000,4.000000,4.000000,4.000000,4.000000,100.000000
1602006772.817283,107.000000,0.000000,4119.487305,4120.000000,4138.461426,4125.128418,4137.436035,4118.974121,4120.000000,4120.000000,4121.025879,4156.922852,4142.563965,4153.333496,4141.025879,4136.410156,836.000000,4.000000,,,,0.000000,4.000000,4.000000,4.000000,4.000000,4.000000,4.000000,4.000000,4.000000,4.000000,4.000000,4.000000,4.000000,4.000000,4.000000,100.000000
1602006772.825164,108.000000,0.000000,4118.974121,4127.692383,4138.461426,4128.205078,4141.538574,4116.922852,4122.051270,4126.153809,4124.615234,4155.897461,4138.461426,4150.769043,4140.000000,4137.436035,766.000000,4.000000,,,,0.000000,4.000000,4.000000,4.000000,4.000000,4.000000,4.000000,4.000000,4.000000,4.000000,4.000000,4.000000,4.000000,4.000000,4.000000,100.000000
1602006772.833045,109.000000,0.000000,4123.589844,4137.948730,4143.077148,4137.948730,4141.538574,4121.025879,4127.692383,4141.025879,4143.589844,4153.846191,4159.487305,4156.410156,4153.846191,4140.000000,729.000000,4.000000,,,,0.000000,4.000000,4.000000,4.000000,4.000000,4.000000,4.000000,4.000000,4.000000,4.000000,4.000000,4.000000,4.000000,4.000000,4.000000,100.000000
1602006772.841026,110.000000,0.000000,4129.230957,4137.948730,4143.589844,4140.512695,4140.000000,4127.692383,4129.743652,4145.128418,4149.743652,4154.871582,4173.846191,4159.487305,4162.563965,4148.717773,871.000000,4.000000,,,,0.000000,4.000000,4.000000,4.000000,4.000000,4.000000,4.000000,4.000000,4.000000,4.000000,4.000000,4.000000,4.000000,4.000000,4.000000,100.000000
1602006772.848907,111.000000,0.000000,4129.743652,4133.846191,4145.128418,4136.410156,4131.282227,4128.717773,4126.153809,4138.461426,4138.461426,4150.769043,4162.563965,4155.897461,4156.922852,4156.922852,836.000000,4.000000,,,,0.000000,4.000000,4.000000,4.000000,4.000000,4.000000,4.000000,4.000000,4.000000,4.000000,4.000000,4.000000,4.000000,4.000000,4.000000,100.000000
1602006772.856788,112.000000,0.000000,4123.589844,4135.384766,4149.230957,4135.384766,4124.102539,4125.128418,4123.589844,4132.307617,4127.692383,4155.897461,4152.307617,4154.358887,4156.410156,4151.794922,766.000000,4.000000,,,,0.000000,4.000000,4.000000,4.000000,4.000000,4.000000,4.000000,4.000000,4.000000,4.000000,4.000000,4.000000,4.000000,4.000000,4.000000,100.000000
1602006772.864669,113.000000,0.000000,4123.589844,4136.410156,4149.230957,4136.410156,4131.794922,4122.563965,4124.102539,4127.179688,4121.025879,4168.717773,4155.897461,4154.358887,4156.410156,4142.563965,729.000000,4.000000,,,,0.000000,4.000000,4.000000,4.000000,4.000000,4.000000,4.000000,4.000000,4.000000,4.000000,4.000000,4.000000,4.000000,4.000000,4.000000,100.000000
1602006772.872550,114.000000,0.000000,4132.307617,4138.974121,4150.256348,4137.948730,4139.487305,4121.025879,4122.563965,4123.589844,4118.974121,4162.051270,4157.436035,4155.897461,4150.769043,4146.666504,871.000000,4.000000,,,,0.000000,4.000000,4.000000,4.000000,4.000000,4.000000,4.000000,4.000000,4.000000,4.000000,4.000000,4.000000,4.000000,4.000000,4.000000,100.000000
1602006772.880431,115.000000,0.000000,4138.974121,4141.538574,4152.307617,4138.974121,4136.922852,4119.487305,4122.563965,4122.051270,4123.077148,4143.077148,4154.871582,4163.077148,4153.846191,4155.384766,836.000000,4.000000,,,,0.000000,4.000000,4.000000,4.000000,4.000000,4.000000,4.000000,4.000000,4.000000,4.000000,4.000000,4.000000,4.000000,4.000000,4.000000,100.000000
1602006772.888311,116.000000,0.000000,4136.922852,4140.000000,4152.307617,4139.487305,4134.358887,4119.487305,4125.128418,4121.538574,4122.563965,4142.563965,4153.846191,4163.589844,4153.846191,4152.307617,766.000000,4.000000,,,,0.000000,4.000000,4.000000,4.000000,4.000000,4.000000,4.000000,4.000000,4.000000,4.000000,4.000000,4.000000,4.000000,4.000000,4.000000,100.000000
1602006772.896093,117.000000,0.000000,4128.205078,4138.974121,4148.717773,4140.000000,4137.436035,4120.512695,4125.641113,4123.077148,4120.512695,4148.205078,4152.307617,4156.410156,4143.077148,4144.102539,729.000000,4.000000,,,,0.000000,4.000000,4.000000,4.000000,4.000000,4.000000,4.000000,4.000000,4.000000,4.000000,4.000000,4.000000,4.000000,4.000000,4.000000,100.000000
1602006772.903974,118.000000,0.000000,4122.563965,4137.436035,4144.102539,4137.436035,4139.487305,4127.179688,4126.153809,4125.641113,4130.256348,4143.077148,4151.282227,4154.358887,4139.487305,4140.512695,871.000000,4.000000,,,,0.000000,4.000000,4.000000,4.000000,4.000000,4.000000,4.000000,4.000000,4.000000,4.000000,4.000000,4.000000,4.000000,4.000000,4.000000,100.000000
1602006772.911855,119.000000,0.000000,4124.615234,4130.256348,4139.487305,4132.820313,4133.333496,4134.358887,4126.666504,4129.743652,4135.897461,4145.128418,4146.666504,4156.410156,4142.051270,4140.000000,836.000000,4.000000,,,,0.000000,4.000000,4.000000,4.000000,4.000000,4.000000,4.000000,4.000000,4.000000,4.000000,4.000000,4.000000,4.000000,4.000000,4.000000,100.000000
1602006772.919736,120.000000,0.000000,4119.487305,4123.077148,4137.436035,4127.179688,4125.641113,4129.743652,4124.615234,4131.794922,4126.153809,4154.871582,4140.000000,4152.820313,4137.436035,4138.974121,766.000000,4.000000,,,,0.000000,4.000000,4.000000,4.000000,4.000000,4.000000,4.000000,4.000000,4.000000,4.000000,4.000000,4.000000,4.000000,4.000000,4.000000,100.000000
1602006772.927617,121.000000,0.000000,4106.153809,4120.000000,4135.897461,4122.563965,4130.256348,4118.974121,4119.487305,4124.615234,4118.461426,4151.282227,4135.897461,4144.102539,4134.871582,4129.743652,729.000000,4.000000,,,,0.000000,4.000000,4.000000,4.000000,4.000000,4.000000,4.000000,4.000000,4.000000,4.000000,4.000000,4.000000,4.000000,4.000000,4.000000,100.000000
1602006772.935499,122.000000,0.000000,4109.743652,4122.051270,4133.333496,4124.615234,4137.948730,4120.000000,4118.461426,4123.589844,4124.615234,4144.615234,4136.922852,4138.974121,4137.436035,4119.487305,871.000000,4.000000,,,,0.000000,4.000000,4.000000,4.000000,4.000000,4.000000,4.000000,4.000000,4.000000,4.000000,4.000000,4.000000,4.000000,4.000000,4.000000,100.000000
1602006772.943380,123.000000,0.000000,4125.641113,4129.230957,4136.922852,4127.692383,4135.897461,4131.794922,4122.051270,4131.794922,4129.743652,4153.333496,4148.717773,4144.615234,4140.000000,4125.641113,836.000000,4.000000,,,,0.000000,4.000000,4.000000,4.000000,4.000000,4.000000,4.000000,4.000000,4.000000,4.000000,4.000000,4.000000,4.000000,4.000000,4.000000,100.000000
1602006772.951261,124.000000,0.000000,4129.230957,4131.794922,4143.589844,4130.769043,4134.871582,4140.512695,4122.563965,4130.256348,4124.615234,4162.051270,4153.333496,4153.846191,4143.077148,4145.641113,766.000000,4.000000,,,,0.000000,4.000000,4.000000,4.000000,4.000000,4.000000,4.000000,4.000000,4.000000,4.000000,4.000000,4.000000,4.000000,4.000000,4.000000,100.000000
1602006772.959142,125.000000,0.000000,4123.589844,4126.666504,4144.615234,4135.384766,4140.000000,4140.512695,4120.512695,4122.563965,4120.512695,4146.666504,4141.538574,4156.410156,4143.077148,4156.922852,729.000000,4.000000,,,,0.000000,4.000000,4.000000,4.000000,4.000000,4.000000,4.000000,4.000000,4.000000,4.000000,4.000000,4.000000,4.000000,4.000000,4.000000,100.000000
1602006772.966923,126.000000,0.000000,4124.615234,4123.077148,4142.051270,4133.846191,4136.410156,4135.897461,4117.948730,4121.025879,4121.025879,4123.077148,4134.358887,4153.333496,4135.384766,4151.794922,871.000000,4.000000,,,,0.000000,4.000000,4.000000,4.000000,4.000000,4.000000,4.000000,4.000000,4.000000,4.000000,4.000000,4.000000,4.000000,4.000000,4.000000,100.000000
1602006772.974803,127.000000,0.000000,4121.538574,4121.025879,4135.897461,4123.589844,4125.128418,4134.358887,4121.025879,4120.000000,4120.512695,4126.666504,4132.820313,4142.563965,4125.128418,4136.922852,836.000000,4.000000,,,,0.000000,4.000000,4.000000,4.000000,4.000000,4.000000,4.000000,4.000000,4.000000,4.000000,4.000000,4.000000,4.000000,4.000000,4.000000,100.000000
1602006772.982684,128.000000,0.000000,4111.282227,4117.948730,4126.153809,4119.487305,4123.589844,4137.948730,4131.282227,4118.974121,4117.436035,4138.974121,4123.077148,4129.230957,4119.487305,4118.974121,766.000000,4.000000,,,,0.000000,4.000000,4.000000,4.000000,4.000000,4.000000,4.000000,4.000000,4.000000,4.000000,4.000000,4.000000,4.000000,4.000000,4.000000,100.000000
1602006772.990565,0.000000,0.000000,4114.358887,4119.487305,4122.051270,4124.615234,4125.641113,4141.538574,4138.974121,4124.102539,4121.025879,4136.922852,4116.410156,4127.692383,4119.487305,4113.846191,790.000000,4.000000,,,,0.000000,4.000000,4.000000,4.000000,4.000000,4.000000,4.000000,4.000000,4.000000,4.000000,4.000000,4.000000,4.000000,4.000000,4.000000,100.000000
1602006772.998446,1.000000,0.000000,4119.487305,4121.538574,4124.615234,4127.179688,4122.563965,4133.333496,4131.282227,4128.717773,4128.205078,4144.102539,4119.487305,4128.717773,4118.461426,4120.000000,790.000000,4.000000,,,,0.000000,4.000000,4.000000,4.000000,4.000000,4.000000,4.000000,4.000000,4.000000,4.000000,4.000000,4.000000,4.000000,4.000000,4.000000,100.000000
1602006773.006227,2.000000,0.000000,4114.358887,4121.025879,4123.077148,4126.666504,4126.666504,4118.461426,4120.512695,4130.256348,4127.179688,4152.307617,4125.128418,4124.102539,4118.461426,4126.666504,852.000000,4.000000,,,,0.000000,4.000000,4.000000,4.000000,4.000000,4.000000,4.000000,4.000000,4.000000,4.000000,4.000000,4.000000,4.000000,4.000000,4.000000,100.000000
1602006773.014108,3.000000,0.000000,4115.384766,4128.717773,4122.563965,4132.307617,4140.000000,4119.487305,4123.589844,4135.897461,4121.025879,4138.461426,4141.538574,4128.205078,4133.333496,4135.384766,868.000000,4.000000,,,,0.000000,4.000000,4.000000,4.000000,4.000000,4.000000,4.000000,4.000000,4.000000,4.000000,4.000000,4.000000,4.000000,4.000000,4.000000,100.000000
1602006773.021988,4.000000,0.000000,4126.666504,4140.512695,4126.153809,4138.461426,4143.077148,4126.666504,4127.179688,4140.000000,4124.102539,4132.820313,4157.948730,4137.948730,4146.666504,4144.102539,814.000000,4.000000,,,,0.000000,4.000000,4.000000,4.000000,4.000000,4.000000,4.000000,4.000000,4.000000,4.000000,4.000000,4.000000,4.000000,4.000000,4.000000,100.000000
1602006773.029869,5.000000,0.000000,4126.666504,4138.974121,4125.128418,4133.333496,4137.948730,4122.563965,4118.461426,4132.307617,4132.307617,4145.641113,4150.769043,4137.948730,4144.615234,4141.025879,814.000000,4.000000,,,,0.000000,4.000000,4.000000,4.000000,4.000000,4.000000,4.000000,4.000000,4.000000,4.000000,4.000000,4.000000,4.000000,4.000000,4.000000,100.000000
1602006773.037750,6.000000,0.000000,4121.025879,4133.846191,4128.717773,4128.205078,4138.461426,4116.922852,4109.743652,4122.563965,4131.794922,4150.769043,4138.461426,4141.025879,4146.153809,4134.358887,768.000000,4.000000,,,,0.000000,4.000000,4.000000,4.000000,4.000000,4.000000,4.000000,4.000000,4.000000,4.000000,4.000000,4.000000,4.000000,4.000000,4.000000,100.000000
1602006773.045631,7.000000,0.000000,4132.307617,4138.974121,4138.974121,4135.384766,4140.000000,4125.641113,4112.820313,4124.102539,4124.102539,4161.025879,4146.153809,4153.333496,4153.333496,4145.128418,661.000000,4.000000,,,,0.000000,4.000000,4.000000,4.000000,4.000000,4.000000,4.000000,4.000000,4.000000,4.000000,4.000000,4.000000,4.000000,4.000000,4.000000,100.000000
1602006773.053512,8.000000,0.000000,4142.563965,4140.512695,4140.000000,4138.461426,4138.974121,4135.897461,4120.000000,4130.256348,4123.589844,4164.615234,4158.461426,4157.436035,4154.871582,4155.897461,779.000000,4.000000,,,,0.000000,4.000000,4.000000,4.000000,4.000000,4.000000,4.000000,4.000000,4.000000,4.000000,4.000000,4.000000,4.000000,4.000000,4.000000,100.000000
1602006773.061493,9.000000,0.000000,4134.871582,4136.922852,4136.922852,4135.897461,4136.922852,4136.922852,4125.641113,4127.692383,4128.717773,4146.666504,4156.410156,4155.384766,4155.897461,4150.769043,837.000000,4.000000,,,,0.000000,4.000000,4.000000,4.000000,4.000000,4.000000,4.000000,4.000000,4.000000,4.000000,4.000000,4.000000,4.000000,4.000000,4.000000,100.000000
1602006773.069374,10.000000,0.000000,4122.051270,4137.436035,4136.410156,4137.436035,4138.974121,4146.153809,4134.871582,4130.256348,4126.153809,4148.205078,4147.179688,4151.794922,4151.282227,4136.922852,871.000000,4.000000,,,,0.000000,4.000000,4.000000,4.000000,4.000000,4.000000,4.000000,4.000000,4.000000,4.000000,4.000000,4.000000,4.000000,4.000000,4.000000,100.000000
1602006773.077255,11.000000,0.000000,4120.512695,4131.794922,4125.128418,4133.333496,4140.512695,4156.410156,4143.589844,4136.922852,4122.563965,4158.974121,4133.846191,4142.051270,4136.922852,4124.615234,836.000000,4.000000,,,,0.000000,4.000000,4.000000,4.000000,4.000000,4.000000,4.000000,4.000000,4.000000,4.000000,4.000000,4.000000,4.000000,4.000000,4.000000,100.000000
1602006773.085136,12.000000,0.000000,4124.102539,4122.563965,4110.769043,4123.589844,4134.358887,4144.615234,4143.077148,4131.794922,4121.538574,4135.897461,4125.641113,4133.333496,4133.846191,4117.948730,766.000000,4.000000,,,,0.000000,4.000000,4.000000,4.000000,4.000000,4.000000,4.000000,4.000000,4.000000,4.000000,4.000000,4.000000,4.000000,4.000000,4.000000,100.000000
1602006773.093017,13.000000,0.000000,4121.538574,4126.666504,4113.846191,4126.666504,4135.897461,4125.641113,4133.333496,4127.692383,4121.538574,4126.153809,4134.358887,4132.820313,4135.384766,4119.487305,729.000000,4.000000,,,,0.000000,4.000000,4.000000,4.000000,4.000000,4.000000,4.000000,4.000000,4.000000,4.000000,4.000000,4.000000,4.000000,4.000000,4.000000,100.000000
1602006773.100898,14.000000,0.000000,4124.102539,4136.922852,4121.025879,4134.358887,4153.333496,4124.615234,4123.077148,4131.282227,4121.538574,4156.922852,4140.000000,4138.974121,4133.846191,4130.256348,871.000000,4.000000,,,,0.000000,4.000000,4.000000,4.000000,4.000000,4.000000,4.000000,4.000000,4.000000,4.000000,4.000000,4.000000,4.000000,4.000000,4.000000,100.000000
1602006773.108779,15.000000,0.000000,4132.820313,4141.025879,4125.128418,4137.948730,4156.922852,4125.641113,4120.512695,4128.717773,4123.589844,4169.743652,4138.974121,4150.256348,4145.641113,4139.487305,836.000000,4.000000,,,,0.000000,4.000000,4.000000,4.000000,4.000000,4.000000,4.000000,4.000000,4.000000,4.000000,4.000000,4.000000,4.000000,4.000000,4.000000,100.000000
1602006773.116659,16.000000,0.000000,4137.436035,4146.666504,4135.384766,4143.077148,4143.077148,4116.922852,4121.025879,4120.512695,4130.256348,4152.820313,4145.641113,4157.436035,4156.922852,4141.538574,0.000000,4.000000,,,,0.000000,4.000000,4.000000,4.000000,4.000000,4.000000,4.000000,4.000000,4.000000,4.000000,4.000000,4.000000,4.000000,4.000000,4.000000,100.000000
1602006773.124641,17.000000,0.000000,4143.077148,4154.871582,4145.128418,4146.153809,4142.563965,4114.871582,4121.538574,4118.461426,4135.897461,4146.153809,4153.846191,4160.512695,4157.948730,4143.077148,0.000000,4.000000,,,,0.000000,4.000000,4.000000,4.000000,4.000000,4.000000,4.000000,4.000000,4.000000,4.000000,4.000000,4.000000,4.000000,4.000000,4.000000,100.000000
1602006773.132522,18.000000,0.000000,4152.307617,4156.410156,4144.615234,4145.128418,4155.384766,4123.077148,4121.025879,4121.538574,4135.384766,4156.922852,4165.128418,4167.179688,4166.666504,4145.128418,0.000000,4.000000,,,,0.000000,4.000000,4.000000,4.000000,4.000000,4.000000,4.000000,4.000000,4.000000,4.000000,4.000000,4.000000,4.000000,4.000000,4.000000,100.000000
1602006773.140403,19.000000,0.000000,4150.256348,4149.230957,4142.051270,4144.102539,4150.256348,4127.692383,4119.487305,4124.102539,4138.461426,4167.692383,4169.743652,4174.358887,4171.282227,4146.153809,0.000000,4.000000,,,,0.000000,4.000000,4.000000,4.000000,4.000000,4.000000,4.000000,4.000000,4.000000,4.000000,4.000000,4.000000,4.000000,4.000000,4.000000,100.000000
1602006773.148284,20.000000,0.000000,4138.974121,4140.512695,4141.025879,4141.025879,4137.948730,4125.128418,4116.410156,4124.102539,4153.333496,4162.051270,4158.974121,4174.358887,4157.948730,4145.128418,0.000000,4.000000,,,,0.000000,4.000000,4.000000,4.000000,4.000000,4.000000,4.000000,4.000000,4.000000,4.000000,4.000000,4.000000,4.000000,4.000000,4.000000,100.000000
1602006773.156165,21.000000,0.000000,4134.871582,4136.410156,4138.461426,4135.897461,4143.077148,4127.692383,4118.461426,4122.563965,4160.512695,4145.128418,4150.256348,4165.641113,4150.256348,4141.538574,0.000000,4.000000,,,,0.000000,4.000000,4.000000,4.000000,4.000000,4.000000,4.000000,4.000000,4.000000,4.000000,4.000000,4.000000,4.000000,4.000000,4.000000,100.000000
1602006773.164046,22.000000,0.000000,4136.922852,4136.410156,4135.897461,4136.922852,4153.333496,4137.436035,4130.769043,4128.717773,4155.384766,4152.307617,4149.743652,4155.384766,4150.769043,4137.436035,0.000000,4.000000,,,,0.000000,4.000000,4.000000,4.000000,4.000000,4.000000,4.000000,4.000000,4.000000,4.000000,4.000000,4.000000,4.000000,4.000000,4.000000,100.000000
1602006773.171928,23.000000,0.000000,4138.974121,4139.487305,4136.410156,4140.512695,4154.871582,4147.179688,4146.153809,4138.974121,4158.461426,4166.666504,4144.615234,4152.820313,4144.102539,4142.563965,0.000000,4.000000,,,,0.000000,4.000000,4.000000,4.000000,4.000000,4.000000,4.000000,4.000000,4.000000,4.000000,4.000000,4.000000,4.000000,4.000000,4.000000,100.000000
1602006773.179809,24.000000,0.000000,4131.794922,4139.487305,4133.333496,4138.461426,4147.179688,4141.538574,4146.153809,4142.051270,4156.410156,4145.641113,4140.000000,4153.333496,4138.461426,4139.487305,0.000000,4.000000,,,,0.000000,4.000000,4.000000,4.000000,4.000000,4.000000,4.000000,4.000000,4.000000,4.000000,4.000000,4.000000,4.000000,4.000000,4.000000,100.000000
1602006773.187690,25.000000,0.000000,4115.384766,4136.922852,4125.128418,4135.384766,4138.461426,4125.128418,4134.358887,4134.358887,4141.025879,4130.256348,4143.589844,4149.743652,4136.410156,4121.538574,0.000000,4.000000,,,,0.000000,4.000000,4.000000,4.000000,4.000000,4.000000,4.000000,4.000000,4.000000,4.000000,4.000000,4.000000,4.000000,4.000000,4.000000,100.000000
1602006773.195471,26.000000,0.000000,4113.333496,4134.358887,4120.000000,4134.358887,4141.025879,4118.461426,4127.179688,4124.102539,4134.358887,4151.282227,4143.589844,4147.692383,4133.846191,4118.974121,0.000000,4.000000,,,,0.000000,4.000000,4.000000,4.000000,4.000000,4.000000,4.000000,4.000000,4.000000,4.000000,4.000000,4.000000,4.000000,4.000000,4.000000,100.000000
1602006773.203352,27.000000,0.000000,4125.128418,4135.384766,4123.589844,4136.922852,4151.282227,4122.563965,4125.128418,4122.051270,4136.922852,4157.948730,4140.512695,4149.230957,4133.333496,4125.641113,0.000000,4.000000,,,,0.000000,4.000000,4.000000,4.000000,4.000000,4.000000,4.000000,4.000000,4.000000,4.000000,4.000000,4.000000,4.000000,4.000000,4.000000,100.000000
1602006773.211233,28.000000,0.000000,4125.128418,4136.410156,4125.641113,4138.974121,4152.307617,4122.051270,4123.077148,4123.589844,4135.897461,4131.282227,4145.641113,4149.743652,4136.922852,4121.538574,0.000000,4.000000,,,,0.000000,4.000000,4.000000,4.000000,4.000000,4.000000,4.000000,4.000000,4.000000,4.000000,4.000000,4.000000,4.000000,4.000000,4.000000,100.000000
1602006773.219114,29.000000,0.000000,4119.487305,4137.948730,4128.205078,4137.436035,4149.743652,4120.000000,4121.538574,4123.077148,4135.897461,4129.743652,4154.871582,4150.769043,4142.051270,4127.179688,0.000000,4.000000,,,,0.000000,4.000000,4.000000,4.000000,4.000000,4.000000,4.000000,4.000000,4.000000,4.000000,4.000000,4.000000,4.000000,4.000000,4.000000,100.000000
1602006773.226995,30.000000,0.000000,4126.666504,4141.025879,4135.384766,4137.436035,4152.820313,4125.128418,4125.128418,4126.666504,4139.487305,4152.307617,4159.487305,4151.794922,4141.025879,4140.512695,0.000000,4.000000,,,,0.000000,4.000000,4.000000,4.000000,4.000000,4.000000,4.000000,4.000000,4.000000,4.000000,4.000000,4.000000,4.000000,4.000000,4.000000,100.000000
1602006773.234875,31.000000,0.000000,4136.410156,4137.948730,4138.461426,4138.974121,4147.179688,4130.256348,4133.333496,4136.410156,4142.563965,4143.589844,4155.897461,4151.282227,4138.974121,4138.461426,0.000000,4.000000,,,,0.000000,4.000000,4.000000,4.000000,4.000000,4.000000,4.000000,4.000000,4.000000,4.000000,4.000000,4.000000,4.000000,4.000000,4.000000,100.000000
1602006773.242756,32.000000,0.000000,4136.410156,4136.410156,4137.948730,4136.922852,4137.948730,4135.384766,4137.436035,4137.948730,4144.102539,4132.820313,4152.820313,4158.974121,4141.538574,4133.846191,0.000000,4.000000,,,,0.000000,4.000000,4.000000,4.000000,4.000000,4.000000,4.000000,4.000000,4.000000,4.000000,4.000000,4.000000,4.000000,4.000000,4.000000,100.000000
1602006773.250537,33.000000,0.000000,4138.461426,4141.025879,4140.000000,4136.922852,4140.512695,4141.025879,4141.025879,4130.769043,4140.000000,4147.692383,4154.871582,4170.256348,4141.538574,4142.563965,0.000000,4.000000,,,,0.000000,4.000000,4.000000,4.000000,4.000000,4.000000,4.000000,4.000000,4.000000,4.000000,4.000000,4.000000,4.000000,4.000000,4.000000,100.000000
1602006773.258518,34.000000,0.000000,4143.077148,4142.051270,4142.051270,4140.000000,4143.077148,4138.974121,4140.000000,4122.563965,4126.666504,4150.256348,4154.871582,4167.692383,4138.974121,4147.179688,0.000000,4.000000,,,,0.000000,4.000000,4.000000,4.000000,4.000000,4.000000,4.000000,4.000000,4.000000,4.000000,4.000000,4.000000,4.000000,4.000000,4.000000,100.000000
1602006773.266499,35.000000,0.000000,4136.410156,4136.922852,4136.922852,4133.333496,4138.461426,4131.282227,4128.717773,4114.871582,4110.769043,4124.615234,4148.717773,4152.307617,4139.487305,4145.128418,0.000000,4.000000,,,,0.000000,4.000000,4.000000,4.000000,4.000000,4.000000,4.000000,4.000000,4.000000,4.000000,4.000000,4.000000,4.000000,4.000000,4.000000,100.000000
1602006773.274380,36.000000,0.000000,4130.256348,4135.384766,4127.692383,4127.692383,4137.948730,4124.615234,4127.179688,4110.769043,4109.230957,4116.410156,4138.974121,4141.025879,4132.820313,4142.563965,0.000000,4.000000,,,,0.000000,4.000000,4.000000,4.000000,4.000000,4.000000,4.000000,4.000000,4.000000,4.000000,4.000000,4.000000,4.000000,4.000000,4.000000,100.000000
1602006773.282260,37.000000,0.000000,4135.897461,4138.461426,4124.615234,4134.871582,4140.512695,4123.077148,4136.922852,4115.897461,4118.974121,4128.205078,4127.179688,4138.461426,4125.128418,4132.307617,0.000000,4.000000,,,,0.000000,4.000000,4.000000,4.000000,4.000000,4.000000,4.000000,4.000000,4.000000,4.000000,4.000000,4.000000,4.000000,4.000000,4.000000,100.000000
1602006773.290141,38.000000,0.000000,4133.333496,4142.051270,4129.230957,4140.000000,4144.102539,4127.692383,4137.948730,4123.589844,4122.563965,4126.666504,4124.615234,4142.563965,4130.256348,4125.641113,0.000000,4.000000,,,,0.000000,4.000000,4.000000,4.000000,4.000000,4.000000,4.000000,4.000000,4.000000,4.000000,4.000000,4.000000,4.000000,4.000000,4.000000,100.000000
1602006773.298022,39.000000,0.000000,4123.589844,4143.589844,4127.692383,4137.436035,4151.794922,4134.358887,4130.769043,4125.641113,4125.641113,4124.102539,4138.974121,4150.769043,4136.410156,4134.871582,0.000000,4.000000,,,,0.000000,4.000000,4.000000,4.000000,4.000000,4.000000,4.000000,4.000000,4.000000,4.000000,4.000000,4.000000,4.000000,4.000000,4.000000,100.000000
1602006773.305903,40.000000,0.000000,4128.717773,4145.128418,4124.615234,4137.436035,4155.384766,4137.948730,4125.641113,4122.563965,4135.897461,4131.282227,4149.230957,4153.333496,4144.102539,4144.615234,0.000000,4.000000,,,,0.000000,4.000000,4.000000,4.000000,4.000000,4.000000,4.000000,4.000000,4.000000,4.000000,4.000000,4.000000,4.000000,4.000000,4.000000,100.000000
1602006773.313784,41.000000,0.000000,4140.000000,4151.282227,4131.794922,4142.563965,4152.820313,4135.897461,4122.563965,4123.589844,4141.025879,4146.666504,4144.102539,4153.333496,4152.307617,4141.025879,0.000000,4.000000,,,,0.000000,4.000000,4.000000,4.000000,4.000000,4.000000,4.000000,4.000000,4.000000,4.000000,4.000000,4.000000,4.000000,4.000000,4.000000,100.000000
1602006773.321565,42.000000,0.000000,4140.000000,4152.820313,4141.025879,4144.615234,4152.820313,4127.692383,4122.563965,4129.230957,4140.512695,4154.871582,4142.563965,4158.461426,4147.179688,4134.871582,0.000000,4.000000,,,,0.000000,4.000000,4.000000,4.000000,4.000000,4.000000,4.000000,4.000000,4.000000,4.000000,4.000000,4.000000,4.000000,4.000000,4.000000,100.000000
1602006773.329446,43.000000,0.000000,4137.948730,4143.077148,4142.563965,4141.025879,4148.205078,4119.487305,4121.025879,4130.256348,4138.974121,4147.692383,4144.615234,4161.025879,4138.461426,4144.102539,0.000000,4.000000,,,,0.000000,4.000000,4.000000,4.000000,4.000000,4.000000,4.000000,4.000000,4.000000,4.000000,4.000000,4.000000,4.000000,4.000000,4.000000,100.000000
1602006773.337327,44.000000,0.000000,4142.051270,4136.410156,4140.512695,4136.922852,4141.025879,4125.128418,4120.000000,4125.128418,4130.769043,4136.410156,4138.974121,4157.948730,4142.051270,4155.897461,0.000000,4.000000,,,,0.000000,4.000000,4.000000,4.000000,4.000000,4.000000,4.000000,4.000000,4.000000,4.000000,4.000000,4.000000,4.000000,4.000000,4.000000,100.000000
1602006773.345208,45.000000,0.000000,4144.615234,4141.538574,4136.410156,4137.948730,4143.589844,4136.922852,4128.205078,4124.615234,4126.153809,4136.410156,4140.000000,4157.948730,4145.641113,4148.205078,0.000000,4.000000,,,,0.000000,4.000000,4.000000,4.000000,4.000000,4.000000,4.000000,4.000000,4.000000,4.000000,4.000000,4.000000,4.000000,4.000000,4.000000,100.000000
1602006773.353089,46.000000,0.000000,4143.589844,4145.128418,4136.410156,4139.487305,4144.615234,4132.820313,4136.922852,4123.077148,4126.666504,4142.051270,4147.179688,4159.487305,4138.974121,4135.384766,0.000000,4.000000,,,,0.000000,4.000000,4.000000,4.000000,4.000000,4.000000,4.000000,4.000000,4.000000,4.000000,4.000000,4.000000,4.000000,4.000000,4.000000,100.000000
1602006773.360970,47.000000,0.000000,4140.512695,4141.538574,4139.487305,4137.436035,4137.948730,4122.051270,4133.846191,4112.820313,4116.410156,4132.820313,4131.794922,4155.384766,4129.230957,4138.461426,0.000000,4.000000,,,,0.000000,4.000000,4.000000,4.000000,4.000000,4.000000,4.000000,4.000000,4.000000,4.000000,4.000000,4.000000,4.000000,4.000000,4.000000,100.000000
1602006773.368851,48.000000,0.000000,4136.922852,4138.974121,4140.512695,4136.922852,4136.922852,4116.410156,4129.743652,4107.692383,4101.025879,4118.461426,4109.230957,4151.794922,4120.512695,4137.436035,0.000000,4.000000,,,,0.000000,4.000000,4.000000,4.000000,4.000000,4.000000,4.000000,4.000000,4.000000,4.000000,4.000000,4.000000,4.000000,4.000000,4.000000,100.000000
1602006773.376832,49.000000,0.000000,4138.461426,4140.000000,4139.487305,4139.487305,4142.051270,4121.538574,4133.333496,4117.436035,4105.128418,4117.948730,4118.974121,4154.358887,4122.563965,4131.282227,0.000000,4.000000,,,,0.000000,4.000000,4.000000,4.000000,4.000000,4.000000,4.000000,4.000000,4.000000,4.000000,4.000000,4.000000,4.000000,4.000000,4.000000,100.000000
1602006773.384713,50.000000,0.000000,4141.025879,4141.538574,4137.948730,4140.000000,4141.025879,4132.820313,4137.948730,4127.179688,4119.487305,4128.205078,4137.948730,4156.922852,4133.333496,4137.436035,0.000000,4.000000,,,,0.000000,4.000000,4.000000,4.000000,4.000000,4.000000,4.000000,4.000000,4.000000,4.000000,4.000000,4.000000,4.000000,4.000000,4.000000,100.000000
1602006773.392594,51.000000,0.000000,4137.948730,4137.436035,4135.897461,4134.358887,4138.974121,4130.256348,4135.897461,4124.102539,4123.077148,4124.615234,4132.307617,4153.846191,4129.743652,4136.410156,0.000000,4.000000,,,,0.000000,4.000000,4.000000,4.000000,4.000000,4.000000,4.000000,4.000000,4.000000,4.000000,4.000000,4.000000,4.000000,4.000000,4.000000,100.000000
1602006773.400475,52.000000,0.000000,4138.461426,4135.384766,4136.922852,4132.820313,4144.102539,4122.563965,4134.358887,4122.051270,4126.153809,4111.282227,4128.205078,4152.307617,4122.051270,4125.641113,0.000000,4.000000,,,,0.000000,4.000000,4.000000,4.000000,4.000000,4.000000,4.000000,4.000000,4.000000,4.000000,4.000000,4.000000,4.000000,4.000000,4.000000,100.000000
1602006773.408356,53.000000,0.000000,4138.461426,4140.512695,4135.384766,4139.487305,4149.743652,4129.743652,4137.436035,4131.794922,4138.974121,4129.743652,4139.487305,4156.410156,4132.307617,4125.641113,0.000000,4.000000,,,,0.000000,4.000000,4.000000,4.000000,4.000000,4.000000,4.000000,4.000000,4.000000,4.000000,4.000000,4.000000,4.000000,4.000000,4.000000,100.000000
1602006773.416238,54.000000,0.000000,4127.179688,4139.487305,4120.512695,4136.410156,4144.615234,4133.846191,4135.897461,4138.974121,4148.205078,4153.333496,4142.051270,4153.333496,4139.487305,4126.153809,0.000000,4.000000,,,,0.000000,4.000000,4.000000,4.000000,4.000000,4.000000,4.000000,4.000000,4.000000,4.000000,4.000000,4.000000,4.000000,4.000000,4.000000,100.000000
1602006773.424119,55.000000,0.000000,4117.948730,4131.282227,4102.563965,4125.128418,4136.922852,4122.563965,4126.666504,4128.717773,4143.589844,4140.512695,4135.384766,4140.512695,4128.717773,4121.538574,0.000000,4.000000,,,,0.000000,4.000000,4.000000,4.000000,4.000000,4.000000,4.000000,4.000000,4.000000,4.000000,4.000000,4.000000,4.000000,4.000000,4.000000,100.000000
1602006773.432000,56.000000,0.000000,4121.538574,4132.307617,4104.615234,4126.666504,4136.410156,4121.025879,4122.563965,4118.974121,4141.025879,4133.846191,4136.922852,4134.871582,4129.230957,4121.025879,0.000000,4.000000,,,,0.000000,4.000000,4.000000,4.000000,4.000000,4.000000,4.000000,4.000000,4.000000,4.000000,4.000000,4.000000,4.000000,4.000000,4.000000,100.000000
1602006773.439881,57.000000,0.000000,4130.256348,4141.538574,4121.538574,4136.922852,4137.948730,4126.666504,4131.794922,4127.692383,4147.179688,4163.077148,4143.077148,4146.153809,4143.589844,4124.615234,0.000000,4.000000,,,,0.000000,4.000000,4.000000,4.000000,4.000000,4.000000,4.000000,4.000000,4.000000,4.000000,4.000000,4.000000,4.000000,4.000000,4.000000,100.000000
1602006773.447662,58.000000,0.000000,4137.948730,4144.102539,4130.256348,4139.487305,4140.512695,4116.410156,4136.410156,4134.358887,4148.717773,4163.077148,4144.615234,4155.897461,4144.615234,4131.282227,0.000000,4.000000,,,,0.000000,4.000000,4.000000,4.000000,4.000000,4.000000,4.000000,4.000000,4.000000,4.000000,4.000000,4.000000,4.000000,4.000000,4.000000,100.000000
1602006773.455543,59.000000,0.000000,4138.461426,4142.051270,4126.153809,4136.410156,4138.461426,4104.615234,4127.692383,4127.179688,4137.948730,4129.230957,4138.461426,4151.794922,4131.794922,4134.871582,0.000000,4.000000,,,,0.000000,4.000000,4.000000,4.000000,4.000000,4.000000,4.000000,4.000000,4.000000,4.000000,4.000000,4.000000,4.000000,4.000000,4.000000,100.000000
1602006773.463424,60.000000,0.000000,4129.230957,4142.563965,4122.563965,4135.897461,4135.384766,4110.769043,4122.051270,4121.538574,4124.615234,4126.666504,4127.692383,4141.538574,4123.589844,4127.692383,0.000000,4.000000,,,,0.000000,4.000000,4.000000,4.000000,4.000000,4.000000,4.000000,4.000000,4.000000,4.000000,4.000000,4.000000,4.000000,4.000000,4.000000,100.000000
1602006773.471305,61.000000,0.000000,4121.025879,4140.512695,4123.589844,4136.410156,4144.102539,4121.538574,4123.589844,4122.051270,4122.051270,4138.461426,4120.512695,4137.436035,4123.077148,4113.846191,0.000000,4.000000,,,,0.000000,4.000000,4.000000,4.000000,4.000000,4.000000,4.000000,4.000000,4.000000,4.000000,4.000000,4.000000,4.000000,4.000000,4.000000,100.000000
1602006773.479186,62.000000,0.000000,4120.512695,4136.410156,4125.128418,4136.922852,4150.769043,4122.563965,4125.128418,4125.128418,4125.128418,4132.820313,4122.563965,4142.051270,4120.512695,4110.256348,0.000000,4.000000,,,,0.000000,4.000000,4.000000,4.000000,4.000000,4.000000,4.000000,4.000000,4.000000,4.000000,4.000000,4.000000,4.000000,4.000000,4.000000,100.000000
1602006773.486967,63.000000,0.000000,4121.538574,4135.897461,4127.692383,4135.897461,4144.102539,4119.487305,4129.743652,4131.794922,4125.641113,4135.384766,4130.256348,4145.641113,4118.461426,4115.897461,0.000000,4.000000,,,,0.000000,4.000000,4.000000,4.000000,4.000000,4.000000,4.000000,4.000000,4.000000,4.000000,4.000000,4.000000,4.000000,4.000000,4.000000,100.000000
1602006773.494848,64.000000,0.000000,4122.051270,4136.922852,4126.666504,4135.897461,4141.025879,4122.563965,4136.922852,4136.922852,4122.051270,4140.000000,4128.205078,4144.102539,4121.538574,4124.615234,790.000000,4.000000,,,,0.000000,4.000000,4.000000,4.000000,4.000000,4.000000,4.000000,4.000000,4.000000,4.000000,4.000000,4.000000,4.000000,4.000000,4.000000,100.000000
1602006773.502729,65.000000,0.000000,4121.538574,4135.897461,4124.615234,4135.897461,4143.077148,4133.333496,4140.000000,4137.436035,4121.025879,4131.282227,4128.717773,4144.102539,4123.077148,4125.128418,790.000000,4.000000,,,,0.000000,4.000000,4.000000,4.000000,4.000000,4.000000,4.000000,4.000000,4.000000,4.000000,4.000000,4.000000,4.000000,4.000000,4.000000,100.000000
1602006773.510611,66.000000,0.000000,4119.487305,4136.410156,4123.077148,4132.820313,4137.948730,4137.436035,4140.000000,4135.384766,4122.051270,4130.769043,4137.436035,4139.487305,4124.102539,4113.846191,852.000000,4.000000,,,,0.000000,4.000000,4.000000,4.000000,4.000000,4.000000,4.000000,4.000000,4.000000,4.000000,4.000000,4.000000,4.000000,4.000000,4.000000,100.000000
1602006773.518492,67.000000,0.000000,4121.025879,4138.974121,4125.128418,4130.769043,4134.358887,4126.153809,4138.461426,4129.230957,4122.051270,4142.051270,4133.846191,4126.153809,4127.179688,4112.820313,868.000000,4.000000,,,,0.000000,4.000000,4.000000,4.000000,4.000000,4.000000,4.000000,4.000000,4.000000,4.000000,4.000000,4.000000,4.000000,4.000000,4.000000,100.000000
1602006773.526373,68.000000,0.000000,4123.589844,4138.974121,4131.794922,4128.205078,4139.487305,4118.461426,4136.410156,4123.589844,4124.615234,4141.025879,4121.538574,4118.461426,4121.538574,4117.436035,814.000000,4.000000,,,,0.000000,4.000000,4.000000,4.000000,4.000000,4.000000,4.000000,4.000000,4.000000,4.000000,4.000000,4.000000,4.000000,4.000000,4.000000,100.000000
1602006773.534254,69.000000,0.000000,4115.384766,4131.282227,4133.846191,4123.077148,4137.436035,4121.025879,4131.794922,4117.948730,4118.461426,4127.179688,4117.436035,4120.512695,4110.256348,4110.769043,814.000000,4.000000,,,,0.000000,4.000000,4.000000,4.000000,4.000000,4.000000,4.000000,4.000000,4.000000,4.000000,4.000000,4.000000,4.000000,4.000000,4.000000,100.000000
1602006773.542135,70.000000,0.000000,4106.153809,4123.589844,4134.358887,4124.102539,4134.871582,4121.538574,4125.128418,4106.153809,4108.205078,4109.230957,4119.487305,4127.692383,4105.641113,4100.000000,768.000000,4.000000,,,,0.000000,4.000000,4.000000,4.000000,4.000000,4.000000,4.000000,4.000000,4.000000,4.000000,4.000000,4.000000,4.000000,4.000000,4.000000,100.000000
1602006773.550116,71.000000,0.000000,4108.717773,4123.077148,4137.436035,4127.692383,4143.589844,4126.666504,4124.102539,4094.358887,4105.641113,4097.948730,4121.025879,4135.384766,4106.153809,4092.307617,661.000000,4.000000,,,,0.000000,4.000000,4.000000,4.000000,4.000000,4.000000,4.000000,4.000000,4.000000,4.000000,4.000000,4.000000,4.000000,4.000000,4.000000,100.000000
1602006773.557997,72.000000,0.000000,4111.794922,4123.077148,4132.820313,4126.153809,4152.820313,4137.436035,4130.769043,4094.358887,4107.179688,4111.282227,4120.000000,4136.922852,4115.384766,4086.666748,779.000000,4.000000,,,,0.000000,4.000000,4.000000,4.000000,4.000000,4.000000,4.000000,4.000000,4.000000,4.000000,4.000000,4.000000,4.000000,4.000000,4.000000,100.000000
1602006773.565878,73.000000,0.000000,4106.153809,4120.512695,4123.589844,4124.615234,4153.846191,4142.051270,4138.461426,4115.897461,4122.563965,4135.384766,4123.589844,4136.410156,4125.128418,4096.410156,837.000000,4.000000,,,,0.000000,4.000000,4.000000,4.000000,4.000000,4.000000,4.000000,4.000000,4.000000,4.000000,4.000000,4.000000,4.000000,4.000000,4.000000,100.000000
1602006773.573759,74.000000,0.000000,4103.589844,4120.000000,4116.922852,4124.102539,4149.743652,4140.000000,4140.512695,4146.153809,4153.333496,4148.717773,4135.897461,4139.487305,4123.077148,4108.717773,871.000000,4.000000,,,,0.000000,4.000000,4.000000,4.000000,4.000000,4.000000,4.000000,4.000000,4.000000,4.000000,4.000000,4.000000,4.000000,4.000000,4.000000,100.000000
1602006773.581640,75.000000,0.000000,4106.153809,4124.102539,4110.256348,4123.077148,4147.692383,4137.436035,4139.487305,4162.051270,4174.871582,4163.589844,4146.153809,4138.461426,4127.692383,4105.641113,836.000000,4.000000,,,,0.000000,4.000000,4.000000,4.000000,4.000000,4.000000,4.000000,4.000000,4.000000,4.000000,4.000000,4.000000,4.000000,4.000000,4.000000,100.000000
1602006773.589521,76.000000,0.000000,4107.179688,4125.641113,4105.641113,4123.589844,4150.769043,4137.948730,4142.563965,4164.615234,4172.307617,4171.794922,4144.102539,4131.794922,4140.512695,4107.179688,766.000000,4.000000,,,,0.000000,4.000000,4.000000,4.000000,4.000000,4.000000,4.000000,4.000000,4.000000,4.000000,4.000000,4.000000,4.000000,4.000000,4.000000,100.000000
1602006773.597402,77.000000,0.000000,4106.666504,4123.077148,4109.230957,4122.563965,4155.384766,4138.461426,4146.153809,4159.487305,4156.410156,4160.000000,4136.922852,4124.102539,4135.897461,4112.820313,729.000000,4.000000,,,,0.000000,4.000000,4.000000,4.000000,4.000000,4.000000,4.000000,4.000000,4.000000,4.000000,4.000000,4.000000,4.000000,4.000000,4.000000,100.000000
1602006773.605283,78.000000,0.000000,4105.128418,4121.025879,4116.410156,4122.051270,4149.743652,4133.846191,4141.025879,4144.102539,4138.461426,4141.025879,4128.717773,4115.384766,4116.922852,4108.205078,871.000000,4.000000,,,,0.000000,4.000000,4.000000,4.000000,4.000000,4.000000,4.000000,4.000000,4.000000,4.000000,4.000000,4.000000,4.000000,4.000000,4.000000,100.000000
1602006773.613263,79.000000,0.000000,4104.102539,4121.538574,4121.538574,4124.102539,4138.461426,4126.666504,4135.384766,4134.358887,4126.666504,4130.256348,4123.077148,4114.871582,4109.743652,4107.692383,836.000000,4.000000,,,,0.000000,4.000000,4.000000,4.000000,4.000000,4.000000,4.000000,4.000000,4.000000,4.000000,4.000000,4.000000,4.000000,4.000000,4.000000,100.000000
1602006773.621144,80.000000,0.000000,4106.153809,4123.589844,4122.563965,4129.230957,4138.461426,4120.000000,4135.384766,4133.846191,4122.051270,4122.563965,4124.102539,4123.077148,4107.692383,4110.769043,766.000000,4.000000,,,,0.000000,4.000000,4.000000,4.000000,4.000000,4.000000,4.000000,4.000000,4.000000,4.000000,4.000000,4.000000,4.000000,4.000000,4.000000,100.000000
1602006773.629025,81.000000,0.000000,4113.846191,4129.743652,4118.974121,4134.358887,4142.051270,4124.615234,4136.410156,4128.717773,4118.974121,4115.384766,4122.051270,4125.128418,4106.153809,4108.205078,729.000000,4.000000,,,,0.000000,4.000000,4.000000,4.000000,4.000000,4.000000,4.000000,4.000000,4.000000,4.000000,4.000000,4.000000,4.000000,4.000000,4.000000,100.000000
1602006773.637005,82.000000,0.000000,4124.615234,4137.436035,4118.974121,4137.948730,4140.512695,4135.897461,4140.000000,4123.589844,4121.025879,4117.436035,4118.974121,4121.538574,4113.846191,4111.794922,871.000000,4.000000,,,,0.000000,4.000000,4.000000,4.000000,4.000000,4.000000,4.000000,4.000000,4.000000,4.000000,4.000000,4.000000,4.000000,4.000000,4.000000,100.000000
1602006773.644986,83.000000,0.000000,4127.692383,4135.384766,4122.051270,4136.410156,4140.512695,4134.871582,4141.025879,4123.077148,4125.128418,4129.230957,4123.589844,4123.589844,4118.461426,4112.820313,836.000000,4.000000,,,,0.000000,4.000000,4.000000,4.000000,4.000000,4.000000,4.000000,4.000000,4.000000,4.000000,4.000000,4.000000,4.000000,4.000000,4.000000,100.000000
1602006773.652867,84.000000,0.000000,4123.077148,4127.692383,4117.436035,4130.769043,4141.538574,4125.128418,4130.256348,4121.025879,4117.948730,4130.256348,4124.615234,4121.538574,4115.384766,4103.589844,766.000000,4.000000,,,,0.000000,4.000000,4.000000,4.000000,4.000000,4.000000,4.000000,4.000000,4.000000,4.000000,4.000000,4.000000,4.000000,4.000000,4.000000,100.000000
1602006773.660748,85.000000,0.000000,4121.538574,4124.615234,4120.000000,4127.692383,4140.000000,4124.615234,4125.641113,4124.615234,4107.179688,4119.487305,4122.563965,4112.820313,4114.871582,4108.717773,729.000000,4.000000,,,,0.000000,4.000000,4.000000,4.000000,4.000000,4.000000,4.000000,4.000000,4.000000,4.000000,4.000000,4.000000,4.000000,4.000000,4.000000,100.000000
1602006773.668629,86.000000,0.000000,4123.077148,4125.128418,4135.897461,4129.230957,4140.000000,4125.641113,4132.820313,4128.717773,4108.717773,4118.974121,4126.666504,4109.230957,4110.769043,4121.025879,871.000000,4.000000,,,,0.000000,4.000000,4.000000,4.000000,4.000000,4.000000,4.000000,4.000000,4.000000,4.000000,4.000000,4.000000,4.000000,4.000000,4.000000,100.000000
1602006773.676510,87.000000,0.000000,4115.897461,4121.538574,4137.948730,4128.205078,4145.128418,4124.102539,4131.794922,4125.641113,4112.307617,4119.487305,4123.589844,4106.153809,4101.025879,4112.820313,836.000000,4.000000,,,,0.000000,4.000000,4.000000,4.000000,4.000000,4.000000,4.000000,4.000000,4.000000,4.000000,4.000000,4.000000,4.000000,4.000000,4.000000,100.000000
1602006773.684391,88.000000,0.000000,4107.692383,4120.512695,4126.153809,4127.692383,4152.307617,4131.282227,4129.743652,4130.256348,4112.307617,4118.461426,4123.077148,4110.769043,4102.563965,4099.487305,766.000000,4.000000,,,,0.000000,4.000000,4.000000,4.000000,4.000000,4.000000,4.000000,4.000000,4.000000,4.000000,4.000000,4.000000,4.000000,4.000000,4.000000,100.000000
1602006773.692372,89.000000,0.000000,4110.256348,4131.282227,4125.641113,4136.410156,4158.461426,4143.589844,4139.487305,4143.077148,4128.205078,4135.897461,4144.615234,4126.666504,4122.563965,4112.307617,729.000000,4.000000,,,,0.000000,4.000000,4.000000,4.000000,4.000000,4.000000,4.000000,4.000000,4.000000,4.000000,4.000000,4.000000,4.000000,4.000000,4.000000,100.000000
1602006773.700253,90.000000,0.000000,4111.794922,4133.333496,4123.077148,4140.000000,4150.769043,4140.512695,4139.487305,4143.077148,4138.974121,4147.179688,4153.333496,4129.230957,4128.717773,4125.128418,871.000000,4.000000,,,,0.000000,4.000000,4.000000,4.000000,4.000000,4.000000,4.000000,4.000000,4.000000,4.000000,4.000000,4.000000,4.000000,4.000000,4.000000,100.000000
1602006773.708134,91.000000,0.000000,4105.128418,4122.051270,4108.205078,4131.794922,4137.436035,4123.589844,4126.666504,4134.871582,4124.615234,4138.461426,4135.897461,4122.563965,4115.897461,4117.948730,836.000000,4.000000,,,,0.000000,4.000000,4.000000,4.000000,4.000000,4.000000,4.000000,4.000000,4.000000,4.000000,4.000000,4.000000,4.000000,4.000000,4.000000,100.000000
1602006773.716015,92.000000,0.000000,4107.692383,4122.563965,4111.794922,4132.307617,4136.410156,4124.102539,4129.743652,4136.410156,4120.000000,4132.820313,4131.794922,4132.820313,4114.358887,4115.897461,766.000000,4.000000,,,,0.000000,4.000000,4.000000,4.000000,4.000000,4.000000,4.000000,4.000000,4.000000,4.000000,4.000000,4.000000,4.000000,4.000000,4.000000,100.000000
1602006773.723896,93.000000,0.000000,4114.871582,4131.282227,4125.128418,4140.000000,4136.922852,4141.538574,4138.974121,4137.948730,4132.307617,4129.230957,4140.512695,4139.487305,4123.589844,4126.153809,729.000000,4.000000,,,,0.000000,4.000000,4.000000,4.000000,4.000000,4.000000,4.000000,4.000000,4.000000,4.000000,4.000000,4.000000,4.000000,4.000000,4.000000,100.000000
1602006773.731777,94.000000,0.000000,4106.153809,4125.128418,4116.410156,4134.358887,4129.743652,4141.025879,4132.820313,4127.692383,4130.769043,4124.615234,4132.307617,4127.179688,4116.922852,4125.128418,871.000000,4.000000,,,,0.000000,4.000000,4.000000,4.000000,4.000000,4.000000,4.000000,4.000000,4.000000,4.000000,4.000000,4.000000,4.000000,4.000000,4.000000,100.000000
1602006773.739659,95.000000,0.000000,4092.820557,4112.820313,4106.153809,4123.589844,4124.102539,4125.641113,4121.025879,4120.000000,4121.538574,4121.538574,4120.000000,4120.000000,4103.589844,4111.794922,836.000000,4.000000,,,,0.000000,4.000000,4.000000,4.000000,4.000000,4.000000,4.000000,4.000000,4.000000,4.000000,4.000000,4.000000,4.000000,4.000000,4.000000,100.000000
1602006773.747540,96.000000,0.000000,4092.307617,4108.205078,4113.846191,4122.051270,4127.692383,4126.153809,4121.538574,4125.128418,4117.948730,4124.102539,4123.077148,4121.538574,4102.563965,4103.589844,766.000000,4.000000,,,,0.000000,4.000000,4.000000,4.000000,4.000000,4.000000,4.000000,4.000000,4.000000,4.000000,4.000000,4.000000,4.000000,4.000000,4.000000,100.000000
1602006773.755421,97.000000,0.000000,4096.410156,4112.820313,4124.102539,4124.615234,4134.358887,4137.436035,4133.846191,4136.410156,4118.974121,4132.820313,4132.307617,4127.179688,4111.282227,4106.666504,729.000000,4.000000,,,,0.000000,4.000000,4.000000,4.000000,4.000000,4.000000,4.000000,4.000000,4.000000,4.000000,4.000000,4.000000,4.000000,4.000000,4.000000,100.000000
1602006773.763402,98.000000,0.000000,4102.051270,4122.051270,4132.307617,4129.743652,4138.974121,4141.025879,4141.538574,4145.641113,4130.769043,4143.077148,4138.974121,4142.051270,4122.563965,4120.512695,871.000000,4.000000,,,,0.000000,4.000000,4.000000,4.000000,4.000000,4.000000,4.000000,4.000000,4.000000,4.000000,4.000000,4.000000,4.000000,4.000000,4.000000,100.000000
1602006773.771283,99.000000,0.000000,4112.820313,4124.102539,4138.461426,4134.358887,4138.974121,4136.922852,4136.922852,4151.794922,4144.615234,4139.487305,4144.615234,4152.820313,4129.743652,4134.358887,836.000000,4.000000,,,,0.000000,4.000000,4.000000,4.000000,4.000000,4.000000,4.000000,4.000000,4.000000,4.000000,4.000000,4.000000,4.000000,4.000000,4.000000,100.000000
1602006773.779164,100.000000,0.000000,4124.615234,4122.563965,4141.538574,4136.922852,4136.922852,4138.974121,4137.436035,4153.846191,4149.230957,4139.487305,4147.692383,4153.333496,4130.769043,4138.974121,766.000000,4.000000,,,,0.000000,4.000000,4.000000,4.000000,4.000000,4.000000,4.000000,4.000000,4.000000,4.000000,4.000000,4.000000,4.000000,4.000000,4.000000,100.000000
1602006773.787046,101.000000,0.000000,4126.666504,4126.666504,4139.487305,4135.897461,4136.922852,4148.717773,4152.307617,4150.769043,4144.102539,4145.128418,4142.051270,4151.282227,4130.256348,4137.948730,729.000000,4.000000,,,,0.000000,4.000000,4.000000,4.000000,4.000000,4.000000,4.000000,4.000000,4.000000,4.000000,4.000000,4.000000,4.000000,4.000000,4.000000,100.000000
1602006773.794927,102.000000,0.000000,4117.436035,4122.563965,4128.717773,4128.205078,4132.307617,4148.205078,4156.410156,4140.512695,4128.205078,4134.871582,4135.897461,4142.051270,4120.000000,4130.769043,871.000000,4.000000,,,,0.000000,4.000000,4.000000,4.000000,4.000000,4.000000,4.000000,4.000000,4.000000,4.000000,4.000000,4.000000,4.000000,4.000000,4.000000,100.000000
1602006773.802808,103.000000,0.000000,4109.743652,4109.230957,4119.487305,4120.000000,4124.102539,4134.358887,4141.538574,4130.256348,4116.922852,4136.410156,4135.384766,4124.615234,4108.717773,4115.384766,836.000000,4.000000,,,,0.000000,4.000000,4.000000,4.000000,4.000000,4.000000,4.000000,4.000000,4.000000,4.000000,4.000000,4.000000,4.000000,4.000000,4.000000,100.000000
1602006773.810689,104.000000,0.000000,4106.666504,4103.077148,4117.948730,4120.000000,4118.974121,4125.128418,4131.282227,4130.256348,4123.077148,4153.846191,4128.717773,4117.948730,4109.743652,4102.563965,766.000000,4.000000,,,,0.000000,4.000000,4.000000,4.000000,4.000000,4.000000,4.000000,4.000000,4.000000,4.000000,4.000000,4.000000,4.000000,4.000000,4.000000,100.000000
1602006773.818570,105.000000,0.000000,4110.769043,4110.769043,4120.512695,4126.666504,4122.563965,4124.615234,4134.871582,4134.358887,4124.102539,4139.487305,4120.512695,4126.153809,4109.743652,4111.282227,729.000000,4.000000,,,,0.000000,4.000000,4.000000,4.000000,4.000000,4.000000,4.000000,4.000000,4.000000,4.000000,4.000000,4.000000,4.000000,4.000000,4.000000,100.000000
1602006773.826451,106.000000,0.000000,4122.563965,4121.538574,4128.717773,4132.820313,4133.333496,4124.615234,4136.410156,4135.384766,4110.256348,4105.128418,4129.743652,4139.487305,4106.666504,4128.205078,871.000000,4.000000,,,,0.000000,4.000000,4.000000,4.000000,4.000000,4.000000,4.000000,4.000000,4.000000,4.000000,4.000000,4.000000,4.000000,4.000000,4.000000,100.000000
1602006773.834232,107.000000,0.000000,4126.666504,4123.077148,4136.410156,4136.410156,4136.410156,4121.538574,4126.153809,4135.897461,4108.205078,4109.230957,4138.461426,4147.179688,4108.205078,4129.230957,836.000000,4.000000,,,,0.000000,4.000000,4.000000,4.000000,4.000000,4.000000,4.000000,4.000000,4.000000,4.000000,4.000000,4.000000,4.000000,4.000000,4.000000,100.000000
1602006773.842113,108.000000,0.000000,4122.563965,4120.000000,4131.282227,4135.384766,4128.205078,4121.025879,4120.000000,4134.871582,4124.102539,4135.897461,4128.205078,4143.589844,4107.179688,4122.563965,766.000000,4.000000,,,,0.000000,4.000000,4.000000,4.000000,4.000000,4.000000,4.000000,4.000000,4.000000,4.000000,4.000000,4.000000,4.000000,4.000000,4.000000,100.000000
1602006773.849994,109.000000,0.000000,4121.538574,4121.538574,4124.615234,4136.410156,4126.666504,4127.179688,4129.743652,4133.846191,4136.410156,4144.615234,4123.589844,4138.461426,4103.589844,4123.077148,729.000000,4.000000,,,,0.000000,4.000000,4.000000,4.000000,4.000000,4.000000,4.000000,4.000000,4.000000,4.000000,4.000000,4.000000,4.000000,4.000000,4.000000,100.000000
1602006773.857875,110.000000,0.000000,4122.051270,4123.077148,4125.128418,4134.358887,4135.897461,4136.922852,4138.974121,4135.897461,4141.538574,4149.230957,4137.948730,4137.436035,4112.307617,4124.102539,871.000000,4.000000,,,,0.000000,4.000000,4.000000,4.000000,4.000000,4.000000,4.000000,4.000000,4.000000,4.000000,4.000000,4.000000,4.000000,4.000000,4.000000,100.000000
1602006773.865756,111.000000,0.000000,4129.743652,4126.666504,4126.666504,4130.769043,4141.538574,4142.051270,4137.948730,4139.487305,4151.282227,4151.794922,4143.077148,4143.589844,4126.153809,4127.692383,836.000000,4.000000,,,,0.000000,4.000000,4.000000,4.000000,4.000000,4.000000,4.000000,4.000000,4.000000,4.000000,4.000000,4.000000,4.000000,4.000000,4.000000,100.000000
1602006773.873537,112.000000,0.000000,4141.538574,4131.282227,4127.692383,4132.307617,4140.512695,4141.538574,4138.974121,4138.974121,4148.205078,4134.871582,4133.333496,4153.846191,4126.153809,4137.436035,766.000000,4.000000,,,,0.000000,4.000000,4.000000,4.000000,4.000000,4.000000,4.000000,4.000000,4.000000,4.000000,4.000000,4.000000,4.000000,4.000000,4.000000,100.000000
1602006773.881418,113.000000,0.000000,4137.436035,4128.717773,4125.128418,4131.794922,4137.948730,4136.922852,4140.512695,4136.410156,4123.589844,4120.000000,4129.743652,4152.307617,4118.461426,4136.922852,729.000000,4.000000,,,,0.000000,4.000000,4.000000,4.000000,4.000000,4.000000,4.000000,4.000000,4.000000,4.000000,4.000000,4.000000,4.000000,4.000000,4.000000,100.000000
1602006773.889199,114.000000,0.000000,4132.307617,4130.256348,4123.077148,4132.820313,4144.615234,4135.897461,4138.974121,4137.948730,4116.410156,4133.846191,4135.897461,4148.717773,4128.205078,4134.871582,871.000000,4.000000,,,,0.000000,4.000000,4.000000,4.000000,4.000000,4.000000,4.000000,4.000000,4.000000,4.000000,4.000000,4.000000,4.000000,4.000000,4.000000,100.000000
