Timestamp,EEG.Counter,EEG.Interpolated,EEG.AF3,EEG.F7,EEG.F3,EEG.FC5,EEG.T7,EEG.P7,EEG.O1,EEG.O2,EEG.P8,EEG.T8,EEG.FC6,EEG.F4,EEG.F8,EEG.AF4,EEG.RawCq,EEG.Battery,MarkerIndex,MarkerType,MarkerValueInt,EEG.MarkerHardware,CQ.AF3,CQ.F7,CQ.F3,CQ.FC5,CQ.T7,CQ.P7,CQ.O1,CQ.O2,CQ.P8,CQ.T8,CQ.FC6,CQ.F4,CQ.F8,CQ.AF4,CQ.Overall
1602006783.005154,109.000000,0.000000,4143.077148,4138.461426,4126.153809,4132.820313,4120.000000,4120.512695,4122.051270,4138.461426,4162.563965,4112.820313,4124.102539,4138.974121,4092.820557,4092.820557,728.000000,4.000000,,,,0.000000,4.000000,4.000000,4.000000,4.000000,4.000000,4.000000,4.000000,4.000000,4.000000,4.000000,4.000000,4.000000,4.000000,4.000000,100.000000
1602006783.013135,110.000000,0.000000,4139.487305,4136.922852,4123.077148,4126.666504,4121.025879,4121.538574,4123.077148,4143.589844,4171.282227,4148.717773,4118.974121,4141.538574,4090.769287,4095.384521,870.000000,4.000000,,,,0.000000,4.000000,4.000000,4.000000,4.000000,4.000000,4.000000,4.000000,4.000000,4.000000,4.000000,4.000000,4.000000,4.000000,4.000000,100.000000
1602006783.021016,111.000000,0.000000,4137.436035,4138.974121,4123.077148,4126.153809,4122.051270,4124.615234,4122.563965,4142.563965,4170.256348,4155.897461,4111.282227,4148.205078,4098.974121,4103.077148,837.000000,4.000000,,,,0.000000,4.000000,4.000000,4.000000,4.000000,4.000000,4.000000,4.000000,4.000000,4.000000,4.000000,4.000000,4.000000,4.000000,4.000000,100.000000
1602006783.028897,112.000000,0.000000,4137.948730,4139.487305,4123.589844,4127.692383,4122.051270,4121.538574,4121.538574,4141.025879,4176.410156,4146.666504,4120.000000,4148.717773,4108.717773,4107.692383,766.000000,4.000000,,,,0.000000,4.000000,4.000000,4.000000,4.000000,4.000000,4.000000,4.000000,4.000000,4.000000,4.000000,4.000000,4.000000,4.000000,4.000000,100.000000
1602006783.036778,113.000000,0.000000,4138.974121,4138.974121,4124.102539,4127.692383,4125.128418,4118.461426,4128.205078,4140.000000,4168.717773,4133.846191,4124.615234,4144.615234,4106.666504,4109.230957,728.000000,4.000000,,,,0.000000,4.000000,4.000000,4.000000,4.000000,4.000000,4.000000,4.000000,4.000000,4.000000,4.000000,4.000000,4.000000,4.000000,4.000000,100.000000
1602006783.044660,114.000000,0.000000,4147.692383,4147.179688,4129.743652,4135.897461,4125.641113,4127.692383,4136.922852,4138.461426,4152.820313,4117.436035,4121.025879,4150.256348,4108.717773,4107.692383,870.000000,4.000000,,,,0.000000,4.000000,4.000000,4.000000,4.000000,4.000000,4.000000,4.000000,4.000000,4.000000,4.000000,4.000000,4.000000,4.000000,4.000000,100.000000
1602006783.052541,115.000000,0.000000,4150.769043,4152.307617,4137.436035,4141.538574,4127.692383,4142.051270,4140.000000,4138.461426,4151.282227,4127.692383,4130.256348,4158.974121,4123.077148,4107.692383,837.000000,4.000000,,,,0.000000,4.000000,4.000000,4.000000,4.000000,4.000000,4.000000,4.000000,4.000000,4.000000,4.000000,4.000000,4.000000,4.000000,4.000000,100.000000
1602006783.060422,116.000000,0.000000,4143.589844,4146.153809,4137.436035,4137.948730,4131.794922,4142.563965,4140.000000,4137.436035,4149.743652,4150.769043,4137.436035,4154.358887,4125.128418,4112.307617,766.000000,4.000000,,,,0.000000,4.000000,4.000000,4.000000,4.000000,4.000000,4.000000,4.000000,4.000000,4.000000,4.000000,4.000000,4.000000,4.000000,4.000000,100.000000
1602006783.068303,117.000000,0.000000,4146.666504,4147.692383,4130.256348,4138.461426,4131.282227,4135.384766,4139.487305,4136.410156,4138.974121,4147.179688,4121.538574,4142.051270,4106.153809,4107.692383,728.000000,4.000000,,,,0.000000,4.000000,4.000000,4.000000,4.000000,4.000000,4.000000,4.000000,4.000000,4.000000,4.000000,4.000000,4.000000,4.000000,4.000000,100.000000
1602006783.076184,118.000000,0.000000,4159.487305,4156.922852,4125.641113,4140.512695,4128.205078,4139.487305,4139.487305,4133.846191,4136.922852,4134.358887,4106.153809,4138.974121,4093.846191,4093.846191,870.000000,4.000000,,,,0.000000,4.000000,4.000000,4.000000,4.000000,4.000000,4.000000,4.000000,4.000000,4.000000,4.000000,4.000000,4.000000,4.000000,4.000000,100.000000
1602006783.084065,119.000000,0.000000,4157.436035,4150.769043,4124.102539,4134.871582,4129.230957,4141.025879,4137.436035,4126.666504,4138.974121,4129.230957,4112.820313,4138.974121,4094.871826,4092.307617,837.000000,4.000000,,,,0.000000,4.000000,4.000000,4.000000,4.000000,4.000000,4.000000,4.000000,4.000000,4.000000,4.000000,4.000000,4.000000,4.000000,4.000000,100.000000
1602006783.092046,120.000000,0.000000,4150.256348,4142.563965,4128.205078,4129.743652,4131.794922,4127.692383,4128.205078,4120.000000,4134.358887,4120.000000,4120.512695,4134.871582,4097.436035,4101.025879,766.000000,4.000000,,,,0.000000,4.000000,4.000000,4.000000,4.000000,4.000000,4.000000,4.000000,4.000000,4.000000,4.000000,4.000000,4.000000,4.000000,4.000000,100.000000
1602006783.099927,121.000000,0.000000,4162.051270,4152.307617,4137.436035,4136.922852,4136.922852,4118.974121,4118.461426,4123.077148,4137.948730,4123.589844,4123.077148,4141.538574,4111.282227,4111.794922,728.000000,4.000000,,,,0.000000,4.000000,4.000000,4.000000,4.000000,4.000000,4.000000,4.000000,4.000000,4.000000,4.000000,4.000000,4.000000,4.000000,4.000000,100.000000
1602006783.107808,122.000000,0.000000,4174.871582,4161.025879,4142.051270,4145.128418,4142.563965,4123.077148,4120.000000,4129.230957,4148.205078,4149.743652,4133.333496,4158.461426,4129.743652,4124.615234,870.000000,4.000000,,,,0.000000,4.000000,4.000000,4.000000,4.000000,4.000000,4.000000,4.000000,4.000000,4.000000,4.000000,4.000000,4.000000,4.000000,4.000000,100.000000
1602006783.115689,123.000000,0.000000,4170.256348,4154.358887,4138.974121,4141.538574,4138.461426,4124.615234,4120.512695,4125.128418,4141.538574,4161.025879,4135.384766,4163.077148,4126.666504,4125.128418,837.000000,4.000000,,,,0.000000,4.000000,4.000000,4.000000,4.000000,4.000000,4.000000,4.000000,4.000000,4.000000,4.000000,4.000000,4.000000,4.000000,4.000000,100.000000
1602006783.123570,124.000000,0.000000,4163.589844,4151.282227,4137.436035,4140.000000,4133.846191,4117.948730,4116.922852,4120.512695,4132.820313,4147.692383,4130.769043,4154.871582,4121.538574,4119.487305,766.000000,4.000000,,,,0.000000,4.000000,4.000000,4.000000,4.000000,4.000000,4.000000,4.000000,4.000000,4.000000,4.000000,4.000000,4.000000,4.000000,4.000000,100.000000
1602006783.131451,125.000000,0.000000,4171.794922,4161.025879,4139.487305,4146.666504,4140.512695,4123.077148,4125.128418,4130.769043,4146.666504,4144.615234,4137.948730,4154.358887,4137.948730,4130.769043,728.000000,4.000000,,,,0.000000,4.000000,4.000000,4.000000,4.000000,4.000000,4.000000,4.000000,4.000000,4.000000,4.000000,4.000000,4.000000,4.000000,4.000000,100.000000
1602006783.139332,126.000000,0.000000,4173.846191,4162.563965,4138.461426,4143.589844,4140.000000,4127.179688,4137.948730,4141.538574,4152.307617,4151.794922,4144.102539,4159.487305,4141.025879,4143.589844,870.000000,4.000000,,,,0.000000,4.000000,4.000000,4.000000,4.000000,4.000000,4.000000,4.000000,4.000000,4.000000,4.000000,4.000000,4.000000,4.000000,4.000000,100.000000
1602006783.147313,127.000000,0.000000,4157.436035,4150.769043,4135.384766,4134.358887,4127.692383,4118.461426,4143.589844,4138.974121,4134.358887,4142.051270,4140.000000,4157.436035,4127.179688,4138.974121,837.000000,4.000000,,,,0.000000,4.000000,4.000000,4.000000,4.000000,4.000000,4.000000,4.000000,4.000000,4.000000,4.000000,4.000000,4.000000,4.000000,4.000000,100.000000
1602006783.155194,128.000000,0.000000,4152.820313,4147.179688,4135.897461,4135.384766,4128.717773,4124.102539,4149.230957,4141.538574,4135.897461,4128.717773,4138.974121,4153.333496,4132.307617,4135.384766,766.000000,4.000000,,,,0.000000,4.000000,4.000000,4.000000,4.000000,4.000000,4.000000,4.000000,4.000000,4.000000,4.000000,4.000000,4.000000,4.000000,4.000000,100.000000
1602006783.163075,0.000000,0.000000,4158.974121,4152.820313,4139.487305,4140.000000,4135.384766,4148.205078,4156.410156,4151.282227,4157.436035,4140.512695,4141.025879,4154.871582,4142.563965,4138.974121,798.000000,4.000000,,,,0.000000,4.000000,4.000000,4.000000,4.000000,4.000000,4.000000,4.000000,4.000000,4.000000,4.000000,4.000000,4.000000,4.000000,4.000000,100.000000
1602006783.170956,1.000000,0.000000,4155.384766,4153.846191,4141.538574,4138.974121,4128.205078,4155.897461,4151.794922,4147.692383,4160.000000,4157.948730,4142.051270,4157.948730,4136.922852,4140.000000,790.000000,4.000000,,,,0.000000,4.000000,4.000000,4.000000,4.000000,4.000000,4.000000,4.000000,4.000000,4.000000,4.000000,4.000000,4.000000,4.000000,4.000000,100.000000
1602006783.178838,2.000000,0.000000,4150.256348,4153.333496,4140.512695,4139.487305,4123.589844,4138.461426,4140.512695,4137.948730,4152.820313,4152.307617,4144.102539,4155.384766,4133.333496,4135.897461,852.000000,4.000000,,,,0.000000,4.000000,4.000000,4.000000,4.000000,4.000000,4.000000,4.000000,4.000000,4.000000,4.000000,4.000000,4.000000,4.000000,4.000000,100.000000
1602006783.186719,3.000000,0.000000,4150.256348,4151.794922,4140.000000,4139.487305,4125.641113,4124.615234,4137.436035,4132.307617,4152.307617,4147.179688,4140.512695,4154.358887,4138.974121,4126.666504,868.000000,4.000000,,,,0.000000,4.000000,4.000000,4.000000,4.000000,4.000000,4.000000,4.000000,4.000000,4.000000,4.000000,4.000000,4.000000,4.000000,4.000000,100.000000
1602006783.194600,4.000000,0.000000,4144.615234,4144.615234,4142.051270,4137.948730,4125.128418,4127.692383,4136.410156,4127.692383,4146.153809,4154.871582,4136.410156,4158.974121,4134.871582,4118.974121,816.000000,4.000000,,,,0.000000,4.000000,4.000000,4.000000,4.000000,4.000000,4.000000,4.000000,4.000000,4.000000,4.000000,4.000000,4.000000,4.000000,4.000000,100.000000
1602006783.202481,5.000000,0.000000,4137.948730,4138.974121,4142.563965,4136.410156,4129.230957,4130.256348,4129.743652,4124.615234,4141.025879,4150.256348,4130.769043,4158.974121,4124.615234,4120.000000,816.000000,4.000000,,,,0.000000,4.000000,4.000000,4.000000,4.000000,4.000000,4.000000,4.000000,4.000000,4.000000,4.000000,4.000000,4.000000,4.000000,4.000000,100.000000
1602006783.210362,6.000000,0.000000,4138.461426,4142.563965,4139.487305,4133.333496,4137.948730,4123.077148,4124.615234,4124.102539,4141.025879,4134.871582,4121.538574,4146.666504,4121.538574,4120.512695,759.000000,4.000000,,,,0.000000,4.000000,4.000000,4.000000,4.000000,4.000000,4.000000,4.000000,4.000000,4.000000,4.000000,4.000000,4.000000,4.000000,4.000000,100.000000
1602006783.218343,7.000000,0.000000,4146.666504,4151.282227,4139.487305,4134.871582,4137.948730,4122.051270,4131.794922,4129.230957,4140.512695,4133.333496,4124.615234,4135.897461,4122.563965,4117.948730,656.000000,4.000000,,,,0.000000,4.000000,4.000000,4.000000,4.000000,4.000000,4.000000,4.000000,4.000000,4.000000,4.000000,4.000000,4.000000,4.000000,4.000000,100.000000
1602006783.226224,8.000000,0.000000,4148.717773,4153.333496,4135.897461,4138.974121,4130.769043,4129.743652,4137.948730,4135.897461,4140.512695,4138.974121,4135.897461,4137.436035,4120.512695,4117.948730,779.000000,4.000000,,,,0.000000,4.000000,4.000000,4.000000,4.000000,4.000000,4.000000,4.000000,4.000000,4.000000,4.000000,4.000000,4.000000,4.000000,4.000000,100.000000
1602006783.234204,9.000000,0.000000,4140.000000,4147.179688,4126.666504,4132.307617,4122.051270,4125.641113,4130.256348,4134.871582,4130.256348,4134.871582,4134.871582,4137.948730,4118.461426,4118.974121,837.000000,4.000000,,,,0.000000,4.000000,4.000000,4.000000,4.000000,4.000000,4.000000,4.000000,4.000000,4.000000,4.000000,4.000000,4.000000,4.000000,4.000000,100.000000
1602006783.242085,10.000000,0.000000,4142.051270,4146.666504,4129.230957,4128.205078,4120.000000,4117.948730,4126.666504,4129.743652,4125.128418,4141.538574,4134.358887,4137.436035,4124.102539,4119.487305,870.000000,4.000000,,,,0.000000,4.000000,4.000000,4.000000,4.000000,4.000000,4.000000,4.000000,4.000000,4.000000,4.000000,4.000000,4.000000,4.000000,4.000000,100.000000
1602006783.249966,11.000000,0.000000,4153.846191,4151.794922,4141.538574,4134.871582,4123.077148,4120.000000,4130.769043,4126.153809,4133.333496,4154.358887,4139.487305,4146.666504,4123.589844,4121.025879,837.000000,4.000000,,,,0.000000,4.000000,4.000000,4.000000,4.000000,4.000000,4.000000,4.000000,4.000000,4.000000,4.000000,4.000000,4.000000,4.000000,4.000000,100.000000
1602006783.257847,12.000000,0.000000,4156.410156,4154.871582,4142.051270,4138.974121,4121.025879,4123.589844,4126.666504,4121.025879,4131.794922,4146.666504,4134.871582,4157.436035,4118.974121,4128.205078,766.000000,4.000000,,,,0.000000,4.000000,4.000000,4.000000,4.000000,4.000000,4.000000,4.000000,4.000000,4.000000,4.000000,4.000000,4.000000,4.000000,4.000000,100.000000
1602006783.265728,13.000000,0.000000,4152.820313,4156.410156,4138.974121,4138.461426,4126.153809,4119.487305,4120.000000,4119.487305,4119.487305,4133.846191,4131.282227,4157.948730,4126.666504,4137.436035,728.000000,4.000000,,,,0.000000,4.000000,4.000000,4.000000,4.000000,4.000000,4.000000,4.000000,4.000000,4.000000,4.000000,4.000000,4.000000,4.000000,4.000000,100.000000
1602006783.273709,14.000000,0.000000,4156.410156,4160.512695,4146.153809,4142.051270,4137.948730,4114.871582,4118.974121,4120.512695,4115.897461,4132.820313,4138.974121,4153.846191,4136.410156,4139.487305,870.000000,4.000000,,,,0.000000,4.000000,4.000000,4.000000,4.000000,4.000000,4.000000,4.000000,4.000000,4.000000,4.000000,4.000000,4.000000,4.000000,4.000000,100.000000
1602006783.281590,15.000000,0.000000,4161.025879,4165.641113,4152.820313,4144.615234,4141.538574,4121.538574,4122.051270,4119.487305,4118.461426,4135.384766,4142.563965,4155.897461,4137.436035,4137.948730,837.000000,4.000000,,,,0.000000,4.000000,4.000000,4.000000,4.000000,4.000000,4.000000,4.000000,4.000000,4.000000,4.000000,4.000000,4.000000,4.000000,4.000000,100.000000
1602006783.289471,16.000000,0.000000,4157.948730,4164.615234,4150.769043,4142.051270,4140.512695,4138.974121,4124.615234,4121.538574,4128.205078,4141.538574,4137.948730,4159.487305,4135.384766,4138.974121,0.000000,4.000000,,,,0.000000,4.000000,4.000000,4.000000,4.000000,4.000000,4.000000,4.000000,4.000000,4.000000,4.000000,4.000000,4.000000,4.000000,4.000000,100.000000
1602006783.297353,17.000000,0.000000,4145.641113,4156.922852,4140.512695,4138.974121,4134.871582,4145.641113,4125.641113,4122.051270,4140.000000,4138.461426,4134.358887,4151.794922,4128.717773,4131.282227,0.000000,4.000000,,,,0.000000,4.000000,4.000000,4.000000,4.000000,4.000000,4.000000,4.000000,4.000000,4.000000,4.000000,4.000000,4.000000,4.000000,4.000000,100.000000
1602006783.305234,18.000000,0.000000,4135.897461,4149.743652,4133.333496,4135.384766,4126.666504,4140.000000,4131.282227,4121.025879,4141.538574,4125.128418,4134.358887,4140.000000,4118.974121,4118.461426,0.000000,4.000000,,,,0.000000,4.000000,4.000000,4.000000,4.000000,4.000000,4.000000,4.000000,4.000000,4.000000,4.000000,4.000000,4.000000,4.000000,4.000000,100.000000
1602006783.313115,19.000000,0.000000,4136.922852,4145.641113,4135.384766,4133.846191,4123.589844,4137.436035,4137.948730,4130.256348,4149.743652,4135.384766,4134.871582,4143.589844,4125.641113,4122.051270,0.000000,4.000000,,,,0.000000,4.000000,4.000000,4.000000,4.000000,4.000000,4.000000,4.000000,4.000000,4.000000,4.000000,4.000000,4.000000,4.000000,4.000000,100.000000
1602006783.320996,20.000000,0.000000,4135.897461,4141.025879,4137.948730,4136.410156,4124.102539,4133.846191,4134.358887,4139.487305,4162.563965,4158.974121,4136.922852,4155.384766,4138.974121,4136.922852,0.000000,4.000000,,,,0.000000,4.000000,4.000000,4.000000,4.000000,4.000000,4.000000,4.000000,4.000000,4.000000,4.000000,4.000000,4.000000,4.000000,4.000000,100.000000
1602006783.328877,21.000000,0.000000,4138.461426,4142.051270,4140.000000,4136.410156,4119.487305,4125.641113,4128.717773,4137.948730,4151.794922,4157.436035,4137.436035,4154.871582,4138.461426,4138.974121,0.000000,4.000000,,,,0.000000,4.000000,4.000000,4.000000,4.000000,4.000000,4.000000,4.000000,4.000000,4.000000,4.000000,4.000000,4.000000,4.000000,4.000000,100.000000
1602006783.336858,22.000000,0.000000,4150.769043,4150.256348,4148.205078,4137.436035,4118.974121,4121.025879,4134.358887,4134.358887,4136.922852,4146.153809,4136.410156,4153.846191,4134.358887,4132.307617,0.000000,4.000000,,,,0.000000,4.000000,4.000000,4.000000,4.000000,4.000000,4.000000,4.000000,4.000000,4.000000,4.000000,4.000000,4.000000,4.000000,4.000000,100.000000
1602006783.344739,23.000000,0.000000,4155.897461,4153.846191,4154.358887,4136.922852,4129.230957,4123.077148,4137.948730,4127.692383,4134.358887,4153.846191,4135.384766,4160.512695,4138.974121,4139.487305,0.000000,4.000000,,,,0.000000,4.000000,4.000000,4.000000,4.000000,4.000000,4.000000,4.000000,4.000000,4.000000,4.000000,4.000000,4.000000,4.000000,4.000000,100.000000
1602006783.352620,24.000000,0.000000,4153.333496,4152.307617,4153.333496,4138.461426,4136.410156,4122.563965,4135.384766,4120.512695,4125.641113,4155.897461,4137.436035,4168.205078,4146.666504,4162.051270,0.000000,4.000000,,,,0.000000,4.000000,4.000000,4.000000,4.000000,4.000000,4.000000,4.000000,4.000000,4.000000,4.000000,4.000000,4.000000,4.000000,4.000000,100.000000
1602006783.360501,25.000000,0.000000,4160.512695,4153.846191,4157.948730,4146.153809,4135.384766,4120.000000,4133.333496,4127.179688,4116.922852,4137.948730,4143.589844,4178.974121,4153.333496,4172.820313,0.000000,4.000000,,,,0.000000,4.000000,4.000000,4.000000,4.000000,4.000000,4.000000,4.000000,4.000000,4.000000,4.000000,4.000000,4.000000,4.000000,4.000000,100.000000
1602006783.368382,26.000000,0.000000,4166.153809,4158.461426,4162.563965,4148.717773,4135.384766,4128.205078,4128.205078,4134.871582,4127.692383,4133.846191,4146.666504,4181.025879,4158.461426,4161.025879,0.000000,4.000000,,,,0.000000,4.000000,4.000000,4.000000,4.000000,4.000000,4.000000,4.000000,4.000000,4.000000,4.000000,4.000000,4.000000,4.000000,4.000000,100.000000
1602006783.376263,27.000000,0.000000,4148.717773,4154.871582,4147.692383,4140.512695,4137.436035,4137.436035,4119.487305,4125.128418,4142.051270,4144.102539,4138.461426,4160.000000,4150.769043,4142.051270,0.000000,4.000000,,,,0.000000,4.000000,4.000000,4.000000,4.000000,4.000000,4.000000,4.000000,4.000000,4.000000,4.000000,4.000000,4.000000,4.000000,4.000000,100.000000
1602006783.384243,28.000000,0.000000,4128.717773,4142.051270,4127.692383,4134.871582,4135.384766,4135.897461,4117.436035,4118.974121,4141.025879,4142.563965,4130.769043,4138.461426,4130.769043,4130.256348,0.000000,4.000000,,,,0.000000,4.000000,4.000000,4.000000,4.000000,4.000000,4.000000,4.000000,4.000000,4.000000,4.000000,4.000000,4.000000,4.000000,4.000000,100.000000
1602006783.392124,29.000000,0.000000,4126.153809,4136.922852,4121.025879,4134.871582,4131.794922,4136.410156,4122.563965,4123.077148,4135.897461,4134.358887,4131.794922,4134.358887,4120.512695,4118.461426,0.000000,4.000000,,,,0.000000,4.000000,4.000000,4.000000,4.000000,4.000000,4.000000,4.000000,4.000000,4.000000,4.000000,4.000000,4.000000,4.000000,4.000000,100.000000
1602006783.400105,30.000000,0.000000,4126.153809,4139.487305,4114.358887,4132.820313,4128.717773,4141.025879,4125.641113,4122.051270,4138.461426,4137.436035,4123.077148,4127.179688,4123.589844,4103.589844,0.000000,4.000000,,,,0.000000,4.000000,4.000000,4.000000,4.000000,4.000000,4.000000,4.000000,4.000000,4.000000,4.000000,4.000000,4.000000,4.000000,4.000000,100.000000
1602006783.407985,31.000000,0.000000,4117.948730,4137.948730,4106.666504,4129.743652,4125.128418,4137.436035,4123.589844,4124.102539,4140.000000,4141.025879,4110.769043,4115.384766,4121.538574,4105.128418,0.000000,4.000000,,,,0.000000,4.000000,4.000000,4.000000,4.000000,4.000000,4.000000,4.000000,4.000000,4.000000,4.000000,4.000000,4.000000,4.000000,4.000000,100.000000
1602006783.415866,32.000000,0.000000,4117.948730,4135.384766,4111.282227,4127.179688,4124.102539,4127.692383,4125.641113,4134.358887,4135.897461,4136.922852,4122.563965,4122.563965,4117.948730,4121.025879,0.000000,4.000000,,,,0.000000,4.000000,4.000000,4.000000,4.000000,4.000000,4.000000,4.000000,4.000000,4.000000,4.000000,4.000000,4.000000,4.000000,4.000000,100.000000
1602006783.423847,33.000000,0.000000,4130.256348,4140.000000,4122.051270,4128.717773,4123.077148,4128.717773,4133.846191,4143.589844,4137.436035,4137.436035,4140.000000,4141.025879,4131.794922,4131.794922,0.000000,4.000000,,,,0.000000,4.000000,4.000000,4.000000,4.000000,4.000000,4.000000,4.000000,4.000000,4.000000,4.000000,4.000000,4.000000,4.000000,4.000000,100.000000
1602006783.431727,34.000000,0.000000,4141.025879,4147.692383,4129.743652,4136.410156,4127.692383,4140.000000,4138.461426,4151.794922,4148.717773,4145.128418,4140.000000,4153.846191,4143.589844,4134.871582,0.000000,4.000000,,,,0.000000,4.000000,4.000000,4.000000,4.000000,4.000000,4.000000,4.000000,4.000000,4.000000,4.000000,4.000000,4.000000,4.000000,4.000000,100.000000
1602006783.439608,35.000000,0.000000,4147.692383,4151.282227,4142.051270,4140.000000,4135.384766,4150.769043,4140.512695,4156.410156,4158.461426,4155.897461,4140.000000,4160.000000,4139.487305,4147.692383,0.000000,4.000000,,,,0.000000,4.000000,4.000000,4.000000,4.000000,4.000000,4.000000,4.000000,4.000000,4.000000,4.000000,4.000000,4.000000,4.000000,4.000000,100.000000
1602006783.447589,36.000000,0.000000,4157.436035,4155.897461,4156.410156,4141.025879,4135.897461,4154.358887,4146.666504,4154.358887,4156.410156,4160.000000,4147.179688,4166.666504,4145.641113,4164.102539,0.000000,4.000000,,,,0.000000,4.000000,4.000000,4.000000,4.000000,4.000000,4.000000,4.000000,4.000000,4.000000,4.000000,4.000000,4.000000,4.000000,4.000000,100.000000
1602006783.455470,37.000000,0.000000,4162.563965,4154.358887,4158.461426,4142.051270,4130.769043,4148.205078,4142.563965,4148.205078,4142.051270,4149.230957,4146.666504,4172.820313,4153.846191,4164.102539,0.000000,4.000000,,,,0.000000,4.000000,4.000000,4.000000,4.000000,4.000000,4.000000,4.000000,4.000000,4.000000,4.000000,4.000000,4.000000,4.000000,4.000000,100.000000
1602006783.463351,38.000000,0.000000,4150.769043,4144.102539,4149.743652,4138.974121,4122.563965,4130.769043,4127.179688,4134.871582,4124.615234,4141.025879,4140.512695,4167.692383,4141.538574,4149.743652,0.000000,4.000000,,,,0.000000,4.000000,4.000000,4.000000,4.000000,4.000000,4.000000,4.000000,4.000000,4.000000,4.000000,4.000000,4.000000,4.000000,4.000000,100.000000
1602006783.471232,39.000000,0.000000,4137.436035,4136.922852,4142.563965,4133.846191,4115.384766,4122.051270,4120.000000,4121.025879,4119.487305,4142.563965,4136.922852,4156.410156,4130.769043,4140.000000,0.000000,4.000000,,,,0.000000,4.000000,4.000000,4.000000,4.000000,4.000000,4.000000,4.000000,4.000000,4.000000,4.000000,4.000000,4.000000,4.000000,4.000000,100.000000
1602006783.479114,40.000000,0.000000,4140.000000,4138.974121,4142.563965,4135.897461,4124.102539,4133.333496,4123.589844,4120.512695,4122.051270,4138.974121,4140.000000,4151.282227,4135.897461,4141.538574,0.000000,4.000000,,,,0.000000,4.000000,4.000000,4.000000,4.000000,4.000000,4.000000,4.000000,4.000000,4.000000,4.000000,4.000000,4.000000,4.000000,4.000000,100.000000
1602006783.486995,41.000000,0.000000,4146.153809,4150.256348,4144.102539,4140.512695,4140.512695,4141.025879,4122.563965,4124.102539,4123.589844,4137.436035,4146.153809,4146.666504,4141.538574,4141.025879,0.000000,4.000000,,,,0.000000,4.000000,4.000000,4.000000,4.000000,4.000000,4.000000,4.000000,4.000000,4.000000,4.000000,4.000000,4.000000,4.000000,4.000000,100.000000
1602006783.494876,42.000000,0.000000,4143.077148,4152.820313,4134.358887,4135.384766,4136.922852,4132.307617,4118.974121,4123.077148,4131.282227,4152.820313,4144.102539,4137.436035,4140.000000,4136.922852,0.000000,4.000000,,,,0.000000,4.000000,4.000000,4.000000,4.000000,4.000000,4.000000,4.000000,4.000000,4.000000,4.000000,4.000000,4.000000,4.000000,4.000000,100.000000
1602006783.502757,43.000000,0.000000,4135.384766,4140.000000,4121.538574,4125.641113,4126.666504,4120.512695,4118.974121,4126.666504,4138.974121,4153.333496,4142.051270,4132.307617,4138.461426,4140.512695,0.000000,4.000000,,,,0.000000,4.000000,4.000000,4.000000,4.000000,4.000000,4.000000,4.000000,4.000000,4.000000,4.000000,4.000000,4.000000,4.000000,4.000000,100.000000
1602006783.510638,44.000000,0.000000,4135.384766,4140.512695,4125.641113,4129.743652,4132.820313,4125.641113,4121.538574,4134.871582,4137.948730,4133.846191,4150.769043,4141.538574,4144.615234,4155.897461,0.000000,4.000000,,,,0.000000,4.000000,4.000000,4.000000,4.000000,4.000000,4.000000,4.000000,4.000000,4.000000,4.000000,4.000000,4.000000,4.000000,4.000000,100.000000
1602006783.518619,45.000000,0.000000,4149.230957,4158.461426,4141.538574,4141.538574,4138.974121,4136.922852,4127.179688,4143.589844,4140.512695,4144.102539,4154.358887,4150.769043,4156.410156,4158.461426,0.000000,4.000000,,,,0.000000,4.000000,4.000000,4.000000,4.000000,4.000000,4.000000,4.000000,4.000000,4.000000,4.000000,4.000000,4.000000,4.000000,4.000000,100.000000
1602006783.526501,46.000000,0.000000,4161.025879,4154.871582,4143.589844,4141.025879,4128.717773,4132.820313,4127.692383,4141.025879,4143.077148,4163.077148,4145.128418,4145.128418,4149.743652,4143.077148,0.000000,4.000000,,,,0.000000,4.000000,4.000000,4.000000,4.000000,4.000000,4.000000,4.000000,4.000000,4.000000,4.000000,4.000000,4.000000,4.000000,4.000000,100.000000
1602006783.534382,47.000000,0.000000,4152.820313,4136.410156,4136.922852,4134.358887,4118.974121,4123.077148,4126.666504,4127.692383,4129.743652,4149.230957,4132.820313,4134.871582,4129.230957,4133.333496,0.000000,4.000000,,,,0.000000,4.000000,4.000000,4.000000,4.000000,4.000000,4.000000,4.000000,4.000000,4.000000,4.000000,4.000000,4.000000,4.000000,4.000000,100.000000
1602006783.542263,48.000000,0.000000,4140.000000,4137.436035,4136.922852,4136.410156,4123.077148,4132.307617,4134.358887,4121.025879,4114.871582,4132.820313,4130.256348,4135.897461,4120.512695,4129.743652,0.000000,4.000000,,,,0.000000,4.000000,4.000000,4.000000,4.000000,4.000000,4.000000,4.000000,4.000000,4.000000,4.000000,4.000000,4.000000,4.000000,4.000000,100.000000
1602006783.550144,49.000000,0.000000,4140.512695,4142.563965,4132.307617,4139.487305,4130.256348,4142.563965,4139.487305,4124.102539,4116.922852,4133.333496,4135.384766,4141.025879,4122.563965,4129.230957,0.000000,4.000000,,,,0.000000,4.000000,4.000000,4.000000,4.000000,4.000000,4.000000,4.000000,4.000000,4.000000,4.000000,4.000000,4.000000,4.000000,4.000000,100.000000
1602006783.558025,50.000000,0.000000,4134.358887,4137.436035,4124.102539,4131.794922,4128.205078,4133.846191,4132.820313,4122.563965,4117.948730,4128.717773,4137.948730,4136.410156,4122.563965,4134.871582,0.000000,4.000000,,,,0.000000,4.000000,4.000000,4.000000,4.000000,4.000000,4.000000,4.000000,4.000000,4.000000,4.000000,4.000000,4.000000,4.000000,4.000000,100.000000
1602006783.565906,51.000000,0.000000,4122.563965,4134.358887,4123.589844,4125.128418,4124.615234,4120.512695,4124.615234,4119.487305,4105.128418,4118.461426,4126.666504,4131.282227,4118.461426,4137.436035,0.000000,4.000000,,,,0.000000,4.000000,4.000000,4.000000,4.000000,4.000000,4.000000,4.000000,4.000000,4.000000,4.000000,4.000000,4.000000,4.000000,4.000000,100.000000
1602006783.573787,52.000000,0.000000,4123.589844,4134.871582,4127.179688,4130.769043,4127.692383,4121.538574,4121.538574,4124.615234,4105.128418,4120.512695,4119.487305,4132.820313,4114.358887,4134.358887,0.000000,4.000000,,,,0.000000,4.000000,4.000000,4.000000,4.000000,4.000000,4.000000,4.000000,4.000000,4.000000,4.000000,4.000000,4.000000,4.000000,4.000000,100.000000
1602006783.581669,53.000000,0.000000,4127.179688,4137.948730,4125.641113,4135.897461,4135.384766,4134.358887,4121.025879,4132.307617,4118.974121,4135.384766,4130.769043,4135.384766,4118.974121,4134.358887,0.000000,4.000000,,,,0.000000,4.000000,4.000000,4.000000,4.000000,4.000000,4.000000,4.000000,4.000000,4.000000,4.000000,4.000000,4.000000,4.000000,4.000000,100.000000
1602006783.589550,54.000000,0.000000,4125.641113,4138.461426,4126.666504,4132.820313,4137.436035,4138.974121,4123.589844,4136.922852,4125.128418,4143.589844,4136.922852,4137.948730,4129.230957,4135.897461,0.000000,4.000000,,,,0.000000,4.000000,4.000000,4.000000,4.000000,4.000000,4.000000,4.000000,4.000000,4.000000,4.000000,4.000000,4.000000,4.000000,4.000000,100.000000
1602006783.597331,55.000000,0.000000,4132.307617,4138.974121,4134.358887,4134.871582,4135.384766,4134.871582,4122.563965,4138.461426,4130.256348,4134.358887,4137.948730,4146.153809,4134.358887,4135.384766,0.000000,4.000000,,,,0.000000,4.000000,4.000000,4.000000,4.000000,4.000000,4.000000,4.000000,4.000000,4.000000,4.000000,4.000000,4.000000,4.000000,4.000000,100.000000
1602006783.605212,56.000000,0.000000,4147.692383,4147.179688,4141.538574,4140.512695,4135.897461,4135.897461,4121.538574,4140.512695,4138.461426,4141.025879,4151.282227,4154.358887,4140.000000,4142.563965,0.000000,4.000000,,,,0.000000,4.000000,4.000000,4.000000,4.000000,4.000000,4.000000,4.000000,4.000000,4.000000,4.000000,4.000000,4.000000,4.000000,4.000000,100.000000
1602006783.613093,57.000000,0.000000,4152.820313,4150.256348,4148.205078,4141.025879,4136.922852,4138.974121,4129.230957,4145.128418,4141.025879,4166.666504,4158.461426,4154.358887,4149.743652,4153.333496,0.000000,4.000000,,,,0.000000,4.000000,4.000000,4.000000,4.000000,4.000000,4.000000,4.000000,4.000000,4.000000,4.000000,4.000000,4.000000,4.000000,4.000000,100.000000
1602006783.620975,58.000000,0.000000,4151.282227,4140.512695,4154.871582,4140.000000,4135.384766,4138.461426,4138.974121,4142.563965,4132.307617,4160.512695,4145.641113,4155.897461,4147.179688,4159.487305,0.000000,4.000000,,,,0.000000,4.000000,4.000000,4.000000,4.000000,4.000000,4.000000,4.000000,4.000000,4.000000,4.000000,4.000000,4.000000,4.000000,4.000000,100.000000
1602006783.628856,59.000000,0.000000,4161.538574,4139.487305,4159.487305,4140.512695,4136.922852,4138.461426,4140.000000,4132.820313,4118.974121,4141.025879,4144.102539,4166.153809,4141.025879,4165.641113,0.000000,4.000000,,,,0.000000,4.000000,4.000000,4.000000,4.000000,4.000000,4.000000,4.000000,4.000000,4.000000,4.000000,4.000000,4.000000,4.000000,4.000000,100.000000
1602006783.636737,60.000000,0.000000,4170.256348,4148.205078,4157.948730,4139.487305,4133.333496,4134.358887,4136.410156,4124.615234,4112.307617,4143.077148,4151.794922,4167.179688,4148.205078,4175.897461,0.000000,4.000000,,,,0.000000,4.000000,4.000000,4.000000,4.000000,4.000000,4.000000,4.000000,4.000000,4.000000,4.000000,4.000000,4.000000,4.000000,4.000000,100.000000
1602006783.644618,61.000000,0.000000,4164.102539,4147.179688,4153.333496,4140.512695,4129.743652,4132.820313,4137.948730,4127.179688,4120.000000,4142.051270,4150.769043,4157.948730,4154.871582,4177.436035,0.000000,4.000000,,,,0.000000,4.000000,4.000000,4.000000,4.000000,4.000000,4.000000,4.000000,4.000000,4.000000,4.000000,4.000000,4.000000,4.000000,4.000000,100.000000
1602006783.652499,62.000000,0.000000,4151.794922,4143.589844,4146.666504,4141.538574,4134.358887,4141.538574,4138.974121,4136.410156,4134.871582,4135.897461,4146.666504,4153.333496,4146.153809,4162.051270,0.000000,4.000000,,,,0.000000,4.000000,4.000000,4.000000,4.000000,4.000000,4.000000,4.000000,4.000000,4.000000,4.000000,4.000000,4.000000,4.000000,4.000000,100.000000
1602006783.660480,63.000000,0.000000,4142.051270,4141.025879,4135.384766,4137.436035,4135.897461,4139.487305,4129.230957,4136.922852,4134.871582,4138.974121,4139.487305,4145.128418,4134.358887,4145.641113,0.000000,4.000000,,,,0.000000,4.000000,4.000000,4.000000,4.000000,4.000000,4.000000,4.000000,4.000000,4.000000,4.000000,4.000000,4.000000,4.000000,4.000000,100.000000
1602006783.668361,64.000000,0.000000,4133.846191,4135.384766,4125.128418,4133.846191,4124.615234,4124.615234,4119.487305,4131.282227,4124.615234,4137.436035,4129.743652,4125.641113,4125.128418,4136.410156,796.000000,4.000000,,,,0.000000,4.000000,4.000000,4.000000,4.000000,4.000000,4.000000,4.000000,4.000000,4.000000,4.000000,4.000000,4.000000,4.000000,4.000000,100.000000
1602006783.676243,65.000000,0.000000,4132.820313,4137.436035,4123.077148,4135.897461,4122.051270,4123.077148,4117.436035,4132.820313,4128.205078,4136.922852,4133.333496,4123.589844,4122.563965,4133.333496,790.000000,4.000000,,,,0.000000,4.000000,4.000000,4.000000,4.000000,4.000000,4.000000,4.000000,4.000000,4.000000,4.000000,4.000000,4.000000,4.000000,4.000000,100.000000
1602006783.684124,66.000000,0.000000,4137.436035,4145.641113,4127.692383,4138.461426,4135.897461,4131.794922,4118.461426,4138.461426,4142.563965,4146.666504,4141.538574,4138.461426,4135.384766,4137.436035,852.000000,4.000000,,,,0.000000,4.000000,4.000000,4.000000,4.000000,4.000000,4.000000,4.000000,4.000000,4.000000,4.000000,4.000000,4.000000,4.000000,4.000000,100.000000
1602006783.692005,67.000000,0.000000,4134.358887,4141.538574,4123.589844,4136.410156,4140.512695,4124.615234,4115.897461,4137.948730,4137.948730,4141.025879,4133.333496,4138.461426,4137.436035,4138.461426,868.000000,4.000000,,,,0.000000,4.000000,4.000000,4.000000,4.000000,4.000000,4.000000,4.000000,4.000000,4.000000,4.000000,4.000000,4.000000,4.000000,4.000000,100.000000
1602006783.699886,68.000000,0.000000,4133.846191,4135.384766,4120.512695,4135.384766,4134.871582,4116.410156,4117.948730,4140.000000,4124.615234,4129.743652,4127.692383,4140.000000,4126.666504,4134.358887,816.000000,4.000000,,,,0.000000,4.000000,4.000000,4.000000,4.000000,4.000000,4.000000,4.000000,4.000000,4.000000,4.000000,4.000000,4.000000,4.000000,4.000000,100.000000
1602006783.707767,69.000000,0.000000,4145.641113,4141.025879,4132.307617,4138.461426,4135.897461,4128.717773,4130.256348,4144.615234,4127.692383,4134.358887,4136.410156,4159.487305,4130.769043,4140.512695,816.000000,4.000000,,,,0.000000,4.000000,4.000000,4.000000,4.000000,4.000000,4.000000,4.000000,4.000000,4.000000,4.000000,4.000000,4.000000,4.000000,4.000000,100.000000
1602006783.715648,70.000000,0.000000,4155.897461,4146.153809,4143.077148,4141.538574,4140.000000,4134.358887,4138.461426,4143.077148,4127.692383,4138.461426,4145.128418,4170.769043,4142.051270,4152.307617,759.000000,4.000000,,,,0.000000,4.000000,4.000000,4.000000,4.000000,4.000000,4.000000,4.000000,4.000000,4.000000,4.000000,4.000000,4.000000,4.000000,4.000000,100.000000
1602006783.723530,71.000000,0.000000,4155.384766,4143.589844,4146.153809,4142.051270,4137.948730,4130.769043,4136.922852,4134.871582,4118.461426,4135.384766,4151.282227,4171.282227,4146.153809,4154.871582,656.000000,4.000000,,,,0.000000,4.000000,4.000000,4.000000,4.000000,4.000000,4.000000,4.000000,4.000000,4.000000,4.000000,4.000000,4.000000,4.000000,4.000000,100.000000
1602006783.731411,72.000000,0.000000,4153.846191,4140.512695,4149.743652,4140.000000,4131.282227,4133.846191,4134.358887,4127.179688,4115.384766,4135.897461,4152.820313,4172.307617,4144.102539,4146.666504,779.000000,4.000000,,,,0.000000,4.000000,4.000000,4.000000,4.000000,4.000000,4.000000,4.000000,4.000000,4.000000,4.000000,4.000000,4.000000,4.000000,4.000000,100.000000
1602006783.739192,73.000000,0.000000,4158.461426,4141.025879,4154.358887,4138.974121,4126.666504,4132.820313,4135.384766,4129.230957,4126.666504,4137.948730,4151.282227,4172.820313,4143.077148,4144.615234,837.000000,4.000000,,,,0.000000,4.000000,4.000000,4.000000,4.000000,4.000000,4.000000,4.000000,4.000000,4.000000,4.000000,4.000000,4.000000,4.000000,4.000000,100.000000
1602006783.747073,74.000000,0.000000,4160.000000,4142.051270,4154.871582,4141.538574,4130.769043,4126.666504,4131.282227,4138.461426,4138.461426,4140.000000,4154.358887,4179.487305,4149.743652,4155.384766,870.000000,4.000000,,,,0.000000,4.000000,4.000000,4.000000,4.000000,4.000000,4.000000,4.000000,4.000000,4.000000,4.000000,4.000000,4.000000,4.000000,4.000000,100.000000
1602006783.754954,75.000000,0.000000,4155.897461,4141.538574,4148.717773,4142.051270,4140.512695,4123.077148,4124.102539,4142.563965,4138.974121,4145.128418,4158.974121,4183.589844,4156.410156,4159.487305,837.000000,4.000000,,,,0.000000,4.000000,4.000000,4.000000,4.000000,4.000000,4.000000,4.000000,4.000000,4.000000,4.000000,4.000000,4.000000,4.000000,4.000000,100.000000
1602006783.762836,76.000000,0.000000,4154.358887,4140.512695,4142.563965,4138.974121,4142.051270,4121.025879,4122.051270,4138.461426,4135.897461,4143.589844,4155.384766,4174.358887,4156.410156,4152.307617,766.000000,4.000000,,,,0.000000,4.000000,4.000000,4.000000,4.000000,4.000000,4.000000,4.000000,4.000000,4.000000,4.000000,4.000000,4.000000,4.000000,4.000000,100.000000
1602006783.770717,77.000000,0.000000,4154.871582,4141.538574,4141.025879,4137.948730,4138.974121,4123.589844,4122.563965,4130.769043,4132.820313,4135.897461,4153.846191,4169.743652,4155.897461,4153.846191,728.000000,4.000000,,,,0.000000,4.000000,4.000000,4.000000,4.000000,4.000000,4.000000,4.000000,4.000000,4.000000,4.000000,4.000000,4.000000,4.000000,4.000000,100.000000
1602006783.778598,78.000000,0.000000,4148.717773,4141.538574,4140.000000,4138.461426,4141.025879,4130.769043,4121.538574,4123.589844,4127.692383,4140.000000,4151.282227,4172.820313,4153.846191,4158.974121,870.000000,4.000000,,,,0.000000,4.000000,4.000000,4.000000,4.000000,4.000000,4.000000,4.000000,4.000000,4.000000,4.000000,4.000000,4.000000,4.000000,4.000000,100.000000
1602006783.786479,79.000000,0.000000,4140.000000,4137.948730,4134.871582,4136.410156,4141.025879,4127.692383,4119.487305,4121.025879,4118.974121,4142.051270,4139.487305,4168.717773,4142.051270,4148.717773,837.000000,4.000000,,,,0.000000,4.000000,4.000000,4.000000,4.000000,4.000000,4.000000,4.000000,4.000000,4.000000,4.000000,4.000000,4.000000,4.000000,4.000000,100.000000
1602006783.794360,80.000000,0.000000,4138.461426,4133.333496,4133.846191,4137.436035,4137.436035,4122.563965,4118.974121,4121.025879,4107.692383,4118.974121,4133.846191,4166.153809,4134.871582,4136.922852,766.000000,4.000000,,,,0.000000,4.000000,4.000000,4.000000,4.000000,4.000000,4.000000,4.000000,4.000000,4.000000,4.000000,4.000000,4.000000,4.000000,4.000000,100.000000
1602006783.802241,81.000000,0.000000,4140.512695,4133.846191,4138.461426,4140.000000,4134.871582,4122.563965,4121.538574,4121.538574,4105.641113,4110.769043,4142.051270,4171.282227,4137.436035,4135.897461,728.000000,4.000000,,,,0.000000,4.000000,4.000000,4.000000,4.000000,4.000000,4.000000,4.000000,4.000000,4.000000,4.000000,4.000000,4.000000,4.000000,4.000000,100.000000
1602006783.810222,82.000000,0.000000,4143.589844,4136.922852,4143.077148,4138.974121,4134.871582,4124.102539,4129.230957,4130.769043,4123.589844,4142.051270,4152.307617,4170.769043,4144.615234,4143.589844,870.000000,4.000000,,,,0.000000,4.000000,4.000000,4.000000,4.000000,4.000000,4.000000,4.000000,4.000000,4.000000,4.000000,4.000000,4.000000,4.000000,4.000000,100.000000
1602006783.818103,83.000000,0.000000,4153.846191,4139.487305,4143.589844,4140.000000,4138.974121,4131.282227,4137.948730,4140.512695,4146.153809,4166.666504,4155.897461,4170.769043,4154.871582,4153.333496,837.000000,4.000000,,,,0.000000,4.000000,4.000000,4.000000,4.000000,4.000000,4.000000,4.000000,4.000000,4.000000,4.000000,4.000000,4.000000,4.000000,4.000000,100.000000
1602006783.825984,84.000000,0.000000,4160.512695,4141.025879,4141.538574,4142.563965,4144.102539,4138.461426,4140.000000,4142.051270,4157.436035,4157.948730,4154.358887,4172.307617,4160.512695,4153.333496,766.000000,4.000000,,,,0.000000,4.000000,4.000000,4.000000,4.000000,4.000000,4.000000,4.000000,4.000000,4.000000,4.000000,4.000000,4.000000,4.000000,4.000000,100.000000
1602006783.833865,85.000000,0.000000,4150.769043,4138.974121,4137.948730,4137.948730,4143.077148,4136.922852,4138.974121,4138.461426,4154.871582,4138.461426,4153.333496,4163.589844,4153.846191,4143.589844,728.000000,4.000000,,,,0.000000,4.000000,4.000000,4.000000,4.000000,4.000000,4.000000,4.000000,4.000000,4.000000,4.000000,4.000000,4.000000,4.000000,4.000000,100.000000
1602006783.841746,86.000000,0.000000,4137.436035,4134.871582,4132.820313,4131.794922,4137.436035,4135.384766,4136.922852,4134.871582,4136.922852,4131.794922,4153.846191,4152.820313,4140.000000,4134.871582,870.000000,4.000000,,,,0.000000,4.000000,4.000000,4.000000,4.000000,4.000000,4.000000,4.000000,4.000000,4.000000,4.000000,4.000000,4.000000,4.000000,4.000000,100.000000
1602006783.849727,87.000000,0.000000,4136.410156,4135.384766,4132.307617,4133.846191,4137.948730,4137.948730,4134.871582,4133.846191,4123.589844,4135.897461,4148.717773,4152.820313,4141.025879,4135.897461,837.000000,4.000000,,,,0.000000,4.000000,4.000000,4.000000,4.000000,4.000000,4.000000,4.000000,4.000000,4.000000,4.000000,4.000000,4.000000,4.000000,4.000000,100.000000
1602006783.857608,88.000000,0.000000,4144.615234,4141.538574,4139.487305,4140.000000,4143.077148,4144.615234,4137.948730,4139.487305,4127.179688,4137.436035,4142.563965,4156.410156,4154.358887,4137.948730,766.000000,4.000000,,,,0.000000,4.000000,4.000000,4.000000,4.000000,4.000000,4.000000,4.000000,4.000000,4.000000,4.000000,4.000000,4.000000,4.000000,4.000000,100.000000
1602006783.865489,89.000000,0.000000,4142.563965,4143.077148,4135.384766,4140.512695,4141.538574,4141.538574,4135.384766,4140.512695,4130.256348,4130.769043,4137.948730,4154.358887,4152.307617,4127.179688,728.000000,4.000000,,,,0.000000,4.000000,4.000000,4.000000,4.000000,4.000000,4.000000,4.000000,4.000000,4.000000,4.000000,4.000000,4.000000,4.000000,4.000000,100.000000
1602006783.873370,90.000000,0.000000,4129.743652,4138.461426,4121.025879,4134.871582,4136.410156,4126.153809,4122.563965,4129.743652,4123.589844,4136.922852,4130.256348,4152.307617,4135.384766,4115.384766,870.000000,4.000000,,,,0.000000,4.000000,4.000000,4.000000,4.000000,4.000000,4.000000,4.000000,4.000000,4.000000,4.000000,4.000000,4.000000,4.000000,4.000000,100.000000
1602006783.881252,91.000000,0.000000,4129.743652,4136.410156,4125.128418,4135.384766,4138.974121,4120.000000,4112.307617,4122.051270,4123.077148,4142.051270,4130.769043,4154.871582,4131.794922,4126.153809,837.000000,4.000000,,,,0.000000,4.000000,4.000000,4.000000,4.000000,4.000000,4.000000,4.000000,4.000000,4.000000,4.000000,4.000000,4.000000,4.000000,4.000000,100.000000
1602006783.889133,92.000000,0.000000,4140.000000,4138.974121,4138.974121,4140.512695,4141.538574,4121.025879,4110.256348,4121.538574,4126.666504,4124.615234,4143.589844,4154.358887,4137.436035,4141.025879,766.000000,4.000000,,,,0.000000,4.000000,4.000000,4.000000,4.000000,4.000000,4.000000,4.000000,4.000000,4.000000,4.000000,4.000000,4.000000,4.000000,4.000000,100.000000
1602006783.897014,93.000000,0.000000,4143.077148,4139.487305,4140.512695,4138.974121,4137.948730,4116.922852,4114.871582,4121.538574,4124.615234,4117.436035,4150.256348,4152.307617,4140.000000,4138.461426,728.000000,4.000000,,,,0.000000,4.000000,4.000000,4.000000,4.000000,4.000000,4.000000,4.000000,4.000000,4.000000,4.000000,4.000000,4.000000,4.000000,4.000000,100.000000
1602006783.904895,94.000000,0.000000,4138.461426,4137.948730,4137.948730,4135.897461,4136.922852,4125.128418,4128.717773,4124.615234,4130.769043,4143.589844,4149.743652,4159.487305,4146.153809,4135.384766,870.000000,4.000000,,,,0.000000,4.000000,4.000000,4.000000,4.000000,4.000000,4.000000,4.000000,4.000000,4.000000,4.000000,4.000000,4.000000,4.000000,4.000000,100.000000
1602006783.912676,95.000000,0.000000,4140.512695,4135.897461,4141.025879,4137.436035,4138.461426,4141.538574,4142.051270,4127.179688,4135.897461,4163.077148,4151.794922,4165.128418,4151.282227,4141.538574,837.000000,4.000000,,,,0.000000,4.000000,4.000000,4.000000,4.000000,4.000000,4.000000,4.000000,4.000000,4.000000,4.000000,4.000000,4.000000,4.000000,4.000000,100.000000
1602006783.920558,96.000000,0.000000,4149.230957,4136.922852,4141.025879,4137.948730,4138.461426,4142.051270,4145.128418,4123.077148,4125.128418,4145.641113,4148.717773,4163.077148,4153.846191,4148.717773,766.000000,4.000000,,,,0.000000,4.000000,4.000000,4.000000,4.000000,4.000000,4.000000,4.000000,4.000000,4.000000,4.000000,4.000000,4.000000,4.000000,4.000000,100.000000
1602006783.928439,97.000000,0.000000,4153.846191,4136.410156,4136.922852,4135.897461,4135.897461,4137.948730,4143.077148,4121.025879,4116.922852,4138.974121,4139.487305,4166.153809,4155.897461,4155.384766,728.000000,4.000000,,,,0.000000,4.000000,4.000000,4.000000,4.000000,4.000000,4.000000,4.000000,4.000000,4.000000,4.000000,4.000000,4.000000,4.000000,4.000000,100.000000
1602006783.936320,98.000000,0.000000,4152.307617,4134.358887,4136.922852,4137.948730,4134.871582,4143.077148,4138.461426,4130.769043,4126.153809,4149.743652,4140.000000,4168.205078,4153.846191,4157.948730,870.000000,4.000000,,,,0.000000,4.000000,4.000000,4.000000,4.000000,4.000000,4.000000,4.000000,4.000000,4.000000,4.000000,4.000000,4.000000,4.000000,4.000000,100.000000
1602006783.944201,99.000000,0.000000,4155.384766,4143.589844,4140.000000,4143.589844,4136.922852,4145.128418,4129.743652,4134.358887,4129.743652,4137.948730,4146.153809,4162.563965,4155.384766,4157.948730,837.000000,4.000000,,,,0.000000,4.000000,4.000000,4.000000,4.000000,4.000000,4.000000,4.000000,4.000000,4.000000,4.000000,4.000000,4.000000,4.000000,4.000000,100.000000
1602006783.952082,100.000000,0.000000,4159.487305,4151.794922,4142.563965,4146.153809,4140.000000,4135.897461,4121.025879,4126.666504,4121.025879,4126.153809,4144.102539,4158.461426,4155.384766,4155.384766,766.000000,4.000000,,,,0.000000,4.000000,4.000000,4.000000,4.000000,4.000000,4.000000,4.000000,4.000000,4.000000,4.000000,4.000000,4.000000,4.000000,4.000000,100.000000
1602006783.959963,101.000000,0.000000,4153.846191,4143.589844,4137.948730,4140.512695,4136.410156,4121.538574,4110.256348,4118.461426,4118.974121,4133.846191,4136.922852,4156.922852,4146.153809,4150.769043,728.000000,4.000000,,,,0.000000,4.000000,4.000000,4.000000,4.000000,4.000000,4.000000,4.000000,4.000000,4.000000,4.000000,4.000000,4.000000,4.000000,4.000000,100.000000
1602006783.967845,102.000000,0.000000,4152.307617,4137.948730,4134.871582,4135.897461,4133.333496,4118.974121,4104.102539,4117.436035,4118.974121,4140.512695,4135.897461,4157.436035,4145.641113,4152.307617,870.000000,4.000000,,,,0.000000,4.000000,4.000000,4.000000,4.000000,4.000000,4.000000,4.000000,4.000000,4.000000,4.000000,4.000000,4.000000,4.000000,4.000000,100.000000
1602006783.975825,103.000000,0.000000,4155.384766,4142.563965,4140.512695,4140.512695,4137.948730,4132.820313,4111.282227,4128.717773,4119.487305,4140.000000,4144.615234,4165.128418,4154.358887,4160.512695,837.000000,4.000000,,,,0.000000,4.000000,4.000000,4.000000,4.000000,4.000000,4.000000,4.000000,4.000000,4.000000,4.000000,4.000000,4.000000,4.000000,4.000000,100.000000
1602006783.983706,104.000000,0.000000,4145.641113,4132.820313,4143.077148,4139.487305,4136.922852,4143.077148,4124.615234,4137.436035,4126.153809,4134.871582,4143.077148,4161.538574,4145.641113,4153.846191,766.000000,4.000000,,,,0.000000,4.000000,4.000000,4.000000,4.000000,4.000000,4.000000,4.000000,4.000000,4.000000,4.000000,4.000000,4.000000,4.000000,4.000000,100.000000
1602006783.991587,105.000000,0.000000,4126.666504,4118.461426,4132.820313,4125.641113,4124.615234,4138.974121,4133.333496,4128.205078,4129.230957,4123.077148,4125.128418,4143.589844,4129.230957,4132.820313,728.000000,4.000000,,,,0.000000,4.000000,4.000000,4.000000,4.000000,4.000000,4.000000,4.000000,4.000000,4.000000,4.000000,4.000000,4.000000,4.000000,4.000000,100.000000
1602006783.999468,106.000000,0.000000,4121.025879,4122.051270,4120.512695,4120.000000,4118.461426,4136.922852,4136.410156,4117.436035,4127.692383,4117.436035,4114.871582,4133.846191,4122.563965,4117.948730,870.000000,4.000000,,,,0.000000,4.000000,4.000000,4.000000,4.000000,4.000000,4.000000,4.000000,4.000000,4.000000,4.000000,4.000000,4.000000,4.000000,4.000000,100.000000
1602006784.007349,107.000000,0.000000,4118.461426,4122.051270,4118.461426,4126.153809,4126.153809,4145.641113,4141.538574,4123.589844,4134.871582,4124.615234,4118.974121,4132.820313,4109.230957,4106.666504,837.000000,4.000000,,,,0.000000,4.000000,4.000000,4.000000,4.000000,4.000000,4.000000,4.000000,4.000000,4.000000,4.000000,4.000000,4.000000,4.000000,4.000000,100.000000
1602006784.015230,108.000000,0.000000,4109.743652,4115.384766,4120.512695,4127.179688,4130.769043,4143.589844,4141.538574,4126.666504,4142.563965,4135.897461,4120.512695,4133.846191,4102.051270,4097.436035,766.000000,4.000000,,,,0.000000,4.000000,4.000000,4.000000,4.000000,4.000000,4.000000,4.000000,4.000000,4.000000,4.000000,4.000000,4.000000,4.000000,4.000000,100.000000
1602006784.023011,109.000000,0.000000,4113.846191,4118.461426,4124.615234,4126.666504,4127.179688,4129.230957,4131.282227,4117.948730,4138.461426,4146.666504,4124.102539,4141.538574,4128.205078,4113.333496,728.000000,4.000000,,,,0.000000,4.000000,4.000000,4.000000,4.000000,4.000000,4.000000,4.000000,4.000000,4.000000,4.000000,4.000000,4.000000,4.000000,4.000000,100.000000
1602006784.030891,110.000000,0.000000,4128.717773,4128.205078,4133.333496,4135.897461,4131.794922,4130.256348,4125.641113,4123.077148,4137.948730,4142.051270,4142.563965,4153.333496,4161.538574,4147.179688,870.000000,4.000000,,,,0.000000,4.000000,4.000000,4.000000,4.000000,4.000000,4.000000,4.000000,4.000000,4.000000,4.000000,4.000000,4.000000,4.000000,4.000000,100.000000
1602006784.038772,111.000000,0.000000,4131.282227,4126.153809,4142.563965,4141.025879,4140.000000,4138.461426,4125.128418,4135.897461,4136.922852,4138.461426,4156.410156,4160.000000,4173.846191,4163.589844,837.000000,4.000000,,,,0.000000,4.000000,4.000000,4.000000,4.000000,4.000000,4.000000,4.000000,4.000000,4.000000,4.000000,4.000000,4.000000,4.000000,4.000000,100.000000
1602006784.046753,112.000000,0.000000,4116.922852,4110.769043,4138.974121,4130.769043,4131.794922,4126.153809,4116.922852,4136.922852,4129.743652,4143.589844,4153.846191,4156.922852,4170.769043,4158.461426,766.000000,4.000000,,,,0.000000,4.000000,4.000000,4.000000,4.000000,4.000000,4.000000,4.000000,4.000000,4.000000,4.000000,4.000000,4.000000,4.000000,4.000000,100.000000
1602006784.054534,113.000000,0.000000,4100.000000,4100.000000,4130.256348,4121.538574,4121.538574,4114.358887,4111.794922,4134.871582,4132.307617,4137.948730,4151.794922,4153.846191,4170.769043,4155.384766,728.000000,4.000000,,,,0.000000,4.000000,4.000000,4.000000,4.000000,4.000000,4.000000,4.000000,4.000000,4.000000,4.000000,4.000000,4.000000,4.000000,4.000000,100.000000
1602006784.062415,114.000000,0.000000,4092.820557,4094.871826,4131.282227,4121.538574,4128.717773,4125.128418,4119.487305,4140.512695,4141.025879,4139.487305,4155.384766,4157.948730,4173.846191,4157.948730,870.000000,4.000000,,,,0.000000,4.000000,4.000000,4.000000,4.000000,4.000000,4.000000,4.000000,4.000000,4.000000,4.000000,4.000000,4.000000,4.000000,4.000000,100.000000
1602006784.070296,115.000000,0.000000,4101.025879,4095.897461,4138.461426,4122.051270,4138.461426,4137.436035,4129.743652,4142.051270,4142.051270,4158.974121,4153.846191,4164.102539,4173.333496,4157.436035,837.000000,4.000000,,,,0.000000,4.000000,4.000000,4.000000,4.000000,4.000000,4.000000,4.000000,4.000000,4.000000,4.000000,4.000000,4.000000,4.000000,4.000000,100.000000
1602006784.078178,116.000000,0.000000,4109.230957,4101.538574,4138.461426,4121.025879,4138.461426,4143.077148,4137.436035,4138.974121,4141.025879,4162.051270,4145.641113,4158.974121,4171.282227,4154.358887,766.000000,4.000000,,,,0.000000,4.000000,4.000000,4.000000,4.000000,4.000000,4.000000,4.000000,4.000000,4.000000,4.000000,4.000000,4.000000,4.000000,4.000000,100.000000
1602006784.086059,117.000000,0.000000,4105.128418,4103.589844,4130.769043,4122.051270,4136.410156,4138.974121,4141.538574,4135.897461,4141.025879,4149.743652,4139.487305,4150.769043,4170.256348,4153.333496,728.000000,4.000000,,,,0.000000,4.000000,4.000000,4.000000,4.000000,4.000000,4.000000,4.000000,4.000000,4.000000,4.000000,4.000000,4.000000,4.000000,4.000000,100.000000
1602006784.093940,118.000000,0.000000,4105.641113,4102.563965,4127.179688,4124.102539,4137.436035,4134.871582,4138.461426,4127.692383,4138.461426,4150.769043,4138.461426,4153.333496,4170.256348,4153.846191,870.000000,4.000000,,,,0.000000,4.000000,4.000000,4.000000,4.000000,4.000000,4.000000,4.000000,4.000000,4.000000,4.000000,4.000000,4.000000,4.000000,4.000000,100.000000
1602006784.101821,119.000000,0.000000,4109.230957,4106.153809,4129.743652,4123.589844,4137.948730,4144.102539,4136.922852,4121.025879,4138.461426,4150.769043,4140.512695,4152.820313,4169.230957,4155.897461,837.000000,4.000000,,,,0.000000,4.000000,4.000000,4.000000,4.000000,4.000000,4.000000,4.000000,4.000000,4.000000,4.000000,4.000000,4.000000,4.000000,4.000000,100.000000
1602006784.109702,120.000000,0.000000,4108.717773,4108.205078,4128.717773,4123.589844,4137.948730,4147.692383,4136.410156,4120.512695,4137.436035,4142.051270,4146.666504,4141.025879,4165.128418,4153.333496,766.000000,4.000000,,,,0.000000,4.000000,4.000000,4.000000,4.000000,4.000000,4.000000,4.000000,4.000000,4.000000,4.000000,4.000000,4.000000,4.000000,4.000000,100.000000
1602006784.117583,121.000000,0.000000,4113.333496,4103.589844,4125.641113,4123.077148,4136.922852,4137.436035,4133.333496,4126.153809,4136.922852,4146.153809,4151.794922,4136.410156,4166.666504,4148.717773,728.000000,4.000000,,,,0.000000,4.000000,4.000000,4.000000,4.000000,4.000000,4.000000,4.000000,4.000000,4.000000,4.000000,4.000000,4.000000,4.000000,4.000000,100.000000
1602006784.125464,122.000000,0.000000,4124.615234,4108.717773,4127.692383,4124.615234,4138.974121,4142.563965,4143.077148,4140.512695,4148.205078,4163.589844,4156.922852,4149.743652,4183.589844,4158.461426,870.000000,4.000000,,,,0.000000,4.000000,4.000000,4.000000,4.000000,4.000000,4.000000,4.000000,4.000000,4.000000,4.000000,4.000000,4.000000,4.000000,4.000000,100.000000
1602006784.133346,123.000000,0.000000,4122.051270,4110.769043,4130.256348,4124.615234,4139.487305,4160.512695,4154.871582,4153.333496,4161.025879,4181.025879,4158.461426,4157.948730,4190.769043,4167.692383,837.000000,4.000000,,,,0.000000,4.000000,4.000000,4.000000,4.000000,4.000000,4.000000,4.000000,4.000000,4.000000,4.000000,4.000000,4.000000,4.000000,4.000000,100.000000
1602006784.141227,124.000000,0.000000,4107.692383,4091.281982,4125.641113,4113.846191,4127.692383,4153.846191,4149.743652,4155.897461,4151.794922,4184.615234,4150.256348,4151.794922,4169.743652,4157.436035,766.000000,4.000000,,,,0.000000,4.000000,4.000000,4.000000,4.000000,4.000000,4.000000,4.000000,4.000000,4.000000,4.000000,4.000000,4.000000,4.000000,4.000000,100.000000
1602006784.149108,125.000000,0.000000,4105.641113,4081.538574,4126.153809,4104.615234,4116.922852,4140.000000,4147.692383,4156.410156,4143.589844,4173.846191,4143.589844,4152.307617,4157.436035,4153.333496,728.000000,4.000000,,,,0.000000,4.000000,4.000000,4.000000,4.000000,4.000000,4.000000,4.000000,4.000000,4.000000,4.000000,4.000000,4.000000,4.000000,4.000000,100.000000
1602006784.156989,126.000000,0.000000,4106.666504,4090.769287,4127.179688,4106.666504,4116.922852,4143.077148,4149.230957,4157.436035,4152.307617,4158.461426,4135.897461,4153.846191,4161.538574,4151.794922,870.000000,4.000000,,,,0.000000,4.000000,4.000000,4.000000,4.000000,4.000000,4.000000,4.000000,4.000000,4.000000,4.000000,4.000000,4.000000,4.000000,4.000000,100.000000
1602006784.164870,127.000000,0.000000,4093.846191,4088.205078,4114.358887,4106.153809,4111.794922,4140.000000,4138.974121,4153.333496,4151.282227,4142.051270,4122.051270,4139.487305,4147.692383,4131.282227,837.000000,4.000000,,,,0.000000,4.000000,4.000000,4.000000,4.000000,4.000000,4.000000,4.000000,4.000000,4.000000,4.000000,4.000000,4.000000,4.000000,4.000000,100.000000
1602006784.172751,128.000000,0.000000,4094.358887,4083.076904,4106.153809,4105.641113,4111.794922,4137.436035,4140.000000,4152.820313,4143.589844,4135.897461,4124.615234,4131.282227,4137.948730,4128.717773,766.000000,4.000000,,,,0.000000,4.000000,4.000000,4.000000,4.000000,4.000000,4.000000,4.000000,4.000000,4.000000,4.000000,4.000000,4.000000,4.000000,4.000000,100.000000
1602006784.180732,0.000000,0.000000,4111.282227,4100.000000,4110.769043,4115.897461,4131.282227,4151.282227,4152.307617,4155.384766,4150.769043,4149.230957,4140.512695,4139.487305,4151.794922,4148.205078,796.000000,4.000000,,,,0.000000,4.000000,4.000000,4.000000,4.000000,4.000000,4.000000,4.000000,4.000000,4.000000,4.000000,4.000000,4.000000,4.000000,4.000000,100.000000
1602006784.188613,1.000000,0.000000,4113.333496,4109.743652,4111.282227,4123.589844,4144.102539,4154.358887,4146.153809,4152.820313,4162.051270,4173.846191,4139.487305,4137.948730,4158.974121,4143.077148,790.000000,4.000000,,,,0.000000,4.000000,4.000000,4.000000,4.000000,4.000000,4.000000,4.000000,4.000000,4.000000,4.000000,4.000000,4.000000,4.000000,4.000000,100.000000
1602006784.196494,2.000000,0.000000,4110.256348,4103.077148,4112.820313,4120.000000,4139.487305,4143.077148,4139.487305,4152.307617,4168.205078,4191.282227,4136.922852,4126.153809,4159.487305,4135.384766,852.000000,4.000000,,,,0.000000,4.000000,4.000000,4.000000,4.000000,4.000000,4.000000,4.000000,4.000000,4.000000,4.000000,4.000000,4.000000,4.000000,4.000000,100.000000
1602006784.204375,3.000000,0.000000,4117.436035,4104.615234,4122.563965,4118.974121,4138.974121,4139.487305,4146.153809,4154.871582,4167.179688,4191.794922,4151.282227,4121.538574,4164.615234,4152.820313,868.000000,4.000000,,,,0.000000,4.000000,4.000000,4.000000,4.000000,4.000000,4.000000,4.000000,4.000000,4.000000,4.000000,4.000000,4.000000,4.000000,4.000000,100.000000
1602006784.212256,4.000000,0.000000,4118.974121,4109.230957,4128.717773,4122.051270,4136.922852,4137.948730,4144.615234,4153.333496,4153.333496,4175.897461,4160.512695,4127.692383,4166.153809,4159.487305,816.000000,4.000000,,,,0.000000,4.000000,4.000000,4.000000,4.000000,4.000000,4.000000,4.000000,4.000000,4.000000,4.000000,4.000000,4.000000,4.000000,4.000000,100.000000
1602006784.220137,5.000000,0.000000,4116.922852,4108.717773,4135.897461,4125.128418,4124.102539,4136.410156,4143.077148,4152.820313,4141.025879,4164.615234,4164.615234,4145.128418,4168.717773,4156.922852,819.000000,4.000000,,,,0.000000,4.000000,4.000000,4.000000,4.000000,4.000000,4.000000,4.000000,4.000000,4.000000,4.000000,4.000000,4.000000,4.000000,4.000000,100.000000
1602006784.228118,6.000000,0.000000,4123.589844,4109.743652,4145.641113,4125.128418,4117.436035,4141.538574,4148.717773,4155.897461,4142.051270,4168.205078,4167.179688,4158.974121,4177.948730,4169.743652,759.000000,4.000000,,,,0.000000,4.000000,4.000000,4.000000,4.000000,4.000000,4.000000,4.000000,4.000000,4.000000,4.000000,4.000000,4.000000,4.000000,4.000000,100.000000
1602006784.235998,7.000000,0.000000,4128.717773,4109.230957,4143.077148,4123.589844,4115.897461,4140.000000,4146.666504,4155.897461,4139.487305,4173.846191,4158.974121,4154.871582,4175.897461,4173.333496,691.000000,4.000000,,,,0.000000,4.000000,4.000000,4.000000,4.000000,4.000000,4.000000,4.000000,4.000000,4.000000,4.000000,4.000000,4.000000,4.000000,4.000000,100.000000
1602006784.243879,8.000000,0.000000,4127.179688,4109.230957,4133.846191,4124.102539,4117.436035,4136.922852,4149.743652,4155.384766,4135.384766,4172.307617,4149.230957,4145.128418,4163.589844,4160.512695,779.000000,4.000000,,,,0.000000,4.000000,4.000000,4.000000,4.000000,4.000000,4.000000,4.000000,4.000000,4.000000,4.000000,4.000000,4.000000,4.000000,4.000000,100.000000
1602006784.251859,9.000000,0.000000,4117.436035,4107.692383,4122.051270,4118.974121,4122.051270,4142.051270,4156.410156,4155.897461,4137.436035,4155.897461,4140.512695,4130.769043,4150.256348,4146.666504,837.000000,4.000000,,,,0.000000,4.000000,4.000000,4.000000,4.000000,4.000000,4.000000,4.000000,4.000000,4.000000,4.000000,4.000000,4.000000,4.000000,4.000000,100.000000
1602006784.259740,10.000000,0.000000,4097.948730,4092.307617,4103.589844,4106.153809,4117.436035,4135.897461,4147.692383,4148.205078,4130.769043,4136.410156,4125.641113,4108.717773,4132.820313,4130.769043,870.000000,4.000000,,,,0.000000,4.000000,4.000000,4.000000,4.000000,4.000000,4.000000,4.000000,4.000000,4.000000,4.000000,4.000000,4.000000,4.000000,4.000000,100.000000
1602006784.267721,11.000000,0.000000,4086.666748,4082.564209,4097.436035,4103.077148,4114.871582,4122.051270,4136.922852,4139.487305,4118.974121,4131.282227,4119.487305,4098.974121,4122.051270,4118.974121,837.000000,4.000000,,,,0.000000,4.000000,4.000000,4.000000,4.000000,4.000000,4.000000,4.000000,4.000000,4.000000,4.000000,4.000000,4.000000,4.000000,4.000000,100.000000
1602006784.275601,12.000000,0.000000,4091.281982,4088.205078,4104.102539,4108.717773,4125.641113,4123.589844,4138.461426,4136.922852,4116.922852,4126.666504,4129.743652,4104.102539,4118.974121,4117.948730,807.000000,4.000000,,,,0.000000,4.000000,4.000000,4.000000,4.000000,4.000000,4.000000,4.000000,4.000000,4.000000,4.000000,4.000000,4.000000,4.000000,4.000000,100.000000
1602006784.283382,13.000000,0.000000,4096.922852,4090.769287,4109.743652,4108.717773,4129.230957,4133.846191,4140.000000,4137.436035,4120.512695,4117.948730,4137.948730,4115.384766,4122.051270,4124.615234,786.000000,4.000000,,,,0.000000,4.000000,4.000000,4.000000,4.000000,4.000000,4.000000,4.000000,4.000000,4.000000,4.000000,4.000000,4.000000,4.000000,4.000000,100.000000
1602006784.291263,14.000000,0.000000,4094.871826,4088.718018,4115.384766,4105.128418,4123.077148,4137.948730,4142.051270,4143.589844,4127.692383,4126.153809,4134.871582,4131.282227,4131.794922,4132.820313,870.000000,4.000000,,,,0.000000,4.000000,4.000000,4.000000,4.000000,4.000000,4.000000,4.000000,4.000000,4.000000,4.000000,4.000000,4.000000,4.000000,4.000000,100.000000
1602006784.299243,15.000000,0.000000,4096.922852,4091.281982,4121.538574,4106.153809,4123.077148,4138.461426,4147.179688,4151.794922,4140.512695,4147.179688,4137.436035,4140.512695,4136.410156,4136.410156,837.000000,4.000000,,,,0.000000,4.000000,4.000000,4.000000,4.000000,4.000000,4.000000,4.000000,4.000000,4.000000,4.000000,4.000000,4.000000,4.000000,4.000000,100.000000
1602006784.307224,16.000000,0.000000,4112.820313,4098.461426,4123.077148,4114.358887,4124.615234,4140.512695,4152.307617,4153.333496,4145.641113,4156.410156,4151.282227,4139.487305,4136.410156,4142.563965,0.000000,4.000000,,,,0.000000,4.000000,4.000000,4.000000,4.000000,4.000000,4.000000,4.000000,4.000000,4.000000,4.000000,4.000000,4.000000,4.000000,4.000000,100.000000
1602006784.315105,17.000000,0.000000,4127.179688,4112.307617,4124.615234,4125.128418,4124.102539,4140.512695,4153.333496,4152.820313,4138.461426,4151.794922,4157.436035,4138.974121,4144.615234,4155.897461,0.000000,4.000000,,,,0.000000,4.000000,4.000000,4.000000,4.000000,4.000000,4.000000,4.000000,4.000000,4.000000,4.000000,4.000000,4.000000,4.000000,4.000000,100.000000
1602006784.322986,18.000000,0.000000,4132.820313,4123.077148,4126.666504,4127.692383,4130.256348,4137.948730,4149.743652,4155.897461,4138.461426,4151.282227,4154.358887,4138.974121,4153.333496,4158.974121,0.000000,4.000000,,,,0.000000,4.000000,4.000000,4.000000,4.000000,4.000000,4.000000,4.000000,4.000000,4.000000,4.000000,4.000000,4.000000,4.000000,4.000000,100.000000
1602006784.330867,19.000000,0.000000,4138.974121,4123.589844,4129.743652,4131.282227,4136.410156,4134.871582,4141.025879,4157.436035,4146.666504,4160.512695,4153.333496,4135.897461,4154.358887,4153.333496,0.000000,4.000000,,,,0.000000,4.000000,4.000000,4.000000,4.000000,4.000000,4.000000,4.000000,4.000000,4.000000,4.000000,4.000000,4.000000,4.000000,4.000000,100.000000
1602006784.338748,20.000000,0.000000,4143.077148,4125.641113,4137.436035,4136.922852,4137.948730,4137.436035,4136.410156,4155.384766,4153.333496,4167.692383,4151.794922,4138.461426,4154.358887,4154.871582,0.000000,4.000000,,,,0.000000,4.000000,4.000000,4.000000,4.000000,4.000000,4.000000,4.000000,4.000000,4.000000,4.000000,4.000000,4.000000,4.000000,4.000000,100.000000
1602006784.346529,21.000000,0.000000,4138.461426,4128.205078,4136.922852,4133.333496,4136.922852,4138.974121,4138.974121,4155.384766,4158.974121,4172.307617,4153.333496,4141.538574,4156.922852,4158.974121,0.000000,4.000000,,,,0.000000,4.000000,4.000000,4.000000,4.000000,4.000000,4.000000,4.000000,4.000000,4.000000,4.000000,4.000000,4.000000,4.000000,4.000000,100.000000
1602006784.354410,22.000000,0.000000,4132.307617,4124.102539,4125.641113,4130.769043,4131.794922,4138.461426,4141.538574,4154.871582,4153.846191,4166.666504,4157.948730,4137.948730,4158.461426,4155.384766,0.000000,4.000000,,,,0.000000,4.000000,4.000000,4.000000,4.000000,4.000000,4.000000,4.000000,4.000000,4.000000,4.000000,4.000000,4.000000,4.000000,4.000000,100.000000
1602006784.362292,23.000000,0.000000,4129.230957,4120.512695,4125.128418,4133.333496,4125.641113,4143.077148,4140.512695,4149.743652,4141.025879,4147.179688,4148.205078,4135.897461,4149.743652,4148.205078,0.000000,4.000000,,,,0.000000,4.000000,4.000000,4.000000,4.000000,4.000000,4.000000,4.000000,4.000000,4.000000,4.000000,4.000000,4.000000,4.000000,4.000000,100.000000
1602006784.370173,24.000000,0.000000,4125.128418,4114.871582,4133.846191,4127.692383,4121.025879,4146.153809,4139.487305,4146.153809,4138.461426,4142.051270,4133.846191,4137.948730,4138.461426,4148.205078,0.000000,4.000000,,,,0.000000,4.000000,4.000000,4.000000,4.000000,4.000000,4.000000,4.000000,4.000000,4.000000,4.000000,4.000000,4.000000,4.000000,4.000000,100.000000
1602006784.378054,25.000000,0.000000,4125.641113,4107.692383,4137.436035,4119.487305,4111.794922,4135.384766,4138.461426,4150.769043,4141.538574,4161.025879,4142.051270,4143.589844,4144.102539,4152.307617,0.000000,4.000000,,,,0.000000,4.000000,4.000000,4.000000,4.000000,4.000000,4.000000,4.000000,4.000000,4.000000,4.000000,4.000000,4.000000,4.000000,4.000000,100.000000
1602006784.385935,26.000000,0.000000,4135.897461,4113.846191,4138.461426,4125.641113,4107.692383,4123.589844,4139.487305,4155.897461,4140.000000,4176.922852,4157.436035,4152.307617,4158.461426,4153.846191,0.000000,4.000000,,,,0.000000,4.000000,4.000000,4.000000,4.000000,4.000000,4.000000,4.000000,4.000000,4.000000,4.000000,4.000000,4.000000,4.000000,4.000000,100.000000
1602006784.393816,27.000000,0.000000,4138.974121,4125.641113,4141.538574,4137.436035,4117.436035,4128.717773,4140.512695,4157.436035,4141.538574,4171.282227,4158.974121,4157.436035,4157.948730,4157.948730,0.000000,4.000000,,,,0.000000,4.000000,4.000000,4.000000,4.000000,4.000000,4.000000,4.000000,4.000000,4.000000,4.000000,4.000000,4.000000,4.000000,4.000000,100.000000
1602006784.401697,28.000000,0.000000,4127.179688,4122.051270,4136.410156,4134.871582,4125.641113,4133.846191,4139.487305,4155.897461,4142.563965,4153.846191,4151.794922,4143.077148,4146.666504,4158.461426,0.000000,4.000000,,,,0.000000,4.000000,4.000000,4.000000,4.000000,4.000000,4.000000,4.000000,4.000000,4.000000,4.000000,4.000000,4.000000,4.000000,4.000000,100.000000
1602006784.409579,29.000000,0.000000,4116.410156,4111.282227,4123.589844,4123.589844,4122.563965,4121.538574,4137.436035,4145.641113,4125.128418,4136.922852,4138.974121,4123.077148,4137.436035,4139.487305,0.000000,4.000000,,,,0.000000,4.000000,4.000000,4.000000,4.000000,4.000000,4.000000,4.000000,4.000000,4.000000,4.000000,4.000000,4.000000,4.000000,4.000000,100.000000
1602006784.417360,30.000000,0.000000,4110.256348,4107.179688,4117.436035,4120.512695,4119.487305,4116.410156,4138.974121,4137.436035,4107.692383,4131.794922,4129.743652,4118.974121,4129.230957,4121.025879,0.000000,4.000000,,,,0.000000,4.000000,4.000000,4.000000,4.000000,4.000000,4.000000,4.000000,4.000000,4.000000,4.000000,4.000000,4.000000,4.000000,4.000000,100.000000
1602006784.425241,31.000000,0.000000,4103.589844,4107.692383,4120.000000,4125.641113,4123.077148,4134.358887,4141.538574,4139.487305,4115.384766,4140.512695,4132.820313,4122.563965,4127.692383,4127.179688,0.000000,4.000000,,,,0.000000,4.000000,4.000000,4.000000,4.000000,4.000000,4.000000,4.000000,4.000000,4.000000,4.000000,4.000000,4.000000,4.000000,4.000000,100.000000
1602006784.433122,32.000000,0.000000,4108.717773,4106.153809,4122.563965,4123.077148,4128.205078,4145.641113,4142.051270,4141.025879,4128.717773,4154.358887,4137.948730,4129.743652,4132.307617,4138.974121,0.000000,4.000000,,,,0.000000,4.000000,4.000000,4.000000,4.000000,4.000000,4.000000,4.000000,4.000000,4.000000,4.000000,4.000000,4.000000,4.000000,4.000000,100.000000
1602006784.441003,33.000000,0.000000,4127.692383,4110.769043,4132.820313,4122.563965,4130.256348,4140.000000,4145.128418,4145.641113,4133.333496,4165.128418,4147.692383,4149.230957,4147.692383,4152.307617,0.000000,4.000000,,,,0.000000,4.000000,4.000000,4.000000,4.000000,4.000000,4.000000,4.000000,4.000000,4.000000,4.000000,4.000000,4.000000,4.000000,4.000000,100.000000
1602006784.448885,34.000000,0.000000,4140.512695,4118.461426,4150.256348,4129.230957,4127.179688,4137.436035,4152.307617,4154.358887,4143.077148,4169.743652,4166.666504,4169.230957,4166.666504,4166.666504,0.000000,4.000000,,,,0.000000,4.000000,4.000000,4.000000,4.000000,4.000000,4.000000,4.000000,4.000000,4.000000,4.000000,4.000000,4.000000,4.000000,4.000000,100.000000
1602006784.456766,35.000000,0.000000,4143.077148,4123.077148,4157.436035,4131.282227,4122.051270,4142.563965,4154.358887,4157.948730,4155.897461,4175.384766,4177.436035,4170.769043,4173.333496,4175.384766,0.000000,4.000000,,,,0.000000,4.000000,4.000000,4.000000,4.000000,4.000000,4.000000,4.000000,4.000000,4.000000,4.000000,4.000000,4.000000,4.000000,4.000000,100.000000
1602006784.464647,36.000000,0.000000,4145.128418,4125.128418,4150.256348,4128.205078,4121.538574,4142.051270,4148.205078,4156.922852,4153.333496,4176.922852,4174.871582,4163.589844,4175.897461,4180.512695,0.000000,4.000000,,,,0.000000,4.000000,4.000000,4.000000,4.000000,4.000000,4.000000,4.000000,4.000000,4.000000,4.000000,4.000000,4.000000,4.000000,4.000000,100.000000
1602006784.472528,37.000000,0.000000,4136.922852,4115.384766,4137.948730,4122.051270,4118.461426,4127.692383,4137.948730,4151.282227,4143.077148,4166.666504,4164.615234,4151.282227,4167.692383,4172.820313,0.000000,4.000000,,,,0.000000,4.000000,4.000000,4.000000,4.000000,4.000000,4.000000,4.000000,4.000000,4.000000,4.000000,4.000000,4.000000,4.000000,4.000000,100.000000
1602006784.480509,38.000000,0.000000,4124.102539,4107.179688,4131.794922,4118.974121,4117.948730,4120.000000,4133.846191,4146.666504,4137.436035,4171.794922,4152.820313,4138.974121,4148.205078,4155.384766,0.000000,4.000000,,,,0.000000,4.000000,4.000000,4.000000,4.000000,4.000000,4.000000,4.000000,4.000000,4.000000,4.000000,4.000000,4.000000,4.000000,4.000000,100.000000
1602006784.488390,39.000000,0.000000,4130.256348,4117.436035,4135.384766,4128.205078,4129.743652,4131.282227,4135.897461,4150.256348,4136.922852,4189.230957,4150.769043,4142.051270,4143.077148,4149.743652,0.000000,4.000000,,,,0.000000,4.000000,4.000000,4.000000,4.000000,4.000000,4.000000,4.000000,4.000000,4.000000,4.000000,4.000000,4.000000,4.000000,4.000000,100.000000
1602006784.496271,40.000000,0.000000,4143.077148,4127.692383,4140.000000,4138.974121,4137.948730,4136.410156,4139.487305,4153.846191,4138.461426,4174.871582,4153.846191,4151.794922,4152.820313,4153.333496,0.000000,4.000000,,,,0.000000,4.000000,4.000000,4.000000,4.000000,4.000000,4.000000,4.000000,4.000000,4.000000,4.000000,4.000000,4.000000,4.000000,4.000000,100.000000
1602006784.504152,41.000000,0.000000,4137.948730,4124.615234,4140.000000,4136.922852,4136.410156,4123.589844,4136.922852,4148.717773,4133.846191,4145.641113,4156.410156,4151.282227,4151.282227,4158.974121,0.000000,4.000000,,,,0.000000,4.000000,4.000000,4.000000,4.000000,4.000000,4.000000,4.000000,4.000000,4.000000,4.000000,4.000000,4.000000,4.000000,4.000000,100.000000
1602006784.512033,42.000000,0.000000,4137.436035,4128.205078,4141.025879,4133.846191,4144.102539,4119.487305,4131.282227,4143.589844,4125.128418,4146.153809,4158.974121,4151.282227,4148.717773,4169.743652,0.000000,4.000000,,,,0.000000,4.000000,4.000000,4.000000,4.000000,4.000000,4.000000,4.000000,4.000000,4.000000,4.000000,4.000000,4.000000,4.000000,4.000000,100.000000
1602006784.519913,43.000000,0.000000,4146.666504,4138.461426,4141.025879,4139.487305,4155.897461,4125.128418,4131.794922,4141.025879,4121.538574,4162.563965,4157.948730,4156.922852,4156.922852,4168.717773,0.000000,4.000000,,,,0.000000,4.000000,4.000000,4.000000,4.000000,4.000000,4.000000,4.000000,4.000000,4.000000,4.000000,4.000000,4.000000,4.000000,4.000000,100.000000
1602006784.527894,44.000000,0.000000,4143.077148,4136.922852,4136.922852,4140.512695,4153.846191,4122.563965,4135.897461,4136.922852,4120.000000,4164.102539,4156.922852,4156.410156,4156.410156,4158.974121,0.000000,4.000000,,,,0.000000,4.000000,4.000000,4.000000,4.000000,4.000000,4.000000,4.000000,4.000000,4.000000,4.000000,4.000000,4.000000,4.000000,4.000000,100.000000
1602006784.535775,45.000000,0.000000,4144.102539,4136.922852,4136.410156,4138.461426,4151.794922,4127.179688,4135.897461,4140.512695,4123.077148,4168.717773,4166.666504,4153.846191,4159.487305,4165.641113,0.000000,4.000000,,,,0.000000,4.000000,4.000000,4.000000,4.000000,4.000000,4.000000,4.000000,4.000000,4.000000,4.000000,4.000000,4.000000,4.000000,4.000000,100.000000
1602006784.543656,46.000000,0.000000,4154.871582,4139.487305,4138.461426,4138.974121,4152.820313,4137.436035,4136.410156,4147.692383,4137.948730,4180.000000,4174.358887,4156.922852,4171.282227,4174.871582,0.000000,4.000000,,,,0.000000,4.000000,4.000000,4.000000,4.000000,4.000000,4.000000,4.000000,4.000000,4.000000,4.000000,4.000000,4.000000,4.000000,4.000000,100.000000
1602006784.551537,47.000000,0.000000,4149.230957,4131.794922,4131.794922,4132.820313,4145.128418,4138.461426,4143.077148,4150.769043,4141.025879,4165.641113,4164.615234,4157.948730,4163.589844,4165.641113,0.000000,4.000000,,,,0.000000,4.000000,4.000000,4.000000,4.000000,4.000000,4.000000,4.000000,4.000000,4.000000,4.000000,4.000000,4.000000,4.000000,4.000000,100.000000
1602006784.559418,48.000000,0.000000,4133.333496,4121.538574,4121.025879,4123.589844,4137.436035,4134.871582,4145.128418,4152.820313,4134.358887,4148.717773,4150.256348,4149.230957,4142.563965,4150.256348,0.000000,4.000000,,,,0.000000,4.000000,4.000000,4.000000,4.000000,4.000000,4.000000,4.000000,4.000000,4.000000,4.000000,4.000000,4.000000,4.000000,4.000000,100.000000
1602006784.567199,49.000000,0.000000,4132.820313,4120.000000,4119.487305,4125.128418,4135.384766,4140.512695,4144.102539,4155.384766,4144.615234,4163.589844,4148.205078,4142.563965,4143.589844,4151.282227,0.000000,4.000000,,,,0.000000,4.000000,4.000000,4.000000,4.000000,4.000000,4.000000,4.000000,4.000000,4.000000,4.000000,4.000000,4.000000,4.000000,4.000000,100.000000
1602006784.575080,50.000000,0.000000,4141.538574,4123.589844,4131.282227,4134.871582,4140.512695,4150.256348,4145.641113,4155.384766,4152.820313,4174.358887,4155.897461,4149.743652,4159.487305,4162.051270,0.000000,4.000000,,,,0.000000,4.000000,4.000000,4.000000,4.000000,4.000000,4.000000,4.000000,4.000000,4.000000,4.000000,4.000000,4.000000,4.000000,4.000000,100.000000
1602006784.582962,51.000000,0.000000,4145.128418,4129.230957,4142.563965,4138.974121,4148.205078,4149.743652,4144.615234,4150.256348,4144.615234,4158.461426,4163.589844,4160.000000,4160.000000,4160.512695,0.000000,4.000000,,,,0.000000,4.000000,4.000000,4.000000,4.000000,4.000000,4.000000,4.000000,4.000000,4.000000,4.000000,4.000000,4.000000,4.000000,4.000000,100.000000
1602006784.590843,52.000000,0.000000,4143.589844,4135.384766,4135.897461,4133.846191,4145.128418,4139.487305,4136.410156,4142.051270,4134.358887,4148.205078,4167.179688,4159.487305,4152.307617,4152.820313,0.000000,4.000000,,,,0.000000,4.000000,4.000000,4.000000,4.000000,4.000000,4.000000,4.000000,4.000000,4.000000,4.000000,4.000000,4.000000,4.000000,4.000000,100.000000
1602006784.598724,53.000000,0.000000,4139.487305,4136.410156,4123.077148,4131.794922,4137.436035,4133.333496,4129.230957,4135.384766,4124.615234,4155.384766,4157.436035,4155.384766,4152.307617,4157.436035,0.000000,4.000000,,,,0.000000,4.000000,4.000000,4.000000,4.000000,4.000000,4.000000,4.000000,4.000000,4.000000,4.000000,4.000000,4.000000,4.000000,4.000000,100.000000
1602006784.606605,54.000000,0.000000,4141.025879,4136.410156,4123.077148,4135.897461,4140.000000,4138.461426,4133.846191,4134.358887,4123.077148,4157.948730,4141.538574,4153.333496,4153.333496,4154.871582,0.000000,4.000000,,,,0.000000,4.000000,4.000000,4.000000,4.000000,4.000000,4.000000,4.000000,4.000000,4.000000,4.000000,4.000000,4.000000,4.000000,4.000000,100.000000
1602006784.614486,55.000000,0.000000,4146.666504,4138.461426,4127.692383,4141.025879,4145.128418,4140.000000,4134.871582,4135.897461,4133.846191,4154.358887,4146.153809,4151.794922,4150.769043,4140.512695,0.000000,4.000000,,,,0.000000,4.000000,4.000000,4.000000,4.000000,4.000000,4.000000,4.000000,4.000000,4.000000,4.000000,4.000000,4.000000,4.000000,4.000000,100.000000
1602006784.622367,56.000000,0.000000,4143.077148,4138.974121,4125.128418,4139.487305,4143.077148,4136.410156,4127.692383,4136.922852,4138.974121,4155.384766,4158.974121,4152.820313,4153.846191,4145.641113,0.000000,4.000000,,,,0.000000,4.000000,4.000000,4.000000,4.000000,4.000000,4.000000,4.000000,4.000000,4.000000,4.000000,4.000000,4.000000,4.000000,4.000000,100.000000
1602006784.630249,57.000000,0.000000,4133.846191,4133.846191,4119.487305,4133.846191,4139.487305,4140.512695,4129.230957,4138.461426,4136.922852,4158.974121,4155.384766,4152.820313,4156.410156,4153.846191,0.000000,4.000000,,,,0.000000,4.000000,4.000000,4.000000,4.000000,4.000000,4.000000,4.000000,4.000000,4.000000,4.000000,4.000000,4.000000,4.000000,4.000000,100.000000
1602006784.638030,58.000000,0.000000,4138.974121,4130.256348,4121.025879,4134.358887,4137.436035,4136.922852,4135.384766,4140.000000,4147.179688,4152.820313,4150.256348,4150.769043,4153.333496,4146.153809,0.000000,4.000000,,,,0.000000,4.000000,4.000000,4.000000,4.000000,4.000000,4.000000,4.000000,4.000000,4.000000,4.000000,4.000000,4.000000,4.000000,4.000000,100.000000
1602006784.645911,59.000000,0.000000,4148.205078,4131.794922,4131.282227,4133.333496,4138.461426,4126.666504,4131.282227,4141.538574,4155.897461,4146.153809,4156.922852,4151.282227,4155.384766,4144.102539,0.000000,4.000000,,,,0.000000,4.000000,4.000000,4.000000,4.000000,4.000000,4.000000,4.000000,4.000000,4.000000,4.000000,4.000000,4.000000,4.000000,4.000000,100.000000
1602006784.653792,60.000000,0.000000,4144.615234,4130.256348,4137.948730,4126.666504,4138.974121,4131.282227,4123.589844,4138.974121,4150.256348,4159.487305,4162.051270,4153.333496,4160.512695,4154.871582,0.000000,4.000000,,,,0.000000,4.000000,4.000000,4.000000,4.000000,4.000000,4.000000,4.000000,4.000000,4.000000,4.000000,4.000000,4.000000,4.000000,4.000000,100.000000
1602006784.661673,61.000000,0.000000,4145.128418,4126.666504,4132.820313,4127.692383,4140.000000,4140.512695,4125.641113,4134.871582,4140.512695,4168.717773,4160.512695,4158.461426,4160.512695,4154.871582,0.000000,4.000000,,,,0.000000,4.000000,4.000000,4.000000,4.000000,4.000000,4.000000,4.000000,4.000000,4.000000,4.000000,4.000000,4.000000,4.000000,4.000000,100.000000
1602006784.669555,62.000000,0.000000,4147.179688,4125.641113,4124.615234,4130.256348,4142.051270,4137.436035,4131.794922,4133.846191,4135.384766,4160.512695,4156.410156,4156.410156,4155.897461,4141.538574,0.000000,4.000000,,,,0.000000,4.000000,4.000000,4.000000,4.000000,4.000000,4.000000,4.000000,4.000000,4.000000,4.000000,4.000000,4.000000,4.000000,4.000000,100.000000
1602006784.677436,63.000000,0.000000,4141.025879,4126.666504,4127.692383,4127.179688,4143.077148,4138.461426,4134.871582,4134.358887,4141.025879,4157.948730,4155.384766,4148.205078,4153.333496,4133.846191,0.000000,4.000000,,,,0.000000,4.000000,4.000000,4.000000,4.000000,4.000000,4.000000,4.000000,4.000000,4.000000,4.000000,4.000000,4.000000,4.000000,4.000000,100.000000
1602006784.685317,64.000000,0.000000,4140.000000,4128.205078,4138.461426,4129.230957,4142.563965,4146.153809,4136.410156,4138.461426,4157.948730,4165.128418,4159.487305,4148.205078,4154.871582,4136.922852,796.000000,4.000000,,,,0.000000,4.000000,4.000000,4.000000,4.000000,4.000000,4.000000,4.000000,4.000000,4.000000,4.000000,4.000000,4.000000,4.000000,4.000000,100.000000
1602006784.693198,65.000000,0.000000,4140.000000,4126.153809,4137.948730,4130.256348,4142.051270,4141.538574,4134.358887,4145.128418,4169.743652,4172.820313,4158.974121,4154.871582,4155.897461,4141.538574,790.000000,4.000000,,,,0.000000,4.000000,4.000000,4.000000,4.000000,4.000000,4.000000,4.000000,4.000000,4.000000,4.000000,4.000000,4.000000,4.000000,4.000000,100.000000
1602006784.701079,66.000000,0.000000,4131.794922,4120.000000,4131.794922,4123.077148,4140.512695,4138.461426,4129.230957,4146.153809,4163.077148,4167.692383,4154.358887,4154.871582,4146.666504,4138.974121,852.000000,4.000000,,,,0.000000,4.000000,4.000000,4.000000,4.000000,4.000000,4.000000,4.000000,4.000000,4.000000,4.000000,4.000000,4.000000,4.000000,4.000000,100.000000
1602006784.709060,67.000000,0.000000,4129.230957,4117.436035,4135.897461,4122.051270,4138.974121,4146.666504,4129.743652,4142.051270,4152.820313,4154.871582,4147.692383,4151.794922,4136.410156,4140.000000,868.000000,4.000000,,,,0.000000,4.000000,4.000000,4.000000,4.000000,4.000000,4.000000,4.000000,4.000000,4.000000,4.000000,4.000000,4.000000,4.000000,4.000000,100.000000
1602006784.716941,68.000000,0.000000,4126.666504,4115.384766,4137.948730,4124.102539,4137.948730,4141.025879,4132.307617,4139.487305,4154.871582,4155.897461,4141.025879,4152.307617,4136.410156,4138.974121,816.000000,4.000000,,,,0.000000,4.000000,4.000000,4.000000,4.000000,4.000000,4.000000,4.000000,4.000000,4.000000,4.000000,4.000000,4.000000,4.000000,4.000000,100.000000
1602006784.724823,69.000000,0.000000,4113.333496,4104.615234,4127.179688,4119.487305,4133.846191,4128.205078,4125.641113,4137.948730,4151.794922,4152.307617,4133.846191,4151.282227,4131.794922,4125.641113,819.000000,4.000000,,,,0.000000,4.000000,4.000000,4.000000,4.000000,4.000000,4.000000,4.000000,4.000000,4.000000,4.000000,4.000000,4.000000,4.000000,4.000000,100.000000
1602006784.732704,70.000000,0.000000,4112.307617,4106.153809,4121.025879,4120.000000,4132.820313,4132.307617,4126.666504,4135.384766,4138.974121,4135.897461,4130.256348,4151.282227,4125.641113,4115.897461,759.000000,4.000000,,,,0.000000,4.000000,4.000000,4.000000,4.000000,4.000000,4.000000,4.000000,4.000000,4.000000,4.000000,4.000000,4.000000,4.000000,4.000000,100.000000
1602006784.740585,71.000000,0.000000,4122.051270,4119.487305,4122.563965,4121.538574,4136.922852,4140.000000,4138.461426,4134.358887,4137.948730,4138.461426,4133.333496,4153.333496,4131.282227,4117.948730,671.000000,4.000000,,,,0.000000,4.000000,4.000000,4.000000,4.000000,4.000000,4.000000,4.000000,4.000000,4.000000,4.000000,4.000000,4.000000,4.000000,4.000000,100.000000
1602006784.748466,72.000000,0.000000,4129.230957,4123.589844,4127.692383,4121.025879,4138.461426,4141.538574,4138.461426,4134.358887,4144.102539,4161.538574,4142.051270,4153.333496,4141.538574,4130.256348,779.000000,4.000000,,,,0.000000,4.000000,4.000000,4.000000,4.000000,4.000000,4.000000,4.000000,4.000000,4.000000,4.000000,4.000000,4.000000,4.000000,4.000000,100.000000
1602006784.756347,73.000000,0.000000,4138.461426,4124.615234,4137.436035,4129.230957,4137.948730,4150.256348,4134.871582,4135.897461,4140.000000,4158.974121,4152.820313,4156.922852,4144.615234,4142.051270,837.000000,4.000000,,,,0.000000,4.000000,4.000000,4.000000,4.000000,4.000000,4.000000,4.000000,4.000000,4.000000,4.000000,4.000000,4.000000,4.000000,4.000000,100.000000
1602006784.764228,74.000000,0.000000,4143.589844,4129.230957,4142.051270,4136.410156,4137.948730,4158.461426,4137.948730,4136.922852,4139.487305,4129.743652,4153.846191,4162.051270,4145.128418,4144.102539,870.000000,4.000000,,,,0.000000,4.000000,4.000000,4.000000,4.000000,4.000000,4.000000,4.000000,4.000000,4.000000,4.000000,4.000000,4.000000,4.000000,4.000000,100.000000
1602006784.772110,75.000000,0.000000,4139.487305,4130.769043,4136.410156,4135.897461,4137.948730,4151.794922,4137.948730,4137.436035,4152.820313,4127.179688,4144.102539,4159.487305,4142.563965,4141.025879,837.000000,4.000000,,,,0.000000,4.000000,4.000000,4.000000,4.000000,4.000000,4.000000,4.000000,4.000000,4.000000,4.000000,4.000000,4.000000,4.000000,4.000000,100.000000
1602006784.780091,76.000000,0.000000,4135.897461,4126.666504,4130.769043,4134.358887,4137.436035,4141.538574,4137.436035,4138.974121,4154.871582,4154.358887,4137.948730,4152.307617,4137.948730,4138.461426,772.000000,4.000000,,,,0.000000,4.000000,4.000000,4.000000,4.000000,4.000000,4.000000,4.000000,4.000000,4.000000,4.000000,4.000000,4.000000,4.000000,4.000000,100.000000
1602006784.787972,77.000000,0.000000,4138.461426,4126.666504,4132.307617,4135.897461,4136.410156,4138.461426,4138.461426,4140.000000,4140.512695,4161.538574,4145.641113,4152.820313,4141.538574,4138.461426,737.000000,4.000000,,,,0.000000,4.000000,4.000000,4.000000,4.000000,4.000000,4.000000,4.000000,4.000000,4.000000,4.000000,4.000000,4.000000,4.000000,4.000000,100.000000
1602006784.795853,78.000000,0.000000,4148.205078,4133.846191,4138.461426,4135.897461,4136.922852,4133.846191,4137.436035,4140.000000,4138.461426,4150.256348,4155.384766,4157.436035,4150.769043,4148.717773,870.000000,4.000000,,,,0.000000,4.000000,4.000000,4.000000,4.000000,4.000000,4.000000,4.000000,4.000000,4.000000,4.000000,4.000000,4.000000,4.000000,4.000000,100.000000
1602006784.803734,79.000000,0.000000,4157.948730,4141.538574,4143.077148,4137.948730,4138.461426,4132.307617,4137.436035,4140.512695,4146.153809,4153.846191,4154.871582,4155.897461,4159.487305,4161.538574,837.000000,4.000000,,,,0.000000,4.000000,4.000000,4.000000,4.000000,4.000000,4.000000,4.000000,4.000000,4.000000,4.000000,4.000000,4.000000,4.000000,4.000000,100.000000
1602006784.811615,80.000000,0.000000,4151.794922,4139.487305,4143.589844,4136.922852,4139.487305,4134.871582,4136.922852,4138.461426,4144.615234,4154.358887,4151.282227,4153.846191,4157.436035,4150.769043,772.000000,4.000000,,,,0.000000,4.000000,4.000000,4.000000,4.000000,4.000000,4.000000,4.000000,4.000000,4.000000,4.000000,4.000000,4.000000,4.000000,4.000000,100.000000
1602006784.819496,81.000000,0.000000,4137.948730,4132.820313,4140.512695,4130.256348,4136.410156,4133.333496,4132.307617,4137.436035,4138.461426,4141.538574,4151.794922,4155.897461,4146.666504,4136.922852,737.000000,4.000000,,,,0.000000,4.000000,4.000000,4.000000,4.000000,4.000000,4.000000,4.000000,4.000000,4.000000,4.000000,4.000000,4.000000,4.000000,4.000000,100.000000
1602006784.827378,82.000000,0.000000,4141.025879,4135.384766,4138.461426,4130.769043,4132.307617,4124.615234,4129.230957,4137.436035,4130.769043,4139.487305,4155.384766,4155.897461,4137.436035,4145.641113,870.000000,4.000000,,,,0.000000,4.000000,4.000000,4.000000,4.000000,4.000000,4.000000,4.000000,4.000000,4.000000,4.000000,4.000000,4.000000,4.000000,4.000000,100.000000
1602006784.835259,83.000000,0.000000,4152.307617,4139.487305,4146.153809,4136.410156,4132.307617,4118.461426,4126.666504,4133.846191,4125.641113,4145.128418,4154.871582,4158.974121,4138.461426,4157.948730,837.000000,4.000000,,,,0.000000,4.000000,4.000000,4.000000,4.000000,4.000000,4.000000,4.000000,4.000000,4.000000,4.000000,4.000000,4.000000,4.000000,4.000000,100.000000
1602006784.843140,84.000000,0.000000,4148.717773,4133.333496,4152.307617,4135.897461,4135.897461,4120.512695,4124.102539,4132.307617,4133.846191,4153.846191,4155.897461,4167.179688,4150.256348,4158.974121,772.000000,4.000000,,,,0.000000,4.000000,4.000000,4.000000,4.000000,4.000000,4.000000,4.000000,4.000000,4.000000,4.000000,4.000000,4.000000,4.000000,4.000000,100.000000
1602006784.850921,85.000000,0.000000,4141.025879,4127.692383,4150.769043,4135.384766,4136.410156,4127.692383,4123.589844,4135.384766,4142.051270,4157.436035,4154.871582,4170.769043,4150.769043,4149.743652,737.000000,4.000000,,,,0.000000,4.000000,4.000000,4.000000,4.000000,4.000000,4.000000,4.000000,4.000000,4.000000,4.000000,4.000000,4.000000,4.000000,4.000000,100.000000
1602006784.858802,86.000000,0.000000,4142.563965,4134.871582,4152.307617,4138.974121,4134.871582,4135.897461,4121.025879,4137.436035,4137.436035,4135.897461,4143.589844,4168.717773,4138.974121,4141.025879,870.000000,4.000000,,,,0.000000,4.000000,4.000000,4.000000,4.000000,4.000000,4.000000,4.000000,4.000000,4.000000,4.000000,4.000000,4.000000,4.000000,4.000000,100.000000
1602006784.866683,87.000000,0.000000,4143.589844,4138.974121,4155.897461,4141.025879,4135.897461,4137.948730,4122.563965,4137.436035,4140.000000,4125.641113,4137.436035,4167.179688,4135.384766,4137.948730,837.000000,4.000000,,,,0.000000,4.000000,4.000000,4.000000,4.000000,4.000000,4.000000,4.000000,4.000000,4.000000,4.000000,4.000000,4.000000,4.000000,4.000000,100.000000
1602006784.874564,88.000000,0.000000,4136.410156,4128.205078,4154.871582,4138.461426,4136.922852,4137.436035,4134.871582,4139.487305,4148.717773,4143.589844,4141.025879,4161.025879,4135.897461,4131.282227,772.000000,4.000000,,,,0.000000,4.000000,4.000000,4.000000,4.000000,4.000000,4.000000,4.000000,4.000000,4.000000,4.000000,4.000000,4.000000,4.000000,4.000000,100.000000
1602006784.882445,89.000000,0.000000,4125.128418,4120.000000,4148.717773,4136.410156,4135.384766,4136.410156,4140.000000,4139.487305,4141.025879,4146.153809,4136.922852,4152.820313,4124.615234,4124.615234,737.000000,4.000000,,,,0.000000,4.000000,4.000000,4.000000,4.000000,4.000000,4.000000,4.000000,4.000000,4.000000,4.000000,4.000000,4.000000,4.000000,4.000000,100.000000
1602006784.890326,90.000000,0.000000,4120.512695,4124.102539,4145.128418,4136.410156,4135.897461,4135.897461,4136.922852,4138.974121,4134.871582,4146.666504,4134.871582,4157.436035,4117.948730,4132.820313,870.000000,4.000000,,,,0.000000,4.000000,4.000000,4.000000,4.000000,4.000000,4.000000,4.000000,4.000000,4.000000,4.000000,4.000000,4.000000,4.000000,4.000000,100.000000
1602006784.898207,91.000000,0.000000,4128.205078,4129.743652,4149.230957,4137.948730,4138.461426,4138.974121,4141.025879,4141.025879,4140.000000,4154.871582,4140.512695,4167.179688,4130.256348,4144.615234,837.000000,4.000000,,,,0.000000,4.000000,4.000000,4.000000,4.000000,4.000000,4.000000,4.000000,4.000000,4.000000,4.000000,4.000000,4.000000,4.000000,4.000000,100.000000
1602006784.906087,92.000000,0.000000,4139.487305,4134.871582,4157.436035,4144.102539,4142.563965,4141.538574,4137.436035,4140.512695,4140.512695,4140.000000,4143.077148,4171.794922,4138.974121,4141.538574,772.000000,4.000000,,,,0.000000,4.000000,4.000000,4.000000,4.000000,4.000000,4.000000,4.000000,4.000000,4.000000,4.000000,4.000000,4.000000,4.000000,4.000000,100.000000
1602006784.913968,93.000000,0.000000,4142.563965,4142.051270,4154.358887,4150.256348,4143.589844,4136.922852,4124.102539,4138.461426,4137.436035,4126.153809,4147.692383,4170.769043,4140.000000,4138.974121,737.000000,4.000000,,,,0.000000,4.000000,4.000000,4.000000,4.000000,4.000000,4.000000,4.000000,4.000000,4.000000,4.000000,4.000000,4.000000,4.000000,4.000000,100.000000
1602006784.921849,94.000000,0.000000,4137.436035,4136.922852,4140.512695,4144.615234,4133.846191,4125.641113,4119.487305,4135.897461,4138.461426,4140.000000,4154.358887,4159.487305,4139.487305,4139.487305,870.000000,4.000000,,,,0.000000,4.000000,4.000000,4.000000,4.000000,4.000000,4.000000,4.000000,4.000000,4.000000,4.000000,4.000000,4.000000,4.000000,4.000000,100.000000
1602006784.929830,95.000000,0.000000,4130.769043,4125.128418,4133.333496,4136.410156,4125.641113,4116.922852,4118.461426,4134.358887,4136.410156,4152.820313,4153.846191,4153.333496,4137.436035,4136.922852,837.000000,4.000000,,,,0.000000,4.000000,4.000000,4.000000,4.000000,4.000000,4.000000,4.000000,4.000000,4.000000,4.000000,4.000000,4.000000,4.000000,4.000000,100.000000
1602006784.937712,96.000000,0.000000,4133.846191,4129.743652,4136.922852,4138.461426,4133.333496,4124.615234,4118.461426,4137.436035,4131.794922,4153.846191,4152.820313,4160.000000,4140.512695,4138.974121,772.000000,4.000000,,,,0.000000,4.000000,4.000000,4.000000,4.000000,4.000000,4.000000,4.000000,4.000000,4.000000,4.000000,4.000000,4.000000,4.000000,4.000000,100.000000
1602006784.945593,97.000000,0.000000,4140.512695,4139.487305,4143.589844,4143.077148,4142.563965,4140.000000,4128.717773,4140.000000,4137.948730,4150.769043,4151.282227,4161.538574,4142.051270,4142.563965,737.000000,4.000000,,,,0.000000,4.000000,4.000000,4.000000,4.000000,4.000000,4.000000,4.000000,4.000000,4.000000,4.000000,4.000000,4.000000,4.000000,4.000000,100.000000
1602006784.953474,98.000000,0.000000,4133.846191,4131.282227,4142.051270,4141.025879,4138.974121,4144.102539,4137.948730,4133.333496,4137.436035,4132.820313,4141.538574,4151.794922,4131.794922,4137.436035,870.000000,4.000000,,,,0.000000,4.000000,4.000000,4.000000,4.000000,4.000000,4.000000,4.000000,4.000000,4.000000,4.000000,4.000000,4.000000,4.000000,4.000000,100.000000
1602006784.961355,99.000000,0.000000,4120.512695,4119.487305,4138.974121,4134.358887,4134.871582,4136.922852,4137.948730,4122.563965,4120.000000,4115.384766,4129.230957,4147.692383,4120.000000,4122.563965,837.000000,4.000000,,,,0.000000,4.000000,4.000000,4.000000,4.000000,4.000000,4.000000,4.000000,4.000000,4.000000,4.000000,4.000000,4.000000,4.000000,4.000000,100.000000
1602006784.969236,100.000000,0.000000,4120.000000,4120.000000,4139.487305,4131.794922,4136.922852,4135.897461,4137.948730,4125.128418,4116.922852,4117.948730,4122.051270,4150.256348,4121.025879,4114.871582,772.000000,4.000000,,,,0.000000,4.000000,4.000000,4.000000,4.000000,4.000000,4.000000,4.000000,4.000000,4.000000,4.000000,4.000000,4.000000,4.000000,4.000000,100.000000
1602006784.977117,101.000000,0.000000,4131.282227,4125.128418,4139.487305,4136.922852,4140.000000,4147.179688,4141.025879,4135.897461,4134.871582,4136.410156,4126.153809,4154.358887,4124.615234,4127.692383,737.000000,4.000000,,,,0.000000,4.000000,4.000000,4.000000,4.000000,4.000000,4.000000,4.000000,4.000000,4.000000,4.000000,4.000000,4.000000,4.000000,4.000000,100.000000
1602006784.984999,102.000000,0.000000,4141.538574,4133.846191,4143.589844,4142.563965,4141.025879,4153.846191,4142.563965,4140.000000,4141.538574,4153.333496,4137.948730,4157.948730,4132.307617,4140.512695,870.000000,4.000000,,,,0.000000,4.000000,4.000000,4.000000,4.000000,4.000000,4.000000,4.000000,4.000000,4.000000,4.000000,4.000000,4.000000,4.000000,4.000000,100.000000
1602006784.992880,103.000000,0.000000,4137.436035,4139.487305,4150.769043,4146.153809,4138.974121,4138.974121,4134.358887,4137.436035,4133.846191,4155.384766,4143.589844,4154.871582,4141.025879,4136.922852,837.000000,4.000000,,,,0.000000,4.000000,4.000000,4.000000,4.000000,4.000000,4.000000,4.000000,4.000000,4.000000,4.000000,4.000000,4.000000,4.000000,4.000000,100.000000
1602006785.000761,104.000000,0.000000,4135.897461,4138.461426,4157.948730,4150.769043,4135.897461,4119.487305,4123.077148,4137.948730,4134.358887,4148.205078,4148.205078,4157.436035,4138.461426,4139.487305,772.000000,4.000000,,,,0.000000,4.000000,4.000000,4.000000,4.000000,4.000000,4.000000,4.000000,4.000000,4.000000,4.000000,4.000000,4.000000,4.000000,4.000000,100.000000
1602006785.008542,105.000000,0.000000,4149.230957,4142.051270,4166.153809,4155.384766,4138.461426,4125.128418,4125.128418,4146.666504,4137.436035,4140.000000,4156.410156,4172.307617,4138.461426,4158.974121,737.000000,4.000000,,,,0.000000,4.000000,4.000000,4.000000,4.000000,4.000000,4.000000,4.000000,4.000000,4.000000,4.000000,4.000000,4.000000,4.000000,4.000000,100.000000
1602006785.016423,106.000000,0.000000,4162.051270,4147.179688,4174.871582,4156.922852,4141.025879,4145.128418,4138.461426,4156.922852,4145.128418,4144.615234,4157.436035,4178.974121,4147.179688,4164.102539,870.000000,4.000000,,,,0.000000,4.000000,4.000000,4.000000,4.000000,4.000000,4.000000,4.000000,4.000000,4.000000,4.000000,4.000000,4.000000,4.000000,4.000000,100.000000
1602006785.024304,107.000000,0.000000,4155.897461,4138.974121,4168.717773,4150.769043,4134.358887,4154.871582,4141.538574,4154.358887,4152.307617,4155.384766,4145.128418,4168.205078,4140.512695,4144.102539,837.000000,4.000000,,,,0.000000,4.000000,4.000000,4.000000,4.000000,4.000000,4.000000,4.000000,4.000000,4.000000,4.000000,4.000000,4.000000,4.000000,4.000000,100.000000
1602006785.032186,108.000000,0.000000,4131.794922,4118.974121,4145.641113,4132.820313,4124.615234,4152.820313,4138.974121,4142.563965,4140.512695,4145.128418,4123.077148,4154.358887,4116.922852,4126.153809,772.000000,4.000000,,,,0.000000,4.000000,4.000000,4.000000,4.000000,4.000000,4.000000,4.000000,4.000000,4.000000,4.000000,4.000000,4.000000,4.000000,4.000000,100.000000
1602006785.040067,109.000000,0.000000,4114.358887,4105.641113,4129.743652,4121.538574,4122.563965,4152.307617,4142.051270,4136.410156,4122.051270,4128.717773,4111.282227,4146.666504,4104.615234,4118.974121,737.000000,4.000000,,,,0.000000,4.000000,4.000000,4.000000,4.000000,4.000000,4.000000,4.000000,4.000000,4.000000,4.000000,4.000000,4.000000,4.000000,4.000000,100.000000
1602006785.047948,110.000000,0.000000,4112.820313,4105.641113,4127.692383,4123.589844,4124.102539,4151.794922,4143.077148,4136.922852,4119.487305,4120.000000,4119.487305,4142.051270,4108.205078,4113.333496,870.000000,4.000000,,,,0.000000,4.000000,4.000000,4.000000,4.000000,4.000000,4.000000,4.000000,4.000000,4.000000,4.000000,4.000000,4.000000,4.000000,4.000000,100.000000
1602006785.055829,111.000000,0.000000,4110.769043,4108.205078,4127.692383,4124.102539,4123.589844,4145.128418,4140.000000,4137.436035,4120.512695,4106.666504,4123.589844,4138.461426,4108.717773,4110.256348,837.000000,4.000000,,,,0.000000,4.000000,4.000000,4.000000,4.000000,4.000000,4.000000,4.000000,4.000000,4.000000,4.000000,4.000000,4.000000,4.000000,4.000000,100.000000
1602006785.063710,112.000000,0.000000,4107.179688,4111.282227,4124.615234,4120.512695,4122.563965,4136.922852,4133.333496,4132.307617,4119.487305,4103.077148,4116.922852,4138.461426,4103.589844,4114.358887,772.000000,4.000000,,,,0.000000,4.000000,4.000000,4.000000,4.000000,4.000000,4.000000,4.000000,4.000000,4.000000,4.000000,4.000000,4.000000,4.000000,4.000000,100.000000
1602006785.071591,113.000000,0.000000,4121.025879,4125.128418,4131.282227,4128.717773,4127.179688,4133.333496,4122.563965,4128.205078,4126.666504,4127.179688,4127.692383,4146.153809,4111.794922,4126.153809,737.000000,4.000000,,,,0.000000,4.000000,4.000000,4.000000,4.000000,4.000000,4.000000,4.000000,4.000000,4.000000,4.000000,4.000000,4.000000,4.000000,4.000000,100.000000
1602006785.079373,114.000000,0.000000,4141.538574,4141.025879,4143.589844,4148.717773,4136.922852,4135.384766,4117.436035,4133.846191,4138.461426,4152.307617,4144.615234,4155.384766,4134.358887,4137.948730,870.000000,4.000000,,,,0.000000,4.000000,4.000000,4.000000,4.000000,4.000000,4.000000,4.000000,4.000000,4.000000,4.000000,4.000000,4.000000,4.000000,4.000000,100.000000
1602006785.087254,115.000000,0.000000,4143.589844,4143.589844,4145.128418,4156.410156,4142.051270,4138.461426,4120.512695,4137.436035,4143.077148,4156.922852,4142.563965,4157.948730,4146.153809,4142.563965,837.000000,4.000000,,,,0.000000,4.000000,4.000000,4.000000,4.000000,4.000000,4.000000,4.000000,4.000000,4.000000,4.000000,4.000000,4.000000,4.000000,4.000000,100.000000
1602006785.095135,116.000000,0.000000,4140.000000,4140.000000,4137.948730,4145.128418,4137.948730,4138.461426,4123.077148,4134.871582,4134.871582,4143.077148,4137.436035,4153.846191,4136.410156,4138.461426,772.000000,4.000000,,,,0.000000,4.000000,4.000000,4.000000,4.000000,4.000000,4.000000,4.000000,4.000000,4.000000,4.000000,4.000000,4.000000,4.000000,4.000000,100.000000
1602006785.103016,117.000000,0.000000,4135.384766,4131.282227,4134.358887,4136.922852,4134.358887,4137.948730,4124.102539,4133.846191,4120.512695,4119.487305,4135.384766,4147.179688,4123.589844,4134.871582,737.000000,4.000000,,,,0.000000,4.000000,4.000000,4.000000,4.000000,4.000000,4.000000,4.000000,4.000000,4.000000,4.000000,4.000000,4.000000,4.000000,4.000000,100.000000
1602006785.110897,118.000000,0.000000,4125.641113,4125.128418,4134.871582,4138.461426,4134.871582,4136.410156,4131.282227,4136.922852,4117.948730,4111.794922,4129.743652,4143.589844,4120.000000,4134.358887,870.000000,4.000000,,,,0.000000,4.000000,4.000000,4.000000,4.000000,4.000000,4.000000,4.000000,4.000000,4.000000,4.000000,4.000000,4.000000,4.000000,4.000000,100.000000
1602006785.118779,119.000000,0.000000,4127.692383,4133.333496,4138.461426,4138.461426,4131.282227,4137.948730,4140.000000,4137.948730,4122.563965,4124.615234,4130.769043,4149.743652,4121.538574,4136.410156,837.000000,4.000000,,,,0.000000,4.000000,4.000000,4.000000,4.000000,4.000000,4.000000,4.000000,4.000000,4.000000,4.000000,4.000000,4.000000,4.000000,4.000000,100.000000
1602006785.126660,120.000000,0.000000,4138.974121,4140.512695,4145.128418,4137.948730,4125.641113,4143.589844,4142.051270,4141.025879,4125.128418,4140.512695,4137.436035,4161.025879,4123.077148,4141.025879,772.000000,4.000000,,,,0.000000,4.000000,4.000000,4.000000,4.000000,4.000000,4.000000,4.000000,4.000000,4.000000,4.000000,4.000000,4.000000,4.000000,4.000000,100.000000
1602006785.134541,121.000000,0.000000,4140.000000,4135.897461,4153.846191,4141.025879,4124.102539,4136.410156,4140.000000,4142.051270,4126.666504,4137.948730,4138.461426,4168.717773,4125.128418,4141.025879,737.000000,4.000000,,,,0.000000,4.000000,4.000000,4.000000,4.000000,4.000000,4.000000,4.000000,4.000000,4.000000,4.000000,4.000000,4.000000,4.000000,4.000000,100.000000
1602006785.142522,122.000000,0.000000,4138.461426,4134.871582,4158.461426,4140.512695,4123.077148,4123.589844,4137.948730,4138.974121,4127.179688,4125.128418,4135.897461,4166.666504,4127.179688,4138.974121,870.000000,4.000000,,,,0.000000,4.000000,4.000000,4.000000,4.000000,4.000000,4.000000,4.000000,4.000000,4.000000,4.000000,4.000000,4.000000,4.000000,4.000000,100.000000
1602006785.150403,123.000000,0.000000,4142.051270,4137.436035,4151.282227,4140.000000,4122.563965,4130.769043,4137.436035,4139.487305,4125.128418,4124.615234,4133.333496,4159.487305,4125.128418,4139.487305,837.000000,4.000000,,,,0.000000,4.000000,4.000000,4.000000,4.000000,4.000000,4.000000,4.000000,4.000000,4.000000,4.000000,4.000000,4.000000,4.000000,4.000000,100.000000
1602006785.158284,124.000000,0.000000,4134.871582,4129.743652,4133.333496,4139.487305,4126.666504,4144.102539,4138.461426,4141.538574,4124.102539,4127.692383,4128.717773,4151.794922,4120.512695,4130.769043,772.000000,4.000000,,,,0.000000,4.000000,4.000000,4.000000,4.000000,4.000000,4.000000,4.000000,4.000000,4.000000,4.000000,4.000000,4.000000,4.000000,4.000000,100.000000
1602006785.166165,125.000000,0.000000,4121.025879,4123.589844,4120.000000,4130.256348,4129.230957,4141.025879,4134.358887,4139.487305,4125.641113,4125.128418,4127.692383,4141.538574,4118.461426,4111.282227,737.000000,4.000000,,,,0.000000,4.000000,4.000000,4.000000,4.000000,4.000000,4.000000,4.000000,4.000000,4.000000,4.000000,4.000000,4.000000,4.000000,4.000000,100.000000
1602006785.174047,126.000000,0.000000,4121.538574,4125.641113,4121.538574,4125.128418,4130.769043,4135.897461,4124.615234,4135.384766,4131.794922,4135.897461,4124.102539,4139.487305,4120.512695,4111.282227,870.000000,4.000000,,,,0.000000,4.000000,4.000000,4.000000,4.000000,4.000000,4.000000,4.000000,4.000000,4.000000,4.000000,4.000000,4.000000,4.000000,4.000000,100.000000
1602006785.181928,127.000000,0.000000,4125.641113,4127.692383,4131.794922,4133.333496,4135.897461,4131.282227,4118.461426,4132.820313,4133.333496,4145.641113,4122.563965,4148.205078,4121.538574,4128.205078,837.000000,4.000000,,,,0.000000,4.000000,4.000000,4.000000,4.000000,4.000000,4.000000,4.000000,4.000000,4.000000,4.000000,4.000000,4.000000,4.000000,4.000000,100.000000
1602006785.189809,128.000000,0.000000,4126.153809,4130.769043,4138.974121,4136.410156,4139.487305,4122.563965,4118.461426,4132.307617,4128.205078,4129.743652,4133.333496,4153.333496,4122.051270,4129.743652,772.000000,4.000000,,,,0.000000,4.000000,4.000000,4.000000,4.000000,4.000000,4.000000,4.000000,4.000000,4.000000,4.000000,4.000000,4.000000,4.000000,4.000000,100.000000
1602006785.197690,0.000000,0.000000,4133.846191,4134.871582,4140.000000,4130.256348,4136.922852,4122.563965,4118.974121,4134.871582,4130.769043,4125.128418,4144.615234,4158.461426,4128.717773,4130.256348,796.000000,4.000000,,,,0.000000,4.000000,4.000000,4.000000,4.000000,4.000000,4.000000,4.000000,4.000000,4.000000,4.000000,4.000000,4.000000,4.000000,4.000000,100.000000
1602006785.205671,1.000000,0.000000,4136.922852,4129.743652,4140.000000,4127.692383,4131.794922,4126.153809,4118.974121,4140.000000,4140.000000,4147.179688,4143.077148,4167.179688,4128.717773,4135.384766,790.000000,4.000000,,,,0.000000,4.000000,4.000000,4.000000,4.000000,4.000000,4.000000,4.000000,4.000000,4.000000,4.000000,4.000000,4.000000,4.000000,4.000000,100.000000
1602006785.213551,2.000000,0.000000,4124.615234,4114.358887,4139.487305,4124.615234,4126.666504,4118.974121,4124.615234,4142.563965,4137.436035,4148.717773,4139.487305,4163.589844,4120.000000,4129.230957,852.000000,4.000000,,,,0.000000,4.000000,4.000000,4.000000,4.000000,4.000000,4.000000,4.000000,4.000000,4.000000,4.000000,4.000000,4.000000,4.000000,4.000000,100.000000
1602006785.221432,3.000000,0.000000,4117.948730,4105.641113,4130.256348,4113.846191,4115.897461,4121.025879,4131.794922,4142.563965,4128.717773,4133.846191,4141.025879,4153.846191,4119.487305,4120.000000,868.000000,4.000000,,,,0.000000,4.000000,4.000000,4.000000,4.000000,4.000000,4.000000,4.000000,4.000000,4.000000,4.000000,4.000000,4.000000,4.000000,4.000000,100.000000
1602006785.229213,4.000000,0.000000,4120.512695,4105.128418,4120.512695,4106.153809,4111.282227,4135.384766,4136.922852,4141.538574,4127.179688,4133.846191,4135.384766,4154.358887,4118.461426,4118.974121,816.000000,4.000000,,,,0.000000,4.000000,4.000000,4.000000,4.000000,4.000000,4.000000,4.000000,4.000000,4.000000,4.000000,4.000000,4.000000,4.000000,4.000000,100.000000
1602006785.237093,5.000000,0.000000,4121.025879,4103.589844,4122.051270,4106.666504,4118.974121,4137.948730,4140.512695,4139.487305,4125.128418,4131.282227,4124.615234,4155.897461,4108.205078,4116.410156,819.000000,4.000000,,,,0.000000,4.000000,4.000000,4.000000,4.000000,4.000000,4.000000,4.000000,4.000000,4.000000,4.000000,4.000000,4.000000,4.000000,4.000000,100.000000
1602006785.244874,6.000000,0.000000,4115.897461,4110.769043,4125.128418,4109.743652,4124.615234,4128.205078,4135.897461,4136.410156,4122.563965,4112.307617,4122.563965,4148.717773,4105.641113,4115.897461,759.000000,4.000000,,,,0.000000,4.000000,4.000000,4.000000,4.000000,4.000000,4.000000,4.000000,4.000000,4.000000,4.000000,4.000000,4.000000,4.000000,4.000000,100.000000
1602006785.252755,7.000000,0.000000,4113.333496,4118.974121,4123.077148,4112.307617,4120.000000,4122.563965,4120.512695,4128.205078,4120.000000,4111.282227,4123.589844,4141.538574,4107.692383,4120.512695,664.000000,4.000000,,,,0.000000,4.000000,4.000000,4.000000,4.000000,4.000000,4.000000,4.000000,4.000000,4.000000,4.000000,4.000000,4.000000,4.000000,4.000000,100.000000
1602006785.260636,8.000000,0.000000,4116.410156,4120.512695,4128.717773,4117.436035,4117.436035,4122.563965,4107.692383,4120.000000,4118.974121,4132.820313,4122.563965,4142.563965,4109.743652,4123.589844,779.000000,4.000000,,,,0.000000,4.000000,4.000000,4.000000,4.000000,4.000000,4.000000,4.000000,4.000000,4.000000,4.000000,4.000000,4.000000,4.000000,4.000000,100.000000
1602006785.268417,9.000000,0.000000,4122.051270,4131.282227,4143.589844,4131.282227,4126.666504,4122.051270,4101.025879,4120.000000,4121.025879,4143.589844,4132.307617,4152.307617,4118.461426,4131.794922,837.000000,4.000000,,,,0.000000,4.000000,4.000000,4.000000,4.000000,4.000000,4.000000,4.000000,4.000000,4.000000,4.000000,4.000000,4.000000,4.000000,4.000000,100.000000
1602006785.276298,10.000000,0.000000,4129.230957,4144.102539,4149.230957,4140.512695,4130.769043,4114.358887,4092.820557,4115.897461,4118.974121,4134.358887,4138.461426,4156.922852,4126.153809,4137.948730,870.000000,4.000000,,,,0.000000,4.000000,4.000000,4.000000,4.000000,4.000000,4.000000,4.000000,4.000000,4.000000,4.000000,4.000000,4.000000,4.000000,4.000000,100.000000
1602006785.284179,11.000000,0.000000,4136.410156,4142.563965,4142.051270,4136.922852,4126.666504,4109.743652,4092.820557,4108.205078,4112.307617,4119.487305,4126.666504,4152.307617,4123.589844,4136.410156,837.000000,4.000000,,,,0.000000,4.000000,4.000000,4.000000,4.000000,4.000000,4.000000,4.000000,4.000000,4.000000,4.000000,4.000000,4.000000,4.000000,4.000000,100.000000
1602006785.292060,12.000000,0.000000,4135.897461,4136.922852,4136.410156,4134.871582,4128.205078,4116.410156,4104.615234,4110.769043,4107.692383,4109.230957,4123.589844,4150.256348,4123.077148,4134.871582,770.000000,4.000000,,,,0.000000,4.000000,4.000000,4.000000,4.000000,4.000000,4.000000,4.000000,4.000000,4.000000,4.000000,4.000000,4.000000,4.000000,4.000000,100.000000
1602006785.299942,13.000000,0.000000,4133.846191,4139.487305,4136.410156,4137.948730,4134.871582,4123.077148,4116.410156,4120.000000,4108.205078,4111.794922,4137.436035,4152.307617,4130.769043,4137.436035,731.000000,4.000000,,,,0.000000,4.000000,4.000000,4.000000,4.000000,4.000000,4.000000,4.000000,4.000000,4.000000,4.000000,4.000000,4.000000,4.000000,4.000000,100.000000
1602006785.307823,14.000000,0.000000,4149.743652,4143.589844,4142.563965,4142.563965,4140.512695,4128.717773,4130.769043,4130.769043,4118.974121,4131.282227,4144.102539,4155.384766,4136.410156,4145.641113,870.000000,4.000000,,,,0.000000,4.000000,4.000000,4.000000,4.000000,4.000000,4.000000,4.000000,4.000000,4.000000,4.000000,4.000000,4.000000,4.000000,4.000000,100.000000
1602006785.315704,15.000000,0.000000,4155.384766,4142.051270,4147.179688,4139.487305,4135.384766,4138.461426,4141.025879,4142.051270,4136.922852,4151.794922,4138.461426,4157.436035,4130.769043,4144.102539,837.000000,4.000000,,,,0.000000,4.000000,4.000000,4.000000,4.000000,4.000000,4.000000,4.000000,4.000000,4.000000,4.000000,4.000000,4.000000,4.000000,4.000000,100.000000
1602006785.323585,16.000000,0.000000,4133.333496,4130.256348,4140.000000,4129.230957,4123.589844,4140.000000,4140.000000,4146.153809,4142.051270,4140.000000,4134.358887,4157.948730,4120.512695,4129.743652,0.000000,4.000000,,,,0.000000,4.000000,4.000000,4.000000,4.000000,4.000000,4.000000,4.000000,4.000000,4.000000,4.000000,4.000000,4.000000,4.000000,4.000000,100.000000
1602006785.331566,17.000000,0.000000,4125.641113,4124.102539,4134.358887,4126.666504,4120.512695,4136.410156,4136.922852,4143.077148,4137.436035,4117.948730,4137.436035,4153.846191,4123.077148,4126.666504,0.000000,4.000000,,,,0.000000,4.000000,4.000000,4.000000,4.000000,4.000000,4.000000,4.000000,4.000000,4.000000,4.000000,4.000000,4.000000,4.000000,4.000000,100.000000
1602006785.339447,18.000000,0.000000,4137.948730,4135.384766,4138.974121,4135.897461,4130.769043,4138.974121,4133.846191,4143.077148,4136.410156,4134.358887,4142.051270,4144.102539,4129.743652,4136.922852,0.000000,4.000000,,,,0.000000,4.000000,4.000000,4.000000,4.000000,4.000000,4.000000,4.000000,4.000000,4.000000,4.000000,4.000000,4.000000,4.000000,4.000000,100.000000
1602006785.347328,19.000000,0.000000,4141.538574,4143.077148,4135.384766,4138.461426,4137.436035,4139.487305,4126.153809,4141.538574,4126.153809,4149.743652,4143.077148,4136.410156,4129.230957,4135.897461,0.000000,4.000000,,,,0.000000,4.000000,4.000000,4.000000,4.000000,4.000000,4.000000,4.000000,4.000000,4.000000,4.000000,4.000000,4.000000,4.000000,4.000000,100.000000
1602006785.355209,20.000000,0.000000,4141.538574,4142.051270,4126.153809,4137.436035,4133.333496,4134.358887,4120.512695,4126.666504,4109.743652,4121.025879,4138.974121,4134.358887,4126.153809,4127.692383,0.000000,4.000000,,,,0.000000,4.000000,4.000000,4.000000,4.000000,4.000000,4.000000,4.000000,4.000000,4.000000,4.000000,4.000000,4.000000,4.000000,4.000000,100.000000
1602006785.363090,21.000000,0.000000,4138.461426,4141.025879,4121.025879,4138.974121,4134.358887,4128.717773,4112.307617,4102.563965,4096.410156,4093.333252,4126.666504,4122.051270,4116.922852,4119.487305,0.000000,4.000000,,,,0.000000,4.000000,4.000000,4.000000,4.000000,4.000000,4.000000,4.000000,4.000000,4.000000,4.000000,4.000000,4.000000,4.000000,4.000000,100.000000
1602006785.371071,22.000000,0.000000,4123.589844,4138.974121,4118.461426,4137.436035,4140.000000,4121.538574,4095.384521,4085.128174,4074.358887,4098.461426,4110.256348,4103.589844,4104.615234,4106.666504,0.000000,4.000000,,,,0.000000,4.000000,4.000000,4.000000,4.000000,4.000000,4.000000,4.000000,4.000000,4.000000,4.000000,4.000000,4.000000,4.000000,4.000000,100.000000
1602006785.378952,23.000000,0.000000,4123.077148,4136.922852,4122.051270,4137.436035,4142.051270,4121.025879,4085.641113,4084.102539,4057.435791,4096.922852,4109.743652,4105.128418,4101.025879,4106.666504,0.000000,4.000000,,,,0.000000,4.000000,4.000000,4.000000,4.000000,4.000000,4.000000,4.000000,4.000000,4.000000,4.000000,4.000000,4.000000,4.000000,4.000000,100.000000
1602006785.386833,24.000000,0.000000,4138.461426,4137.436035,4135.384766,4140.512695,4142.563965,4123.589844,4089.743652,4090.256348,4069.230713,4083.589844,4127.692383,4118.974121,4109.230957,4121.538574,0.000000,4.000000,,,,0.000000,4.000000,4.000000,4.000000,4.000000,4.000000,4.000000,4.000000,4.000000,4.000000,4.000000,4.000000,4.000000,4.000000,4.000000,100.000000
1602006785.394714,25.000000,0.000000,4143.589844,4139.487305,4147.692383,4140.512695,4142.051270,4124.102539,4104.102539,4098.461426,4096.410156,4094.358887,4140.512695,4134.358887,4118.974121,4133.333496,0.000000,4.000000,,,,0.000000,4.000000,4.000000,4.000000,4.000000,4.000000,4.000000,4.000000,4.000000,4.000000,4.000000,4.000000,4.000000,4.000000,4.000000,100.000000
1602006785.402595,26.000000,0.000000,4140.000000,4140.512695,4155.384766,4141.025879,4138.974121,4131.282227,4124.615234,4117.436035,4117.436035,4126.153809,4141.538574,4151.282227,4126.153809,4139.487305,0.000000,4.000000,,,,0.000000,4.000000,4.000000,4.000000,4.000000,4.000000,4.000000,4.000000,4.000000,4.000000,4.000000,4.000000,4.000000,4.000000,4.000000,100.000000
1602006785.410476,27.000000,0.000000,4140.000000,4131.282227,4154.358887,4135.897461,4131.282227,4142.051270,4145.641113,4141.025879,4134.871582,4138.461426,4142.051270,4158.974121,4128.717773,4148.205078,0.000000,4.000000,,,,0.000000,4.000000,4.000000,4.000000,4.000000,4.000000,4.000000,4.000000,4.000000,4.000000,4.000000,4.000000,4.000000,4.000000,4.000000,100.000000
1602006785.418358,28.000000,0.000000,4140.000000,4119.487305,4146.666504,4126.666504,4125.128418,4141.025879,4157.436035,4157.948730,4151.794922,4129.743652,4146.153809,4154.358887,4129.230957,4155.384766,0.000000,4.000000,,,,0.000000,4.000000,4.000000,4.000000,4.000000,4.000000,4.000000,4.000000,4.000000,4.000000,4.000000,4.000000,4.000000,4.000000,4.000000,100.000000
1602006785.426239,29.000000,0.000000,4141.538574,4127.179688,4143.077148,4126.666504,4124.615234,4138.461426,4152.307617,4161.538574,4157.436035,4130.256348,4143.589844,4153.333496,4131.794922,4152.307617,0.000000,4.000000,,,,0.000000,4.000000,4.000000,4.000000,4.000000,4.000000,4.000000,4.000000,4.000000,4.000000,4.000000,4.000000,4.000000,4.000000,4.000000,100.000000
1602006785.434020,30.000000,0.000000,4139.487305,4135.384766,4142.563965,4130.256348,4126.153809,4141.025879,4141.538574,4148.717773,4145.641113,4129.230957,4130.256348,4154.871582,4125.641113,4140.512695,0.000000,4.000000,,,,0.000000,4.000000,4.000000,4.000000,4.000000,4.000000,4.000000,4.000000,4.000000,4.000000,4.000000,4.000000,4.000000,4.000000,4.000000,100.000000
1602006785.441901,31.000000,0.000000,4133.333496,4130.769043,4137.436035,4127.692383,4130.769043,4130.256348,4134.358887,4133.333496,4127.179688,4111.282227,4124.102539,4151.282227,4113.846191,4132.820313,0.000000,4.000000,,,,0.000000,4.000000,4.000000,4.000000,4.000000,4.000000,4.000000,4.000000,4.000000,4.000000,4.000000,4.000000,4.000000,4.000000,4.000000,100.000000
1602006785.449782,32.000000,0.000000,4133.846191,4130.256348,4136.922852,4130.769043,4136.922852,4115.897461,4126.153809,4125.128418,4113.333496,4104.102539,4123.077148,4149.743652,4113.333496,4134.871582,0.000000,4.000000,,,,0.000000,4.000000,4.000000,4.000000,4.000000,4.000000,4.000000,4.000000,4.000000,4.000000,4.000000,4.000000,4.000000,4.000000,4.000000,100.000000
1602006785.457663,33.000000,0.000000,4138.461426,4141.538574,4140.512695,4141.025879,4142.051270,4128.717773,4118.461426,4116.922852,4111.794922,4117.948730,4119.487305,4152.820313,4126.153809,4138.461426,0.000000,4.000000,,,,0.000000,4.000000,4.000000,4.000000,4.000000,4.000000,4.000000,4.000000,4.000000,4.000000,4.000000,4.000000,4.000000,4.000000,4.000000,100.000000
1602006785.465544,34.000000,0.000000,4140.512695,4150.769043,4140.512695,4143.589844,4149.743652,4146.153809,4113.333496,4110.769043,4116.922852,4128.205078,4128.717773,4161.538574,4139.487305,4141.025879,0.000000,4.000000,,,,0.000000,4.000000,4.000000,4.000000,4.000000,4.000000,4.000000,4.000000,4.000000,4.000000,4.000000,4.000000,4.000000,4.000000,4.000000,100.000000
1602006785.473424,35.000000,0.000000,4140.512695,4150.769043,4138.461426,4141.025879,4151.282227,4140.512695,4105.128418,4110.256348,4118.974121,4127.692383,4142.051270,4169.230957,4143.589844,4144.102539,0.000000,4.000000,,,,0.000000,4.000000,4.000000,4.000000,4.000000,4.000000,4.000000,4.000000,4.000000,4.000000,4.000000,4.000000,4.000000,4.000000,4.000000,100.000000
1602006785.481405,36.000000,0.000000,4141.538574,4146.153809,4141.025879,4141.538574,4142.563965,4135.384766,4104.102539,4112.307617,4120.512695,4121.025879,4136.410156,4167.179688,4137.436035,4143.589844,0.000000,4.000000,,,,0.000000,4.000000,4.000000,4.000000,4.000000,4.000000,4.000000,4.000000,4.000000,4.000000,4.000000,4.000000,4.000000,4.000000,4.000000,100.000000
1602006785.489286,37.000000,0.000000,4142.051270,4140.512695,4137.948730,4137.436035,4133.846191,4136.922852,4115.384766,4110.769043,4125.641113,4116.410156,4123.077148,4159.487305,4126.153809,4132.307617,0.000000,4.000000,,,,0.000000,4.000000,4.000000,4.000000,4.000000,4.000000,4.000000,4.000000,4.000000,4.000000,4.000000,4.000000,4.000000,4.000000,4.000000,100.000000
1602006785.497167,38.000000,0.000000,4133.333496,4131.282227,4125.128418,4127.179688,4129.743652,4126.666504,4119.487305,4110.256348,4128.205078,4121.025879,4120.512695,4149.743652,4117.948730,4115.384766,0.000000,4.000000,,,,0.000000,4.000000,4.000000,4.000000,4.000000,4.000000,4.000000,4.000000,4.000000,4.000000,4.000000,4.000000,4.000000,4.000000,4.000000,100.000000
1602006785.505148,39.000000,0.000000,4121.025879,4117.948730,4116.410156,4121.025879,4122.051270,4119.487305,4115.897461,4114.358887,4129.743652,4121.025879,4120.000000,4141.538574,4116.922852,4107.179688,0.000000,4.000000,,,,0.000000,4.000000,4.000000,4.000000,4.000000,4.000000,4.000000,4.000000,4.000000,4.000000,4.000000,4.000000,4.000000,4.000000,4.000000,100.000000
1602006785.513028,40.000000,0.000000,4122.051270,4123.077148,4117.948730,4124.102539,4120.512695,4121.025879,4118.461426,4122.051270,4134.358887,4116.922852,4117.948730,4144.102539,4120.512695,4111.794922,0.000000,4.000000,,,,0.000000,4.000000,4.000000,4.000000,4.000000,4.000000,4.000000,4.000000,4.000000,4.000000,4.000000,4.000000,4.000000,4.000000,4.000000,100.000000
1602006785.520909,41.000000,0.000000,4134.358887,4137.948730,4125.128418,4132.307617,4129.743652,4112.820313,4123.077148,4131.794922,4139.487305,4126.153809,4126.153809,4152.307617,4124.102539,4125.641113,0.000000,4.000000,,,,0.000000,4.000000,4.000000,4.000000,4.000000,4.000000,4.000000,4.000000,4.000000,4.000000,4.000000,4.000000,4.000000,4.000000,4.000000,100.000000
