Timestamp,EEG.Counter,EEG.Interpolated,EEG.AF3,EEG.F7,EEG.F3,EEG.FC5,EEG.T7,EEG.P7,EEG.O1,EEG.O2,EEG.P8,EEG.T8,EEG.FC6,EEG.F4,EEG.F8,EEG.AF4,EEG.RawCq,EEG.Battery,MarkerIndex,MarkerType,MarkerValueInt,EEG.MarkerHardware,CQ.AF3,CQ.F7,CQ.F3,CQ.FC5,CQ.T7,CQ.P7,CQ.O1,CQ.O2,CQ.P8,CQ.T8,CQ.FC6,CQ.F4,CQ.F8,CQ.AF4,CQ.Overall
1602006796.183754,104.000000,0.000000,4151.282227,4134.871582,4150.769043,4140.512695,4133.333496,4128.205078,4125.641113,4134.358887,4139.487305,4148.205078,4142.051270,4156.410156,4141.025879,4146.153809,763.000000,4.000000,,,,0.000000,4.000000,4.000000,4.000000,4.000000,4.000000,4.000000,4.000000,4.000000,4.000000,4.000000,4.000000,4.000000,4.000000,4.000000,100.000000
1602006796.191735,105.000000,0.000000,4137.436035,4123.589844,4143.077148,4133.846191,4126.153809,4124.102539,4120.512695,4122.563965,4128.205078,4151.282227,4138.461426,4140.000000,4135.384766,4141.538574,729.000000,4.000000,,,,0.000000,4.000000,4.000000,4.000000,4.000000,4.000000,4.000000,4.000000,4.000000,4.000000,4.000000,4.000000,4.000000,4.000000,4.000000,100.000000
1602006796.199616,106.000000,0.000000,4137.436035,4122.051270,4136.410156,4127.692383,4132.307617,4124.102539,4125.641113,4118.461426,4120.512695,4141.025879,4135.897461,4134.871582,4138.461426,4142.051270,874.000000,4.000000,,,,0.000000,4.000000,4.000000,4.000000,4.000000,4.000000,4.000000,4.000000,4.000000,4.000000,4.000000,4.000000,4.000000,4.000000,4.000000,100.000000
1602006796.207496,107.000000,0.000000,4134.871582,4123.589844,4134.358887,4127.179688,4140.000000,4123.589844,4128.717773,4121.025879,4125.641113,4137.948730,4140.000000,4140.000000,4142.563965,4138.974121,838.000000,4.000000,,,,0.000000,4.000000,4.000000,4.000000,4.000000,4.000000,4.000000,4.000000,4.000000,4.000000,4.000000,4.000000,4.000000,4.000000,4.000000,100.000000
1602006796.215377,108.000000,0.000000,4122.563965,4120.512695,4125.128418,4122.563965,4136.410156,4125.128418,4128.717773,4121.538574,4125.128418,4140.512695,4140.512695,4138.974121,4135.897461,4127.692383,763.000000,4.000000,,,,0.000000,4.000000,4.000000,4.000000,4.000000,4.000000,4.000000,4.000000,4.000000,4.000000,4.000000,4.000000,4.000000,4.000000,4.000000,100.000000
1602006796.223258,109.000000,0.000000,4118.974121,4119.487305,4116.410156,4121.025879,4135.384766,4133.846191,4134.358887,4127.179688,4118.461426,4123.077148,4129.743652,4134.358887,4126.153809,4122.563965,729.000000,4.000000,,,,0.000000,4.000000,4.000000,4.000000,4.000000,4.000000,4.000000,4.000000,4.000000,4.000000,4.000000,4.000000,4.000000,4.000000,4.000000,100.000000
1602006796.231139,110.000000,0.000000,4123.589844,4123.589844,4120.512695,4128.205078,4139.487305,4143.589844,4141.025879,4144.102539,4128.717773,4119.487305,4123.589844,4136.410156,4123.589844,4125.641113,874.000000,4.000000,,,,0.000000,4.000000,4.000000,4.000000,4.000000,4.000000,4.000000,4.000000,4.000000,4.000000,4.000000,4.000000,4.000000,4.000000,4.000000,100.000000
1602006796.239120,111.000000,0.000000,4120.512695,4125.128418,4121.538574,4127.692383,4137.948730,4142.051270,4138.974121,4149.743652,4143.589844,4145.128418,4125.128418,4141.025879,4122.563965,4122.563965,838.000000,4.000000,,,,0.000000,4.000000,4.000000,4.000000,4.000000,4.000000,4.000000,4.000000,4.000000,4.000000,4.000000,4.000000,4.000000,4.000000,4.000000,100.000000
1602006796.246901,112.000000,0.000000,4114.358887,4122.051270,4120.000000,4122.051270,4136.410156,4131.794922,4129.230957,4136.922852,4133.846191,4145.641113,4124.615234,4142.563965,4121.025879,4120.000000,763.000000,4.000000,,,,0.000000,4.000000,4.000000,4.000000,4.000000,4.000000,4.000000,4.000000,4.000000,4.000000,4.000000,4.000000,4.000000,4.000000,4.000000,100.000000
1602006796.254782,113.000000,0.000000,4116.410156,4126.153809,4128.205078,4129.230957,4140.000000,4120.512695,4116.410156,4121.538574,4112.307617,4127.179688,4129.230957,4142.563965,4119.487305,4132.307617,729.000000,4.000000,,,,0.000000,4.000000,4.000000,4.000000,4.000000,4.000000,4.000000,4.000000,4.000000,4.000000,4.000000,4.000000,4.000000,4.000000,4.000000,100.000000
1602006796.262663,114.000000,0.000000,4124.102539,4135.897461,4139.487305,4136.922852,4138.974121,4118.461426,4111.794922,4117.948730,4106.666504,4124.615234,4138.461426,4145.641113,4122.051270,4141.025879,874.000000,4.000000,,,,0.000000,4.000000,4.000000,4.000000,4.000000,4.000000,4.000000,4.000000,4.000000,4.000000,4.000000,4.000000,4.000000,4.000000,4.000000,100.000000
1602006796.270544,115.000000,0.000000,4133.846191,4134.358887,4141.538574,4136.410156,4135.384766,4124.615234,4120.512695,4121.025879,4107.179688,4120.512695,4140.512695,4153.846191,4133.846191,4137.436035,838.000000,4.000000,,,,0.000000,4.000000,4.000000,4.000000,4.000000,4.000000,4.000000,4.000000,4.000000,4.000000,4.000000,4.000000,4.000000,4.000000,4.000000,100.000000
1602006796.278425,116.000000,0.000000,4137.436035,4125.128418,4137.948730,4137.436035,4134.871582,4123.077148,4123.077148,4118.461426,4094.871826,4118.974121,4138.461426,4156.922852,4141.025879,4135.897461,763.000000,4.000000,,,,0.000000,4.000000,4.000000,4.000000,4.000000,4.000000,4.000000,4.000000,4.000000,4.000000,4.000000,4.000000,4.000000,4.000000,4.000000,100.000000
1602006796.286206,117.000000,0.000000,4130.256348,4123.589844,4140.000000,4134.358887,4136.410156,4125.128418,4121.538574,4113.846191,4092.307617,4138.974121,4141.538574,4149.230957,4139.487305,4144.615234,729.000000,4.000000,,,,0.000000,4.000000,4.000000,4.000000,4.000000,4.000000,4.000000,4.000000,4.000000,4.000000,4.000000,4.000000,4.000000,4.000000,4.000000,100.000000
1602006796.294087,118.000000,0.000000,4116.922852,4124.102539,4142.051270,4124.102539,4136.922852,4140.000000,4130.769043,4120.000000,4102.051270,4146.153809,4138.461426,4142.051270,4138.974121,4144.102539,874.000000,4.000000,,,,0.000000,4.000000,4.000000,4.000000,4.000000,4.000000,4.000000,4.000000,4.000000,4.000000,4.000000,4.000000,4.000000,4.000000,4.000000,100.000000
1602006796.301968,119.000000,0.000000,4108.205078,4119.487305,4132.307617,4118.461426,4135.384766,4138.974121,4140.000000,4132.307617,4104.102539,4122.563965,4126.666504,4138.974121,4136.922852,4125.641113,838.000000,4.000000,,,,0.000000,4.000000,4.000000,4.000000,4.000000,4.000000,4.000000,4.000000,4.000000,4.000000,4.000000,4.000000,4.000000,4.000000,4.000000,100.000000
1602006796.309849,120.000000,0.000000,4105.641113,4117.436035,4121.025879,4120.512695,4133.333496,4125.641113,4140.512695,4142.563965,4111.282227,4118.461426,4124.102539,4136.922852,4129.743652,4116.922852,763.000000,4.000000,,,,0.000000,4.000000,4.000000,4.000000,4.000000,4.000000,4.000000,4.000000,4.000000,4.000000,4.000000,4.000000,4.000000,4.000000,4.000000,100.000000
1602006796.317730,121.000000,0.000000,4108.205078,4122.051270,4121.025879,4123.077148,4137.948730,4132.820313,4142.051270,4146.153809,4125.641113,4143.077148,4132.307617,4133.333496,4128.205078,4124.615234,729.000000,4.000000,,,,0.000000,4.000000,4.000000,4.000000,4.000000,4.000000,4.000000,4.000000,4.000000,4.000000,4.000000,4.000000,4.000000,4.000000,4.000000,100.000000
1602006796.325612,122.000000,0.000000,4108.717773,4124.102539,4123.589844,4123.077148,4149.230957,4147.692383,4141.025879,4138.461426,4127.179688,4141.538574,4132.307617,4128.717773,4127.179688,4125.641113,874.000000,4.000000,,,,0.000000,4.000000,4.000000,4.000000,4.000000,4.000000,4.000000,4.000000,4.000000,4.000000,4.000000,4.000000,4.000000,4.000000,4.000000,100.000000
1602006796.333493,123.000000,0.000000,4107.179688,4122.563965,4117.948730,4123.589844,4151.794922,4136.410156,4126.153809,4128.717773,4121.025879,4123.589844,4122.563965,4123.077148,4117.948730,4117.948730,838.000000,4.000000,,,,0.000000,4.000000,4.000000,4.000000,4.000000,4.000000,4.000000,4.000000,4.000000,4.000000,4.000000,4.000000,4.000000,4.000000,4.000000,100.000000
1602006796.341374,124.000000,0.000000,4115.897461,4128.205078,4122.051270,4131.794922,4145.641113,4120.512695,4111.794922,4122.051270,4120.000000,4129.230957,4123.077148,4122.563965,4114.871582,4120.512695,763.000000,4.000000,,,,0.000000,4.000000,4.000000,4.000000,4.000000,4.000000,4.000000,4.000000,4.000000,4.000000,4.000000,4.000000,4.000000,4.000000,4.000000,100.000000
1602006796.349255,125.000000,0.000000,4126.153809,4136.922852,4135.384766,4136.410156,4143.077148,4122.051270,4105.641113,4114.358887,4110.769043,4140.000000,4127.179688,4130.769043,4121.538574,4123.589844,729.000000,4.000000,,,,0.000000,4.000000,4.000000,4.000000,4.000000,4.000000,4.000000,4.000000,4.000000,4.000000,4.000000,4.000000,4.000000,4.000000,4.000000,100.000000
1602006796.357136,126.000000,0.000000,4125.641113,4136.410156,4137.436035,4129.230957,4142.051270,4123.589844,4103.077148,4110.256348,4103.077148,4135.897461,4125.128418,4137.436035,4126.666504,4123.077148,874.000000,4.000000,,,,0.000000,4.000000,4.000000,4.000000,4.000000,4.000000,4.000000,4.000000,4.000000,4.000000,4.000000,4.000000,4.000000,4.000000,4.000000,100.000000
1602006796.364918,127.000000,0.000000,4122.051270,4133.333496,4129.743652,4124.615234,4142.563965,4123.589844,4103.589844,4117.948730,4106.153809,4136.922852,4129.743652,4133.333496,4126.153809,4129.230957,838.000000,4.000000,,,,0.000000,4.000000,4.000000,4.000000,4.000000,4.000000,4.000000,4.000000,4.000000,4.000000,4.000000,4.000000,4.000000,4.000000,4.000000,100.000000
1602006796.372799,128.000000,0.000000,4121.025879,4136.410156,4125.641113,4127.179688,4144.102539,4130.769043,4110.769043,4123.589844,4104.102539,4139.487305,4138.974121,4130.256348,4122.051270,4129.230957,763.000000,4.000000,,,,0.000000,4.000000,4.000000,4.000000,4.000000,4.000000,4.000000,4.000000,4.000000,4.000000,4.000000,4.000000,4.000000,4.000000,4.000000,100.000000
1602006796.380680,0.000000,0.000000,4122.051270,4136.410156,4124.102539,4130.256348,4142.563965,4133.846191,4120.512695,4120.000000,4102.051270,4124.615234,4138.461426,4135.384766,4120.000000,4127.179688,790.000000,4.000000,,,,0.000000,4.000000,4.000000,4.000000,4.000000,4.000000,4.000000,4.000000,4.000000,4.000000,4.000000,4.000000,4.000000,4.000000,4.000000,100.000000
1602006796.388561,1.000000,0.000000,4122.051270,4130.769043,4126.153809,4128.205078,4138.461426,4128.205078,4128.717773,4128.205078,4108.205078,4116.922852,4136.410156,4138.461426,4125.128418,4135.897461,788.000000,4.000000,,,,0.000000,4.000000,4.000000,4.000000,4.000000,4.000000,4.000000,4.000000,4.000000,4.000000,4.000000,4.000000,4.000000,4.000000,4.000000,100.000000
1602006796.396442,2.000000,0.000000,4122.051270,4128.205078,4131.794922,4123.077148,4135.384766,4126.153809,4133.333496,4140.512695,4108.717773,4135.384766,4137.436035,4137.436035,4133.333496,4143.589844,853.000000,4.000000,,,,0.000000,4.000000,4.000000,4.000000,4.000000,4.000000,4.000000,4.000000,4.000000,4.000000,4.000000,4.000000,4.000000,4.000000,4.000000,100.000000
1602006796.404323,3.000000,0.000000,4128.717773,4132.820313,4137.948730,4126.666504,4136.410156,4123.077148,4136.922852,4140.000000,4109.230957,4143.589844,4139.487305,4143.077148,4141.538574,4138.461426,868.000000,4.000000,,,,0.000000,4.000000,4.000000,4.000000,4.000000,4.000000,4.000000,4.000000,4.000000,4.000000,4.000000,4.000000,4.000000,4.000000,4.000000,100.000000
1602006796.412205,4.000000,0.000000,4141.538574,4147.179688,4151.282227,4140.000000,4141.538574,4120.512695,4140.000000,4142.563965,4127.692383,4138.461426,4151.794922,4153.846191,4153.846191,4143.589844,815.000000,4.000000,,,,0.000000,4.000000,4.000000,4.000000,4.000000,4.000000,4.000000,4.000000,4.000000,4.000000,4.000000,4.000000,4.000000,4.000000,4.000000,100.000000
1602006796.420086,5.000000,0.000000,4145.641113,4152.820313,4159.487305,4142.563965,4144.102539,4124.615234,4134.358887,4144.615234,4142.563965,4150.769043,4159.487305,4157.948730,4160.512695,4156.922852,819.000000,4.000000,,,,0.000000,4.000000,4.000000,4.000000,4.000000,4.000000,4.000000,4.000000,4.000000,4.000000,4.000000,4.000000,4.000000,4.000000,4.000000,100.000000
1602006796.427967,6.000000,0.000000,4133.846191,4138.974121,4145.641113,4129.743652,4138.461426,4117.948730,4118.461426,4129.230957,4129.230957,4157.948730,4147.179688,4152.307617,4147.692383,4148.717773,759.000000,4.000000,,,,0.000000,4.000000,4.000000,4.000000,4.000000,4.000000,4.000000,4.000000,4.000000,4.000000,4.000000,4.000000,4.000000,4.000000,4.000000,100.000000
1602006796.435848,7.000000,0.000000,4123.077148,4129.230957,4127.692383,4125.641113,4139.487305,4114.358887,4111.282227,4117.436035,4109.230957,4143.077148,4136.922852,4146.153809,4136.922852,4134.358887,656.000000,4.000000,,,,0.000000,4.000000,4.000000,4.000000,4.000000,4.000000,4.000000,4.000000,4.000000,4.000000,4.000000,4.000000,4.000000,4.000000,4.000000,100.000000
1602006796.443729,8.000000,0.000000,4122.051270,4136.922852,4123.589844,4128.717773,4148.205078,4131.282227,4116.922852,4123.077148,4108.717773,4139.487305,4138.974121,4142.051270,4137.948730,4133.333496,779.000000,4.000000,,,,0.000000,4.000000,4.000000,4.000000,4.000000,4.000000,4.000000,4.000000,4.000000,4.000000,4.000000,4.000000,4.000000,4.000000,4.000000,100.000000
1602006796.451610,9.000000,0.000000,4121.538574,4142.563965,4123.589844,4128.205078,4153.846191,4140.512695,4115.897461,4117.436035,4107.179688,4142.563965,4137.948730,4138.461426,4130.769043,4137.948730,835.000000,4.000000,,,,0.000000,4.000000,4.000000,4.000000,4.000000,4.000000,4.000000,4.000000,4.000000,4.000000,4.000000,4.000000,4.000000,4.000000,4.000000,100.000000
1602006796.459492,10.000000,0.000000,4118.461426,4137.948730,4121.025879,4132.307617,4155.897461,4136.410156,4113.846191,4111.282227,4091.794922,4126.666504,4133.333496,4137.436035,4127.692383,4134.871582,874.000000,4.000000,,,,0.000000,4.000000,4.000000,4.000000,4.000000,4.000000,4.000000,4.000000,4.000000,4.000000,4.000000,4.000000,4.000000,4.000000,4.000000,100.000000
1602006796.467373,11.000000,0.000000,4121.538574,4143.077148,4121.538574,4140.000000,4156.410156,4138.974121,4117.948730,4117.948730,4087.179443,4118.974121,4135.897461,4131.794922,4133.846191,4128.205078,838.000000,4.000000,,,,0.000000,4.000000,4.000000,4.000000,4.000000,4.000000,4.000000,4.000000,4.000000,4.000000,4.000000,4.000000,4.000000,4.000000,4.000000,100.000000
1602006796.475254,12.000000,0.000000,4120.512695,4141.025879,4123.077148,4137.436035,4153.846191,4136.410156,4120.000000,4121.538574,4096.922852,4124.102539,4137.436035,4127.692383,4130.769043,4123.077148,763.000000,4.000000,,,,0.000000,4.000000,4.000000,4.000000,4.000000,4.000000,4.000000,4.000000,4.000000,4.000000,4.000000,4.000000,4.000000,4.000000,4.000000,100.000000
1602006796.483135,13.000000,0.000000,4111.282227,4127.692383,4122.051270,4128.717773,4150.769043,4125.128418,4125.641113,4125.128418,4107.179688,4119.487305,4137.948730,4133.846191,4128.717773,4120.512695,729.000000,4.000000,,,,0.000000,4.000000,4.000000,4.000000,4.000000,4.000000,4.000000,4.000000,4.000000,4.000000,4.000000,4.000000,4.000000,4.000000,4.000000,100.000000
1602006796.491116,14.000000,0.000000,4122.563965,4137.948730,4124.102539,4136.410156,4145.128418,4125.128418,4138.461426,4138.974121,4125.641113,4130.769043,4146.153809,4140.512695,4139.487305,4122.051270,874.000000,4.000000,,,,0.000000,4.000000,4.000000,4.000000,4.000000,4.000000,4.000000,4.000000,4.000000,4.000000,4.000000,4.000000,4.000000,4.000000,4.000000,100.000000
1602006796.498997,15.000000,0.000000,4148.205078,4161.538574,4129.230957,4147.692383,4136.922852,4126.153809,4143.589844,4146.666504,4150.769043,4154.871582,4148.717773,4137.436035,4136.922852,4122.563965,838.000000,4.000000,,,,0.000000,4.000000,4.000000,4.000000,4.000000,4.000000,4.000000,4.000000,4.000000,4.000000,4.000000,4.000000,4.000000,4.000000,4.000000,100.000000
1602006796.506878,16.000000,0.000000,4158.461426,4167.692383,4138.461426,4148.205078,4140.512695,4123.077148,4141.538574,4145.128418,4158.461426,4159.487305,4141.025879,4136.410156,4123.077148,4124.615234,0.000000,4.000000,,,,0.000000,4.000000,4.000000,4.000000,4.000000,4.000000,4.000000,4.000000,4.000000,4.000000,4.000000,4.000000,4.000000,4.000000,4.000000,100.000000
1602006796.514759,17.000000,0.000000,4159.487305,4168.205078,4144.615234,4147.692383,4150.256348,4129.743652,4142.051270,4142.563965,4152.307617,4151.282227,4129.743652,4135.897461,4113.846191,4123.589844,0.000000,4.000000,,,,0.000000,4.000000,4.000000,4.000000,4.000000,4.000000,4.000000,4.000000,4.000000,4.000000,4.000000,4.000000,4.000000,4.000000,4.000000,100.000000
1602006796.522640,18.000000,0.000000,4154.358887,4166.153809,4136.922852,4145.128418,4145.128418,4130.769043,4133.846191,4131.282227,4145.128418,4147.179688,4120.000000,4126.153809,4098.461426,4111.794922,0.000000,4.000000,,,,0.000000,4.000000,4.000000,4.000000,4.000000,4.000000,4.000000,4.000000,4.000000,4.000000,4.000000,4.000000,4.000000,4.000000,4.000000,100.000000
1602006796.530421,19.000000,0.000000,4141.538574,4158.461426,4124.102539,4137.436035,4141.538574,4121.538574,4119.487305,4118.461426,4131.282227,4125.128418,4118.974121,4119.487305,4085.128174,4095.897461,0.000000,4.000000,,,,0.000000,4.000000,4.000000,4.000000,4.000000,4.000000,4.000000,4.000000,4.000000,4.000000,4.000000,4.000000,4.000000,4.000000,4.000000,100.000000
1602006796.538302,20.000000,0.000000,4140.512695,4163.077148,4120.512695,4136.922852,4152.307617,4126.666504,4109.743652,4118.461426,4120.000000,4091.794922,4122.051270,4124.615234,4087.179443,4090.769287,0.000000,4.000000,,,,0.000000,4.000000,4.000000,4.000000,4.000000,4.000000,4.000000,4.000000,4.000000,4.000000,4.000000,4.000000,4.000000,4.000000,4.000000,100.000000
1602006796.546183,21.000000,0.000000,4146.153809,4170.769043,4123.077148,4142.051270,4155.897461,4134.871582,4104.102539,4119.487305,4116.922852,4096.922852,4119.487305,4127.692383,4091.794922,4090.256348,0.000000,4.000000,,,,0.000000,4.000000,4.000000,4.000000,4.000000,4.000000,4.000000,4.000000,4.000000,4.000000,4.000000,4.000000,4.000000,4.000000,4.000000,100.000000
1602006796.554064,22.000000,0.000000,4140.512695,4168.205078,4123.589844,4145.641113,4149.743652,4123.589844,4101.025879,4111.794922,4110.256348,4132.307617,4116.922852,4122.563965,4086.666748,4085.641113,0.000000,4.000000,,,,0.000000,4.000000,4.000000,4.000000,4.000000,4.000000,4.000000,4.000000,4.000000,4.000000,4.000000,4.000000,4.000000,4.000000,4.000000,100.000000
1602006796.561945,23.000000,0.000000,4135.897461,4167.179688,4122.563965,4149.230957,4150.256348,4114.871582,4104.615234,4105.641113,4101.025879,4138.974121,4116.922852,4122.051270,4086.666748,4086.666748,0.000000,4.000000,,,,0.000000,4.000000,4.000000,4.000000,4.000000,4.000000,4.000000,4.000000,4.000000,4.000000,4.000000,4.000000,4.000000,4.000000,4.000000,100.000000
1602006796.569827,24.000000,0.000000,4141.025879,4170.256348,4123.589844,4148.717773,4151.794922,4131.794922,4116.922852,4111.282227,4104.102539,4121.025879,4113.846191,4125.641113,4092.307617,4091.794922,0.000000,4.000000,,,,0.000000,4.000000,4.000000,4.000000,4.000000,4.000000,4.000000,4.000000,4.000000,4.000000,4.000000,4.000000,4.000000,4.000000,4.000000,100.000000
1602006796.577708,25.000000,0.000000,4141.538574,4165.641113,4127.692383,4142.051270,4152.820313,4146.666504,4131.282227,4119.487305,4107.692383,4123.589844,4117.948730,4122.563965,4092.820557,4093.333252,0.000000,4.000000,,,,0.000000,4.000000,4.000000,4.000000,4.000000,4.000000,4.000000,4.000000,4.000000,4.000000,4.000000,4.000000,4.000000,4.000000,4.000000,100.000000
1602006796.585589,26.000000,0.000000,4140.512695,4156.410156,4134.871582,4142.051270,4151.282227,4135.384766,4139.487305,4122.051270,4102.563965,4125.128418,4125.128418,4124.615234,4095.897461,4099.487305,0.000000,4.000000,,,,0.000000,4.000000,4.000000,4.000000,4.000000,4.000000,4.000000,4.000000,4.000000,4.000000,4.000000,4.000000,4.000000,4.000000,4.000000,100.000000
1602006796.593570,27.000000,0.000000,4143.589844,4153.333496,4139.487305,4146.666504,4143.077148,4124.615234,4141.025879,4129.230957,4109.230957,4117.948730,4123.589844,4135.384766,4108.205078,4108.717773,0.000000,4.000000,,,,0.000000,4.000000,4.000000,4.000000,4.000000,4.000000,4.000000,4.000000,4.000000,4.000000,4.000000,4.000000,4.000000,4.000000,4.000000,100.000000
1602006796.601451,28.000000,0.000000,4143.589844,4156.922852,4140.512695,4145.641113,4137.948730,4128.717773,4140.512695,4138.461426,4123.589844,4130.769043,4122.563965,4143.589844,4111.794922,4110.769043,0.000000,4.000000,,,,0.000000,4.000000,4.000000,4.000000,4.000000,4.000000,4.000000,4.000000,4.000000,4.000000,4.000000,4.000000,4.000000,4.000000,4.000000,100.000000
1602006796.609332,29.000000,0.000000,4140.000000,4154.871582,4137.436035,4138.974121,4138.461426,4127.692383,4136.922852,4138.974121,4123.589844,4133.333496,4125.641113,4142.563965,4100.000000,4106.666504,0.000000,4.000000,,,,0.000000,4.000000,4.000000,4.000000,4.000000,4.000000,4.000000,4.000000,4.000000,4.000000,4.000000,4.000000,4.000000,4.000000,4.000000,100.000000
1602006796.617213,30.000000,0.000000,4138.461426,4148.205078,4130.256348,4135.384766,4133.846191,4114.358887,4129.743652,4134.871582,4116.410156,4122.563965,4123.589844,4140.512695,4095.897461,4105.128418,0.000000,4.000000,,,,0.000000,4.000000,4.000000,4.000000,4.000000,4.000000,4.000000,4.000000,4.000000,4.000000,4.000000,4.000000,4.000000,4.000000,4.000000,100.000000
1602006796.625094,31.000000,0.000000,4138.461426,4151.794922,4123.589844,4135.897461,4133.333496,4113.846191,4122.563965,4136.410156,4121.538574,4132.820313,4119.487305,4139.487305,4104.102539,4108.205078,0.000000,4.000000,,,,0.000000,4.000000,4.000000,4.000000,4.000000,4.000000,4.000000,4.000000,4.000000,4.000000,4.000000,4.000000,4.000000,4.000000,4.000000,100.000000
1602006796.632974,32.000000,0.000000,4135.897461,4157.436035,4122.563965,4137.948730,4146.666504,4130.769043,4122.051270,4140.512695,4132.307617,4146.666504,4122.051270,4140.512695,4112.307617,4106.153809,0.000000,4.000000,,,,0.000000,4.000000,4.000000,4.000000,4.000000,4.000000,4.000000,4.000000,4.000000,4.000000,4.000000,4.000000,4.000000,4.000000,4.000000,100.000000
1602006796.640855,33.000000,0.000000,4135.897461,4156.410156,4121.025879,4138.974121,4157.948730,4138.461426,4124.102539,4136.410156,4139.487305,4139.487305,4124.615234,4140.000000,4114.358887,4094.358887,0.000000,4.000000,,,,0.000000,4.000000,4.000000,4.000000,4.000000,4.000000,4.000000,4.000000,4.000000,4.000000,4.000000,4.000000,4.000000,4.000000,4.000000,100.000000
1602006796.648836,34.000000,0.000000,4141.025879,4155.897461,4114.871582,4139.487305,4160.512695,4137.436035,4122.563965,4124.615234,4140.512695,4133.333496,4120.512695,4133.333496,4104.615234,4092.307617,0.000000,4.000000,,,,0.000000,4.000000,4.000000,4.000000,4.000000,4.000000,4.000000,4.000000,4.000000,4.000000,4.000000,4.000000,4.000000,4.000000,4.000000,100.000000
1602006796.656718,35.000000,0.000000,4134.358887,4152.307617,4108.205078,4133.333496,4155.384766,4141.025879,4121.025879,4117.436035,4131.794922,4128.717773,4105.641113,4122.563965,4090.769287,4094.871826,0.000000,4.000000,,,,0.000000,4.000000,4.000000,4.000000,4.000000,4.000000,4.000000,4.000000,4.000000,4.000000,4.000000,4.000000,4.000000,4.000000,4.000000,100.000000
1602006796.664599,36.000000,0.000000,4116.410156,4141.538574,4104.102539,4124.615234,4143.589844,4137.948730,4120.512695,4118.974121,4126.666504,4114.358887,4091.794922,4109.743652,4084.615479,4077.948730,0.000000,4.000000,,,,0.000000,4.000000,4.000000,4.000000,4.000000,4.000000,4.000000,4.000000,4.000000,4.000000,4.000000,4.000000,4.000000,4.000000,4.000000,100.000000
1602006796.672480,37.000000,0.000000,4115.384766,4134.871582,4101.538574,4121.538574,4136.410156,4124.615234,4118.461426,4119.487305,4125.128418,4104.102539,4093.846191,4103.589844,4083.589844,4067.692383,0.000000,4.000000,,,,0.000000,4.000000,4.000000,4.000000,4.000000,4.000000,4.000000,4.000000,4.000000,4.000000,4.000000,4.000000,4.000000,4.000000,4.000000,100.000000
1602006796.680361,38.000000,0.000000,4133.333496,4137.948730,4106.666504,4124.615234,4137.436035,4120.000000,4117.948730,4117.948730,4122.051270,4114.871582,4104.102539,4107.692383,4083.589844,4082.564209,0.000000,4.000000,,,,0.000000,4.000000,4.000000,4.000000,4.000000,4.000000,4.000000,4.000000,4.000000,4.000000,4.000000,4.000000,4.000000,4.000000,4.000000,100.000000
1602006796.688242,39.000000,0.000000,4140.512695,4142.563965,4118.461426,4128.717773,4138.974121,4123.589844,4123.589844,4121.538574,4130.769043,4132.307617,4106.153809,4120.000000,4090.769287,4092.307617,0.000000,4.000000,,,,0.000000,4.000000,4.000000,4.000000,4.000000,4.000000,4.000000,4.000000,4.000000,4.000000,4.000000,4.000000,4.000000,4.000000,4.000000,100.000000
1602006796.696123,40.000000,0.000000,4140.512695,4148.717773,4125.641113,4135.384766,4136.410156,4120.512695,4127.692383,4124.615234,4136.922852,4129.230957,4102.563965,4131.282227,4095.384521,4092.307617,0.000000,4.000000,,,,0.000000,4.000000,4.000000,4.000000,4.000000,4.000000,4.000000,4.000000,4.000000,4.000000,4.000000,4.000000,4.000000,4.000000,4.000000,100.000000
1602006796.704005,41.000000,0.000000,4151.282227,4160.512695,4132.307617,4147.179688,4137.948730,4117.948730,4125.128418,4122.563965,4124.615234,4115.384766,4106.153809,4136.410156,4090.256348,4100.512695,0.000000,4.000000,,,,0.000000,4.000000,4.000000,4.000000,4.000000,4.000000,4.000000,4.000000,4.000000,4.000000,4.000000,4.000000,4.000000,4.000000,4.000000,100.000000
1602006796.711886,42.000000,0.000000,4164.102539,4169.743652,4140.512695,4154.358887,4145.641113,4124.615234,4129.230957,4121.538574,4116.410156,4119.487305,4109.743652,4135.384766,4086.153809,4106.153809,0.000000,4.000000,,,,0.000000,4.000000,4.000000,4.000000,4.000000,4.000000,4.000000,4.000000,4.000000,4.000000,4.000000,4.000000,4.000000,4.000000,4.000000,100.000000
1602006796.719867,43.000000,0.000000,4168.205078,4170.769043,4144.102539,4154.358887,4147.179688,4128.717773,4137.948730,4125.641113,4124.615234,4124.615234,4106.666504,4136.922852,4090.256348,4105.128418,0.000000,4.000000,,,,0.000000,4.000000,4.000000,4.000000,4.000000,4.000000,4.000000,4.000000,4.000000,4.000000,4.000000,4.000000,4.000000,4.000000,4.000000,100.000000
1602006796.727748,44.000000,0.000000,4167.179688,4168.205078,4149.230957,4152.307617,4141.025879,4123.077148,4133.333496,4125.641113,4124.102539,4118.461426,4106.153809,4144.615234,4095.897461,4107.692383,0.000000,4.000000,,,,0.000000,4.000000,4.000000,4.000000,4.000000,4.000000,4.000000,4.000000,4.000000,4.000000,4.000000,4.000000,4.000000,4.000000,4.000000,100.000000
1602006796.735629,45.000000,0.000000,4167.692383,4168.717773,4151.794922,4153.333496,4140.000000,4118.974121,4124.102539,4122.051270,4117.948730,4123.077148,4113.333496,4146.666504,4099.487305,4108.717773,0.000000,4.000000,,,,0.000000,4.000000,4.000000,4.000000,4.000000,4.000000,4.000000,4.000000,4.000000,4.000000,4.000000,4.000000,4.000000,4.000000,4.000000,100.000000
1602006796.743510,46.000000,0.000000,4166.666504,4173.846191,4147.179688,4155.384766,4146.666504,4121.538574,4128.205078,4125.641113,4124.102539,4130.256348,4124.102539,4144.615234,4105.128418,4107.692383,0.000000,4.000000,,,,0.000000,4.000000,4.000000,4.000000,4.000000,4.000000,4.000000,4.000000,4.000000,4.000000,4.000000,4.000000,4.000000,4.000000,4.000000,100.000000
1602006796.751391,47.000000,0.000000,4159.487305,4173.333496,4139.487305,4150.256348,4145.641113,4123.077148,4130.769043,4130.256348,4126.666504,4122.051270,4123.589844,4144.615234,4104.102539,4110.256348,0.000000,4.000000,,,,0.000000,4.000000,4.000000,4.000000,4.000000,4.000000,4.000000,4.000000,4.000000,4.000000,4.000000,4.000000,4.000000,4.000000,4.000000,100.000000
1602006796.759273,48.000000,0.000000,4151.282227,4162.051270,4133.846191,4141.025879,4141.025879,4118.461426,4122.051270,4125.128418,4123.589844,4124.102539,4116.922852,4140.512695,4095.897461,4108.205078,0.000000,4.000000,,,,0.000000,4.000000,4.000000,4.000000,4.000000,4.000000,4.000000,4.000000,4.000000,4.000000,4.000000,4.000000,4.000000,4.000000,4.000000,100.000000
1602006796.767154,49.000000,0.000000,4148.205078,4154.358887,4132.820313,4137.436035,4143.077148,4121.025879,4121.025879,4121.538574,4127.179688,4136.922852,4122.051270,4139.487305,4102.051270,4105.128418,0.000000,4.000000,,,,0.000000,4.000000,4.000000,4.000000,4.000000,4.000000,4.000000,4.000000,4.000000,4.000000,4.000000,4.000000,4.000000,4.000000,4.000000,100.000000
1602006796.775035,50.000000,0.000000,4142.563965,4150.256348,4131.794922,4133.846191,4143.077148,4127.692383,4125.128418,4122.051270,4126.153809,4132.820313,4123.077148,4145.641113,4106.666504,4108.205078,0.000000,4.000000,,,,0.000000,4.000000,4.000000,4.000000,4.000000,4.000000,4.000000,4.000000,4.000000,4.000000,4.000000,4.000000,4.000000,4.000000,4.000000,100.000000
1602006796.782816,51.000000,0.000000,4136.410156,4135.384766,4126.666504,4124.102539,4135.897461,4123.077148,4128.205078,4118.974121,4115.384766,4123.589844,4111.794922,4143.077148,4091.281982,4106.666504,0.000000,4.000000,,,,0.000000,4.000000,4.000000,4.000000,4.000000,4.000000,4.000000,4.000000,4.000000,4.000000,4.000000,4.000000,4.000000,4.000000,4.000000,100.000000
1602006796.790696,52.000000,0.000000,4133.333496,4120.512695,4121.538574,4115.897461,4128.717773,4124.102539,4134.871582,4119.487305,4112.307617,4121.025879,4109.230957,4137.436035,4085.128174,4095.897461,0.000000,4.000000,,,,0.000000,4.000000,4.000000,4.000000,4.000000,4.000000,4.000000,4.000000,4.000000,4.000000,4.000000,4.000000,4.000000,4.000000,4.000000,100.000000
1602006796.798477,53.000000,0.000000,4126.666504,4121.025879,4117.436035,4113.333496,4127.179688,4134.871582,4141.538574,4124.615234,4111.282227,4112.820313,4112.307617,4140.512695,4089.230713,4090.769287,0.000000,4.000000,,,,0.000000,4.000000,4.000000,4.000000,4.000000,4.000000,4.000000,4.000000,4.000000,4.000000,4.000000,4.000000,4.000000,4.000000,4.000000,100.000000
1602006796.806358,54.000000,0.000000,4122.051270,4122.563965,4111.282227,4114.871582,4126.153809,4141.025879,4149.230957,4122.563965,4097.948730,4101.538574,4106.666504,4134.871582,4077.948730,4092.820557,0.000000,4.000000,,,,0.000000,4.000000,4.000000,4.000000,4.000000,4.000000,4.000000,4.000000,4.000000,4.000000,4.000000,4.000000,4.000000,4.000000,4.000000,100.000000
1602006796.814139,55.000000,0.000000,4123.077148,4123.077148,4106.666504,4120.000000,4128.205078,4144.615234,4152.820313,4120.000000,4096.410156,4096.410156,4102.563965,4121.025879,4070.256348,4082.564209,0.000000,4.000000,,,,0.000000,4.000000,4.000000,4.000000,4.000000,4.000000,4.000000,4.000000,4.000000,4.000000,4.000000,4.000000,4.000000,4.000000,4.000000,100.000000
1602006796.822119,56.000000,0.000000,4124.102539,4130.256348,4105.641113,4121.538574,4133.333496,4148.717773,4146.153809,4122.563965,4112.307617,4096.410156,4101.538574,4115.897461,4075.384521,4074.871826,0.000000,4.000000,,,,0.000000,4.000000,4.000000,4.000000,4.000000,4.000000,4.000000,4.000000,4.000000,4.000000,4.000000,4.000000,4.000000,4.000000,4.000000,100.000000
1602006796.830000,57.000000,0.000000,4129.230957,4137.436035,4104.615234,4124.102539,4136.922852,4144.102539,4137.948730,4124.102539,4123.589844,4109.743652,4098.461426,4118.461426,4074.358887,4082.564209,0.000000,4.000000,,,,0.000000,4.000000,4.000000,4.000000,4.000000,4.000000,4.000000,4.000000,4.000000,4.000000,4.000000,4.000000,4.000000,4.000000,4.000000,100.000000
1602006796.837981,58.000000,0.000000,4135.897461,4141.025879,4108.717773,4134.871582,4138.974121,4133.846191,4130.769043,4125.128418,4130.769043,4131.282227,4105.128418,4123.589844,4076.923096,4086.153809,0.000000,4.000000,,,,0.000000,4.000000,4.000000,4.000000,4.000000,4.000000,4.000000,4.000000,4.000000,4.000000,4.000000,4.000000,4.000000,4.000000,4.000000,100.000000
1602006796.845862,59.000000,0.000000,4135.897461,4145.641113,4114.871582,4140.512695,4134.871582,4123.589844,4121.538574,4127.692383,4129.743652,4135.384766,4117.948730,4132.307617,4089.743652,4086.153809,0.000000,4.000000,,,,0.000000,4.000000,4.000000,4.000000,4.000000,4.000000,4.000000,4.000000,4.000000,4.000000,4.000000,4.000000,4.000000,4.000000,4.000000,100.000000
1602006796.853743,60.000000,0.000000,4136.922852,4151.282227,4123.077148,4138.974121,4128.717773,4114.358887,4117.948730,4130.256348,4125.128418,4125.128418,4128.205078,4144.102539,4097.948730,4100.512695,0.000000,4.000000,,,,0.000000,4.000000,4.000000,4.000000,4.000000,4.000000,4.000000,4.000000,4.000000,4.000000,4.000000,4.000000,4.000000,4.000000,4.000000,100.000000
1602006796.861624,61.000000,0.000000,4146.153809,4156.922852,4133.846191,4141.025879,4135.384766,4116.922852,4124.615234,4128.205078,4132.307617,4121.025879,4138.974121,4150.769043,4106.153809,4115.897461,0.000000,4.000000,,,,0.000000,4.000000,4.000000,4.000000,4.000000,4.000000,4.000000,4.000000,4.000000,4.000000,4.000000,4.000000,4.000000,4.000000,4.000000,100.000000
1602006796.869604,62.000000,0.000000,4153.846191,4160.000000,4140.000000,4145.641113,4146.153809,4124.102539,4124.102539,4126.666504,4141.025879,4132.307617,4145.128418,4156.410156,4118.461426,4120.000000,0.000000,4.000000,,,,0.000000,4.000000,4.000000,4.000000,4.000000,4.000000,4.000000,4.000000,4.000000,4.000000,4.000000,4.000000,4.000000,4.000000,4.000000,100.000000
1602006796.877485,63.000000,0.000000,4153.846191,4158.974121,4141.025879,4146.153809,4143.077148,4125.128418,4121.538574,4131.282227,4138.974121,4149.743652,4142.563965,4161.025879,4124.102539,4125.641113,0.000000,4.000000,,,,0.000000,4.000000,4.000000,4.000000,4.000000,4.000000,4.000000,4.000000,4.000000,4.000000,4.000000,4.000000,4.000000,4.000000,4.000000,100.000000
1602006796.885465,64.000000,0.000000,4154.358887,4156.410156,4140.512695,4143.077148,4137.436035,4125.641113,4130.769043,4135.384766,4136.410156,4156.410156,4140.000000,4160.000000,4122.563965,4129.743652,790.000000,4.000000,,,,0.000000,4.000000,4.000000,4.000000,4.000000,4.000000,4.000000,4.000000,4.000000,4.000000,4.000000,4.000000,4.000000,4.000000,4.000000,100.000000
1602006796.893346,65.000000,0.000000,4151.282227,4149.743652,4137.436035,4137.436035,4137.948730,4123.589844,4139.487305,4140.512695,4135.384766,4157.948730,4139.487305,4153.846191,4117.436035,4121.538574,788.000000,4.000000,,,,0.000000,4.000000,4.000000,4.000000,4.000000,4.000000,4.000000,4.000000,4.000000,4.000000,4.000000,4.000000,4.000000,4.000000,4.000000,100.000000
1602006796.901227,66.000000,0.000000,4145.641113,4141.538574,4134.358887,4136.410156,4136.922852,4120.000000,4137.436035,4148.205078,4141.025879,4159.487305,4138.461426,4151.794922,4116.410156,4120.512695,853.000000,4.000000,,,,0.000000,4.000000,4.000000,4.000000,4.000000,4.000000,4.000000,4.000000,4.000000,4.000000,4.000000,4.000000,4.000000,4.000000,4.000000,100.000000
1602006796.909107,67.000000,0.000000,4144.102539,4143.077148,4136.922852,4138.974121,4137.948730,4127.692383,4136.922852,4148.717773,4157.436035,4150.769043,4141.025879,4155.384766,4118.461426,4125.128418,868.000000,4.000000,,,,0.000000,4.000000,4.000000,4.000000,4.000000,4.000000,4.000000,4.000000,4.000000,4.000000,4.000000,4.000000,4.000000,4.000000,4.000000,100.000000
1602006796.916888,68.000000,0.000000,4134.358887,4142.563965,4132.820313,4132.307617,4140.000000,4132.820313,4137.948730,4139.487305,4153.846191,4137.948730,4138.461426,4155.384766,4108.205078,4115.384766,815.000000,4.000000,,,,0.000000,4.000000,4.000000,4.000000,4.000000,4.000000,4.000000,4.000000,4.000000,4.000000,4.000000,4.000000,4.000000,4.000000,4.000000,100.000000
1602006796.924769,69.000000,0.000000,4125.641113,4136.922852,4122.051270,4128.717773,4138.461426,4122.051270,4128.717773,4129.743652,4127.692383,4138.974121,4133.333496,4152.307617,4106.153809,4110.769043,869.000000,4.000000,,,,0.000000,4.000000,4.000000,4.000000,4.000000,4.000000,4.000000,4.000000,4.000000,4.000000,4.000000,4.000000,4.000000,4.000000,4.000000,100.000000
1602006796.932550,70.000000,0.000000,4136.922852,4141.025879,4127.179688,4135.384766,4139.487305,4115.897461,4121.025879,4126.153809,4118.974121,4146.153809,4142.051270,4153.846191,4129.230957,4130.256348,759.000000,4.000000,,,,0.000000,4.000000,4.000000,4.000000,4.000000,4.000000,4.000000,4.000000,4.000000,4.000000,4.000000,4.000000,4.000000,4.000000,4.000000,100.000000
1602006796.940431,71.000000,0.000000,4142.563965,4145.641113,4137.948730,4134.871582,4144.102539,4127.692383,4123.589844,4126.666504,4123.077148,4150.256348,4159.487305,4160.000000,4152.307617,4147.179688,656.000000,4.000000,,,,0.000000,4.000000,4.000000,4.000000,4.000000,4.000000,4.000000,4.000000,4.000000,4.000000,4.000000,4.000000,4.000000,4.000000,4.000000,100.000000
1602006796.948312,72.000000,0.000000,4124.102539,4130.256348,4129.230957,4124.102539,4143.077148,4132.820313,4124.615234,4125.641113,4122.563965,4151.794922,4158.461426,4161.538574,4155.384766,4150.256348,780.000000,4.000000,,,,0.000000,4.000000,4.000000,4.000000,4.000000,4.000000,4.000000,4.000000,4.000000,4.000000,4.000000,4.000000,4.000000,4.000000,4.000000,100.000000
1602006796.956193,73.000000,0.000000,4109.743652,4112.307617,4120.000000,4120.512695,4137.436035,4124.102539,4126.666504,4125.641113,4125.128418,4143.589844,4148.717773,4156.410156,4154.358887,4156.410156,835.000000,4.000000,,,,0.000000,4.000000,4.000000,4.000000,4.000000,4.000000,4.000000,4.000000,4.000000,4.000000,4.000000,4.000000,4.000000,4.000000,4.000000,100.000000
1602006796.964074,74.000000,0.000000,4110.769043,4109.743652,4126.153809,4122.051270,4137.436035,4125.128418,4135.384766,4134.871582,4134.358887,4136.410156,4153.333496,4153.846191,4157.436035,4152.307617,874.000000,4.000000,,,,0.000000,4.000000,4.000000,4.000000,4.000000,4.000000,4.000000,4.000000,4.000000,4.000000,4.000000,4.000000,4.000000,4.000000,4.000000,100.000000
1602006796.971955,75.000000,0.000000,4110.769043,4109.230957,4127.692383,4120.512695,4138.461426,4136.410156,4140.512695,4141.025879,4145.641113,4145.128418,4157.436035,4152.307617,4157.436035,4138.974121,870.000000,4.000000,,,,0.000000,4.000000,4.000000,4.000000,4.000000,4.000000,4.000000,4.000000,4.000000,4.000000,4.000000,4.000000,4.000000,4.000000,4.000000,100.000000
1602006796.979936,76.000000,0.000000,4108.717773,4106.666504,4121.538574,4121.025879,4138.461426,4141.538574,4140.512695,4140.000000,4155.384766,4155.897461,4152.307617,4146.666504,4156.922852,4137.948730,763.000000,4.000000,,,,0.000000,4.000000,4.000000,4.000000,4.000000,4.000000,4.000000,4.000000,4.000000,4.000000,4.000000,4.000000,4.000000,4.000000,4.000000,100.000000
1602006796.987817,77.000000,0.000000,4108.205078,4106.153809,4121.538574,4116.922852,4138.974121,4140.000000,4143.589844,4141.025879,4152.307617,4154.871582,4153.846191,4142.051270,4149.230957,4143.589844,729.000000,4.000000,,,,0.000000,4.000000,4.000000,4.000000,4.000000,4.000000,4.000000,4.000000,4.000000,4.000000,4.000000,4.000000,4.000000,4.000000,4.000000,100.000000
1602006796.995698,78.000000,0.000000,4106.666504,4103.589844,4123.589844,4111.282227,4134.358887,4138.974121,4145.641113,4143.077148,4142.563965,4151.794922,4153.846191,4141.025879,4142.563965,4138.974121,874.000000,4.000000,,,,0.000000,4.000000,4.000000,4.000000,4.000000,4.000000,4.000000,4.000000,4.000000,4.000000,4.000000,4.000000,4.000000,4.000000,4.000000,100.000000
1602006797.003579,79.000000,0.000000,4102.563965,4096.410156,4123.077148,4109.743652,4129.230957,4139.487305,4141.025879,4139.487305,4136.922852,4140.512695,4140.512695,4139.487305,4136.410156,4126.153809,870.000000,4.000000,,,,0.000000,4.000000,4.000000,4.000000,4.000000,4.000000,4.000000,4.000000,4.000000,4.000000,4.000000,4.000000,4.000000,4.000000,4.000000,100.000000
1602006797.011460,80.000000,0.000000,4100.000000,4094.358887,4121.025879,4107.179688,4132.307617,4135.897461,4136.410156,4132.820313,4124.615234,4116.410156,4133.333496,4139.487305,4125.128418,4126.153809,763.000000,4.000000,,,,0.000000,4.000000,4.000000,4.000000,4.000000,4.000000,4.000000,4.000000,4.000000,4.000000,4.000000,4.000000,4.000000,4.000000,4.000000,100.000000
1602006797.019342,81.000000,0.000000,4105.128418,4101.538574,4122.563965,4111.794922,4139.487305,4134.871582,4137.436035,4132.820313,4114.871582,4112.307617,4143.589844,4146.666504,4126.666504,4141.025879,729.000000,4.000000,,,,0.000000,4.000000,4.000000,4.000000,4.000000,4.000000,4.000000,4.000000,4.000000,4.000000,4.000000,4.000000,4.000000,4.000000,4.000000,100.000000
1602006797.027223,82.000000,0.000000,4110.256348,4113.846191,4131.282227,4125.128418,4142.563965,4144.615234,4140.512695,4139.487305,4128.717773,4141.025879,4153.333496,4154.871582,4146.666504,4145.641113,874.000000,4.000000,,,,0.000000,4.000000,4.000000,4.000000,4.000000,4.000000,4.000000,4.000000,4.000000,4.000000,4.000000,4.000000,4.000000,4.000000,4.000000,100.000000
1602006797.035104,83.000000,0.000000,4111.794922,4122.051270,4138.461426,4129.230957,4142.563965,4148.717773,4142.563965,4144.102539,4139.487305,4160.000000,4156.410156,4156.922852,4154.358887,4143.077148,870.000000,4.000000,,,,0.000000,4.000000,4.000000,4.000000,4.000000,4.000000,4.000000,4.000000,4.000000,4.000000,4.000000,4.000000,4.000000,4.000000,4.000000,100.000000
1602006797.042885,84.000000,0.000000,4117.436035,4121.538574,4135.897461,4123.589844,4141.538574,4140.000000,4143.077148,4143.589844,4135.897461,4153.846191,4154.358887,4155.384766,4144.102539,4150.769043,763.000000,4.000000,,,,0.000000,4.000000,4.000000,4.000000,4.000000,4.000000,4.000000,4.000000,4.000000,4.000000,4.000000,4.000000,4.000000,4.000000,4.000000,100.000000
1602006797.050766,85.000000,0.000000,4117.948730,4115.384766,4129.230957,4124.615234,4138.974121,4136.922852,4140.512695,4143.077148,4135.384766,4154.358887,4145.641113,4153.333496,4142.051270,4154.358887,729.000000,4.000000,,,,0.000000,4.000000,4.000000,4.000000,4.000000,4.000000,4.000000,4.000000,4.000000,4.000000,4.000000,4.000000,4.000000,4.000000,4.000000,100.000000
1602006797.058647,86.000000,0.000000,4109.230957,4109.743652,4128.205078,4125.641113,4139.487305,4136.922852,4137.948730,4141.025879,4139.487305,4158.974121,4138.974121,4151.794922,4146.666504,4142.051270,874.000000,4.000000,,,,0.000000,4.000000,4.000000,4.000000,4.000000,4.000000,4.000000,4.000000,4.000000,4.000000,4.000000,4.000000,4.000000,4.000000,4.000000,100.000000
1602006797.066528,87.000000,0.000000,4105.128418,4109.230957,4131.282227,4121.538574,4136.922852,4132.820313,4136.922852,4138.461426,4137.436035,4150.769043,4137.436035,4154.871582,4142.563965,4136.410156,870.000000,4.000000,,,,0.000000,4.000000,4.000000,4.000000,4.000000,4.000000,4.000000,4.000000,4.000000,4.000000,4.000000,4.000000,4.000000,4.000000,4.000000,100.000000
1602006797.074409,88.000000,0.000000,4107.692383,4116.922852,4129.230957,4123.589844,4137.948730,4142.563965,4141.538574,4138.974121,4134.358887,4142.563965,4137.436035,4152.820313,4141.025879,4141.538574,763.000000,4.000000,,,,0.000000,4.000000,4.000000,4.000000,4.000000,4.000000,4.000000,4.000000,4.000000,4.000000,4.000000,4.000000,4.000000,4.000000,4.000000,100.000000
1602006797.082389,89.000000,0.000000,4108.717773,4126.153809,4126.153809,4126.666504,4149.230957,4156.922852,4152.307617,4141.538574,4139.487305,4148.205078,4139.487305,4141.025879,4153.846191,4142.563965,729.000000,4.000000,,,,0.000000,4.000000,4.000000,4.000000,4.000000,4.000000,4.000000,4.000000,4.000000,4.000000,4.000000,4.000000,4.000000,4.000000,4.000000,100.000000
1602006797.090270,90.000000,0.000000,4107.179688,4120.512695,4121.025879,4124.102539,4151.282227,4155.384766,4153.333496,4141.025879,4136.922852,4161.025879,4139.487305,4135.897461,4154.871582,4135.897461,874.000000,4.000000,,,,0.000000,4.000000,4.000000,4.000000,4.000000,4.000000,4.000000,4.000000,4.000000,4.000000,4.000000,4.000000,4.000000,4.000000,4.000000,100.000000
1602006797.098151,91.000000,0.000000,4104.615234,4106.153809,4110.769043,4120.512695,4140.000000,4147.692383,4143.589844,4137.436035,4124.615234,4154.358887,4125.641113,4134.358887,4136.410156,4127.179688,870.000000,4.000000,,,,0.000000,4.000000,4.000000,4.000000,4.000000,4.000000,4.000000,4.000000,4.000000,4.000000,4.000000,4.000000,4.000000,4.000000,4.000000,100.000000
1602006797.106032,92.000000,0.000000,4103.077148,4106.666504,4106.666504,4121.538574,4134.871582,4146.666504,4138.974121,4138.974121,4121.025879,4133.846191,4115.384766,4128.717773,4130.769043,4124.102539,763.000000,4.000000,,,,0.000000,4.000000,4.000000,4.000000,4.000000,4.000000,4.000000,4.000000,4.000000,4.000000,4.000000,4.000000,4.000000,4.000000,4.000000,100.000000
1602006797.113813,93.000000,0.000000,4104.102539,4117.948730,4114.871582,4122.051270,4139.487305,4144.615234,4140.000000,4140.512695,4127.179688,4134.871582,4126.666504,4128.717773,4139.487305,4127.692383,729.000000,4.000000,,,,0.000000,4.000000,4.000000,4.000000,4.000000,4.000000,4.000000,4.000000,4.000000,4.000000,4.000000,4.000000,4.000000,4.000000,4.000000,100.000000
1602006797.121694,94.000000,0.000000,4105.641113,4121.538574,4121.025879,4120.512695,4143.077148,4140.000000,4133.333496,4136.410156,4130.769043,4146.153809,4137.436035,4133.846191,4138.974121,4126.666504,874.000000,4.000000,,,,0.000000,4.000000,4.000000,4.000000,4.000000,4.000000,4.000000,4.000000,4.000000,4.000000,4.000000,4.000000,4.000000,4.000000,4.000000,100.000000
1602006797.129675,95.000000,0.000000,4109.230957,4120.512695,4121.025879,4121.538574,4148.717773,4141.025879,4129.743652,4135.897461,4134.871582,4138.974121,4136.922852,4137.436035,4135.384766,4129.743652,870.000000,4.000000,,,,0.000000,4.000000,4.000000,4.000000,4.000000,4.000000,4.000000,4.000000,4.000000,4.000000,4.000000,4.000000,4.000000,4.000000,4.000000,100.000000
1602006797.137556,96.000000,0.000000,4110.256348,4123.077148,4116.922852,4125.641113,4155.384766,4146.666504,4136.922852,4138.974121,4136.922852,4134.871582,4136.922852,4138.461426,4141.025879,4138.461426,763.000000,4.000000,,,,0.000000,4.000000,4.000000,4.000000,4.000000,4.000000,4.000000,4.000000,4.000000,4.000000,4.000000,4.000000,4.000000,4.000000,4.000000,100.000000
1602006797.145437,97.000000,0.000000,4106.153809,4121.538574,4109.743652,4124.102539,4149.230957,4140.512695,4136.922852,4131.282227,4116.922852,4147.179688,4136.922852,4131.794922,4140.000000,4133.846191,729.000000,4.000000,,,,0.000000,4.000000,4.000000,4.000000,4.000000,4.000000,4.000000,4.000000,4.000000,4.000000,4.000000,4.000000,4.000000,4.000000,4.000000,100.000000
1602006797.153318,98.000000,0.000000,4107.692383,4120.000000,4112.820313,4121.538574,4136.922852,4126.666504,4129.743652,4123.077148,4104.102539,4154.358887,4134.871582,4127.692383,4140.000000,4127.179688,874.000000,4.000000,,,,0.000000,4.000000,4.000000,4.000000,4.000000,4.000000,4.000000,4.000000,4.000000,4.000000,4.000000,4.000000,4.000000,4.000000,4.000000,100.000000
1602006797.161199,99.000000,0.000000,4117.948730,4128.205078,4128.717773,4128.717773,4138.974121,4129.230957,4126.666504,4131.794922,4121.538574,4150.769043,4138.461426,4137.436035,4150.769043,4136.410156,870.000000,4.000000,,,,0.000000,4.000000,4.000000,4.000000,4.000000,4.000000,4.000000,4.000000,4.000000,4.000000,4.000000,4.000000,4.000000,4.000000,4.000000,100.000000
1602006797.169081,100.000000,0.000000,4123.589844,4137.948730,4138.461426,4136.922852,4153.333496,4141.538574,4129.230957,4141.025879,4138.974121,4152.307617,4142.051270,4145.128418,4154.871582,4146.666504,763.000000,4.000000,,,,0.000000,4.000000,4.000000,4.000000,4.000000,4.000000,4.000000,4.000000,4.000000,4.000000,4.000000,4.000000,4.000000,4.000000,4.000000,100.000000
1602006797.176962,101.000000,0.000000,4122.051270,4139.487305,4138.461426,4137.948730,4157.948730,4148.205078,4132.820313,4137.948730,4138.461426,4159.487305,4139.487305,4143.077148,4150.256348,4143.589844,729.000000,4.000000,,,,0.000000,4.000000,4.000000,4.000000,4.000000,4.000000,4.000000,4.000000,4.000000,4.000000,4.000000,4.000000,4.000000,4.000000,4.000000,100.000000
1602006797.184843,102.000000,0.000000,4122.051270,4135.384766,4133.846191,4136.922852,4147.179688,4150.256348,4135.384766,4140.000000,4130.256348,4156.922852,4138.461426,4142.051270,4150.256348,4137.948730,874.000000,4.000000,,,,0.000000,4.000000,4.000000,4.000000,4.000000,4.000000,4.000000,4.000000,4.000000,4.000000,4.000000,4.000000,4.000000,4.000000,4.000000,100.000000
1602006797.192824,103.000000,0.000000,4125.641113,4133.333496,4127.692383,4137.948730,4142.051270,4147.692383,4134.871582,4150.256348,4130.256348,4150.769043,4139.487305,4140.000000,4155.384766,4144.615234,870.000000,4.000000,,,,0.000000,4.000000,4.000000,4.000000,4.000000,4.000000,4.000000,4.000000,4.000000,4.000000,4.000000,4.000000,4.000000,4.000000,4.000000,100.000000
1602006797.200705,104.000000,0.000000,4124.615234,4136.410156,4125.641113,4138.461426,4143.077148,4138.461426,4135.384766,4154.358887,4136.922852,4157.948730,4138.461426,4137.436035,4157.436035,4156.410156,763.000000,4.000000,,,,0.000000,4.000000,4.000000,4.000000,4.000000,4.000000,4.000000,4.000000,4.000000,4.000000,4.000000,4.000000,4.000000,4.000000,4.000000,100.000000
1602006797.208586,105.000000,0.000000,4122.051270,4137.948730,4133.846191,4137.948730,4142.051270,4131.794922,4137.436035,4155.897461,4141.538574,4170.769043,4143.077148,4140.512695,4156.410156,4157.436035,729.000000,4.000000,,,,0.000000,4.000000,4.000000,4.000000,4.000000,4.000000,4.000000,4.000000,4.000000,4.000000,4.000000,4.000000,4.000000,4.000000,4.000000,100.000000
1602006797.216467,106.000000,0.000000,4131.794922,4138.974121,4141.538574,4141.025879,4144.102539,4135.384766,4137.436035,4155.384766,4139.487305,4173.846191,4154.358887,4146.666504,4160.512695,4155.897461,874.000000,4.000000,,,,0.000000,4.000000,4.000000,4.000000,4.000000,4.000000,4.000000,4.000000,4.000000,4.000000,4.000000,4.000000,4.000000,4.000000,4.000000,100.000000
1602006797.224349,107.000000,0.000000,4138.974121,4141.538574,4140.512695,4143.077148,4144.615234,4137.948730,4136.922852,4145.641113,4136.922852,4166.666504,4158.974121,4146.666504,4164.102539,4156.922852,870.000000,4.000000,,,,0.000000,4.000000,4.000000,4.000000,4.000000,4.000000,4.000000,4.000000,4.000000,4.000000,4.000000,4.000000,4.000000,4.000000,4.000000,100.000000
1602006797.232230,108.000000,0.000000,4128.205078,4141.025879,4137.436035,4139.487305,4141.025879,4136.410156,4133.333496,4136.922852,4137.948730,4153.333496,4151.794922,4141.538574,4160.000000,4145.641113,763.000000,4.000000,,,,0.000000,4.000000,4.000000,4.000000,4.000000,4.000000,4.000000,4.000000,4.000000,4.000000,4.000000,4.000000,4.000000,4.000000,4.000000,100.000000
1602006797.240111,109.000000,0.000000,4117.436035,4137.948730,4134.871582,4136.922852,4138.974121,4137.948730,4124.102539,4137.948730,4136.410156,4147.692383,4143.589844,4139.487305,4154.358887,4134.358887,729.000000,4.000000,,,,0.000000,4.000000,4.000000,4.000000,4.000000,4.000000,4.000000,4.000000,4.000000,4.000000,4.000000,4.000000,4.000000,4.000000,4.000000,100.000000
1602006797.247992,110.000000,0.000000,4121.538574,4138.974121,4127.692383,4136.410156,4143.589844,4141.025879,4121.025879,4138.461426,4135.897461,4157.948730,4138.461426,4139.487305,4151.794922,4139.487305,874.000000,4.000000,,,,0.000000,4.000000,4.000000,4.000000,4.000000,4.000000,4.000000,4.000000,4.000000,4.000000,4.000000,4.000000,4.000000,4.000000,4.000000,100.000000
1602006797.255873,111.000000,0.000000,4121.025879,4135.897461,4123.077148,4130.769043,4143.589844,4138.974121,4124.102539,4136.410156,4137.436035,4168.717773,4140.512695,4140.000000,4153.333496,4144.102539,870.000000,4.000000,,,,0.000000,4.000000,4.000000,4.000000,4.000000,4.000000,4.000000,4.000000,4.000000,4.000000,4.000000,4.000000,4.000000,4.000000,4.000000,100.000000
1602006797.263754,112.000000,0.000000,4111.282227,4125.641113,4123.077148,4122.563965,4137.948730,4138.974121,4125.128418,4139.487305,4140.000000,4167.692383,4145.641113,4138.461426,4154.358887,4138.461426,763.000000,4.000000,,,,0.000000,4.000000,4.000000,4.000000,4.000000,4.000000,4.000000,4.000000,4.000000,4.000000,4.000000,4.000000,4.000000,4.000000,4.000000,100.000000
1602006797.271536,113.000000,0.000000,4102.563965,4116.410156,4117.436035,4119.487305,4136.922852,4132.307617,4121.538574,4137.948730,4137.436035,4162.563965,4139.487305,4127.179688,4145.128418,4128.205078,729.000000,4.000000,,,,0.000000,4.000000,4.000000,4.000000,4.000000,4.000000,4.000000,4.000000,4.000000,4.000000,4.000000,4.000000,4.000000,4.000000,4.000000,100.000000
1602006797.279417,114.000000,0.000000,4095.897461,4115.384766,4118.461426,4118.461426,4137.436035,4118.461426,4121.025879,4138.461426,4139.487305,4167.692383,4136.922852,4123.077148,4136.922852,4128.205078,874.000000,4.000000,,,,0.000000,4.000000,4.000000,4.000000,4.000000,4.000000,4.000000,4.000000,4.000000,4.000000,4.000000,4.000000,4.000000,4.000000,4.000000,100.000000
1602006797.287298,115.000000,0.000000,4100.512695,4121.025879,4128.717773,4121.025879,4138.461426,4120.512695,4131.282227,4150.769043,4153.333496,4165.128418,4151.794922,4136.922852,4149.743652,4137.948730,870.000000,4.000000,,,,0.000000,4.000000,4.000000,4.000000,4.000000,4.000000,4.000000,4.000000,4.000000,4.000000,4.000000,4.000000,4.000000,4.000000,4.000000,100.000000
1602006797.295179,116.000000,0.000000,4118.461426,4125.641113,4129.230957,4126.153809,4141.025879,4127.692383,4138.974121,4153.846191,4152.820313,4146.153809,4155.384766,4144.615234,4161.025879,4140.000000,763.000000,4.000000,,,,0.000000,4.000000,4.000000,4.000000,4.000000,4.000000,4.000000,4.000000,4.000000,4.000000,4.000000,4.000000,4.000000,4.000000,4.000000,100.000000
1602006797.303060,117.000000,0.000000,4121.025879,4124.102539,4120.000000,4124.615234,4138.461426,4120.512695,4129.743652,4144.102539,4134.871582,4142.051270,4137.948730,4136.922852,4146.666504,4136.410156,729.000000,4.000000,,,,0.000000,4.000000,4.000000,4.000000,4.000000,4.000000,4.000000,4.000000,4.000000,4.000000,4.000000,4.000000,4.000000,4.000000,4.000000,100.000000
1602006797.310942,118.000000,0.000000,4111.794922,4124.102539,4119.487305,4122.051270,4136.922852,4126.666504,4127.692383,4147.179688,4133.846191,4162.563965,4137.436035,4134.358887,4140.512695,4141.025879,874.000000,4.000000,,,,0.000000,4.000000,4.000000,4.000000,4.000000,4.000000,4.000000,4.000000,4.000000,4.000000,4.000000,4.000000,4.000000,4.000000,4.000000,100.000000
1602006797.318823,119.000000,0.000000,4116.922852,4127.692383,4123.589844,4125.641113,4144.102539,4146.666504,4137.436035,4155.897461,4146.153809,4176.410156,4153.846191,4141.025879,4153.846191,4142.051270,870.000000,4.000000,,,,0.000000,4.000000,4.000000,4.000000,4.000000,4.000000,4.000000,4.000000,4.000000,4.000000,4.000000,4.000000,4.000000,4.000000,4.000000,100.000000
1602006797.326704,120.000000,0.000000,4118.974121,4124.615234,4123.077148,4125.128418,4143.589844,4140.512695,4129.743652,4147.179688,4140.512695,4162.563965,4155.897461,4146.666504,4156.922852,4136.922852,763.000000,4.000000,,,,0.000000,4.000000,4.000000,4.000000,4.000000,4.000000,4.000000,4.000000,4.000000,4.000000,4.000000,4.000000,4.000000,4.000000,4.000000,100.000000
1602006797.334585,121.000000,0.000000,4112.820313,4125.641113,4129.230957,4126.153809,4136.922852,4129.743652,4118.461426,4133.333496,4131.282227,4140.512695,4150.769043,4151.282227,4149.230957,4136.410156,729.000000,4.000000,,,,0.000000,4.000000,4.000000,4.000000,4.000000,4.000000,4.000000,4.000000,4.000000,4.000000,4.000000,4.000000,4.000000,4.000000,4.000000,100.000000
1602006797.342366,122.000000,0.000000,4116.922852,4136.410156,4140.512695,4136.922852,4145.641113,4143.589844,4130.769043,4133.846191,4141.025879,4131.794922,4153.846191,4154.358887,4154.358887,4137.948730,874.000000,4.000000,,,,0.000000,4.000000,4.000000,4.000000,4.000000,4.000000,4.000000,4.000000,4.000000,4.000000,4.000000,4.000000,4.000000,4.000000,4.000000,100.000000
1602006797.350247,123.000000,0.000000,4118.974121,4135.897461,4142.563965,4136.922852,4152.307617,4149.743652,4142.563965,4146.153809,4158.461426,4141.025879,4155.384766,4155.897461,4163.589844,4141.025879,870.000000,4.000000,,,,0.000000,4.000000,4.000000,4.000000,4.000000,4.000000,4.000000,4.000000,4.000000,4.000000,4.000000,4.000000,4.000000,4.000000,4.000000,100.000000
1602006797.358129,124.000000,0.000000,4109.230957,4124.102539,4132.307617,4125.128418,4143.077148,4140.000000,4139.487305,4152.307617,4166.666504,4156.410156,4147.179688,4155.384766,4151.282227,4137.948730,763.000000,4.000000,,,,0.000000,4.000000,4.000000,4.000000,4.000000,4.000000,4.000000,4.000000,4.000000,4.000000,4.000000,4.000000,4.000000,4.000000,4.000000,100.000000
1602006797.366010,125.000000,0.000000,4104.615234,4118.974121,4122.051270,4121.538574,4139.487305,4137.436035,4138.974121,4147.692383,4165.641113,4169.230957,4138.461426,4150.256348,4135.897461,4126.153809,729.000000,4.000000,,,,0.000000,4.000000,4.000000,4.000000,4.000000,4.000000,4.000000,4.000000,4.000000,4.000000,4.000000,4.000000,4.000000,4.000000,4.000000,100.000000
1602006797.373891,126.000000,0.000000,4110.769043,4120.512695,4126.666504,4124.102539,4140.512695,4134.358887,4135.897461,4142.051270,4159.487305,4170.256348,4136.410156,4150.256348,4141.025879,4125.128418,874.000000,4.000000,,,,0.000000,4.000000,4.000000,4.000000,4.000000,4.000000,4.000000,4.000000,4.000000,4.000000,4.000000,4.000000,4.000000,4.000000,4.000000,100.000000
1602006797.381772,127.000000,0.000000,4117.948730,4125.641113,4135.897461,4124.102539,4135.897461,4123.077148,4123.589844,4140.512695,4148.717773,4159.487305,4135.384766,4158.461426,4152.820313,4136.410156,870.000000,4.000000,,,,0.000000,4.000000,4.000000,4.000000,4.000000,4.000000,4.000000,4.000000,4.000000,4.000000,4.000000,4.000000,4.000000,4.000000,4.000000,100.000000
1602006797.389653,128.000000,0.000000,4123.077148,4135.384766,4139.487305,4132.307617,4134.871582,4121.538574,4118.461426,4140.512695,4140.512695,4151.794922,4136.410156,4168.205078,4152.307617,4141.025879,763.000000,4.000000,,,,0.000000,4.000000,4.000000,4.000000,4.000000,4.000000,4.000000,4.000000,4.000000,4.000000,4.000000,4.000000,4.000000,4.000000,4.000000,100.000000
1602006797.397534,0.000000,0.000000,4125.128418,4137.948730,4141.538574,4136.922852,4136.410156,4130.256348,4118.974121,4137.948730,4136.922852,4145.128418,4142.051270,4172.820313,4151.794922,4138.974121,790.000000,4.000000,,,,0.000000,4.000000,4.000000,4.000000,4.000000,4.000000,4.000000,4.000000,4.000000,4.000000,4.000000,4.000000,4.000000,4.000000,4.000000,100.000000
1602006797.405515,1.000000,0.000000,4126.153809,4131.794922,4144.615234,4131.794922,4140.000000,4135.384766,4115.897461,4129.743652,4134.358887,4134.358887,4142.051270,4167.179688,4153.333496,4137.948730,788.000000,4.000000,,,,0.000000,4.000000,4.000000,4.000000,4.000000,4.000000,4.000000,4.000000,4.000000,4.000000,4.000000,4.000000,4.000000,4.000000,4.000000,100.000000
1602006797.413396,2.000000,0.000000,4123.077148,4127.179688,4137.948730,4127.179688,4146.666504,4140.512695,4121.538574,4123.589844,4133.846191,4127.692383,4136.922852,4156.410156,4145.128418,4131.794922,853.000000,4.000000,,,,0.000000,4.000000,4.000000,4.000000,4.000000,4.000000,4.000000,4.000000,4.000000,4.000000,4.000000,4.000000,4.000000,4.000000,4.000000,100.000000
1602006797.421277,3.000000,0.000000,4117.948730,4125.128418,4130.769043,4124.615234,4143.589844,4143.589844,4135.384766,4124.102539,4134.358887,4131.282227,4135.384766,4150.256348,4136.410156,4123.589844,868.000000,4.000000,,,,0.000000,4.000000,4.000000,4.000000,4.000000,4.000000,4.000000,4.000000,4.000000,4.000000,4.000000,4.000000,4.000000,4.000000,4.000000,100.000000
1602006797.429158,4.000000,0.000000,4119.487305,4123.589844,4134.358887,4126.153809,4136.922852,4135.897461,4138.461426,4124.102539,4134.358887,4138.461426,4131.282227,4149.743652,4135.384766,4121.538574,815.000000,4.000000,,,,0.000000,4.000000,4.000000,4.000000,4.000000,4.000000,4.000000,4.000000,4.000000,4.000000,4.000000,4.000000,4.000000,4.000000,4.000000,100.000000
1602006797.436939,5.000000,0.000000,4120.000000,4124.102539,4137.436035,4128.717773,4137.948730,4122.563965,4133.333496,4122.563965,4136.922852,4143.589844,4121.538574,4149.230957,4138.461426,4122.563965,837.000000,4.000000,,,,0.000000,4.000000,4.000000,4.000000,4.000000,4.000000,4.000000,4.000000,4.000000,4.000000,4.000000,4.000000,4.000000,4.000000,4.000000,100.000000
1602006797.444820,6.000000,0.000000,4120.512695,4129.230957,4136.410156,4127.179688,4140.000000,4118.974121,4128.717773,4124.615234,4140.512695,4137.436035,4124.102539,4149.230957,4139.487305,4126.153809,759.000000,4.000000,,,,0.000000,4.000000,4.000000,4.000000,4.000000,4.000000,4.000000,4.000000,4.000000,4.000000,4.000000,4.000000,4.000000,4.000000,4.000000,100.000000
1602006797.452702,7.000000,0.000000,4123.589844,4136.922852,4136.410156,4129.230957,4136.922852,4121.538574,4116.410156,4125.128418,4136.410156,4121.025879,4134.871582,4150.769043,4142.051270,4126.666504,656.000000,4.000000,,,,0.000000,4.000000,4.000000,4.000000,4.000000,4.000000,4.000000,4.000000,4.000000,4.000000,4.000000,4.000000,4.000000,4.000000,4.000000,100.000000
1602006797.460583,8.000000,0.000000,4125.128418,4138.974121,4137.948730,4134.871582,4137.948730,4115.384766,4103.589844,4122.563965,4136.410156,4127.692383,4135.384766,4151.282227,4147.692383,4124.102539,780.000000,4.000000,,,,0.000000,4.000000,4.000000,4.000000,4.000000,4.000000,4.000000,4.000000,4.000000,4.000000,4.000000,4.000000,4.000000,4.000000,4.000000,100.000000
1602006797.468464,9.000000,0.000000,4123.589844,4138.461426,4135.897461,4137.436035,4148.205078,4116.410156,4103.589844,4124.102539,4148.205078,4152.820313,4136.410156,4154.358887,4156.922852,4131.282227,835.000000,4.000000,,,,0.000000,4.000000,4.000000,4.000000,4.000000,4.000000,4.000000,4.000000,4.000000,4.000000,4.000000,4.000000,4.000000,4.000000,4.000000,100.000000
1602006797.476345,10.000000,0.000000,4128.205078,4138.974121,4137.436035,4136.922852,4155.897461,4132.307617,4110.769043,4126.153809,4144.615234,4152.307617,4143.589844,4156.922852,4158.974121,4142.051270,874.000000,4.000000,,,,0.000000,4.000000,4.000000,4.000000,4.000000,4.000000,4.000000,4.000000,4.000000,4.000000,4.000000,4.000000,4.000000,4.000000,4.000000,100.000000
1602006797.484226,11.000000,0.000000,4130.769043,4137.948730,4147.179688,4136.922852,4147.179688,4136.922852,4110.769043,4123.077148,4123.589844,4135.384766,4140.000000,4155.384766,4149.230957,4141.538574,848.000000,4.000000,,,,0.000000,4.000000,4.000000,4.000000,4.000000,4.000000,4.000000,4.000000,4.000000,4.000000,4.000000,4.000000,4.000000,4.000000,4.000000,100.000000
1602006797.492107,12.000000,0.000000,4126.153809,4137.436035,4151.282227,4137.436035,4135.897461,4129.743652,4111.282227,4120.512695,4118.974121,4138.974121,4135.897461,4155.897461,4140.512695,4135.897461,763.000000,4.000000,,,,0.000000,4.000000,4.000000,4.000000,4.000000,4.000000,4.000000,4.000000,4.000000,4.000000,4.000000,4.000000,4.000000,4.000000,4.000000,100.000000
1602006797.500088,13.000000,0.000000,4124.102539,4134.871582,4143.077148,4135.384766,4137.436035,4127.692383,4118.461426,4121.025879,4127.179688,4140.512695,4138.461426,4157.436035,4139.487305,4130.256348,729.000000,4.000000,,,,0.000000,4.000000,4.000000,4.000000,4.000000,4.000000,4.000000,4.000000,4.000000,4.000000,4.000000,4.000000,4.000000,4.000000,4.000000,100.000000
1602006797.507969,14.000000,0.000000,4118.461426,4125.641113,4131.282227,4125.641113,4133.846191,4127.179688,4128.717773,4121.538574,4122.563965,4126.666504,4129.230957,4150.256348,4135.384766,4116.410156,874.000000,4.000000,,,,0.000000,4.000000,4.000000,4.000000,4.000000,4.000000,4.000000,4.000000,4.000000,4.000000,4.000000,4.000000,4.000000,4.000000,4.000000,100.000000
1602006797.515850,15.000000,0.000000,4105.641113,4118.974121,4121.025879,4118.461426,4124.102539,4122.051270,4140.000000,4120.512695,4115.897461,4123.077148,4119.487305,4138.974121,4123.589844,4106.153809,848.000000,4.000000,,,,0.000000,4.000000,4.000000,4.000000,4.000000,4.000000,4.000000,4.000000,4.000000,4.000000,4.000000,4.000000,4.000000,4.000000,4.000000,100.000000
1602006797.523731,16.000000,0.000000,4102.563965,4121.538574,4110.769043,4122.563965,4121.538574,4120.512695,4139.487305,4122.563965,4121.538574,4122.051270,4126.666504,4135.897461,4125.128418,4109.743652,0.000000,4.000000,,,,0.000000,4.000000,4.000000,4.000000,4.000000,4.000000,4.000000,4.000000,4.000000,4.000000,4.000000,4.000000,4.000000,4.000000,4.000000,100.000000
1602006797.531612,17.000000,0.000000,4105.128418,4122.563965,4105.641113,4123.589844,4123.589844,4114.871582,4124.102539,4122.563965,4127.692383,4122.051270,4131.794922,4135.384766,4138.461426,4111.794922,0.000000,4.000000,,,,0.000000,4.000000,4.000000,4.000000,4.000000,4.000000,4.000000,4.000000,4.000000,4.000000,4.000000,4.000000,4.000000,4.000000,4.000000,100.000000
1602006797.539393,18.000000,0.000000,4102.563965,4121.538574,4112.307617,4118.974121,4123.589844,4102.051270,4109.230957,4122.051270,4127.692383,4132.307617,4123.077148,4132.820313,4140.512695,4109.743652,0.000000,4.000000,,,,0.000000,4.000000,4.000000,4.000000,4.000000,4.000000,4.000000,4.000000,4.000000,4.000000,4.000000,4.000000,4.000000,4.000000,4.000000,100.000000
1602006797.547274,19.000000,0.000000,4112.307617,4129.230957,4129.230957,4121.538574,4127.179688,4108.205078,4104.615234,4122.563965,4133.333496,4137.948730,4121.538574,4140.512695,4137.436035,4117.948730,0.000000,4.000000,,,,0.000000,4.000000,4.000000,4.000000,4.000000,4.000000,4.000000,4.000000,4.000000,4.000000,4.000000,4.000000,4.000000,4.000000,4.000000,100.000000
1602006797.555156,20.000000,0.000000,4125.128418,4140.512695,4139.487305,4129.230957,4135.897461,4122.563965,4105.641113,4121.025879,4148.205078,4145.641113,4134.871582,4151.794922,4140.000000,4130.769043,0.000000,4.000000,,,,0.000000,4.000000,4.000000,4.000000,4.000000,4.000000,4.000000,4.000000,4.000000,4.000000,4.000000,4.000000,4.000000,4.000000,4.000000,100.000000
1602006797.563037,21.000000,0.000000,4118.974121,4136.410156,4127.692383,4129.743652,4138.974121,4120.512695,4105.641113,4125.641113,4158.974121,4159.487305,4141.538574,4152.820313,4147.179688,4130.769043,0.000000,4.000000,,,,0.000000,4.000000,4.000000,4.000000,4.000000,4.000000,4.000000,4.000000,4.000000,4.000000,4.000000,4.000000,4.000000,4.000000,4.000000,100.000000
1602006797.570918,22.000000,0.000000,4111.282227,4124.102539,4112.820313,4121.538574,4135.384766,4114.358887,4105.641113,4135.384766,4154.871582,4158.461426,4135.897461,4150.769043,4151.794922,4130.256348,0.000000,4.000000,,,,0.000000,4.000000,4.000000,4.000000,4.000000,4.000000,4.000000,4.000000,4.000000,4.000000,4.000000,4.000000,4.000000,4.000000,4.000000,100.000000
1602006797.578799,23.000000,0.000000,4121.538574,4127.692383,4118.974121,4118.974121,4135.897461,4125.641113,4116.922852,4140.512695,4146.666504,4156.410156,4137.436035,4152.820313,4152.820313,4135.384766,0.000000,4.000000,,,,0.000000,4.000000,4.000000,4.000000,4.000000,4.000000,4.000000,4.000000,4.000000,4.000000,4.000000,4.000000,4.000000,4.000000,4.000000,100.000000
1602006797.586680,24.000000,0.000000,4135.897461,4142.051270,4136.410156,4132.307617,4142.051270,4142.563965,4136.410156,4141.025879,4143.077148,4167.179688,4142.051270,4160.000000,4162.563965,4140.512695,0.000000,4.000000,,,,0.000000,4.000000,4.000000,4.000000,4.000000,4.000000,4.000000,4.000000,4.000000,4.000000,4.000000,4.000000,4.000000,4.000000,4.000000,100.000000
1602006797.594561,25.000000,0.000000,4137.948730,4145.128418,4146.666504,4140.000000,4136.410156,4142.563965,4143.589844,4138.461426,4129.230957,4149.230957,4135.384766,4169.230957,4170.256348,4143.589844,0.000000,4.000000,,,,0.000000,4.000000,4.000000,4.000000,4.000000,4.000000,4.000000,4.000000,4.000000,4.000000,4.000000,4.000000,4.000000,4.000000,4.000000,100.000000
1602006797.602542,26.000000,0.000000,4127.692383,4133.333496,4140.512695,4128.205078,4121.538574,4122.051270,4136.922852,4126.153809,4108.205078,4112.307617,4132.307617,4162.051270,4151.794922,4135.897461,0.000000,4.000000,,,,0.000000,4.000000,4.000000,4.000000,4.000000,4.000000,4.000000,4.000000,4.000000,4.000000,4.000000,4.000000,4.000000,4.000000,4.000000,100.000000
1602006797.610423,27.000000,0.000000,4113.846191,4121.538574,4127.692383,4117.436035,4116.410156,4105.128418,4133.333496,4114.871582,4107.179688,4118.461426,4134.358887,4139.487305,4127.692383,4121.538574,0.000000,4.000000,,,,0.000000,4.000000,4.000000,4.000000,4.000000,4.000000,4.000000,4.000000,4.000000,4.000000,4.000000,4.000000,4.000000,4.000000,4.000000,100.000000
1602006797.618304,28.000000,0.000000,4110.256348,4118.974121,4121.538574,4120.000000,4121.538574,4112.820313,4131.282227,4120.000000,4129.743652,4140.512695,4129.230957,4133.846191,4127.692383,4112.307617,0.000000,4.000000,,,,0.000000,4.000000,4.000000,4.000000,4.000000,4.000000,4.000000,4.000000,4.000000,4.000000,4.000000,4.000000,4.000000,4.000000,4.000000,100.000000
1602006797.626185,29.000000,0.000000,4117.436035,4124.615234,4123.077148,4123.589844,4127.179688,4121.538574,4126.153809,4132.820313,4146.666504,4138.461426,4129.743652,4150.256348,4141.025879,4118.974121,0.000000,4.000000,,,,0.000000,4.000000,4.000000,4.000000,4.000000,4.000000,4.000000,4.000000,4.000000,4.000000,4.000000,4.000000,4.000000,4.000000,4.000000,100.000000
1602006797.634066,30.000000,0.000000,4125.128418,4132.307617,4130.256348,4124.615234,4126.666504,4109.743652,4120.000000,4134.871582,4153.333496,4149.230957,4143.589844,4158.461426,4151.282227,4133.846191,0.000000,4.000000,,,,0.000000,4.000000,4.000000,4.000000,4.000000,4.000000,4.000000,4.000000,4.000000,4.000000,4.000000,4.000000,4.000000,4.000000,4.000000,100.000000
1602006797.641947,31.000000,0.000000,4127.179688,4135.897461,4138.461426,4126.153809,4124.615234,4098.461426,4111.794922,4127.692383,4154.871582,4176.410156,4153.333496,4154.358887,4156.410156,4138.974121,0.000000,4.000000,,,,0.000000,4.000000,4.000000,4.000000,4.000000,4.000000,4.000000,4.000000,4.000000,4.000000,4.000000,4.000000,4.000000,4.000000,4.000000,100.000000
1602006797.649828,32.000000,0.000000,4127.692383,4137.436035,4141.025879,4130.769043,4131.794922,4109.743652,4107.692383,4123.589844,4144.615234,4164.102539,4154.871582,4153.333496,4155.384766,4137.948730,0.000000,4.000000,,,,0.000000,4.000000,4.000000,4.000000,4.000000,4.000000,4.000000,4.000000,4.000000,4.000000,4.000000,4.000000,4.000000,4.000000,4.000000,100.000000
1602006797.657609,33.000000,0.000000,4136.410156,4142.563965,4140.512695,4138.461426,4143.077148,4132.307617,4113.333496,4130.769043,4142.051270,4137.948730,4154.871582,4157.436035,4157.436035,4148.717773,0.000000,4.000000,,,,0.000000,4.000000,4.000000,4.000000,4.000000,4.000000,4.000000,4.000000,4.000000,4.000000,4.000000,4.000000,4.000000,4.000000,4.000000,100.000000
1602006797.665490,34.000000,0.000000,4138.974121,4145.128418,4138.974121,4140.000000,4143.077148,4137.436035,4119.487305,4138.461426,4155.897461,4147.179688,4154.871582,4157.436035,4158.461426,4154.358887,0.000000,4.000000,,,,0.000000,4.000000,4.000000,4.000000,4.000000,4.000000,4.000000,4.000000,4.000000,4.000000,4.000000,4.000000,4.000000,4.000000,4.000000,100.000000
1602006797.673371,35.000000,0.000000,4130.256348,4141.025879,4137.948730,4134.871582,4138.974121,4123.589844,4118.461426,4134.871582,4153.846191,4160.000000,4158.974121,4153.846191,4156.922852,4141.538574,0.000000,4.000000,,,,0.000000,4.000000,4.000000,4.000000,4.000000,4.000000,4.000000,4.000000,4.000000,4.000000,4.000000,4.000000,4.000000,4.000000,4.000000,100.000000
1602006797.681252,36.000000,0.000000,4126.153809,4138.461426,4132.820313,4131.282227,4138.974121,4115.897461,4117.436035,4123.589844,4137.436035,4149.230957,4156.922852,4152.307617,4156.922852,4135.897461,0.000000,4.000000,,,,0.000000,4.000000,4.000000,4.000000,4.000000,4.000000,4.000000,4.000000,4.000000,4.000000,4.000000,4.000000,4.000000,4.000000,4.000000,100.000000
1602006797.689133,37.000000,0.000000,4126.153809,4137.436035,4127.179688,4126.666504,4137.948730,4122.563965,4123.589844,4118.461426,4133.333496,4148.205078,4154.358887,4152.307617,4155.384766,4141.025879,0.000000,4.000000,,,,0.000000,4.000000,4.000000,4.000000,4.000000,4.000000,4.000000,4.000000,4.000000,4.000000,4.000000,4.000000,4.000000,4.000000,4.000000,100.000000
1602006797.697013,38.000000,0.000000,4125.641113,4135.897461,4130.256348,4126.153809,4135.897461,4121.538574,4136.922852,4130.769043,4144.102539,4169.230957,4161.538574,4154.358887,4158.461426,4141.025879,0.000000,4.000000,,,,0.000000,4.000000,4.000000,4.000000,4.000000,4.000000,4.000000,4.000000,4.000000,4.000000,4.000000,4.000000,4.000000,4.000000,4.000000,100.000000
1602006797.704994,39.000000,0.000000,4134.871582,4141.538574,4140.512695,4136.410156,4138.461426,4119.487305,4146.153809,4147.179688,4160.000000,4176.922852,4167.179688,4156.410156,4170.256348,4139.487305,0.000000,4.000000,,,,0.000000,4.000000,4.000000,4.000000,4.000000,4.000000,4.000000,4.000000,4.000000,4.000000,4.000000,4.000000,4.000000,4.000000,4.000000,100.000000
1602006797.712876,40.000000,0.000000,4141.538574,4146.153809,4144.615234,4141.538574,4141.025879,4129.743652,4146.666504,4148.205078,4170.256348,4165.128418,4168.205078,4156.922852,4172.307617,4140.000000,0.000000,4.000000,,,,0.000000,4.000000,4.000000,4.000000,4.000000,4.000000,4.000000,4.000000,4.000000,4.000000,4.000000,4.000000,4.000000,4.000000,4.000000,100.000000
1602006797.720757,41.000000,0.000000,4125.641113,4137.948730,4137.948730,4131.282227,4135.897461,4131.282227,4145.641113,4139.487305,4158.974121,4156.410156,4164.102539,4154.871582,4153.846191,4140.512695,0.000000,4.000000,,,,0.000000,4.000000,4.000000,4.000000,4.000000,4.000000,4.000000,4.000000,4.000000,4.000000,4.000000,4.000000,4.000000,4.000000,4.000000,100.000000
1602006797.728638,42.000000,0.000000,4109.743652,4125.641113,4132.307617,4121.025879,4126.666504,4122.563965,4139.487305,4137.948730,4139.487305,4149.230957,4152.307617,4146.666504,4139.487305,4138.461426,0.000000,4.000000,,,,0.000000,4.000000,4.000000,4.000000,4.000000,4.000000,4.000000,4.000000,4.000000,4.000000,4.000000,4.000000,4.000000,4.000000,4.000000,100.000000
1602006797.736519,43.000000,0.000000,4117.436035,4123.077148,4134.871582,4122.563965,4121.538574,4128.205078,4131.282227,4136.410156,4134.358887,4147.692383,4146.666504,4141.538574,4142.051270,4134.358887,0.000000,4.000000,,,,0.000000,4.000000,4.000000,4.000000,4.000000,4.000000,4.000000,4.000000,4.000000,4.000000,4.000000,4.000000,4.000000,4.000000,4.000000,100.000000
1602006797.744400,44.000000,0.000000,4125.641113,4130.256348,4138.461426,4127.179688,4125.128418,4137.948730,4127.179688,4124.102539,4137.436035,4146.153809,4153.846191,4147.179688,4143.589844,4136.922852,0.000000,4.000000,,,,0.000000,4.000000,4.000000,4.000000,4.000000,4.000000,4.000000,4.000000,4.000000,4.000000,4.000000,4.000000,4.000000,4.000000,4.000000,100.000000
1602006797.752281,45.000000,0.000000,4124.102539,4136.922852,4138.461426,4129.230957,4131.794922,4132.820313,4123.589844,4118.461426,4136.410156,4137.948730,4155.897461,4154.358887,4141.025879,4142.051270,0.000000,4.000000,,,,0.000000,4.000000,4.000000,4.000000,4.000000,4.000000,4.000000,4.000000,4.000000,4.000000,4.000000,4.000000,4.000000,4.000000,4.000000,100.000000
1602006797.760163,46.000000,0.000000,4127.179688,4135.384766,4140.000000,4131.794922,4136.410156,4133.333496,4120.512695,4126.666504,4131.794922,4144.102539,4154.871582,4154.871582,4144.615234,4139.487305,0.000000,4.000000,,,,0.000000,4.000000,4.000000,4.000000,4.000000,4.000000,4.000000,4.000000,4.000000,4.000000,4.000000,4.000000,4.000000,4.000000,4.000000,100.000000
1602006797.768044,47.000000,0.000000,4124.615234,4127.692383,4137.436035,4127.692383,4138.461426,4145.641113,4122.051270,4124.615234,4125.641113,4159.487305,4152.307617,4145.128418,4144.615234,4127.692383,0.000000,4.000000,,,,0.000000,4.000000,4.000000,4.000000,4.000000,4.000000,4.000000,4.000000,4.000000,4.000000,4.000000,4.000000,4.000000,4.000000,4.000000,100.000000
1602006797.776025,48.000000,0.000000,4105.128418,4116.922852,4122.051270,4116.922852,4131.282227,4144.615234,4121.538574,4109.743652,4112.307617,4138.461426,4135.897461,4130.769043,4126.666504,4112.307617,0.000000,4.000000,,,,0.000000,4.000000,4.000000,4.000000,4.000000,4.000000,4.000000,4.000000,4.000000,4.000000,4.000000,4.000000,4.000000,4.000000,4.000000,100.000000
1602006797.783906,49.000000,0.000000,4094.358887,4111.794922,4108.717773,4111.282227,4123.589844,4136.410156,4124.102539,4106.153809,4099.487305,4110.769043,4129.230957,4122.563965,4109.743652,4101.538574,0.000000,4.000000,,,,0.000000,4.000000,4.000000,4.000000,4.000000,4.000000,4.000000,4.000000,4.000000,4.000000,4.000000,4.000000,4.000000,4.000000,4.000000,100.000000
1602006797.791787,50.000000,0.000000,4106.666504,4118.461426,4111.794922,4115.897461,4129.743652,4135.897461,4135.897461,4120.000000,4109.743652,4128.205078,4136.922852,4123.589844,4120.000000,4102.563965,0.000000,4.000000,,,,0.000000,4.000000,4.000000,4.000000,4.000000,4.000000,4.000000,4.000000,4.000000,4.000000,4.000000,4.000000,4.000000,4.000000,4.000000,100.000000
1602006797.799668,51.000000,0.000000,4118.461426,4130.769043,4120.512695,4124.615234,4133.846191,4135.897461,4143.589844,4134.358887,4135.384766,4144.615234,4139.487305,4124.615234,4139.487305,4113.333496,0.000000,4.000000,,,,0.000000,4.000000,4.000000,4.000000,4.000000,4.000000,4.000000,4.000000,4.000000,4.000000,4.000000,4.000000,4.000000,4.000000,4.000000,100.000000
1602006797.807550,52.000000,0.000000,4121.025879,4138.461426,4124.615234,4131.794922,4129.230957,4136.410156,4140.512695,4139.487305,4146.153809,4139.487305,4145.641113,4126.153809,4142.051270,4121.538574,0.000000,4.000000,,,,0.000000,4.000000,4.000000,4.000000,4.000000,4.000000,4.000000,4.000000,4.000000,4.000000,4.000000,4.000000,4.000000,4.000000,4.000000,100.000000
1602006797.815431,53.000000,0.000000,4122.563965,4140.000000,4128.205078,4135.384766,4132.820313,4136.922852,4137.436035,4140.512695,4140.000000,4149.743652,4152.820313,4132.307617,4141.025879,4126.153809,0.000000,4.000000,,,,0.000000,4.000000,4.000000,4.000000,4.000000,4.000000,4.000000,4.000000,4.000000,4.000000,4.000000,4.000000,4.000000,4.000000,4.000000,100.000000
1602006797.823312,54.000000,0.000000,4125.128418,4139.487305,4135.897461,4136.922852,4140.000000,4133.846191,4132.820313,4133.846191,4135.897461,4161.538574,4154.871582,4137.436035,4150.256348,4131.794922,0.000000,4.000000,,,,0.000000,4.000000,4.000000,4.000000,4.000000,4.000000,4.000000,4.000000,4.000000,4.000000,4.000000,4.000000,4.000000,4.000000,4.000000,100.000000
1602006797.831193,55.000000,0.000000,4132.307617,4141.025879,4142.051270,4140.000000,4136.922852,4134.871582,4121.538574,4124.102539,4138.974121,4154.358887,4154.358887,4140.512695,4160.000000,4138.974121,0.000000,4.000000,,,,0.000000,4.000000,4.000000,4.000000,4.000000,4.000000,4.000000,4.000000,4.000000,4.000000,4.000000,4.000000,4.000000,4.000000,4.000000,100.000000
1602006797.839074,56.000000,0.000000,4137.948730,4141.538574,4140.512695,4134.358887,4133.846191,4137.948730,4110.769043,4120.512695,4137.948730,4144.102539,4148.205078,4141.025879,4156.922852,4147.179688,0.000000,4.000000,,,,0.000000,4.000000,4.000000,4.000000,4.000000,4.000000,4.000000,4.000000,4.000000,4.000000,4.000000,4.000000,4.000000,4.000000,4.000000,100.000000
1602006797.846855,57.000000,0.000000,4136.410156,4138.974121,4138.461426,4124.615234,4137.436035,4130.256348,4108.205078,4120.512695,4136.410156,4140.000000,4145.641113,4140.512695,4151.794922,4152.820313,0.000000,4.000000,,,,0.000000,4.000000,4.000000,4.000000,4.000000,4.000000,4.000000,4.000000,4.000000,4.000000,4.000000,4.000000,4.000000,4.000000,4.000000,100.000000
1602006797.854736,58.000000,0.000000,4136.410156,4140.000000,4140.000000,4130.256348,4137.436035,4120.512695,4108.205078,4122.563965,4141.538574,4145.128418,4150.769043,4143.077148,4154.871582,4156.410156,0.000000,4.000000,,,,0.000000,4.000000,4.000000,4.000000,4.000000,4.000000,4.000000,4.000000,4.000000,4.000000,4.000000,4.000000,4.000000,4.000000,4.000000,100.000000
1602006797.862617,59.000000,0.000000,4142.563965,4142.563965,4143.077148,4137.948730,4130.256348,4124.615234,4110.769043,4123.077148,4143.077148,4153.846191,4148.205078,4146.666504,4150.769043,4154.358887,0.000000,4.000000,,,,0.000000,4.000000,4.000000,4.000000,4.000000,4.000000,4.000000,4.000000,4.000000,4.000000,4.000000,4.000000,4.000000,4.000000,4.000000,100.000000
1602006797.870498,60.000000,0.000000,4135.384766,4138.974121,4141.025879,4129.230957,4123.589844,4132.820313,4121.025879,4123.589844,4134.358887,4141.538574,4131.282227,4141.025879,4137.436035,4138.974121,0.000000,4.000000,,,,0.000000,4.000000,4.000000,4.000000,4.000000,4.000000,4.000000,4.000000,4.000000,4.000000,4.000000,4.000000,4.000000,4.000000,4.000000,100.000000
1602006797.878379,61.000000,0.000000,4116.410156,4129.743652,4128.717773,4121.025879,4121.538574,4130.256348,4134.871582,4130.256348,4130.769043,4127.692383,4120.512695,4128.717773,4130.769043,4121.025879,0.000000,4.000000,,,,0.000000,4.000000,4.000000,4.000000,4.000000,4.000000,4.000000,4.000000,4.000000,4.000000,4.000000,4.000000,4.000000,4.000000,4.000000,100.000000
1602006797.886260,62.000000,0.000000,4112.307617,4126.153809,4119.487305,4122.563965,4124.102539,4124.615234,4141.025879,4143.589844,4140.512695,4140.512695,4126.666504,4122.563965,4133.846191,4117.948730,0.000000,4.000000,,,,0.000000,4.000000,4.000000,4.000000,4.000000,4.000000,4.000000,4.000000,4.000000,4.000000,4.000000,4.000000,4.000000,4.000000,4.000000,100.000000
1602006797.894141,63.000000,0.000000,4120.512695,4130.256348,4123.077148,4123.589844,4125.641113,4127.692383,4143.589844,4145.641113,4138.461426,4141.538574,4136.410156,4124.615234,4136.922852,4122.563965,0.000000,4.000000,,,,0.000000,4.000000,4.000000,4.000000,4.000000,4.000000,4.000000,4.000000,4.000000,4.000000,4.000000,4.000000,4.000000,4.000000,4.000000,100.000000
1602006797.901922,64.000000,0.000000,4121.025879,4128.205078,4125.128418,4122.051270,4123.077148,4129.230957,4134.871582,4131.794922,4121.025879,4124.615234,4130.769043,4122.051270,4131.794922,4119.487305,790.000000,4.000000,,,,0.000000,4.000000,4.000000,4.000000,4.000000,4.000000,4.000000,4.000000,4.000000,4.000000,4.000000,4.000000,4.000000,4.000000,4.000000,100.000000
1602006797.909802,65.000000,0.000000,4117.436035,4123.077148,4113.846191,4120.000000,4126.666504,4113.846191,4115.897461,4121.025879,4113.846191,4131.794922,4120.512695,4114.871582,4123.589844,4118.461426,788.000000,4.000000,,,,0.000000,4.000000,4.000000,4.000000,4.000000,4.000000,4.000000,4.000000,4.000000,4.000000,4.000000,4.000000,4.000000,4.000000,4.000000,100.000000
1602006797.917783,66.000000,0.000000,4122.563965,4129.230957,4112.820313,4125.641113,4136.410156,4108.205078,4107.179688,4120.512695,4127.179688,4152.820313,4128.717773,4118.974121,4127.179688,4117.436035,853.000000,4.000000,,,,0.000000,4.000000,4.000000,4.000000,4.000000,4.000000,4.000000,4.000000,4.000000,4.000000,4.000000,4.000000,4.000000,4.000000,4.000000,100.000000
1602006797.925664,67.000000,0.000000,4126.666504,4139.487305,4130.256348,4138.461426,4138.974121,4128.717773,4109.743652,4122.563965,4137.948730,4157.436035,4139.487305,4132.820313,4138.974121,4120.512695,868.000000,4.000000,,,,0.000000,4.000000,4.000000,4.000000,4.000000,4.000000,4.000000,4.000000,4.000000,4.000000,4.000000,4.000000,4.000000,4.000000,4.000000,100.000000
1602006797.933545,68.000000,0.000000,4125.641113,4138.974121,4138.461426,4138.461426,4134.358887,4135.897461,4111.282227,4127.692383,4138.974121,4162.051270,4144.615234,4144.102539,4140.512695,4132.307617,815.000000,4.000000,,,,0.000000,4.000000,4.000000,4.000000,4.000000,4.000000,4.000000,4.000000,4.000000,4.000000,4.000000,4.000000,4.000000,4.000000,4.000000,100.000000
1602006797.941426,69.000000,0.000000,4131.794922,4137.948730,4140.512695,4134.358887,4136.922852,4126.153809,4114.358887,4136.410156,4148.717773,4164.615234,4151.282227,4151.282227,4140.000000,4141.025879,828.000000,4.000000,,,,0.000000,4.000000,4.000000,4.000000,4.000000,4.000000,4.000000,4.000000,4.000000,4.000000,4.000000,4.000000,4.000000,4.000000,4.000000,100.000000
1602006797.949307,70.000000,0.000000,4139.487305,4141.538574,4149.230957,4135.384766,4135.897461,4131.282227,4122.051270,4142.563965,4154.358887,4140.512695,4152.307617,4153.846191,4143.077148,4141.025879,759.000000,4.000000,,,,0.000000,4.000000,4.000000,4.000000,4.000000,4.000000,4.000000,4.000000,4.000000,4.000000,4.000000,4.000000,4.000000,4.000000,4.000000,100.000000
1602006797.957288,71.000000,0.000000,4136.410156,4135.897461,4149.230957,4128.717773,4125.641113,4136.922852,4125.641113,4140.000000,4138.974121,4124.615234,4140.512695,4143.077148,4134.358887,4136.922852,656.000000,4.000000,,,,0.000000,4.000000,4.000000,4.000000,4.000000,4.000000,4.000000,4.000000,4.000000,4.000000,4.000000,4.000000,4.000000,4.000000,4.000000,100.000000
1602006797.965169,72.000000,0.000000,4128.717773,4125.641113,4136.922852,4121.025879,4124.102539,4131.282227,4129.743652,4133.846191,4125.641113,4144.615234,4126.153809,4130.256348,4122.563965,4127.179688,780.000000,4.000000,,,,0.000000,4.000000,4.000000,4.000000,4.000000,4.000000,4.000000,4.000000,4.000000,4.000000,4.000000,4.000000,4.000000,4.000000,4.000000,100.000000
1602006797.973050,73.000000,0.000000,4127.179688,4123.589844,4132.307617,4122.563965,4131.794922,4132.820313,4137.436035,4132.307617,4127.179688,4156.922852,4127.692383,4131.794922,4124.615234,4123.077148,835.000000,4.000000,,,,0.000000,4.000000,4.000000,4.000000,4.000000,4.000000,4.000000,4.000000,4.000000,4.000000,4.000000,4.000000,4.000000,4.000000,4.000000,100.000000
1602006797.980931,74.000000,0.000000,4126.666504,4125.641113,4136.410156,4123.589844,4136.922852,4141.538574,4142.051270,4140.000000,4128.205078,4146.666504,4136.922852,4140.000000,4135.384766,4131.794922,874.000000,4.000000,,,,0.000000,4.000000,4.000000,4.000000,4.000000,4.000000,4.000000,4.000000,4.000000,4.000000,4.000000,4.000000,4.000000,4.000000,4.000000,100.000000
1602006797.988812,75.000000,0.000000,4124.615234,4126.153809,4140.000000,4123.589844,4132.307617,4139.487305,4142.563965,4144.615234,4126.153809,4138.974121,4140.512695,4144.615234,4137.948730,4132.820313,843.000000,4.000000,,,,0.000000,4.000000,4.000000,4.000000,4.000000,4.000000,4.000000,4.000000,4.000000,4.000000,4.000000,4.000000,4.000000,4.000000,4.000000,100.000000
1602006797.996694,76.000000,0.000000,4121.538574,4123.077148,4137.948730,4123.589844,4124.102539,4124.615234,4134.358887,4131.794922,4121.025879,4129.230957,4134.358887,4132.820313,4125.641113,4118.461426,763.000000,4.000000,,,,0.000000,4.000000,4.000000,4.000000,4.000000,4.000000,4.000000,4.000000,4.000000,4.000000,4.000000,4.000000,4.000000,4.000000,4.000000,100.000000
1602006798.004575,77.000000,0.000000,4118.461426,4119.487305,4132.820313,4119.487305,4120.512695,4112.820313,4121.538574,4124.615234,4117.436035,4123.589844,4131.282227,4118.974121,4117.948730,4119.487305,729.000000,4.000000,,,,0.000000,4.000000,4.000000,4.000000,4.000000,4.000000,4.000000,4.000000,4.000000,4.000000,4.000000,4.000000,4.000000,4.000000,4.000000,100.000000
1602006798.012456,78.000000,0.000000,4128.717773,4129.743652,4136.410156,4126.153809,4123.077148,4116.922852,4118.461426,4135.384766,4131.794922,4142.563965,4136.922852,4128.717773,4130.769043,4139.487305,874.000000,4.000000,,,,0.000000,4.000000,4.000000,4.000000,4.000000,4.000000,4.000000,4.000000,4.000000,4.000000,4.000000,4.000000,4.000000,4.000000,4.000000,100.000000
1602006798.020337,79.000000,0.000000,4142.051270,4144.615234,4143.077148,4138.974121,4126.153809,4123.589844,4120.000000,4137.436035,4143.077148,4168.717773,4141.025879,4138.974121,4141.538574,4149.230957,843.000000,4.000000,,,,0.000000,4.000000,4.000000,4.000000,4.000000,4.000000,4.000000,4.000000,4.000000,4.000000,4.000000,4.000000,4.000000,4.000000,4.000000,100.000000
1602006798.028118,80.000000,0.000000,4141.538574,4144.102539,4136.410156,4139.487305,4128.205078,4125.641113,4114.871582,4126.666504,4134.871582,4171.794922,4137.948730,4129.743652,4136.922852,4142.563965,763.000000,4.000000,,,,0.000000,4.000000,4.000000,4.000000,4.000000,4.000000,4.000000,4.000000,4.000000,4.000000,4.000000,4.000000,4.000000,4.000000,4.000000,100.000000
1602006798.036000,81.000000,0.000000,4137.436035,4138.974121,4130.769043,4130.769043,4129.743652,4132.820313,4114.358887,4125.128418,4130.769043,4150.256348,4135.897461,4126.666504,4132.820313,4139.487305,729.000000,4.000000,,,,0.000000,4.000000,4.000000,4.000000,4.000000,4.000000,4.000000,4.000000,4.000000,4.000000,4.000000,4.000000,4.000000,4.000000,4.000000,100.000000
1602006798.043881,82.000000,0.000000,4140.512695,4139.487305,4134.871582,4128.717773,4125.641113,4138.974121,4121.025879,4129.230957,4131.794922,4134.871582,4135.384766,4140.512695,4138.461426,4141.538574,874.000000,4.000000,,,,0.000000,4.000000,4.000000,4.000000,4.000000,4.000000,4.000000,4.000000,4.000000,4.000000,4.000000,4.000000,4.000000,4.000000,4.000000,100.000000
1602006798.051762,83.000000,0.000000,4142.051270,4138.461426,4140.512695,4130.256348,4122.563965,4134.871582,4120.512695,4128.717773,4115.897461,4138.974121,4136.410156,4144.102539,4137.948730,4141.025879,843.000000,4.000000,,,,0.000000,4.000000,4.000000,4.000000,4.000000,4.000000,4.000000,4.000000,4.000000,4.000000,4.000000,4.000000,4.000000,4.000000,4.000000,100.000000
1602006798.059643,84.000000,0.000000,4136.922852,4130.769043,4137.948730,4125.641113,4124.102539,4126.666504,4117.436035,4124.102539,4101.025879,4134.871582,4136.410156,4131.282227,4127.692383,4138.461426,763.000000,4.000000,,,,0.000000,4.000000,4.000000,4.000000,4.000000,4.000000,4.000000,4.000000,4.000000,4.000000,4.000000,4.000000,4.000000,4.000000,4.000000,100.000000
1602006798.067524,85.000000,0.000000,4129.230957,4121.025879,4130.256348,4119.487305,4116.922852,4120.512695,4120.000000,4122.051270,4107.692383,4126.666504,4131.282227,4121.025879,4118.461426,4136.922852,729.000000,4.000000,,,,0.000000,4.000000,4.000000,4.000000,4.000000,4.000000,4.000000,4.000000,4.000000,4.000000,4.000000,4.000000,4.000000,4.000000,4.000000,100.000000
1602006798.075405,86.000000,0.000000,4124.102539,4118.461426,4126.666504,4117.436035,4105.641113,4119.487305,4130.769043,4129.230957,4121.538574,4143.589844,4128.717773,4125.128418,4118.974121,4136.922852,874.000000,4.000000,,,,0.000000,4.000000,4.000000,4.000000,4.000000,4.000000,4.000000,4.000000,4.000000,4.000000,4.000000,4.000000,4.000000,4.000000,4.000000,100.000000
1602006798.083287,87.000000,0.000000,4128.717773,4120.000000,4129.743652,4118.974121,4109.743652,4118.461426,4137.436035,4140.000000,4130.256348,4153.333496,4133.333496,4136.922852,4127.179688,4139.487305,843.000000,4.000000,,,,0.000000,4.000000,4.000000,4.000000,4.000000,4.000000,4.000000,4.000000,4.000000,4.000000,4.000000,4.000000,4.000000,4.000000,4.000000,100.000000
1602006798.091267,88.000000,0.000000,4136.922852,4124.102539,4131.794922,4121.538574,4120.512695,4118.461426,4132.307617,4142.563965,4138.974121,4143.077148,4135.384766,4140.000000,4134.358887,4141.538574,763.000000,4.000000,,,,0.000000,4.000000,4.000000,4.000000,4.000000,4.000000,4.000000,4.000000,4.000000,4.000000,4.000000,4.000000,4.000000,4.000000,4.000000,100.000000
1602006798.099148,89.000000,0.000000,4137.948730,4133.846191,4127.179688,4123.589844,4122.051270,4125.641113,4125.641113,4142.563965,4142.563965,4147.692383,4140.512695,4139.487305,4140.000000,4144.102539,729.000000,4.000000,,,,0.000000,4.000000,4.000000,4.000000,4.000000,4.000000,4.000000,4.000000,4.000000,4.000000,4.000000,4.000000,4.000000,4.000000,4.000000,100.000000
1602006798.107029,90.000000,0.000000,4128.717773,4134.871582,4122.051270,4121.538574,4121.025879,4124.615234,4123.589844,4142.563965,4135.384766,4158.461426,4143.077148,4141.025879,4141.538574,4142.563965,874.000000,4.000000,,,,0.000000,4.000000,4.000000,4.000000,4.000000,4.000000,4.000000,4.000000,4.000000,4.000000,4.000000,4.000000,4.000000,4.000000,4.000000,100.000000
1602006798.114910,91.000000,0.000000,4120.000000,4123.589844,4123.077148,4119.487305,4121.025879,4119.487305,4121.538574,4138.974121,4130.256348,4153.846191,4132.307617,4133.333496,4131.794922,4135.897461,843.000000,4.000000,,,,0.000000,4.000000,4.000000,4.000000,4.000000,4.000000,4.000000,4.000000,4.000000,4.000000,4.000000,4.000000,4.000000,4.000000,4.000000,100.000000
1602006798.122791,92.000000,0.000000,4126.666504,4126.666504,4126.153809,4122.051270,4121.538574,4132.307617,4117.436035,4131.282227,4129.230957,4152.820313,4123.077148,4123.077148,4123.077148,4134.871582,763.000000,4.000000,,,,0.000000,4.000000,4.000000,4.000000,4.000000,4.000000,4.000000,4.000000,4.000000,4.000000,4.000000,4.000000,4.000000,4.000000,4.000000,100.000000
1602006798.130672,93.000000,0.000000,4137.948730,4140.000000,4124.102539,4128.717773,4127.692383,4142.563965,4114.358887,4127.179688,4124.615234,4157.436035,4126.153809,4118.974121,4129.743652,4138.461426,729.000000,4.000000,,,,0.000000,4.000000,4.000000,4.000000,4.000000,4.000000,4.000000,4.000000,4.000000,4.000000,4.000000,4.000000,4.000000,4.000000,4.000000,100.000000
1602006798.138653,94.000000,0.000000,4140.000000,4143.589844,4123.077148,4137.948730,4136.922852,4131.282227,4113.846191,4134.358887,4129.743652,4147.179688,4133.333496,4122.563965,4139.487305,4136.922852,874.000000,4.000000,,,,0.000000,4.000000,4.000000,4.000000,4.000000,4.000000,4.000000,4.000000,4.000000,4.000000,4.000000,4.000000,4.000000,4.000000,4.000000,100.000000
1602006798.146534,95.000000,0.000000,4137.436035,4141.538574,4125.128418,4142.051270,4137.948730,4128.205078,4120.000000,4141.025879,4142.563965,4143.589844,4134.871582,4125.641113,4138.974121,4136.410156,843.000000,4.000000,,,,0.000000,4.000000,4.000000,4.000000,4.000000,4.000000,4.000000,4.000000,4.000000,4.000000,4.000000,4.000000,4.000000,4.000000,4.000000,100.000000
1602006798.154415,96.000000,0.000000,4130.769043,4138.974121,4120.000000,4134.358887,4131.794922,4138.974121,4131.794922,4137.948730,4137.436035,4155.897461,4129.230957,4122.563965,4140.000000,4138.974121,763.000000,4.000000,,,,0.000000,4.000000,4.000000,4.000000,4.000000,4.000000,4.000000,4.000000,4.000000,4.000000,4.000000,4.000000,4.000000,4.000000,4.000000,100.000000
1602006798.162297,97.000000,0.000000,4129.230957,4135.897461,4112.820313,4128.205078,4130.769043,4140.512695,4138.974121,4144.102539,4122.051270,4152.307617,4126.153809,4125.641113,4141.538574,4139.487305,729.000000,4.000000,,,,0.000000,4.000000,4.000000,4.000000,4.000000,4.000000,4.000000,4.000000,4.000000,4.000000,4.000000,4.000000,4.000000,4.000000,4.000000,100.000000
1602006798.170178,98.000000,0.000000,4141.538574,4137.948730,4125.641113,4132.820313,4132.307617,4136.922852,4146.666504,4154.871582,4126.153809,4140.512695,4132.307617,4145.128418,4137.948730,4143.077148,874.000000,4.000000,,,,0.000000,4.000000,4.000000,4.000000,4.000000,4.000000,4.000000,4.000000,4.000000,4.000000,4.000000,4.000000,4.000000,4.000000,4.000000,100.000000
1602006798.178059,99.000000,0.000000,4154.358887,4135.384766,4150.256348,4131.282227,4127.692383,4136.410156,4151.282227,4155.384766,4137.948730,4148.717773,4143.077148,4168.717773,4144.615234,4153.333496,843.000000,4.000000,,,,0.000000,4.000000,4.000000,4.000000,4.000000,4.000000,4.000000,4.000000,4.000000,4.000000,4.000000,4.000000,4.000000,4.000000,4.000000,100.000000
1602006798.185940,100.000000,0.000000,4152.820313,4128.717773,4159.487305,4124.615234,4124.102539,4133.846191,4146.153809,4153.846191,4142.563965,4158.974121,4154.871582,4178.974121,4155.897461,4158.461426,763.000000,4.000000,,,,0.000000,4.000000,4.000000,4.000000,4.000000,4.000000,4.000000,4.000000,4.000000,4.000000,4.000000,4.000000,4.000000,4.000000,4.000000,100.000000
1602006798.193821,101.000000,0.000000,4143.077148,4122.051270,4141.538574,4121.025879,4120.000000,4128.717773,4131.282227,4145.641113,4140.000000,4145.128418,4152.307617,4168.205078,4143.077148,4147.179688,729.000000,4.000000,,,,0.000000,4.000000,4.000000,4.000000,4.000000,4.000000,4.000000,4.000000,4.000000,4.000000,4.000000,4.000000,4.000000,4.000000,4.000000,100.000000
1602006798.201702,102.000000,0.000000,4129.230957,4111.282227,4121.538574,4114.871582,4116.410156,4123.077148,4121.538574,4129.230957,4126.666504,4128.717773,4131.282227,4143.077148,4114.871582,4126.153809,874.000000,4.000000,,,,0.000000,4.000000,4.000000,4.000000,4.000000,4.000000,4.000000,4.000000,4.000000,4.000000,4.000000,4.000000,4.000000,4.000000,4.000000,100.000000
1602006798.209483,103.000000,0.000000,4120.000000,4109.230957,4117.948730,4110.769043,4119.487305,4119.487305,4123.077148,4119.487305,4115.384766,4125.641113,4116.922852,4126.666504,4108.717773,4107.692383,843.000000,4.000000,,,,0.000000,4.000000,4.000000,4.000000,4.000000,4.000000,4.000000,4.000000,4.000000,4.000000,4.000000,4.000000,4.000000,4.000000,4.000000,100.000000
1602006798.217364,104.000000,0.000000,4120.512695,4118.461426,4119.487305,4117.948730,4125.128418,4127.179688,4122.051270,4121.025879,4127.179688,4127.692383,4118.461426,4128.717773,4118.461426,4102.563965,763.000000,4.000000,,,,0.000000,4.000000,4.000000,4.000000,4.000000,4.000000,4.000000,4.000000,4.000000,4.000000,4.000000,4.000000,4.000000,4.000000,4.000000,100.000000
1602006798.225245,105.000000,0.000000,4124.615234,4123.589844,4117.948730,4124.102539,4125.128418,4138.461426,4125.128418,4129.230957,4150.256348,4141.025879,4122.051270,4133.846191,4122.051270,4111.794922,729.000000,4.000000,,,,0.000000,4.000000,4.000000,4.000000,4.000000,4.000000,4.000000,4.000000,4.000000,4.000000,4.000000,4.000000,4.000000,4.000000,4.000000,100.000000
1602006798.233225,106.000000,0.000000,4130.769043,4124.615234,4122.051270,4122.563965,4126.666504,4143.077148,4135.384766,4138.461426,4152.820313,4152.820313,4120.512695,4134.871582,4121.025879,4122.051270,874.000000,4.000000,,,,0.000000,4.000000,4.000000,4.000000,4.000000,4.000000,4.000000,4.000000,4.000000,4.000000,4.000000,4.000000,4.000000,4.000000,4.000000,100.000000
1602006798.241106,107.000000,0.000000,4138.461426,4130.769043,4126.666504,4124.102539,4126.153809,4140.000000,4140.512695,4140.000000,4141.538574,4138.974121,4124.102539,4136.922852,4124.102539,4125.128418,843.000000,4.000000,,,,0.000000,4.000000,4.000000,4.000000,4.000000,4.000000,4.000000,4.000000,4.000000,4.000000,4.000000,4.000000,4.000000,4.000000,4.000000,100.000000
1602006798.249086,108.000000,0.000000,4141.025879,4135.897461,4123.589844,4124.615234,4119.487305,4128.717773,4138.974121,4138.461426,4137.436035,4127.692383,4136.410156,4144.102539,4132.820313,4127.692383,763.000000,4.000000,,,,0.000000,4.000000,4.000000,4.000000,4.000000,4.000000,4.000000,4.000000,4.000000,4.000000,4.000000,4.000000,4.000000,4.000000,4.000000,100.000000
1602006798.257067,109.000000,0.000000,4140.512695,4135.384766,4127.692383,4123.077148,4119.487305,4125.128418,4142.563965,4140.000000,4138.461426,4148.717773,4139.487305,4152.307617,4139.487305,4132.307617,729.000000,4.000000,,,,0.000000,4.000000,4.000000,4.000000,4.000000,4.000000,4.000000,4.000000,4.000000,4.000000,4.000000,4.000000,4.000000,4.000000,4.000000,100.000000
1602006798.264948,110.000000,0.000000,4139.487305,4135.384766,4138.461426,4124.102539,4124.102539,4134.871582,4144.102539,4141.025879,4142.051270,4161.538574,4137.948730,4156.410156,4137.436035,4135.384766,874.000000,4.000000,,,,0.000000,4.000000,4.000000,4.000000,4.000000,4.000000,4.000000,4.000000,4.000000,4.000000,4.000000,4.000000,4.000000,4.000000,4.000000,100.000000
1602006798.272928,111.000000,0.000000,4140.512695,4136.922852,4143.589844,4127.179688,4124.102539,4140.512695,4137.948730,4143.077148,4160.000000,4154.358887,4153.333496,4164.102539,4140.512695,4142.051270,843.000000,4.000000,,,,0.000000,4.000000,4.000000,4.000000,4.000000,4.000000,4.000000,4.000000,4.000000,4.000000,4.000000,4.000000,4.000000,4.000000,4.000000,100.000000
1602006798.280809,112.000000,0.000000,4144.102539,4134.871582,4142.051270,4130.769043,4122.563965,4139.487305,4136.922852,4144.615234,4171.794922,4160.512695,4158.461426,4169.743652,4152.307617,4144.615234,763.000000,4.000000,,,,0.000000,4.000000,4.000000,4.000000,4.000000,4.000000,4.000000,4.000000,4.000000,4.000000,4.000000,4.000000,4.000000,4.000000,4.000000,100.000000
1602006798.288590,113.000000,0.000000,4137.948730,4121.538574,4128.717773,4122.051270,4122.051270,4138.461426,4140.000000,4141.538574,4152.820313,4155.897461,4132.820313,4154.871582,4140.512695,4129.743652,729.000000,4.000000,,,,0.000000,4.000000,4.000000,4.000000,4.000000,4.000000,4.000000,4.000000,4.000000,4.000000,4.000000,4.000000,4.000000,4.000000,4.000000,100.000000
1602006798.296470,114.000000,0.000000,4122.563965,4111.282227,4111.794922,4109.230957,4122.051270,4136.410156,4140.000000,4140.000000,4132.307617,4123.077148,4120.000000,4135.897461,4117.948730,4115.384766,874.000000,4.000000,,,,0.000000,4.000000,4.000000,4.000000,4.000000,4.000000,4.000000,4.000000,4.000000,4.000000,4.000000,4.000000,4.000000,4.000000,4.000000,100.000000
1602006798.304251,115.000000,0.000000,4118.461426,4115.897461,4112.307617,4112.307617,4123.077148,4136.922852,4140.000000,4141.025879,4134.358887,4117.436035,4138.974121,4137.436035,4126.153809,4123.589844,843.000000,4.000000,,,,0.000000,4.000000,4.000000,4.000000,4.000000,4.000000,4.000000,4.000000,4.000000,4.000000,4.000000,4.000000,4.000000,4.000000,4.000000,100.000000
1602006798.312232,116.000000,0.000000,4127.692383,4124.102539,4122.563965,4125.128418,4126.666504,4136.922852,4137.948730,4135.897461,4135.897461,4137.948730,4144.615234,4145.641113,4141.025879,4136.410156,763.000000,4.000000,,,,0.000000,4.000000,4.000000,4.000000,4.000000,4.000000,4.000000,4.000000,4.000000,4.000000,4.000000,4.000000,4.000000,4.000000,4.000000,100.000000
1602006798.320113,117.000000,0.000000,4128.717773,4122.563965,4117.436035,4125.641113,4124.102539,4129.230957,4124.102539,4124.102539,4120.512695,4131.282227,4126.153809,4135.897461,4126.666504,4128.205078,729.000000,4.000000,,,,0.000000,4.000000,4.000000,4.000000,4.000000,4.000000,4.000000,4.000000,4.000000,4.000000,4.000000,4.000000,4.000000,4.000000,4.000000,100.000000
1602006798.327994,118.000000,0.000000,4124.102539,4118.461426,4110.769043,4117.436035,4115.384766,4117.948730,4108.717773,4111.282227,4106.153809,4110.769043,4115.897461,4121.538574,4110.256348,4113.333496,874.000000,4.000000,,,,0.000000,4.000000,4.000000,4.000000,4.000000,4.000000,4.000000,4.000000,4.000000,4.000000,4.000000,4.000000,4.000000,4.000000,4.000000,100.000000
1602006798.335875,119.000000,0.000000,4130.256348,4123.589844,4124.102539,4122.051270,4116.410156,4119.487305,4111.282227,4109.743652,4109.743652,4114.358887,4118.461426,4128.717773,4117.436035,4114.871582,843.000000,4.000000,,,,0.000000,4.000000,4.000000,4.000000,4.000000,4.000000,4.000000,4.000000,4.000000,4.000000,4.000000,4.000000,4.000000,4.000000,4.000000,100.000000
1602006798.343756,120.000000,0.000000,4144.615234,4134.358887,4141.538574,4135.384766,4124.615234,4133.333496,4121.025879,4122.051270,4121.025879,4126.666504,4124.615234,4150.769043,4127.179688,4129.743652,763.000000,4.000000,,,,0.000000,4.000000,4.000000,4.000000,4.000000,4.000000,4.000000,4.000000,4.000000,4.000000,4.000000,4.000000,4.000000,4.000000,4.000000,100.000000
1602006798.351637,121.000000,0.000000,4152.820313,4138.974121,4143.077148,4137.948730,4125.641113,4137.948730,4123.077148,4133.333496,4130.256348,4136.922852,4137.948730,4158.974121,4130.256348,4139.487305,729.000000,4.000000,,,,0.000000,4.000000,4.000000,4.000000,4.000000,4.000000,4.000000,4.000000,4.000000,4.000000,4.000000,4.000000,4.000000,4.000000,4.000000,100.000000
1602006798.359618,122.000000,0.000000,4153.846191,4137.948730,4140.512695,4136.410156,4124.615234,4124.102539,4124.615234,4137.948730,4140.000000,4153.846191,4149.743652,4154.871582,4137.948730,4145.641113,874.000000,4.000000,,,,0.000000,4.000000,4.000000,4.000000,4.000000,4.000000,4.000000,4.000000,4.000000,4.000000,4.000000,4.000000,4.000000,4.000000,4.000000,100.000000
1602006798.367498,123.000000,0.000000,4151.282227,4136.410156,4144.102539,4134.358887,4125.641113,4118.461426,4129.230957,4140.512695,4152.820313,4161.025879,4152.820313,4154.871582,4142.563965,4147.692383,843.000000,4.000000,,,,0.000000,4.000000,4.000000,4.000000,4.000000,4.000000,4.000000,4.000000,4.000000,4.000000,4.000000,4.000000,4.000000,4.000000,4.000000,100.000000
1602006798.375379,124.000000,0.000000,4150.769043,4132.820313,4142.051270,4129.230957,4126.153809,4132.307617,4136.410156,4142.051270,4163.077148,4160.000000,4153.333496,4156.922852,4137.948730,4144.615234,763.000000,4.000000,,,,0.000000,4.000000,4.000000,4.000000,4.000000,4.000000,4.000000,4.000000,4.000000,4.000000,4.000000,4.000000,4.000000,4.000000,4.000000,100.000000
1602006798.383260,125.000000,0.000000,4151.282227,4127.179688,4136.922852,4124.615234,4132.820313,4145.641113,4145.128418,4142.051270,4169.230957,4169.230957,4146.666504,4155.384766,4141.025879,4146.666504,729.000000,4.000000,,,,0.000000,4.000000,4.000000,4.000000,4.000000,4.000000,4.000000,4.000000,4.000000,4.000000,4.000000,4.000000,4.000000,4.000000,4.000000,100.000000
1602006798.391141,126.000000,0.000000,4145.128418,4125.128418,4138.461426,4125.128418,4136.410156,4146.666504,4144.102539,4141.025879,4174.358887,4175.897461,4133.846191,4149.743652,4143.589844,4145.641113,874.000000,4.000000,,,,0.000000,4.000000,4.000000,4.000000,4.000000,4.000000,4.000000,4.000000,4.000000,4.000000,4.000000,4.000000,4.000000,4.000000,4.000000,100.000000
1602006798.399022,127.000000,0.000000,4141.025879,4123.589844,4138.461426,4121.538574,4127.692383,4142.051270,4135.384766,4137.436035,4172.820313,4164.102539,4133.333496,4146.666504,4131.794922,4131.794922,843.000000,4.000000,,,,0.000000,4.000000,4.000000,4.000000,4.000000,4.000000,4.000000,4.000000,4.000000,4.000000,4.000000,4.000000,4.000000,4.000000,4.000000,100.000000
1602006798.406903,128.000000,0.000000,4145.128418,4121.538574,4135.897461,4120.512695,4124.615234,4137.436035,4135.384766,4136.922852,4160.512695,4144.615234,4138.461426,4148.717773,4129.743652,4126.153809,763.000000,4.000000,,,,0.000000,4.000000,4.000000,4.000000,4.000000,4.000000,4.000000,4.000000,4.000000,4.000000,4.000000,4.000000,4.000000,4.000000,4.000000,100.000000
1602006798.414684,0.000000,0.000000,4145.641113,4125.641113,4142.051270,4130.769043,4129.743652,4131.794922,4136.922852,4138.974121,4146.153809,4137.948730,4140.512695,4152.307617,4135.384766,4140.512695,790.000000,4.000000,,,,0.000000,4.000000,4.000000,4.000000,4.000000,4.000000,4.000000,4.000000,4.000000,4.000000,4.000000,4.000000,4.000000,4.000000,4.000000,100.000000
1602006798.422565,1.000000,0.000000,4142.563965,4129.230957,4151.282227,4135.384766,4125.128418,4123.589844,4131.282227,4140.512695,4142.563965,4137.436035,4138.974121,4156.922852,4130.769043,4149.230957,788.000000,4.000000,,,,0.000000,4.000000,4.000000,4.000000,4.000000,4.000000,4.000000,4.000000,4.000000,4.000000,4.000000,4.000000,4.000000,4.000000,4.000000,100.000000
1602006798.430446,2.000000,0.000000,4137.948730,4124.102539,4145.128418,4128.205078,4116.922852,4120.000000,4130.256348,4138.974121,4138.974121,4125.128418,4127.692383,4152.820313,4116.922852,4137.948730,853.000000,4.000000,,,,0.000000,4.000000,4.000000,4.000000,4.000000,4.000000,4.000000,4.000000,4.000000,4.000000,4.000000,4.000000,4.000000,4.000000,4.000000,100.000000
1602006798.438327,3.000000,0.000000,4126.153809,4119.487305,4129.230957,4123.077148,4120.000000,4127.179688,4136.410156,4139.487305,4134.871582,4117.436035,4118.461426,4143.589844,4107.692383,4124.102539,868.000000,4.000000,,,,0.000000,4.000000,4.000000,4.000000,4.000000,4.000000,4.000000,4.000000,4.000000,4.000000,4.000000,4.000000,4.000000,4.000000,4.000000,100.000000
1602006798.446208,4.000000,0.000000,4117.436035,4119.487305,4125.641113,4124.102539,4122.563965,4136.410156,4137.948730,4147.179688,4142.563965,4124.102539,4120.000000,4145.641113,4110.256348,4118.461426,815.000000,4.000000,,,,0.000000,4.000000,4.000000,4.000000,4.000000,4.000000,4.000000,4.000000,4.000000,4.000000,4.000000,4.000000,4.000000,4.000000,4.000000,100.000000
1602006798.454089,5.000000,0.000000,4126.666504,4121.538574,4139.487305,4126.153809,4122.051270,4137.436035,4134.871582,4150.769043,4144.615234,4129.743652,4123.077148,4156.922852,4118.461426,4127.179688,825.000000,4.000000,,,,0.000000,4.000000,4.000000,4.000000,4.000000,4.000000,4.000000,4.000000,4.000000,4.000000,4.000000,4.000000,4.000000,4.000000,4.000000,100.000000
1602006798.461870,6.000000,0.000000,4142.051270,4125.128418,4151.282227,4132.820313,4130.256348,4136.410156,4135.384766,4147.179688,4143.077148,4146.666504,4129.230957,4158.974121,4123.077148,4139.487305,759.000000,4.000000,,,,0.000000,4.000000,4.000000,4.000000,4.000000,4.000000,4.000000,4.000000,4.000000,4.000000,4.000000,4.000000,4.000000,4.000000,4.000000,100.000000
1602006798.469751,7.000000,0.000000,4137.948730,4126.153809,4145.641113,4135.897461,4136.922852,4138.974121,4138.974121,4141.025879,4148.205078,4156.922852,4136.922852,4149.743652,4122.563965,4133.846191,656.000000,4.000000,,,,0.000000,4.000000,4.000000,4.000000,4.000000,4.000000,4.000000,4.000000,4.000000,4.000000,4.000000,4.000000,4.000000,4.000000,4.000000,100.000000
1602006798.477632,8.000000,0.000000,4124.615234,4117.436035,4130.769043,4124.615234,4128.205078,4137.948730,4137.436035,4131.794922,4144.615234,4130.769043,4130.256348,4140.000000,4124.102539,4120.000000,780.000000,4.000000,,,,0.000000,4.000000,4.000000,4.000000,4.000000,4.000000,4.000000,4.000000,4.000000,4.000000,4.000000,4.000000,4.000000,4.000000,4.000000,100.000000
1602006798.485513,9.000000,0.000000,4129.743652,4115.384766,4123.589844,4120.000000,4120.000000,4137.436035,4135.384766,4122.051270,4130.769043,4122.051270,4121.025879,4133.846191,4123.077148,4120.512695,835.000000,4.000000,,,,0.000000,4.000000,4.000000,4.000000,4.000000,4.000000,4.000000,4.000000,4.000000,4.000000,4.000000,4.000000,4.000000,4.000000,4.000000,100.000000
1602006798.493395,10.000000,0.000000,4139.487305,4121.538574,4124.102539,4123.077148,4124.102539,4145.128418,4135.384766,4114.358887,4116.922852,4136.410156,4122.051270,4129.230957,4123.077148,4125.641113,874.000000,4.000000,,,,0.000000,4.000000,4.000000,4.000000,4.000000,4.000000,4.000000,4.000000,4.000000,4.000000,4.000000,4.000000,4.000000,4.000000,4.000000,100.000000
1602006798.501276,11.000000,0.000000,4130.256348,4112.820313,4120.000000,4112.307617,4123.589844,4143.077148,4127.179688,4105.641113,4105.641113,4115.897461,4120.512695,4123.077148,4121.538574,4117.948730,841.000000,4.000000,,,,0.000000,4.000000,4.000000,4.000000,4.000000,4.000000,4.000000,4.000000,4.000000,4.000000,4.000000,4.000000,4.000000,4.000000,4.000000,100.000000
1602006798.509157,12.000000,0.000000,4124.615234,4099.487305,4117.436035,4101.538574,4118.974121,4132.820313,4118.974121,4105.128418,4103.077148,4101.025879,4125.128418,4125.128418,4116.922852,4117.436035,763.000000,4.000000,,,,0.000000,4.000000,4.000000,4.000000,4.000000,4.000000,4.000000,4.000000,4.000000,4.000000,4.000000,4.000000,4.000000,4.000000,4.000000,100.000000
1602006798.517038,13.000000,0.000000,4137.948730,4108.717773,4130.256348,4113.846191,4122.563965,4144.615234,4128.717773,4123.589844,4122.051270,4142.051270,4145.128418,4147.179688,4128.717773,4137.948730,729.000000,4.000000,,,,0.000000,4.000000,4.000000,4.000000,4.000000,4.000000,4.000000,4.000000,4.000000,4.000000,4.000000,4.000000,4.000000,4.000000,4.000000,100.000000
1602006798.525019,14.000000,0.000000,4144.102539,4120.000000,4144.615234,4126.153809,4124.615234,4160.000000,4138.974121,4142.563965,4144.102539,4170.256348,4150.256348,4156.410156,4137.948730,4146.666504,874.000000,4.000000,,,,0.000000,4.000000,4.000000,4.000000,4.000000,4.000000,4.000000,4.000000,4.000000,4.000000,4.000000,4.000000,4.000000,4.000000,4.000000,100.000000
1602006798.532900,15.000000,0.000000,4136.410156,4108.717773,4137.948730,4120.000000,4119.487305,4147.692383,4134.871582,4143.077148,4152.820313,4150.256348,4138.974121,4141.538574,4125.128418,4129.230957,841.000000,4.000000,,,,0.000000,4.000000,4.000000,4.000000,4.000000,4.000000,4.000000,4.000000,4.000000,4.000000,4.000000,4.000000,4.000000,4.000000,4.000000,100.000000
1602006798.540781,16.000000,0.000000,4128.205078,4101.025879,4125.128418,4117.436035,4118.461426,4133.333496,4134.358887,4137.948730,4153.846191,4138.461426,4135.384766,4133.846191,4112.307617,4114.871582,0.000000,4.000000,,,,0.000000,4.000000,4.000000,4.000000,4.000000,4.000000,4.000000,4.000000,4.000000,4.000000,4.000000,4.000000,4.000000,4.000000,4.000000,100.000000
1602006798.548662,17.000000,0.000000,4122.051270,4109.230957,4122.563965,4122.051270,4124.102539,4132.820313,4135.897461,4137.948730,4151.794922,4137.948730,4131.794922,4135.384766,4108.205078,4118.461426,0.000000,4.000000,,,,0.000000,4.000000,4.000000,4.000000,4.000000,4.000000,4.000000,4.000000,4.000000,4.000000,4.000000,4.000000,4.000000,4.000000,4.000000,100.000000
1602006798.556543,18.000000,0.000000,4124.615234,4118.461426,4121.025879,4122.563965,4126.153809,4126.666504,4129.230957,4134.358887,4142.563965,4129.743652,4123.077148,4128.205078,4105.641113,4123.077148,0.000000,4.000000,,,,0.000000,4.000000,4.000000,4.000000,4.000000,4.000000,4.000000,4.000000,4.000000,4.000000,4.000000,4.000000,4.000000,4.000000,4.000000,100.000000
1602006798.564424,19.000000,0.000000,4136.410156,4129.743652,4124.102539,4130.256348,4125.128418,4117.436035,4122.563965,4123.589844,4134.871582,4136.410156,4123.589844,4126.153809,4113.333496,4125.128418,0.000000,4.000000,,,,0.000000,4.000000,4.000000,4.000000,4.000000,4.000000,4.000000,4.000000,4.000000,4.000000,4.000000,4.000000,4.000000,4.000000,4.000000,100.000000
1602006798.572205,20.000000,0.000000,4142.563965,4140.512695,4135.384766,4141.025879,4127.692383,4118.461426,4123.077148,4117.948730,4132.820313,4152.820313,4126.666504,4134.358887,4124.615234,4128.205078,0.000000,4.000000,,,,0.000000,4.000000,4.000000,4.000000,4.000000,4.000000,4.000000,4.000000,4.000000,4.000000,4.000000,4.000000,4.000000,4.000000,4.000000,100.000000
1602006798.580086,21.000000,0.000000,4141.538574,4139.487305,4137.948730,4138.974121,4133.846191,4126.666504,4122.563965,4118.974121,4126.153809,4154.358887,4127.179688,4134.358887,4122.563965,4129.743652,0.000000,4.000000,,,,0.000000,4.000000,4.000000,4.000000,4.000000,4.000000,4.000000,4.000000,4.000000,4.000000,4.000000,4.000000,4.000000,4.000000,4.000000,100.000000
1602006798.587967,22.000000,0.000000,4145.641113,4139.487305,4137.948730,4136.922852,4136.410156,4138.461426,4121.538574,4119.487305,4117.436035,4148.205078,4134.358887,4137.436035,4124.102539,4135.897461,0.000000,4.000000,,,,0.000000,4.000000,4.000000,4.000000,4.000000,4.000000,4.000000,4.000000,4.000000,4.000000,4.000000,4.000000,4.000000,4.000000,4.000000,100.000000
1602006798.595848,23.000000,0.000000,4143.589844,4136.922852,4135.897461,4136.410156,4130.769043,4142.051270,4124.102539,4117.948730,4120.000000,4140.000000,4140.512695,4142.051270,4127.692383,4143.077148,0.000000,4.000000,,,,0.000000,4.000000,4.000000,4.000000,4.000000,4.000000,4.000000,4.000000,4.000000,4.000000,4.000000,4.000000,4.000000,4.000000,4.000000,100.000000
1602006798.603730,24.000000,0.000000,4125.641113,4122.051270,4123.589844,4125.128418,4116.410156,4133.846191,4128.205078,4124.102539,4125.641113,4117.436035,4134.871582,4132.307617,4118.461426,4134.358887,0.000000,4.000000,,,,0.000000,4.000000,4.000000,4.000000,4.000000,4.000000,4.000000,4.000000,4.000000,4.000000,4.000000,4.000000,4.000000,4.000000,4.000000,100.000000
1602006798.611611,25.000000,0.000000,4118.974121,4115.384766,4124.615234,4117.436035,4107.692383,4134.871582,4133.846191,4138.974121,4123.077148,4104.102539,4126.666504,4124.102539,4112.820313,4129.743652,0.000000,4.000000,,,,0.000000,4.000000,4.000000,4.000000,4.000000,4.000000,4.000000,4.000000,4.000000,4.000000,4.000000,4.000000,4.000000,4.000000,4.000000,100.000000
1602006798.619492,26.000000,0.000000,4129.743652,4122.051270,4138.461426,4121.025879,4115.384766,4142.051270,4138.974121,4146.666504,4126.153809,4124.615234,4127.692383,4127.179688,4118.974121,4135.384766,0.000000,4.000000,,,,0.000000,4.000000,4.000000,4.000000,4.000000,4.000000,4.000000,4.000000,4.000000,4.000000,4.000000,4.000000,4.000000,4.000000,4.000000,100.000000
1602006798.627373,27.000000,0.000000,4138.974121,4128.205078,4141.538574,4129.230957,4128.205078,4142.051270,4142.563965,4142.051270,4137.436035,4147.179688,4135.384766,4132.307617,4127.179688,4137.436035,0.000000,4.000000,,,,0.000000,4.000000,4.000000,4.000000,4.000000,4.000000,4.000000,4.000000,4.000000,4.000000,4.000000,4.000000,4.000000,4.000000,4.000000,100.000000
1602006798.635254,28.000000,0.000000,4147.692383,4133.846191,4145.641113,4136.922852,4128.717773,4136.410156,4142.563965,4139.487305,4137.948730,4151.794922,4143.589844,4137.436035,4136.410156,4144.615234,0.000000,4.000000,,,,0.000000,4.000000,4.000000,4.000000,4.000000,4.000000,4.000000,4.000000,4.000000,4.000000,4.000000,4.000000,4.000000,4.000000,4.000000,100.000000
1602006798.643035,29.000000,0.000000,4156.922852,4143.077148,4152.820313,4138.974121,4124.102539,4125.128418,4138.974121,4137.948730,4124.102539,4154.871582,4144.615234,4141.025879,4142.563965,4151.282227,0.000000,4.000000,,,,0.000000,4.000000,4.000000,4.000000,4.000000,4.000000,4.000000,4.000000,4.000000,4.000000,4.000000,4.000000,4.000000,4.000000,4.000000,100.000000
1602006798.650917,30.000000,0.000000,4156.410156,4149.743652,4146.153809,4138.461426,4131.794922,4119.487305,4134.358887,4127.179688,4112.820313,4159.487305,4141.025879,4140.000000,4141.538574,4146.153809,0.000000,4.000000,,,,0.000000,4.000000,4.000000,4.000000,4.000000,4.000000,4.000000,4.000000,4.000000,4.000000,4.000000,4.000000,4.000000,4.000000,4.000000,100.000000
1602006798.658798,31.000000,0.000000,4153.333496,4152.307617,4138.974121,4142.051270,4137.948730,4124.102539,4127.692383,4121.025879,4108.205078,4157.436035,4138.974121,4137.948730,4140.512695,4138.974121,0.000000,4.000000,,,,0.000000,4.000000,4.000000,4.000000,4.000000,4.000000,4.000000,4.000000,4.000000,4.000000,4.000000,4.000000,4.000000,4.000000,4.000000,100.000000
1602006798.666679,32.000000,0.000000,4155.384766,4153.846191,4142.563965,4143.077148,4137.436035,4127.179688,4122.563965,4118.461426,4109.743652,4150.769043,4137.948730,4137.436035,4143.589844,4143.077148,0.000000,4.000000,,,,0.000000,4.000000,4.000000,4.000000,4.000000,4.000000,4.000000,4.000000,4.000000,4.000000,4.000000,4.000000,4.000000,4.000000,4.000000,100.000000
1602006798.674560,33.000000,0.000000,4152.307617,4152.820313,4142.051270,4141.025879,4139.487305,4130.769043,4121.025879,4108.717773,4117.436035,4150.256348,4136.410156,4135.384766,4145.128418,4144.102539,0.000000,4.000000,,,,0.000000,4.000000,4.000000,4.000000,4.000000,4.000000,4.000000,4.000000,4.000000,4.000000,4.000000,4.000000,4.000000,4.000000,4.000000,100.000000
1602006798.682441,34.000000,0.000000,4141.025879,4145.128418,4135.897461,4138.974121,4137.948730,4139.487305,4118.461426,4105.128418,4120.512695,4156.410156,4138.974121,4128.717773,4138.974121,4132.307617,0.000000,4.000000,,,,0.000000,4.000000,4.000000,4.000000,4.000000,4.000000,4.000000,4.000000,4.000000,4.000000,4.000000,4.000000,4.000000,4.000000,4.000000,100.000000
1602006798.690322,35.000000,0.000000,4129.230957,4134.358887,4133.333496,4130.769043,4128.205078,4141.025879,4125.128418,4117.436035,4119.487305,4152.820313,4136.410156,4122.051270,4128.717773,4122.051270,0.000000,4.000000,,,,0.000000,4.000000,4.000000,4.000000,4.000000,4.000000,4.000000,4.000000,4.000000,4.000000,4.000000,4.000000,4.000000,4.000000,4.000000,100.000000
1602006798.698204,36.000000,0.000000,4123.589844,4126.153809,4133.846191,4122.563965,4121.025879,4143.589844,4147.179688,4130.256348,4125.641113,4140.512695,4122.051270,4120.512695,4118.461426,4122.051270,0.000000,4.000000,,,,0.000000,4.000000,4.000000,4.000000,4.000000,4.000000,4.000000,4.000000,4.000000,4.000000,4.000000,4.000000,4.000000,4.000000,4.000000,100.000000
