Timestamp,EEG.Counter,EEG.Interpolated,EEG.AF3,EEG.F7,EEG.F3,EEG.FC5,EEG.T7,EEG.P7,EEG.O1,EEG.O2,EEG.P8,EEG.T8,EEG.FC6,EEG.F4,EEG.F8,EEG.AF4,EEG.RawCq,EEG.Battery,MarkerIndex,MarkerType,MarkerValueInt,EEG.MarkerHardware,CQ.AF3,CQ.F7,CQ.F3,CQ.FC5,CQ.T7,CQ.P7,CQ.O1,CQ.O2,CQ.P8,CQ.T8,CQ.FC6,CQ.F4,CQ.F8,CQ.AF4,CQ.Overall
1602006806.554070,1.000000,0.000000,4144.102539,4143.589844,4139.487305,4140.000000,4142.563965,4143.589844,4139.487305,4140.512695,4144.615234,4134.871582,4123.589844,4146.153809,4125.128418,4123.077148,784.000000,4.000000,,,,0.000000,4.000000,4.000000,4.000000,4.000000,4.000000,4.000000,4.000000,4.000000,4.000000,4.000000,4.000000,4.000000,4.000000,4.000000,100.000000
1602006806.561851,2.000000,0.000000,4135.384766,4139.487305,4134.358887,4138.461426,4129.230957,4126.666504,4135.897461,4129.230957,4141.538574,4146.666504,4125.128418,4136.922852,4116.922852,4115.897461,853.000000,4.000000,,,,0.000000,4.000000,4.000000,4.000000,4.000000,4.000000,4.000000,4.000000,4.000000,4.000000,4.000000,4.000000,4.000000,4.000000,4.000000,100.000000
1602006806.569732,3.000000,0.000000,4138.461426,4138.974121,4131.282227,4138.461426,4124.615234,4116.410156,4134.358887,4128.205078,4136.922852,4150.769043,4121.538574,4134.358887,4120.000000,4121.538574,868.000000,4.000000,,,,0.000000,4.000000,4.000000,4.000000,4.000000,4.000000,4.000000,4.000000,4.000000,4.000000,4.000000,4.000000,4.000000,4.000000,4.000000,100.000000
1602006806.577613,4.000000,0.000000,4142.051270,4140.512695,4128.717773,4137.948730,4137.436035,4128.717773,4136.410156,4131.794922,4135.897461,4140.512695,4122.051270,4139.487305,4120.512695,4126.153809,815.000000,4.000000,,,,0.000000,4.000000,4.000000,4.000000,4.000000,4.000000,4.000000,4.000000,4.000000,4.000000,4.000000,4.000000,4.000000,4.000000,4.000000,100.000000
1602006806.585494,5.000000,0.000000,4137.436035,4137.948730,4129.743652,4138.974121,4138.461426,4134.871582,4137.436035,4126.666504,4126.153809,4123.589844,4123.589844,4138.461426,4118.461426,4122.051270,818.000000,4.000000,,,,0.000000,4.000000,4.000000,4.000000,4.000000,4.000000,4.000000,4.000000,4.000000,4.000000,4.000000,4.000000,4.000000,4.000000,4.000000,100.000000
1602006806.593375,6.000000,0.000000,4141.538574,4135.384766,4134.358887,4137.436035,4125.641113,4133.333496,4142.563965,4123.589844,4116.922852,4119.487305,4123.077148,4138.461426,4117.948730,4121.538574,765.000000,4.000000,,,,0.000000,4.000000,4.000000,4.000000,4.000000,4.000000,4.000000,4.000000,4.000000,4.000000,4.000000,4.000000,4.000000,4.000000,4.000000,100.000000
1602006806.601257,7.000000,0.000000,4153.333496,4137.948730,4141.538574,4132.307617,4122.051270,4138.974121,4150.256348,4128.717773,4123.589844,4133.333496,4124.615234,4147.179688,4112.820313,4130.256348,661.000000,4.000000,,,,0.000000,4.000000,4.000000,4.000000,4.000000,4.000000,4.000000,4.000000,4.000000,4.000000,4.000000,4.000000,4.000000,4.000000,4.000000,100.000000
1602006806.609138,8.000000,0.000000,4156.410156,4137.436035,4149.743652,4131.794922,4123.589844,4140.512695,4151.794922,4133.846191,4141.025879,4135.384766,4131.794922,4157.436035,4110.769043,4147.179688,780.000000,4.000000,,,,0.000000,4.000000,4.000000,4.000000,4.000000,4.000000,4.000000,4.000000,4.000000,4.000000,4.000000,4.000000,4.000000,4.000000,4.000000,100.000000
1602006806.617019,9.000000,0.000000,4150.256348,4136.922852,4153.333496,4136.410156,4121.025879,4134.358887,4149.743652,4137.436035,4151.282227,4123.077148,4141.538574,4161.025879,4119.487305,4155.384766,835.000000,4.000000,,,,0.000000,4.000000,4.000000,4.000000,4.000000,4.000000,4.000000,4.000000,4.000000,4.000000,4.000000,4.000000,4.000000,4.000000,4.000000,100.000000
1602006806.624900,10.000000,0.000000,4153.333496,4148.717773,4154.358887,4140.512695,4127.179688,4134.871582,4152.307617,4147.692383,4153.846191,4127.692383,4141.538574,4159.487305,4133.333496,4147.179688,874.000000,4.000000,,,,0.000000,4.000000,4.000000,4.000000,4.000000,4.000000,4.000000,4.000000,4.000000,4.000000,4.000000,4.000000,4.000000,4.000000,4.000000,100.000000
1602006806.632881,11.000000,0.000000,4155.384766,4155.384766,4151.794922,4141.025879,4137.436035,4144.615234,4154.871582,4153.333496,4155.897461,4141.025879,4130.769043,4156.410156,4134.871582,4139.487305,841.000000,4.000000,,,,0.000000,4.000000,4.000000,4.000000,4.000000,4.000000,4.000000,4.000000,4.000000,4.000000,4.000000,4.000000,4.000000,4.000000,4.000000,100.000000
1602006806.640762,12.000000,0.000000,4141.025879,4144.615234,4141.538574,4138.974121,4140.000000,4150.769043,4153.333496,4152.820313,4163.589844,4143.589844,4124.102539,4154.358887,4126.666504,4138.461426,760.000000,4.000000,,,,0.000000,4.000000,4.000000,4.000000,4.000000,4.000000,4.000000,4.000000,4.000000,4.000000,4.000000,4.000000,4.000000,4.000000,4.000000,100.000000
1602006806.648643,13.000000,0.000000,4133.333496,4139.487305,4132.820313,4137.948730,4142.563965,4153.333496,4152.307617,4153.333496,4173.333496,4154.358887,4125.128418,4151.794922,4130.256348,4138.974121,726.000000,4.000000,,,,0.000000,4.000000,4.000000,4.000000,4.000000,4.000000,4.000000,4.000000,4.000000,4.000000,4.000000,4.000000,4.000000,4.000000,4.000000,100.000000
1602006806.656524,14.000000,0.000000,4138.974121,4145.641113,4128.717773,4138.461426,4145.128418,4151.794922,4154.358887,4149.230957,4167.179688,4163.589844,4124.102539,4145.128418,4140.512695,4133.333496,874.000000,4.000000,,,,0.000000,4.000000,4.000000,4.000000,4.000000,4.000000,4.000000,4.000000,4.000000,4.000000,4.000000,4.000000,4.000000,4.000000,4.000000,100.000000
1602006806.664305,15.000000,0.000000,4138.461426,4142.563965,4121.538574,4136.922852,4141.538574,4139.487305,4152.307617,4138.461426,4156.410156,4152.307617,4121.025879,4130.769043,4133.333496,4123.077148,841.000000,4.000000,,,,0.000000,4.000000,4.000000,4.000000,4.000000,4.000000,4.000000,4.000000,4.000000,4.000000,4.000000,4.000000,4.000000,4.000000,4.000000,100.000000
1602006806.672086,16.000000,0.000000,4134.871582,4137.436035,4121.538574,4134.871582,4136.922852,4129.743652,4145.128418,4134.358887,4155.384766,4137.436035,4123.589844,4125.128418,4122.563965,4119.487305,0.000000,4.000000,,,,0.000000,4.000000,4.000000,4.000000,4.000000,4.000000,4.000000,4.000000,4.000000,4.000000,4.000000,4.000000,4.000000,4.000000,4.000000,100.000000
1602006806.679966,17.000000,0.000000,4137.948730,4146.666504,4132.820313,4139.487305,4132.307617,4134.358887,4141.538574,4137.948730,4150.256348,4128.205078,4126.153809,4133.333496,4127.179688,4122.563965,0.000000,4.000000,,,,0.000000,4.000000,4.000000,4.000000,4.000000,4.000000,4.000000,4.000000,4.000000,4.000000,4.000000,4.000000,4.000000,4.000000,4.000000,100.000000
1602006806.687847,18.000000,0.000000,4143.589844,4154.871582,4138.974121,4143.589844,4126.666504,4140.000000,4143.589844,4138.974121,4143.589844,4120.512695,4124.615234,4139.487305,4126.153809,4123.077148,0.000000,4.000000,,,,0.000000,4.000000,4.000000,4.000000,4.000000,4.000000,4.000000,4.000000,4.000000,4.000000,4.000000,4.000000,4.000000,4.000000,4.000000,100.000000
1602006806.695728,19.000000,0.000000,4150.769043,4150.769043,4147.692383,4143.077148,4127.179688,4140.000000,4143.077148,4140.000000,4151.282227,4130.769043,4126.153809,4141.538574,4121.538574,4130.769043,0.000000,4.000000,,,,0.000000,4.000000,4.000000,4.000000,4.000000,4.000000,4.000000,4.000000,4.000000,4.000000,4.000000,4.000000,4.000000,4.000000,4.000000,100.000000
1602006806.703609,20.000000,0.000000,4152.820313,4144.102539,4155.897461,4143.589844,4128.717773,4134.871582,4139.487305,4139.487305,4158.461426,4145.641113,4127.179688,4145.641113,4123.077148,4138.974121,0.000000,4.000000,,,,0.000000,4.000000,4.000000,4.000000,4.000000,4.000000,4.000000,4.000000,4.000000,4.000000,4.000000,4.000000,4.000000,4.000000,4.000000,100.000000
1602006806.711490,21.000000,0.000000,4144.102539,4141.025879,4147.692383,4141.025879,4124.615234,4122.051270,4136.922852,4134.871582,4151.282227,4140.000000,4121.538574,4141.538574,4121.538574,4129.230957,0.000000,4.000000,,,,0.000000,4.000000,4.000000,4.000000,4.000000,4.000000,4.000000,4.000000,4.000000,4.000000,4.000000,4.000000,4.000000,4.000000,4.000000,100.000000
1602006806.719271,22.000000,0.000000,4140.000000,4139.487305,4142.563965,4138.461426,4127.692383,4120.512695,4135.897461,4132.307617,4151.282227,4130.769043,4121.538574,4140.000000,4120.512695,4123.077148,0.000000,4.000000,,,,0.000000,4.000000,4.000000,4.000000,4.000000,4.000000,4.000000,4.000000,4.000000,4.000000,4.000000,4.000000,4.000000,4.000000,4.000000,100.000000
1602006806.727153,23.000000,0.000000,4146.666504,4141.538574,4153.333496,4142.563965,4140.000000,4138.461426,4138.461426,4134.871582,4157.948730,4127.179688,4127.692383,4152.307617,4125.128418,4135.384766,0.000000,4.000000,,,,0.000000,4.000000,4.000000,4.000000,4.000000,4.000000,4.000000,4.000000,4.000000,4.000000,4.000000,4.000000,4.000000,4.000000,4.000000,100.000000
1602006806.735034,24.000000,0.000000,4147.692383,4141.025879,4151.794922,4144.102539,4137.436035,4141.025879,4137.948730,4135.384766,4147.692383,4110.256348,4126.666504,4156.410156,4119.487305,4131.794922,0.000000,4.000000,,,,0.000000,4.000000,4.000000,4.000000,4.000000,4.000000,4.000000,4.000000,4.000000,4.000000,4.000000,4.000000,4.000000,4.000000,4.000000,100.000000
1602006806.742915,25.000000,0.000000,4139.487305,4138.461426,4138.461426,4137.948730,4126.666504,4126.153809,4142.563965,4137.436035,4137.436035,4108.205078,4120.000000,4145.641113,4109.230957,4117.948730,0.000000,4.000000,,,,0.000000,4.000000,4.000000,4.000000,4.000000,4.000000,4.000000,4.000000,4.000000,4.000000,4.000000,4.000000,4.000000,4.000000,4.000000,100.000000
1602006806.750796,26.000000,0.000000,4134.871582,4139.487305,4134.871582,4133.846191,4125.641113,4130.256348,4153.846191,4140.000000,4144.102539,4132.307617,4118.974121,4139.487305,4114.358887,4125.128418,0.000000,4.000000,,,,0.000000,4.000000,4.000000,4.000000,4.000000,4.000000,4.000000,4.000000,4.000000,4.000000,4.000000,4.000000,4.000000,4.000000,4.000000,100.000000
1602006806.758677,27.000000,0.000000,4137.436035,4141.025879,4130.769043,4138.974121,4131.282227,4144.102539,4152.820313,4138.974121,4154.871582,4145.641113,4120.000000,4138.974121,4123.077148,4133.333496,0.000000,4.000000,,,,0.000000,4.000000,4.000000,4.000000,4.000000,4.000000,4.000000,4.000000,4.000000,4.000000,4.000000,4.000000,4.000000,4.000000,4.000000,100.000000
1602006806.766558,28.000000,0.000000,4134.871582,4135.384766,4125.128418,4136.922852,4133.846191,4142.563965,4142.563965,4138.974121,4157.436035,4145.128418,4117.948730,4138.461426,4122.051270,4125.128418,0.000000,4.000000,,,,0.000000,4.000000,4.000000,4.000000,4.000000,4.000000,4.000000,4.000000,4.000000,4.000000,4.000000,4.000000,4.000000,4.000000,4.000000,100.000000
1602006806.774440,29.000000,0.000000,4126.666504,4124.615234,4132.307617,4127.692383,4133.333496,4131.282227,4140.512695,4136.922852,4150.256348,4132.820313,4115.384766,4137.436035,4118.461426,4120.512695,0.000000,4.000000,,,,0.000000,4.000000,4.000000,4.000000,4.000000,4.000000,4.000000,4.000000,4.000000,4.000000,4.000000,4.000000,4.000000,4.000000,4.000000,100.000000
1602006806.782321,30.000000,0.000000,4130.769043,4119.487305,4138.461426,4129.230957,4127.692383,4128.205078,4135.384766,4125.641113,4138.974121,4111.282227,4114.871582,4137.436035,4117.948730,4126.153809,0.000000,4.000000,,,,0.000000,4.000000,4.000000,4.000000,4.000000,4.000000,4.000000,4.000000,4.000000,4.000000,4.000000,4.000000,4.000000,4.000000,4.000000,100.000000
1602006806.790102,31.000000,0.000000,4141.538574,4126.153809,4138.974121,4138.461426,4122.051270,4119.487305,4121.025879,4119.487305,4134.358887,4114.871582,4115.897461,4144.102539,4121.538574,4133.846191,0.000000,4.000000,,,,0.000000,4.000000,4.000000,4.000000,4.000000,4.000000,4.000000,4.000000,4.000000,4.000000,4.000000,4.000000,4.000000,4.000000,4.000000,100.000000
1602006806.797983,32.000000,0.000000,4150.769043,4137.436035,4149.230957,4144.102539,4126.153809,4108.205078,4116.410156,4130.769043,4147.179688,4149.230957,4131.794922,4156.410156,4132.820313,4148.205078,0.000000,4.000000,,,,0.000000,4.000000,4.000000,4.000000,4.000000,4.000000,4.000000,4.000000,4.000000,4.000000,4.000000,4.000000,4.000000,4.000000,4.000000,100.000000
1602006806.805864,33.000000,0.000000,4157.436035,4142.563965,4160.000000,4144.102539,4129.743652,4112.307617,4118.974121,4141.025879,4158.461426,4157.436035,4151.794922,4163.077148,4143.077148,4159.487305,0.000000,4.000000,,,,0.000000,4.000000,4.000000,4.000000,4.000000,4.000000,4.000000,4.000000,4.000000,4.000000,4.000000,4.000000,4.000000,4.000000,4.000000,100.000000
1602006806.813745,34.000000,0.000000,4153.333496,4139.487305,4150.769043,4139.487305,4125.128418,4123.589844,4116.410156,4132.307617,4147.179688,4139.487305,4142.051270,4158.974121,4136.922852,4152.820313,0.000000,4.000000,,,,0.000000,4.000000,4.000000,4.000000,4.000000,4.000000,4.000000,4.000000,4.000000,4.000000,4.000000,4.000000,4.000000,4.000000,4.000000,100.000000
1602006806.821626,35.000000,0.000000,4132.820313,4130.769043,4130.769043,4133.846191,4120.000000,4121.025879,4118.461426,4121.025879,4123.077148,4126.153809,4117.948730,4146.666504,4119.487305,4137.436035,0.000000,4.000000,,,,0.000000,4.000000,4.000000,4.000000,4.000000,4.000000,4.000000,4.000000,4.000000,4.000000,4.000000,4.000000,4.000000,4.000000,4.000000,100.000000
1602006806.829506,36.000000,0.000000,4124.102539,4133.333496,4121.538574,4133.846191,4123.077148,4114.871582,4128.717773,4120.512695,4112.307617,4107.179688,4120.512695,4135.897461,4115.384766,4134.871582,0.000000,4.000000,,,,0.000000,4.000000,4.000000,4.000000,4.000000,4.000000,4.000000,4.000000,4.000000,4.000000,4.000000,4.000000,4.000000,4.000000,4.000000,100.000000
1602006806.837387,37.000000,0.000000,4132.307617,4134.871582,4126.666504,4135.897461,4126.666504,4132.307617,4139.487305,4125.128418,4120.512695,4105.641113,4131.282227,4133.846191,4118.974121,4140.512695,0.000000,4.000000,,,,0.000000,4.000000,4.000000,4.000000,4.000000,4.000000,4.000000,4.000000,4.000000,4.000000,4.000000,4.000000,4.000000,4.000000,4.000000,100.000000
1602006806.845168,38.000000,0.000000,4126.666504,4120.512695,4131.794922,4131.794922,4126.666504,4141.025879,4140.000000,4127.692383,4125.641113,4127.179688,4120.000000,4127.179688,4108.205078,4127.179688,0.000000,4.000000,,,,0.000000,4.000000,4.000000,4.000000,4.000000,4.000000,4.000000,4.000000,4.000000,4.000000,4.000000,4.000000,4.000000,4.000000,4.000000,100.000000
1602006806.853049,39.000000,0.000000,4124.102539,4125.128418,4133.846191,4134.358887,4132.307617,4122.563965,4135.897461,4134.358887,4126.666504,4134.871582,4113.846191,4120.512695,4105.641113,4113.846191,0.000000,4.000000,,,,0.000000,4.000000,4.000000,4.000000,4.000000,4.000000,4.000000,4.000000,4.000000,4.000000,4.000000,4.000000,4.000000,4.000000,4.000000,100.000000
1602006806.860930,40.000000,0.000000,4148.205078,4158.461426,4137.948730,4147.692383,4140.512695,4123.589844,4137.436035,4145.641113,4141.538574,4145.128418,4133.333496,4130.256348,4124.102539,4133.333496,0.000000,4.000000,,,,0.000000,4.000000,4.000000,4.000000,4.000000,4.000000,4.000000,4.000000,4.000000,4.000000,4.000000,4.000000,4.000000,4.000000,4.000000,100.000000
1602006806.868811,41.000000,0.000000,4171.794922,4177.436035,4140.512695,4156.410156,4142.563965,4141.025879,4134.871582,4150.256348,4154.358887,4158.974121,4141.025879,4140.000000,4132.307617,4150.769043,0.000000,4.000000,,,,0.000000,4.000000,4.000000,4.000000,4.000000,4.000000,4.000000,4.000000,4.000000,4.000000,4.000000,4.000000,4.000000,4.000000,4.000000,100.000000
1602006806.876792,42.000000,0.000000,4173.333496,4172.307617,4138.461426,4156.922852,4140.000000,4131.282227,4123.589844,4139.487305,4142.563965,4135.384766,4124.102539,4135.384766,4118.461426,4134.871582,0.000000,4.000000,,,,0.000000,4.000000,4.000000,4.000000,4.000000,4.000000,4.000000,4.000000,4.000000,4.000000,4.000000,4.000000,4.000000,4.000000,4.000000,100.000000
1602006806.884673,43.000000,0.000000,4170.256348,4175.897461,4135.897461,4158.974121,4138.974121,4114.358887,4119.487305,4124.102539,4124.615234,4107.179688,4115.897461,4134.358887,4106.666504,4122.051270,0.000000,4.000000,,,,0.000000,4.000000,4.000000,4.000000,4.000000,4.000000,4.000000,4.000000,4.000000,4.000000,4.000000,4.000000,4.000000,4.000000,4.000000,100.000000
1602006806.892554,44.000000,0.000000,4174.358887,4181.538574,4142.051270,4161.025879,4137.948730,4124.102539,4123.589844,4120.512695,4122.051270,4122.563965,4123.589844,4140.512695,4108.205078,4129.743652,0.000000,4.000000,,,,0.000000,4.000000,4.000000,4.000000,4.000000,4.000000,4.000000,4.000000,4.000000,4.000000,4.000000,4.000000,4.000000,4.000000,4.000000,100.000000
1602006806.900435,45.000000,0.000000,4175.897461,4176.410156,4152.820313,4156.410156,4130.769043,4129.230957,4122.563965,4121.025879,4124.102539,4135.384766,4123.589844,4138.974121,4109.230957,4129.743652,0.000000,4.000000,,,,0.000000,4.000000,4.000000,4.000000,4.000000,4.000000,4.000000,4.000000,4.000000,4.000000,4.000000,4.000000,4.000000,4.000000,4.000000,100.000000
1602006806.908316,46.000000,0.000000,4171.794922,4172.307617,4160.000000,4155.897461,4123.077148,4122.051270,4127.692383,4124.102539,4124.615234,4128.717773,4123.589844,4142.563965,4107.692383,4128.717773,0.000000,4.000000,,,,0.000000,4.000000,4.000000,4.000000,4.000000,4.000000,4.000000,4.000000,4.000000,4.000000,4.000000,4.000000,4.000000,4.000000,4.000000,100.000000
1602006806.916097,47.000000,0.000000,4162.563965,4164.615234,4157.436035,4154.358887,4119.487305,4121.538574,4138.974121,4133.333496,4123.589844,4133.333496,4126.666504,4151.282227,4109.230957,4132.820313,0.000000,4.000000,,,,0.000000,4.000000,4.000000,4.000000,4.000000,4.000000,4.000000,4.000000,4.000000,4.000000,4.000000,4.000000,4.000000,4.000000,4.000000,100.000000
1602006806.923978,48.000000,0.000000,4155.897461,4150.769043,4150.769043,4145.128418,4121.538574,4125.641113,4140.000000,4138.461426,4121.538574,4122.051270,4123.077148,4145.128418,4104.615234,4126.666504,0.000000,4.000000,,,,0.000000,4.000000,4.000000,4.000000,4.000000,4.000000,4.000000,4.000000,4.000000,4.000000,4.000000,4.000000,4.000000,4.000000,4.000000,100.000000
1602006806.931859,49.000000,0.000000,4149.743652,4138.974121,4140.000000,4133.846191,4118.974121,4123.589844,4134.871582,4137.948730,4129.230957,4091.281982,4121.025879,4134.358887,4091.794922,4120.512695,0.000000,4.000000,,,,0.000000,4.000000,4.000000,4.000000,4.000000,4.000000,4.000000,4.000000,4.000000,4.000000,4.000000,4.000000,4.000000,4.000000,4.000000,100.000000
1602006806.939740,50.000000,0.000000,4137.948730,4134.871582,4123.589844,4127.692383,4116.410156,4118.974121,4135.897461,4137.436035,4136.922852,4095.384521,4121.538574,4131.282227,4087.179443,4118.974121,0.000000,4.000000,,,,0.000000,4.000000,4.000000,4.000000,4.000000,4.000000,4.000000,4.000000,4.000000,4.000000,4.000000,4.000000,4.000000,4.000000,4.000000,100.000000
1602006806.947622,51.000000,0.000000,4133.333496,4134.871582,4112.820313,4129.230957,4127.692383,4124.615234,4140.512695,4136.922852,4136.922852,4122.051270,4118.974121,4125.641113,4089.743652,4110.769043,0.000000,4.000000,,,,0.000000,4.000000,4.000000,4.000000,4.000000,4.000000,4.000000,4.000000,4.000000,4.000000,4.000000,4.000000,4.000000,4.000000,4.000000,100.000000
1602006806.955503,52.000000,0.000000,4141.025879,4139.487305,4116.922852,4134.358887,4135.384766,4136.922852,4144.102539,4139.487305,4146.153809,4130.256348,4117.948730,4118.461426,4092.307617,4102.563965,0.000000,4.000000,,,,0.000000,4.000000,4.000000,4.000000,4.000000,4.000000,4.000000,4.000000,4.000000,4.000000,4.000000,4.000000,4.000000,4.000000,4.000000,100.000000
1602006806.963384,53.000000,0.000000,4145.128418,4145.128418,4128.205078,4136.922852,4129.230957,4144.102539,4144.615234,4147.692383,4157.948730,4136.410156,4121.538574,4125.641113,4101.538574,4111.282227,0.000000,4.000000,,,,0.000000,4.000000,4.000000,4.000000,4.000000,4.000000,4.000000,4.000000,4.000000,4.000000,4.000000,4.000000,4.000000,4.000000,4.000000,100.000000
1602006806.971265,54.000000,0.000000,4140.512695,4142.051270,4138.461426,4137.436035,4125.128418,4143.077148,4142.051270,4154.358887,4154.358887,4143.077148,4123.589844,4138.461426,4111.794922,4128.717773,0.000000,4.000000,,,,0.000000,4.000000,4.000000,4.000000,4.000000,4.000000,4.000000,4.000000,4.000000,4.000000,4.000000,4.000000,4.000000,4.000000,4.000000,100.000000
1602006806.979146,55.000000,0.000000,4140.512695,4138.974121,4149.743652,4139.487305,4123.077148,4141.025879,4140.512695,4151.282227,4152.820313,4135.384766,4125.641113,4150.769043,4113.333496,4141.025879,0.000000,4.000000,,,,0.000000,4.000000,4.000000,4.000000,4.000000,4.000000,4.000000,4.000000,4.000000,4.000000,4.000000,4.000000,4.000000,4.000000,4.000000,100.000000
1602006806.986928,56.000000,0.000000,4143.077148,4139.487305,4155.384766,4139.487305,4112.820313,4136.410156,4135.384766,4144.102539,4156.922852,4140.000000,4126.666504,4160.000000,4111.794922,4143.077148,0.000000,4.000000,,,,0.000000,4.000000,4.000000,4.000000,4.000000,4.000000,4.000000,4.000000,4.000000,4.000000,4.000000,4.000000,4.000000,4.000000,4.000000,100.000000
1602006806.994809,57.000000,0.000000,4135.897461,4139.487305,4146.666504,4136.922852,4107.692383,4128.717773,4124.615234,4138.974121,4146.666504,4147.179688,4128.717773,4158.461426,4110.769043,4136.410156,0.000000,4.000000,,,,0.000000,4.000000,4.000000,4.000000,4.000000,4.000000,4.000000,4.000000,4.000000,4.000000,4.000000,4.000000,4.000000,4.000000,4.000000,100.000000
1602006807.002690,58.000000,0.000000,4122.563965,4136.922852,4130.256348,4129.743652,4113.846191,4119.487305,4118.461426,4133.333496,4129.743652,4125.128418,4128.205078,4145.128418,4103.589844,4128.205078,0.000000,4.000000,,,,0.000000,4.000000,4.000000,4.000000,4.000000,4.000000,4.000000,4.000000,4.000000,4.000000,4.000000,4.000000,4.000000,4.000000,4.000000,100.000000
1602006807.010571,59.000000,0.000000,4113.333496,4133.846191,4113.846191,4123.589844,4119.487305,4116.410156,4124.102539,4126.666504,4121.025879,4116.922852,4120.512695,4130.256348,4092.820557,4115.384766,0.000000,4.000000,,,,0.000000,4.000000,4.000000,4.000000,4.000000,4.000000,4.000000,4.000000,4.000000,4.000000,4.000000,4.000000,4.000000,4.000000,4.000000,100.000000
1602006807.018452,60.000000,0.000000,4111.282227,4135.384766,4104.615234,4131.282227,4129.743652,4127.179688,4134.871582,4128.205078,4125.128418,4126.153809,4110.769043,4124.615234,4089.743652,4103.589844,0.000000,4.000000,,,,0.000000,4.000000,4.000000,4.000000,4.000000,4.000000,4.000000,4.000000,4.000000,4.000000,4.000000,4.000000,4.000000,4.000000,4.000000,100.000000
1602006807.026333,61.000000,0.000000,4110.256348,4139.487305,4107.179688,4137.436035,4141.025879,4137.948730,4139.487305,4132.820313,4131.282227,4107.179688,4103.589844,4122.051270,4088.205078,4100.000000,0.000000,4.000000,,,,0.000000,4.000000,4.000000,4.000000,4.000000,4.000000,4.000000,4.000000,4.000000,4.000000,4.000000,4.000000,4.000000,4.000000,4.000000,100.000000
1602006807.034215,62.000000,0.000000,4115.897461,4145.641113,4122.563965,4137.948730,4144.615234,4146.666504,4139.487305,4135.897461,4140.000000,4105.641113,4109.743652,4125.641113,4091.794922,4108.205078,0.000000,4.000000,,,,0.000000,4.000000,4.000000,4.000000,4.000000,4.000000,4.000000,4.000000,4.000000,4.000000,4.000000,4.000000,4.000000,4.000000,4.000000,100.000000
1602006807.042096,63.000000,0.000000,4130.256348,4153.846191,4138.974121,4145.128418,4143.589844,4150.256348,4142.051270,4138.461426,4154.358887,4144.102539,4122.051270,4141.538574,4108.717773,4125.128418,0.000000,4.000000,,,,0.000000,4.000000,4.000000,4.000000,4.000000,4.000000,4.000000,4.000000,4.000000,4.000000,4.000000,4.000000,4.000000,4.000000,4.000000,100.000000
1602006807.049977,64.000000,0.000000,4135.384766,4157.436035,4144.615234,4148.205078,4138.461426,4140.000000,4143.077148,4140.000000,4162.563965,4152.820313,4127.179688,4152.307617,4122.051270,4131.282227,790.000000,4.000000,,,,0.000000,4.000000,4.000000,4.000000,4.000000,4.000000,4.000000,4.000000,4.000000,4.000000,4.000000,4.000000,4.000000,4.000000,4.000000,100.000000
1602006807.057758,65.000000,0.000000,4132.307617,4152.307617,4144.102539,4140.512695,4134.358887,4133.846191,4140.512695,4145.641113,4170.769043,4140.512695,4130.769043,4149.230957,4122.563965,4132.820313,784.000000,4.000000,,,,0.000000,4.000000,4.000000,4.000000,4.000000,4.000000,4.000000,4.000000,4.000000,4.000000,4.000000,4.000000,4.000000,4.000000,4.000000,100.000000
1602006807.065639,66.000000,0.000000,4134.871582,4147.692383,4142.563965,4136.410156,4135.384766,4138.461426,4142.051270,4150.769043,4186.153809,4151.282227,4140.000000,4144.102539,4124.102539,4138.974121,853.000000,4.000000,,,,0.000000,4.000000,4.000000,4.000000,4.000000,4.000000,4.000000,4.000000,4.000000,4.000000,4.000000,4.000000,4.000000,4.000000,4.000000,100.000000
1602006807.073520,67.000000,0.000000,4140.000000,4150.769043,4133.846191,4139.487305,4138.461426,4143.077148,4142.563965,4146.153809,4184.102539,4160.512695,4145.128418,4140.000000,4125.128418,4140.512695,868.000000,4.000000,,,,0.000000,4.000000,4.000000,4.000000,4.000000,4.000000,4.000000,4.000000,4.000000,4.000000,4.000000,4.000000,4.000000,4.000000,4.000000,100.000000
1602006807.081402,68.000000,0.000000,4139.487305,4153.333496,4122.051270,4139.487305,4137.948730,4145.641113,4137.948730,4140.512695,4173.333496,4151.282227,4141.025879,4135.384766,4124.615234,4135.897461,815.000000,4.000000,,,,0.000000,4.000000,4.000000,4.000000,4.000000,4.000000,4.000000,4.000000,4.000000,4.000000,4.000000,4.000000,4.000000,4.000000,4.000000,100.000000
1602006807.089283,69.000000,0.000000,4139.487305,4153.846191,4120.512695,4138.461426,4136.922852,4146.153809,4134.871582,4142.563965,4171.794922,4145.641113,4135.897461,4134.358887,4124.102539,4131.282227,848.000000,4.000000,,,,0.000000,4.000000,4.000000,4.000000,4.000000,4.000000,4.000000,4.000000,4.000000,4.000000,4.000000,4.000000,4.000000,4.000000,4.000000,100.000000
1602006807.097164,70.000000,0.000000,4140.000000,4154.358887,4123.077148,4138.974121,4138.461426,4141.025879,4134.358887,4133.846191,4157.948730,4144.102539,4128.205078,4134.871582,4111.794922,4123.077148,765.000000,4.000000,,,,0.000000,4.000000,4.000000,4.000000,4.000000,4.000000,4.000000,4.000000,4.000000,4.000000,4.000000,4.000000,4.000000,4.000000,4.000000,100.000000
1602006807.105045,71.000000,0.000000,4137.436035,4152.820313,4120.512695,4137.948730,4138.974121,4137.436035,4135.897461,4122.563965,4148.205078,4136.410156,4123.077148,4133.846191,4096.922852,4118.461426,661.000000,4.000000,,,,0.000000,4.000000,4.000000,4.000000,4.000000,4.000000,4.000000,4.000000,4.000000,4.000000,4.000000,4.000000,4.000000,4.000000,4.000000,100.000000
1602006807.112926,72.000000,0.000000,4137.436035,4151.282227,4125.128418,4136.410156,4131.794922,4131.794922,4137.436035,4127.692383,4162.051270,4125.128418,4123.589844,4135.897461,4097.436035,4124.615234,780.000000,4.000000,,,,0.000000,4.000000,4.000000,4.000000,4.000000,4.000000,4.000000,4.000000,4.000000,4.000000,4.000000,4.000000,4.000000,4.000000,4.000000,100.000000
1602006807.120907,73.000000,0.000000,4140.000000,4152.820313,4135.384766,4136.410156,4121.025879,4126.666504,4141.538574,4136.922852,4170.769043,4122.563965,4121.538574,4143.589844,4106.666504,4125.128418,835.000000,4.000000,,,,0.000000,4.000000,4.000000,4.000000,4.000000,4.000000,4.000000,4.000000,4.000000,4.000000,4.000000,4.000000,4.000000,4.000000,4.000000,100.000000
1602006807.128789,74.000000,0.000000,4145.128418,4154.871582,4139.487305,4138.461426,4120.000000,4135.897461,4150.256348,4146.666504,4178.974121,4134.358887,4127.179688,4152.307617,4118.461426,4122.563965,874.000000,4.000000,,,,0.000000,4.000000,4.000000,4.000000,4.000000,4.000000,4.000000,4.000000,4.000000,4.000000,4.000000,4.000000,4.000000,4.000000,4.000000,100.000000
1602006807.136670,75.000000,0.000000,4151.794922,4154.358887,4141.025879,4137.436035,4122.563965,4144.615234,4157.436035,4155.384766,4193.333496,4144.615234,4138.974121,4157.948730,4126.666504,4133.333496,841.000000,4.000000,,,,0.000000,4.000000,4.000000,4.000000,4.000000,4.000000,4.000000,4.000000,4.000000,4.000000,4.000000,4.000000,4.000000,4.000000,4.000000,100.000000
1602006807.144551,76.000000,0.000000,4158.461426,4153.846191,4146.153809,4136.410156,4116.922852,4139.487305,4152.307617,4156.410156,4189.743652,4155.384766,4141.025879,4157.948730,4126.666504,4145.641113,760.000000,4.000000,,,,0.000000,4.000000,4.000000,4.000000,4.000000,4.000000,4.000000,4.000000,4.000000,4.000000,4.000000,4.000000,4.000000,4.000000,4.000000,100.000000
1602006807.152432,77.000000,0.000000,4160.512695,4148.205078,4146.153809,4135.384766,4113.846191,4139.487305,4144.102539,4151.282227,4186.153809,4163.589844,4132.820313,4157.436035,4123.077148,4133.846191,726.000000,4.000000,,,,0.000000,4.000000,4.000000,4.000000,4.000000,4.000000,4.000000,4.000000,4.000000,4.000000,4.000000,4.000000,4.000000,4.000000,4.000000,100.000000
1602006807.160313,78.000000,0.000000,4150.256348,4134.358887,4135.897461,4126.666504,4120.512695,4138.461426,4138.974121,4140.000000,4186.666504,4142.051270,4124.102539,4154.358887,4114.871582,4108.205078,874.000000,4.000000,,,,0.000000,4.000000,4.000000,4.000000,4.000000,4.000000,4.000000,4.000000,4.000000,4.000000,4.000000,4.000000,4.000000,4.000000,4.000000,100.000000
1602006807.168194,79.000000,0.000000,4137.436035,4125.128418,4126.666504,4118.461426,4122.051270,4125.641113,4133.846191,4125.641113,4163.589844,4113.333496,4118.974121,4147.692383,4104.102539,4104.102539,841.000000,4.000000,,,,0.000000,4.000000,4.000000,4.000000,4.000000,4.000000,4.000000,4.000000,4.000000,4.000000,4.000000,4.000000,4.000000,4.000000,4.000000,100.000000
1602006807.176076,80.000000,0.000000,4135.384766,4129.743652,4125.641113,4124.615234,4123.589844,4130.256348,4133.846191,4121.025879,4154.871582,4115.384766,4121.538574,4148.205078,4103.589844,4114.871582,760.000000,4.000000,,,,0.000000,4.000000,4.000000,4.000000,4.000000,4.000000,4.000000,4.000000,4.000000,4.000000,4.000000,4.000000,4.000000,4.000000,4.000000,100.000000
1602006807.183957,81.000000,0.000000,4138.461426,4139.487305,4127.179688,4135.384766,4135.384766,4151.794922,4136.922852,4125.128418,4168.205078,4114.871582,4126.666504,4149.230957,4109.230957,4112.820313,726.000000,4.000000,,,,0.000000,4.000000,4.000000,4.000000,4.000000,4.000000,4.000000,4.000000,4.000000,4.000000,4.000000,4.000000,4.000000,4.000000,4.000000,100.000000
1602006807.191738,82.000000,0.000000,4135.897461,4141.538574,4125.128418,4136.922852,4138.461426,4150.769043,4129.230957,4124.102539,4153.846191,4096.410156,4121.025879,4144.102539,4108.717773,4112.820313,874.000000,4.000000,,,,0.000000,4.000000,4.000000,4.000000,4.000000,4.000000,4.000000,4.000000,4.000000,4.000000,4.000000,4.000000,4.000000,4.000000,4.000000,100.000000
1602006807.199619,83.000000,0.000000,4132.820313,4136.410156,4120.000000,4127.179688,4124.102539,4125.641113,4121.538574,4118.461426,4129.743652,4094.358887,4112.820313,4141.025879,4106.153809,4122.563965,841.000000,4.000000,,,,0.000000,4.000000,4.000000,4.000000,4.000000,4.000000,4.000000,4.000000,4.000000,4.000000,4.000000,4.000000,4.000000,4.000000,4.000000,100.000000
1602006807.207500,84.000000,0.000000,4134.358887,4135.384766,4124.615234,4121.538574,4118.461426,4114.871582,4130.256348,4122.563965,4134.871582,4108.717773,4118.974121,4155.897461,4112.820313,4124.615234,760.000000,4.000000,,,,0.000000,4.000000,4.000000,4.000000,4.000000,4.000000,4.000000,4.000000,4.000000,4.000000,4.000000,4.000000,4.000000,4.000000,4.000000,100.000000
1602006807.215381,85.000000,0.000000,4140.000000,4140.512695,4136.922852,4126.153809,4122.563965,4131.794922,4140.000000,4134.358887,4155.384766,4118.974121,4128.205078,4170.769043,4124.615234,4124.615234,726.000000,4.000000,,,,0.000000,4.000000,4.000000,4.000000,4.000000,4.000000,4.000000,4.000000,4.000000,4.000000,4.000000,4.000000,4.000000,4.000000,4.000000,100.000000
1602006807.223263,86.000000,0.000000,4141.025879,4140.512695,4135.384766,4126.666504,4123.077148,4144.615234,4137.436035,4134.871582,4166.153809,4125.128418,4124.102539,4162.563965,4121.538574,4124.615234,874.000000,4.000000,,,,0.000000,4.000000,4.000000,4.000000,4.000000,4.000000,4.000000,4.000000,4.000000,4.000000,4.000000,4.000000,4.000000,4.000000,4.000000,100.000000
1602006807.231144,87.000000,0.000000,4132.307617,4135.897461,4122.051270,4124.615234,4128.717773,4131.794922,4133.333496,4127.692383,4170.256348,4123.077148,4122.563965,4149.743652,4111.794922,4114.871582,841.000000,4.000000,,,,0.000000,4.000000,4.000000,4.000000,4.000000,4.000000,4.000000,4.000000,4.000000,4.000000,4.000000,4.000000,4.000000,4.000000,4.000000,100.000000
1602006807.239025,88.000000,0.000000,4128.205078,4135.897461,4119.487305,4129.230957,4138.461426,4122.051270,4133.846191,4130.769043,4176.922852,4125.641113,4133.846191,4149.230957,4116.410156,4112.307617,760.000000,4.000000,,,,0.000000,4.000000,4.000000,4.000000,4.000000,4.000000,4.000000,4.000000,4.000000,4.000000,4.000000,4.000000,4.000000,4.000000,4.000000,100.000000
1602006807.246906,89.000000,0.000000,4129.230957,4146.153809,4127.692383,4135.384766,4141.538574,4141.025879,4134.871582,4137.948730,4189.743652,4150.256348,4140.512695,4153.333496,4128.205078,4126.153809,726.000000,4.000000,,,,0.000000,4.000000,4.000000,4.000000,4.000000,4.000000,4.000000,4.000000,4.000000,4.000000,4.000000,4.000000,4.000000,4.000000,4.000000,100.000000
1602006807.254787,90.000000,0.000000,4125.641113,4151.794922,4128.717773,4137.948730,4142.051270,4154.358887,4137.436035,4139.487305,4194.358887,4160.000000,4139.487305,4158.461426,4136.410156,4131.282227,874.000000,4.000000,,,,0.000000,4.000000,4.000000,4.000000,4.000000,4.000000,4.000000,4.000000,4.000000,4.000000,4.000000,4.000000,4.000000,4.000000,4.000000,100.000000
1602006807.262568,91.000000,0.000000,4122.051270,4144.102539,4122.563965,4132.307617,4141.538574,4135.384766,4136.922852,4137.948730,4186.666504,4141.025879,4136.410156,4161.538574,4138.974121,4122.563965,841.000000,4.000000,,,,0.000000,4.000000,4.000000,4.000000,4.000000,4.000000,4.000000,4.000000,4.000000,4.000000,4.000000,4.000000,4.000000,4.000000,4.000000,100.000000
1602006807.270449,92.000000,0.000000,4128.717773,4141.538574,4118.974121,4124.615234,4135.384766,4126.666504,4133.846191,4136.410156,4186.153809,4136.410156,4134.871582,4161.538574,4136.410156,4123.589844,760.000000,4.000000,,,,0.000000,4.000000,4.000000,4.000000,4.000000,4.000000,4.000000,4.000000,4.000000,4.000000,4.000000,4.000000,4.000000,4.000000,4.000000,100.000000
1602006807.278330,93.000000,0.000000,4145.641113,4152.820313,4126.666504,4131.794922,4137.436035,4150.256348,4137.436035,4140.000000,4201.025879,4152.307617,4144.102539,4166.153809,4143.077148,4140.000000,726.000000,4.000000,,,,0.000000,4.000000,4.000000,4.000000,4.000000,4.000000,4.000000,4.000000,4.000000,4.000000,4.000000,4.000000,4.000000,4.000000,4.000000,100.000000
1602006807.286211,94.000000,0.000000,4159.487305,4162.563965,4138.974121,4142.563965,4142.563965,4165.128418,4143.077148,4144.102539,4207.692383,4148.205078,4144.615234,4167.179688,4148.717773,4144.615234,874.000000,4.000000,,,,0.000000,4.000000,4.000000,4.000000,4.000000,4.000000,4.000000,4.000000,4.000000,4.000000,4.000000,4.000000,4.000000,4.000000,4.000000,100.000000
1602006807.294192,95.000000,0.000000,4159.487305,4157.436035,4144.615234,4138.974121,4133.846191,4150.769043,4140.512695,4138.461426,4184.615234,4131.282227,4125.641113,4153.846191,4127.692383,4124.615234,841.000000,4.000000,,,,0.000000,4.000000,4.000000,4.000000,4.000000,4.000000,4.000000,4.000000,4.000000,4.000000,4.000000,4.000000,4.000000,4.000000,4.000000,100.000000
1602006807.302072,96.000000,0.000000,4152.820313,4151.794922,4150.256348,4134.871582,4129.743652,4145.641113,4134.871582,4136.410156,4162.051270,4136.922852,4123.077148,4149.230957,4116.410156,4120.512695,760.000000,4.000000,,,,0.000000,4.000000,4.000000,4.000000,4.000000,4.000000,4.000000,4.000000,4.000000,4.000000,4.000000,4.000000,4.000000,4.000000,4.000000,100.000000
1602006807.309953,97.000000,0.000000,4157.948730,4153.846191,4156.922852,4141.025879,4141.538574,4154.358887,4136.410156,4136.410156,4164.102539,4140.000000,4139.487305,4158.974121,4135.384766,4137.436035,726.000000,4.000000,,,,0.000000,4.000000,4.000000,4.000000,4.000000,4.000000,4.000000,4.000000,4.000000,4.000000,4.000000,4.000000,4.000000,4.000000,4.000000,100.000000
1602006807.317734,98.000000,0.000000,4162.563965,4149.743652,4151.282227,4140.512695,4142.563965,4144.615234,4134.871582,4130.256348,4161.538574,4124.102539,4138.974121,4158.461426,4137.436035,4131.282227,874.000000,4.000000,,,,0.000000,4.000000,4.000000,4.000000,4.000000,4.000000,4.000000,4.000000,4.000000,4.000000,4.000000,4.000000,4.000000,4.000000,4.000000,100.000000
1602006807.325615,99.000000,0.000000,4152.307617,4138.974121,4139.487305,4129.230957,4135.897461,4130.256348,4128.205078,4127.692383,4153.333496,4125.641113,4125.128418,4156.410156,4117.948730,4113.333496,841.000000,4.000000,,,,0.000000,4.000000,4.000000,4.000000,4.000000,4.000000,4.000000,4.000000,4.000000,4.000000,4.000000,4.000000,4.000000,4.000000,4.000000,100.000000
1602006807.333496,100.000000,0.000000,4140.000000,4133.846191,4137.436035,4125.128418,4135.897461,4133.333496,4129.230957,4132.820313,4160.000000,4137.948730,4126.666504,4165.128418,4121.025879,4124.102539,760.000000,4.000000,,,,0.000000,4.000000,4.000000,4.000000,4.000000,4.000000,4.000000,4.000000,4.000000,4.000000,4.000000,4.000000,4.000000,4.000000,4.000000,100.000000
1602006807.341377,101.000000,0.000000,4140.000000,4133.333496,4139.487305,4128.717773,4133.333496,4138.461426,4138.974121,4135.384766,4169.230957,4140.512695,4144.102539,4169.743652,4139.487305,4143.077148,726.000000,4.000000,,,,0.000000,4.000000,4.000000,4.000000,4.000000,4.000000,4.000000,4.000000,4.000000,4.000000,4.000000,4.000000,4.000000,4.000000,4.000000,100.000000
1602006807.349158,102.000000,0.000000,4147.692383,4131.282227,4142.563965,4129.230957,4131.794922,4136.922852,4144.615234,4135.384766,4177.948730,4157.948730,4156.410156,4168.717773,4142.051270,4141.538574,874.000000,4.000000,,,,0.000000,4.000000,4.000000,4.000000,4.000000,4.000000,4.000000,4.000000,4.000000,4.000000,4.000000,4.000000,4.000000,4.000000,4.000000,100.000000
1602006807.357039,103.000000,0.000000,4151.794922,4133.846191,4150.769043,4128.205078,4133.846191,4137.948730,4142.563965,4138.461426,4188.205078,4176.410156,4157.436035,4169.230957,4139.487305,4140.000000,841.000000,4.000000,,,,0.000000,4.000000,4.000000,4.000000,4.000000,4.000000,4.000000,4.000000,4.000000,4.000000,4.000000,4.000000,4.000000,4.000000,4.000000,100.000000
1602006807.364920,104.000000,0.000000,4152.307617,4138.461426,4158.974121,4133.846191,4130.769043,4138.461426,4141.025879,4141.538574,4176.922852,4156.922852,4149.743652,4171.282227,4143.077148,4143.077148,760.000000,4.000000,,,,0.000000,4.000000,4.000000,4.000000,4.000000,4.000000,4.000000,4.000000,4.000000,4.000000,4.000000,4.000000,4.000000,4.000000,4.000000,100.000000
1602006807.372801,105.000000,0.000000,4152.820313,4138.974121,4157.948730,4137.436035,4129.743652,4137.948730,4140.000000,4138.974121,4149.743652,4137.948730,4144.102539,4170.769043,4137.436035,4143.589844,726.000000,4.000000,,,,0.000000,4.000000,4.000000,4.000000,4.000000,4.000000,4.000000,4.000000,4.000000,4.000000,4.000000,4.000000,4.000000,4.000000,4.000000,100.000000
1602006807.380682,106.000000,0.000000,4149.743652,4142.563965,4147.692383,4136.410156,4137.948730,4138.974121,4132.307617,4130.256348,4134.358887,4132.820313,4138.461426,4166.666504,4124.615234,4138.461426,874.000000,4.000000,,,,0.000000,4.000000,4.000000,4.000000,4.000000,4.000000,4.000000,4.000000,4.000000,4.000000,4.000000,4.000000,4.000000,4.000000,4.000000,100.000000
1602006807.388662,107.000000,0.000000,4140.000000,4150.769043,4134.358887,4137.436035,4141.538574,4138.461426,4122.563965,4120.512695,4126.153809,4106.153809,4126.666504,4155.897461,4122.051270,4121.025879,841.000000,4.000000,,,,0.000000,4.000000,4.000000,4.000000,4.000000,4.000000,4.000000,4.000000,4.000000,4.000000,4.000000,4.000000,4.000000,4.000000,4.000000,100.000000
1602006807.396543,108.000000,0.000000,4128.717773,4153.333496,4120.512695,4139.487305,4138.974121,4140.512695,4120.000000,4113.333496,4117.436035,4093.333252,4116.922852,4143.589844,4122.051270,4105.641113,760.000000,4.000000,,,,0.000000,4.000000,4.000000,4.000000,4.000000,4.000000,4.000000,4.000000,4.000000,4.000000,4.000000,4.000000,4.000000,4.000000,4.000000,100.000000
1602006807.404424,109.000000,0.000000,4121.538574,4147.179688,4114.871582,4140.000000,4136.922852,4137.436035,4124.102539,4114.871582,4117.436035,4113.333496,4119.487305,4136.410156,4110.769043,4105.128418,726.000000,4.000000,,,,0.000000,4.000000,4.000000,4.000000,4.000000,4.000000,4.000000,4.000000,4.000000,4.000000,4.000000,4.000000,4.000000,4.000000,4.000000,100.000000
1602006807.412305,110.000000,0.000000,4120.000000,4143.077148,4122.051270,4137.948730,4127.692383,4117.436035,4124.615234,4120.512695,4123.589844,4121.538574,4129.230957,4135.384766,4110.256348,4108.205078,874.000000,4.000000,,,,0.000000,4.000000,4.000000,4.000000,4.000000,4.000000,4.000000,4.000000,4.000000,4.000000,4.000000,4.000000,4.000000,4.000000,4.000000,100.000000
1602006807.420186,111.000000,0.000000,4126.153809,4147.692383,4139.487305,4135.897461,4120.000000,4102.563965,4124.615234,4118.461426,4128.717773,4128.717773,4137.436035,4144.102539,4129.743652,4114.871582,841.000000,4.000000,,,,0.000000,4.000000,4.000000,4.000000,4.000000,4.000000,4.000000,4.000000,4.000000,4.000000,4.000000,4.000000,4.000000,4.000000,4.000000,100.000000
1602006807.428167,112.000000,0.000000,4148.717773,4160.512695,4162.051270,4148.205078,4129.230957,4116.410156,4131.794922,4122.051270,4139.487305,4155.384766,4152.307617,4168.717773,4150.769043,4141.538574,760.000000,4.000000,,,,0.000000,4.000000,4.000000,4.000000,4.000000,4.000000,4.000000,4.000000,4.000000,4.000000,4.000000,4.000000,4.000000,4.000000,4.000000,100.000000
1602006807.436048,113.000000,0.000000,4166.666504,4166.153809,4171.794922,4156.922852,4137.948730,4131.794922,4137.948730,4132.307617,4152.820313,4162.563965,4164.102539,4188.205078,4157.436035,4164.615234,726.000000,4.000000,,,,0.000000,4.000000,4.000000,4.000000,4.000000,4.000000,4.000000,4.000000,4.000000,4.000000,4.000000,4.000000,4.000000,4.000000,4.000000,100.000000
1602006807.443929,114.000000,0.000000,4157.436035,4154.871582,4162.051270,4143.077148,4133.333496,4122.051270,4134.871582,4132.307617,4156.410156,4149.743652,4153.333496,4182.563965,4146.153809,4153.846191,874.000000,4.000000,,,,0.000000,4.000000,4.000000,4.000000,4.000000,4.000000,4.000000,4.000000,4.000000,4.000000,4.000000,4.000000,4.000000,4.000000,4.000000,100.000000
1602006807.451811,115.000000,0.000000,4157.948730,4152.307617,4155.384766,4138.974121,4139.487305,4120.512695,4133.333496,4131.282227,4155.897461,4157.436035,4147.179688,4173.846191,4149.230957,4146.666504,841.000000,4.000000,,,,0.000000,4.000000,4.000000,4.000000,4.000000,4.000000,4.000000,4.000000,4.000000,4.000000,4.000000,4.000000,4.000000,4.000000,4.000000,100.000000
1602006807.459692,116.000000,0.000000,4171.794922,4161.025879,4158.974121,4148.717773,4151.282227,4137.436035,4136.410156,4137.948730,4156.922852,4161.025879,4164.102539,4176.410156,4174.871582,4165.128418,760.000000,4.000000,,,,0.000000,4.000000,4.000000,4.000000,4.000000,4.000000,4.000000,4.000000,4.000000,4.000000,4.000000,4.000000,4.000000,4.000000,4.000000,100.000000
1602006807.467573,117.000000,0.000000,4155.897461,4152.307617,4155.897461,4141.538574,4144.102539,4141.025879,4137.948730,4137.436035,4153.333496,4144.102539,4173.333496,4172.820313,4185.641113,4175.384766,726.000000,4.000000,,,,0.000000,4.000000,4.000000,4.000000,4.000000,4.000000,4.000000,4.000000,4.000000,4.000000,4.000000,4.000000,4.000000,4.000000,4.000000,100.000000
1602006807.475454,118.000000,0.000000,4133.846191,4133.333496,4150.256348,4128.205078,4136.410156,4136.922852,4137.948730,4136.922852,4154.358887,4145.128418,4169.230957,4168.717773,4187.692383,4176.410156,874.000000,4.000000,,,,0.000000,4.000000,4.000000,4.000000,4.000000,4.000000,4.000000,4.000000,4.000000,4.000000,4.000000,4.000000,4.000000,4.000000,4.000000,100.000000
1602006807.483335,119.000000,0.000000,4131.794922,4120.512695,4153.846191,4123.589844,4135.384766,4141.538574,4140.512695,4143.077148,4161.025879,4160.000000,4173.846191,4172.820313,4204.615234,4183.589844,841.000000,4.000000,,,,0.000000,4.000000,4.000000,4.000000,4.000000,4.000000,4.000000,4.000000,4.000000,4.000000,4.000000,4.000000,4.000000,4.000000,4.000000,100.000000
1602006807.491216,120.000000,0.000000,4120.000000,4101.025879,4155.897461,4112.307617,4123.077148,4138.974121,4140.512695,4142.051270,4156.410156,4144.102539,4169.743652,4170.769043,4202.051270,4180.000000,760.000000,4.000000,,,,0.000000,4.000000,4.000000,4.000000,4.000000,4.000000,4.000000,4.000000,4.000000,4.000000,4.000000,4.000000,4.000000,4.000000,4.000000,100.000000
1602006807.499198,121.000000,0.000000,4103.589844,4085.641113,4152.820313,4103.589844,4114.871582,4133.846191,4140.000000,4139.487305,4146.153809,4125.641113,4155.384766,4166.666504,4175.384766,4166.153809,726.000000,4.000000,,,,0.000000,4.000000,4.000000,4.000000,4.000000,4.000000,4.000000,4.000000,4.000000,4.000000,4.000000,4.000000,4.000000,4.000000,4.000000,100.000000
1602006807.507079,122.000000,0.000000,4108.717773,4087.179443,4150.256348,4107.692383,4123.589844,4134.871582,4139.487305,4137.436035,4140.000000,4141.025879,4154.358887,4165.641113,4167.692383,4157.948730,874.000000,4.000000,,,,0.000000,4.000000,4.000000,4.000000,4.000000,4.000000,4.000000,4.000000,4.000000,4.000000,4.000000,4.000000,4.000000,4.000000,4.000000,100.000000
1602006807.514960,123.000000,0.000000,4106.153809,4081.025635,4143.077148,4106.153809,4121.538574,4130.256348,4136.922852,4130.256348,4130.769043,4155.384766,4151.282227,4156.410156,4169.743652,4146.666504,841.000000,4.000000,,,,0.000000,4.000000,4.000000,4.000000,4.000000,4.000000,4.000000,4.000000,4.000000,4.000000,4.000000,4.000000,4.000000,4.000000,4.000000,100.000000
1602006807.522841,124.000000,0.000000,4095.897461,4071.794922,4132.820313,4101.538574,4111.794922,4118.974121,4134.871582,4125.128418,4123.077148,4155.897461,4140.512695,4149.230957,4157.948730,4133.333496,760.000000,4.000000,,,,0.000000,4.000000,4.000000,4.000000,4.000000,4.000000,4.000000,4.000000,4.000000,4.000000,4.000000,4.000000,4.000000,4.000000,4.000000,100.000000
1602006807.530722,125.000000,0.000000,4100.512695,4082.564209,4131.282227,4107.692383,4117.436035,4113.846191,4131.794922,4126.153809,4128.205078,4170.256348,4141.538574,4151.794922,4148.205078,4134.871582,726.000000,4.000000,,,,0.000000,4.000000,4.000000,4.000000,4.000000,4.000000,4.000000,4.000000,4.000000,4.000000,4.000000,4.000000,4.000000,4.000000,4.000000,100.000000
1602006807.538603,126.000000,0.000000,4107.692383,4101.025879,4135.384766,4117.436035,4130.256348,4115.384766,4126.153809,4126.153809,4135.384766,4175.384766,4141.538574,4150.769043,4155.897461,4144.102539,874.000000,4.000000,,,,0.000000,4.000000,4.000000,4.000000,4.000000,4.000000,4.000000,4.000000,4.000000,4.000000,4.000000,4.000000,4.000000,4.000000,4.000000,100.000000
1602006807.546485,127.000000,0.000000,4113.846191,4113.846191,4137.436035,4126.666504,4135.897461,4126.666504,4125.128418,4126.666504,4138.461426,4166.666504,4146.666504,4147.179688,4172.307617,4154.358887,841.000000,4.000000,,,,0.000000,4.000000,4.000000,4.000000,4.000000,4.000000,4.000000,4.000000,4.000000,4.000000,4.000000,4.000000,4.000000,4.000000,4.000000,100.000000
1602006807.554366,128.000000,0.000000,4126.666504,4125.641113,4145.641113,4140.000000,4138.974121,4149.230957,4132.307617,4140.000000,4152.307617,4192.820313,4172.820313,4157.436035,4188.205078,4165.641113,760.000000,4.000000,,,,0.000000,4.000000,4.000000,4.000000,4.000000,4.000000,4.000000,4.000000,4.000000,4.000000,4.000000,4.000000,4.000000,4.000000,4.000000,100.000000
1602006807.562147,0.000000,0.000000,4135.897461,4129.230957,4155.384766,4142.051270,4137.436035,4157.436035,4143.589844,4154.871582,4167.692383,4226.153809,4188.717773,4170.769043,4195.897461,4173.846191,790.000000,4.000000,,,,0.000000,4.000000,4.000000,4.000000,4.000000,4.000000,4.000000,4.000000,4.000000,4.000000,4.000000,4.000000,4.000000,4.000000,4.000000,100.000000
1602006807.570028,1.000000,0.000000,4128.717773,4117.948730,4151.282227,4129.230957,4127.692383,4145.128418,4152.307617,4156.922852,4160.512695,4217.436035,4178.974121,4172.307617,4191.794922,4173.333496,784.000000,4.000000,,,,0.000000,4.000000,4.000000,4.000000,4.000000,4.000000,4.000000,4.000000,4.000000,4.000000,4.000000,4.000000,4.000000,4.000000,4.000000,100.000000
1602006807.577909,2.000000,0.000000,4116.410156,4105.128418,4141.538574,4121.025879,4120.000000,4137.948730,4153.846191,4151.794922,4143.077148,4194.871582,4166.666504,4166.153809,4188.205078,4164.615234,853.000000,4.000000,,,,0.000000,4.000000,4.000000,4.000000,4.000000,4.000000,4.000000,4.000000,4.000000,4.000000,4.000000,4.000000,4.000000,4.000000,4.000000,100.000000
1602006807.585790,3.000000,0.000000,4111.282227,4100.000000,4141.025879,4118.461426,4123.589844,4142.563965,4154.358887,4153.846191,4141.538574,4187.179688,4157.948730,4158.461426,4182.563965,4156.410156,868.000000,4.000000,,,,0.000000,4.000000,4.000000,4.000000,4.000000,4.000000,4.000000,4.000000,4.000000,4.000000,4.000000,4.000000,4.000000,4.000000,4.000000,100.000000
1602006807.593672,4.000000,0.000000,4103.589844,4093.846191,4139.487305,4110.256348,4128.717773,4144.102539,4155.897461,4151.282227,4140.000000,4189.230957,4151.794922,4153.333496,4165.641113,4148.205078,815.000000,4.000000,,,,0.000000,4.000000,4.000000,4.000000,4.000000,4.000000,4.000000,4.000000,4.000000,4.000000,4.000000,4.000000,4.000000,4.000000,4.000000,100.000000
1602006807.601553,5.000000,0.000000,4091.281982,4078.974365,4127.692383,4101.538574,4120.000000,4134.871582,4148.717773,4136.410156,4124.102539,4189.230957,4146.666504,4145.128418,4151.282227,4131.282227,830.000000,4.000000,,,,0.000000,4.000000,4.000000,4.000000,4.000000,4.000000,4.000000,4.000000,4.000000,4.000000,4.000000,4.000000,4.000000,4.000000,4.000000,100.000000
1602006807.609434,6.000000,0.000000,4084.102539,4073.846191,4124.615234,4101.538574,4111.794922,4121.025879,4138.461426,4129.230957,4114.871582,4178.461426,4142.051270,4137.948730,4147.179688,4122.051270,765.000000,4.000000,,,,0.000000,4.000000,4.000000,4.000000,4.000000,4.000000,4.000000,4.000000,4.000000,4.000000,4.000000,4.000000,4.000000,4.000000,4.000000,100.000000
1602006807.617315,7.000000,0.000000,4089.743652,4089.230713,4134.871582,4109.230957,4117.948730,4120.000000,4137.436035,4134.871582,4121.538574,4176.922852,4144.102539,4144.102539,4144.102539,4132.307617,661.000000,4.000000,,,,0.000000,4.000000,4.000000,4.000000,4.000000,4.000000,4.000000,4.000000,4.000000,4.000000,4.000000,4.000000,4.000000,4.000000,4.000000,100.000000
1602006807.625096,8.000000,0.000000,4099.487305,4104.615234,4145.641113,4119.487305,4123.589844,4135.384766,4139.487305,4138.974121,4135.384766,4194.358887,4151.794922,4157.436035,4150.769043,4146.666504,747.000000,4.000000,,,,0.000000,4.000000,4.000000,4.000000,4.000000,4.000000,4.000000,4.000000,4.000000,4.000000,4.000000,4.000000,4.000000,4.000000,4.000000,100.000000
1602006807.632978,9.000000,0.000000,4112.820313,4112.820313,4151.794922,4131.282227,4121.538574,4142.051270,4138.461426,4138.974121,4142.563965,4186.153809,4154.358887,4164.615234,4167.692383,4158.461426,835.000000,4.000000,,,,0.000000,4.000000,4.000000,4.000000,4.000000,4.000000,4.000000,4.000000,4.000000,4.000000,4.000000,4.000000,4.000000,4.000000,4.000000,100.000000
1602006807.640859,10.000000,0.000000,4125.128418,4121.538574,4157.948730,4137.436035,4124.102539,4136.922852,4138.461426,4142.051270,4141.025879,4166.153809,4154.358887,4170.769043,4172.820313,4168.717773,839.000000,4.000000,,,,0.000000,4.000000,4.000000,4.000000,4.000000,4.000000,4.000000,4.000000,4.000000,4.000000,4.000000,4.000000,4.000000,4.000000,4.000000,100.000000
1602006807.648740,11.000000,0.000000,4124.615234,4120.512695,4155.897461,4129.743652,4124.615234,4133.846191,4136.922852,4142.563965,4141.538574,4186.666504,4155.384766,4171.794922,4170.256348,4165.641113,841.000000,4.000000,,,,0.000000,4.000000,4.000000,4.000000,4.000000,4.000000,4.000000,4.000000,4.000000,4.000000,4.000000,4.000000,4.000000,4.000000,4.000000,100.000000
1602006807.656621,12.000000,0.000000,4121.538574,4107.692383,4143.589844,4122.051270,4118.974121,4135.384766,4134.358887,4136.922852,4143.077148,4208.717773,4153.333496,4162.563965,4165.641113,4147.692383,709.000000,4.000000,,,,0.000000,4.000000,4.000000,4.000000,4.000000,4.000000,4.000000,4.000000,4.000000,4.000000,4.000000,4.000000,4.000000,4.000000,4.000000,100.000000
1602006807.664502,13.000000,0.000000,4121.538574,4105.128418,4140.000000,4124.102539,4123.077148,4147.692383,4138.461426,4135.384766,4135.897461,4200.000000,4153.846191,4157.948730,4156.410156,4136.410156,726.000000,4.000000,,,,0.000000,4.000000,4.000000,4.000000,4.000000,4.000000,4.000000,4.000000,4.000000,4.000000,4.000000,4.000000,4.000000,4.000000,4.000000,100.000000
1602006807.672383,14.000000,0.000000,4112.820313,4109.230957,4141.538574,4123.589844,4129.230957,4152.820313,4141.538574,4137.948730,4124.102539,4187.692383,4151.282227,4157.948730,4151.794922,4140.512695,839.000000,4.000000,,,,0.000000,4.000000,4.000000,4.000000,4.000000,4.000000,4.000000,4.000000,4.000000,4.000000,4.000000,4.000000,4.000000,4.000000,4.000000,100.000000
1602006807.680265,15.000000,0.000000,4103.589844,4103.589844,4132.820313,4117.948730,4127.179688,4137.948730,4138.461426,4131.794922,4118.461426,4178.461426,4144.615234,4152.307617,4152.307617,4146.666504,841.000000,4.000000,,,,0.000000,4.000000,4.000000,4.000000,4.000000,4.000000,4.000000,4.000000,4.000000,4.000000,4.000000,4.000000,4.000000,4.000000,4.000000,100.000000
1602006807.688246,16.000000,0.000000,4103.077148,4100.000000,4122.563965,4119.487305,4123.077148,4131.794922,4138.461426,4125.641113,4117.436035,4178.461426,4142.563965,4145.641113,4152.307617,4140.000000,0.000000,4.000000,,,,0.000000,4.000000,4.000000,4.000000,4.000000,4.000000,4.000000,4.000000,4.000000,4.000000,4.000000,4.000000,4.000000,4.000000,4.000000,100.000000
1602006807.696127,17.000000,0.000000,4097.948730,4102.051270,4120.512695,4119.487305,4124.615234,4142.051270,4140.512695,4131.282227,4116.922852,4192.307617,4137.436035,4135.384766,4146.666504,4126.666504,0.000000,4.000000,,,,0.000000,4.000000,4.000000,4.000000,4.000000,4.000000,4.000000,4.000000,4.000000,4.000000,4.000000,4.000000,4.000000,4.000000,4.000000,100.000000
1602006807.704008,18.000000,0.000000,4091.794922,4105.128418,4123.077148,4120.000000,4128.205078,4143.589844,4142.051270,4137.948730,4120.512695,4205.128418,4127.692383,4126.666504,4140.000000,4121.025879,0.000000,4.000000,,,,0.000000,4.000000,4.000000,4.000000,4.000000,4.000000,4.000000,4.000000,4.000000,4.000000,4.000000,4.000000,4.000000,4.000000,4.000000,100.000000
1602006807.711889,19.000000,0.000000,4097.948730,4114.358887,4122.563965,4127.179688,4127.692383,4139.487305,4138.461426,4136.410156,4125.641113,4213.333496,4126.666504,4129.743652,4140.000000,4120.000000,0.000000,4.000000,,,,0.000000,4.000000,4.000000,4.000000,4.000000,4.000000,4.000000,4.000000,4.000000,4.000000,4.000000,4.000000,4.000000,4.000000,4.000000,100.000000
1602006807.719770,20.000000,0.000000,4103.077148,4121.025879,4121.025879,4129.230957,4122.563965,4138.974121,4127.692383,4132.820313,4123.589844,4207.692383,4133.333496,4135.384766,4145.641113,4123.589844,0.000000,4.000000,,,,0.000000,4.000000,4.000000,4.000000,4.000000,4.000000,4.000000,4.000000,4.000000,4.000000,4.000000,4.000000,4.000000,4.000000,4.000000,100.000000
1602006807.727651,21.000000,0.000000,4105.128418,4121.538574,4126.153809,4129.230957,4123.077148,4131.794922,4120.512695,4135.897461,4122.051270,4197.948730,4141.538574,4136.922852,4153.846191,4136.922852,0.000000,4.000000,,,,0.000000,4.000000,4.000000,4.000000,4.000000,4.000000,4.000000,4.000000,4.000000,4.000000,4.000000,4.000000,4.000000,4.000000,4.000000,100.000000
1602006807.735533,22.000000,0.000000,4110.256348,4129.230957,4135.897461,4136.410156,4132.307617,4123.589844,4122.051270,4141.025879,4124.102539,4204.102539,4151.282227,4141.538574,4157.948730,4143.589844,0.000000,4.000000,,,,0.000000,4.000000,4.000000,4.000000,4.000000,4.000000,4.000000,4.000000,4.000000,4.000000,4.000000,4.000000,4.000000,4.000000,4.000000,100.000000
1602006807.743414,23.000000,0.000000,4114.871582,4138.974121,4138.974121,4142.563965,4136.922852,4119.487305,4121.538574,4136.410156,4118.974121,4208.205078,4153.846191,4146.666504,4154.358887,4145.641113,0.000000,4.000000,,,,0.000000,4.000000,4.000000,4.000000,4.000000,4.000000,4.000000,4.000000,4.000000,4.000000,4.000000,4.000000,4.000000,4.000000,4.000000,100.000000
1602006807.751295,24.000000,0.000000,4121.025879,4138.461426,4142.563965,4141.538574,4135.384766,4122.563965,4120.000000,4132.307617,4119.487305,4206.666504,4150.256348,4151.282227,4158.461426,4155.384766,0.000000,4.000000,,,,0.000000,4.000000,4.000000,4.000000,4.000000,4.000000,4.000000,4.000000,4.000000,4.000000,4.000000,4.000000,4.000000,4.000000,4.000000,100.000000
1602006807.759176,25.000000,0.000000,4129.743652,4133.846191,4154.871582,4140.512695,4135.384766,4131.794922,4128.205078,4138.461426,4136.922852,4218.974121,4153.846191,4155.897461,4167.179688,4162.563965,0.000000,4.000000,,,,0.000000,4.000000,4.000000,4.000000,4.000000,4.000000,4.000000,4.000000,4.000000,4.000000,4.000000,4.000000,4.000000,4.000000,4.000000,100.000000
1602006807.766957,26.000000,0.000000,4128.205078,4130.256348,4158.461426,4135.384766,4131.794922,4131.794922,4137.436035,4141.538574,4138.974121,4219.487305,4151.794922,4156.410156,4159.487305,4152.307617,0.000000,4.000000,,,,0.000000,4.000000,4.000000,4.000000,4.000000,4.000000,4.000000,4.000000,4.000000,4.000000,4.000000,4.000000,4.000000,4.000000,4.000000,100.000000
1602006807.774838,27.000000,0.000000,4119.487305,4123.589844,4151.794922,4129.743652,4122.051270,4120.000000,4137.948730,4136.922852,4122.563965,4198.974121,4138.974121,4151.282227,4148.205078,4144.615234,0.000000,4.000000,,,,0.000000,4.000000,4.000000,4.000000,4.000000,4.000000,4.000000,4.000000,4.000000,4.000000,4.000000,4.000000,4.000000,4.000000,4.000000,100.000000
1602006807.782719,28.000000,0.000000,4121.538574,4124.102539,4152.820313,4133.333496,4123.589844,4123.077148,4137.436035,4138.461426,4121.538574,4195.897461,4139.487305,4153.333496,4153.333496,4151.282227,0.000000,4.000000,,,,0.000000,4.000000,4.000000,4.000000,4.000000,4.000000,4.000000,4.000000,4.000000,4.000000,4.000000,4.000000,4.000000,4.000000,4.000000,100.000000
1602006807.790600,29.000000,0.000000,4125.128418,4127.179688,4152.307617,4131.282227,4128.717773,4136.922852,4136.410156,4141.538574,4126.666504,4209.743652,4151.794922,4156.922852,4159.487305,4158.974121,0.000000,4.000000,,,,0.000000,4.000000,4.000000,4.000000,4.000000,4.000000,4.000000,4.000000,4.000000,4.000000,4.000000,4.000000,4.000000,4.000000,4.000000,100.000000
1602006807.798481,30.000000,0.000000,4116.410156,4123.589844,4135.384766,4123.077148,4128.717773,4133.333496,4128.717773,4138.974121,4122.051270,4213.333496,4145.128418,4152.820313,4155.384766,4157.436035,0.000000,4.000000,,,,0.000000,4.000000,4.000000,4.000000,4.000000,4.000000,4.000000,4.000000,4.000000,4.000000,4.000000,4.000000,4.000000,4.000000,4.000000,100.000000
1602006807.806362,31.000000,0.000000,4106.666504,4121.025879,4124.615234,4122.563965,4131.794922,4127.179688,4123.589844,4135.384766,4122.051270,4212.820313,4131.794922,4149.230957,4151.794922,4149.230957,0.000000,4.000000,,,,0.000000,4.000000,4.000000,4.000000,4.000000,4.000000,4.000000,4.000000,4.000000,4.000000,4.000000,4.000000,4.000000,4.000000,4.000000,100.000000
1602006807.814243,32.000000,0.000000,4105.641113,4123.077148,4130.256348,4125.641113,4132.820313,4137.436035,4126.153809,4135.897461,4118.974121,4213.333496,4138.461426,4150.769043,4152.820313,4146.666504,0.000000,4.000000,,,,0.000000,4.000000,4.000000,4.000000,4.000000,4.000000,4.000000,4.000000,4.000000,4.000000,4.000000,4.000000,4.000000,4.000000,4.000000,100.000000
1602006807.822223,33.000000,0.000000,4112.820313,4124.102539,4136.410156,4125.641113,4123.589844,4140.512695,4125.128418,4138.461426,4104.102539,4210.769043,4153.846191,4150.769043,4157.436035,4153.333496,0.000000,4.000000,,,,0.000000,4.000000,4.000000,4.000000,4.000000,4.000000,4.000000,4.000000,4.000000,4.000000,4.000000,4.000000,4.000000,4.000000,4.000000,100.000000
1602006807.830104,34.000000,0.000000,4121.025879,4122.051270,4135.384766,4125.641113,4117.948730,4126.666504,4123.589844,4136.410156,4108.205078,4204.102539,4155.384766,4149.230957,4157.948730,4161.538574,0.000000,4.000000,,,,0.000000,4.000000,4.000000,4.000000,4.000000,4.000000,4.000000,4.000000,4.000000,4.000000,4.000000,4.000000,4.000000,4.000000,4.000000,100.000000
1602006807.837985,35.000000,0.000000,4124.102539,4121.538574,4140.000000,4123.077148,4118.974121,4115.897461,4127.179688,4132.820313,4119.487305,4197.948730,4151.282227,4151.282227,4156.922852,4160.512695,0.000000,4.000000,,,,0.000000,4.000000,4.000000,4.000000,4.000000,4.000000,4.000000,4.000000,4.000000,4.000000,4.000000,4.000000,4.000000,4.000000,4.000000,100.000000
1602006807.845866,36.000000,0.000000,4130.769043,4123.077148,4150.769043,4127.692383,4120.512695,4123.077148,4135.897461,4142.051270,4119.487305,4206.153809,4155.897461,4158.461426,4163.589844,4154.358887,0.000000,4.000000,,,,0.000000,4.000000,4.000000,4.000000,4.000000,4.000000,4.000000,4.000000,4.000000,4.000000,4.000000,4.000000,4.000000,4.000000,4.000000,100.000000
1602006807.853747,37.000000,0.000000,4141.025879,4126.666504,4158.461426,4138.974121,4124.615234,4137.436035,4148.717773,4155.384766,4129.230957,4223.589844,4167.692383,4169.743652,4173.333496,4154.871582,0.000000,4.000000,,,,0.000000,4.000000,4.000000,4.000000,4.000000,4.000000,4.000000,4.000000,4.000000,4.000000,4.000000,4.000000,4.000000,4.000000,4.000000,100.000000
1602006807.861628,38.000000,0.000000,4136.922852,4125.128418,4155.384766,4134.871582,4124.102539,4136.922852,4154.358887,4151.794922,4135.384766,4226.666504,4172.820313,4168.717773,4169.743652,4158.974121,0.000000,4.000000,,,,0.000000,4.000000,4.000000,4.000000,4.000000,4.000000,4.000000,4.000000,4.000000,4.000000,4.000000,4.000000,4.000000,4.000000,4.000000,100.000000
1602006807.869609,39.000000,0.000000,4124.615234,4112.820313,4151.794922,4121.538574,4120.000000,4128.717773,4152.820313,4143.077148,4122.563965,4221.538574,4164.102539,4156.922852,4156.410156,4157.436035,0.000000,4.000000,,,,0.000000,4.000000,4.000000,4.000000,4.000000,4.000000,4.000000,4.000000,4.000000,4.000000,4.000000,4.000000,4.000000,4.000000,4.000000,100.000000
1602006807.877490,40.000000,0.000000,4120.512695,4099.487305,4155.384766,4115.384766,4122.051270,4135.384766,4150.256348,4148.717773,4116.922852,4231.794922,4155.384766,4153.333496,4151.794922,4152.820313,0.000000,4.000000,,,,0.000000,4.000000,4.000000,4.000000,4.000000,4.000000,4.000000,4.000000,4.000000,4.000000,4.000000,4.000000,4.000000,4.000000,4.000000,100.000000
1602006807.885371,41.000000,0.000000,4111.282227,4091.281982,4149.743652,4108.717773,4119.487305,4142.051270,4144.102539,4154.358887,4127.692383,4238.461426,4156.922852,4156.922852,4155.384766,4145.641113,0.000000,4.000000,,,,0.000000,4.000000,4.000000,4.000000,4.000000,4.000000,4.000000,4.000000,4.000000,4.000000,4.000000,4.000000,4.000000,4.000000,4.000000,100.000000
1602006807.893252,42.000000,0.000000,4101.538574,4086.666748,4142.051270,4101.538574,4112.307617,4133.846191,4140.512695,4150.256348,4126.666504,4222.563965,4152.307617,4156.410156,4155.384766,4138.461426,0.000000,4.000000,,,,0.000000,4.000000,4.000000,4.000000,4.000000,4.000000,4.000000,4.000000,4.000000,4.000000,4.000000,4.000000,4.000000,4.000000,4.000000,100.000000
1602006807.901133,43.000000,0.000000,4112.820313,4093.333252,4150.769043,4105.641113,4118.974121,4138.461426,4144.102539,4144.615234,4115.897461,4215.384766,4145.641113,4162.051270,4151.282227,4145.128418,0.000000,4.000000,,,,0.000000,4.000000,4.000000,4.000000,4.000000,4.000000,4.000000,4.000000,4.000000,4.000000,4.000000,4.000000,4.000000,4.000000,4.000000,100.000000
1602006807.909014,44.000000,0.000000,4125.128418,4103.077148,4160.512695,4112.307617,4128.717773,4154.358887,4143.077148,4142.051270,4112.307617,4214.358887,4146.153809,4168.205078,4147.692383,4153.846191,0.000000,4.000000,,,,0.000000,4.000000,4.000000,4.000000,4.000000,4.000000,4.000000,4.000000,4.000000,4.000000,4.000000,4.000000,4.000000,4.000000,4.000000,100.000000
1602006807.916894,45.000000,0.000000,4116.922852,4099.487305,4154.358887,4112.307617,4125.641113,4149.743652,4136.922852,4138.461426,4110.769043,4202.051270,4143.589844,4163.589844,4142.051270,4147.692383,0.000000,4.000000,,,,0.000000,4.000000,4.000000,4.000000,4.000000,4.000000,4.000000,4.000000,4.000000,4.000000,4.000000,4.000000,4.000000,4.000000,4.000000,100.000000
1602006807.924676,46.000000,0.000000,4105.641113,4092.820557,4143.589844,4109.743652,4121.025879,4131.794922,4138.461426,4136.922852,4105.128418,4199.487305,4138.974121,4151.794922,4130.769043,4136.922852,0.000000,4.000000,,,,0.000000,4.000000,4.000000,4.000000,4.000000,4.000000,4.000000,4.000000,4.000000,4.000000,4.000000,4.000000,4.000000,4.000000,4.000000,100.000000
1602006807.932557,47.000000,0.000000,4100.512695,4093.846191,4134.358887,4107.179688,4118.974121,4117.948730,4134.358887,4135.384766,4096.410156,4203.589844,4132.820313,4141.538574,4122.051270,4128.205078,0.000000,4.000000,,,,0.000000,4.000000,4.000000,4.000000,4.000000,4.000000,4.000000,4.000000,4.000000,4.000000,4.000000,4.000000,4.000000,4.000000,4.000000,100.000000
1602006807.940438,48.000000,0.000000,4092.307617,4097.948730,4124.102539,4108.717773,4116.922852,4109.230957,4121.538574,4129.230957,4090.769287,4190.256348,4124.615234,4134.358887,4116.410156,4120.000000,0.000000,4.000000,,,,0.000000,4.000000,4.000000,4.000000,4.000000,4.000000,4.000000,4.000000,4.000000,4.000000,4.000000,4.000000,4.000000,4.000000,4.000000,100.000000
1602006807.948319,49.000000,0.000000,4094.871826,4104.615234,4122.563965,4115.897461,4119.487305,4108.205078,4115.897461,4124.102539,4088.718018,4179.487305,4128.717773,4135.897461,4117.948730,4123.077148,0.000000,4.000000,,,,0.000000,4.000000,4.000000,4.000000,4.000000,4.000000,4.000000,4.000000,4.000000,4.000000,4.000000,4.000000,4.000000,4.000000,4.000000,100.000000
1602006807.956200,50.000000,0.000000,4115.384766,4116.410156,4133.333496,4122.563965,4123.589844,4116.922852,4121.538574,4130.769043,4091.281982,4189.230957,4140.000000,4145.641113,4130.256348,4138.461426,0.000000,4.000000,,,,0.000000,4.000000,4.000000,4.000000,4.000000,4.000000,4.000000,4.000000,4.000000,4.000000,4.000000,4.000000,4.000000,4.000000,4.000000,100.000000
1602006807.964082,51.000000,0.000000,4124.615234,4123.589844,4136.410156,4125.128418,4125.128418,4126.666504,4124.615234,4138.461426,4098.974121,4198.461426,4140.000000,4145.641113,4136.922852,4142.563965,0.000000,4.000000,,,,0.000000,4.000000,4.000000,4.000000,4.000000,4.000000,4.000000,4.000000,4.000000,4.000000,4.000000,4.000000,4.000000,4.000000,4.000000,100.000000
1602006807.971963,52.000000,0.000000,4108.205078,4117.436035,4123.077148,4123.077148,4122.563965,4128.717773,4121.538574,4131.794922,4094.871826,4202.563965,4138.461426,4129.230957,4128.717773,4130.769043,0.000000,4.000000,,,,0.000000,4.000000,4.000000,4.000000,4.000000,4.000000,4.000000,4.000000,4.000000,4.000000,4.000000,4.000000,4.000000,4.000000,4.000000,100.000000
1602006807.979844,53.000000,0.000000,4091.281982,4107.179688,4110.769043,4118.461426,4125.128418,4122.563965,4120.000000,4121.538574,4080.512939,4197.436035,4138.974121,4116.410156,4119.487305,4119.487305,0.000000,4.000000,,,,0.000000,4.000000,4.000000,4.000000,4.000000,4.000000,4.000000,4.000000,4.000000,4.000000,4.000000,4.000000,4.000000,4.000000,4.000000,100.000000
1602006807.987825,54.000000,0.000000,4095.897461,4106.666504,4109.230957,4118.461426,4133.846191,4124.102539,4121.025879,4127.179688,4080.512939,4195.384766,4133.333496,4120.000000,4123.589844,4121.538574,0.000000,4.000000,,,,0.000000,4.000000,4.000000,4.000000,4.000000,4.000000,4.000000,4.000000,4.000000,4.000000,4.000000,4.000000,4.000000,4.000000,4.000000,100.000000
1602006807.995706,55.000000,0.000000,4105.641113,4114.358887,4108.205078,4120.512695,4139.487305,4136.922852,4126.666504,4138.974121,4093.333252,4216.410156,4137.436035,4123.077148,4135.384766,4125.641113,0.000000,4.000000,,,,0.000000,4.000000,4.000000,4.000000,4.000000,4.000000,4.000000,4.000000,4.000000,4.000000,4.000000,4.000000,4.000000,4.000000,4.000000,100.000000
1602006808.003587,56.000000,0.000000,4109.230957,4112.820313,4111.794922,4119.487305,4136.410156,4135.897461,4132.307617,4140.512695,4095.384521,4226.666504,4139.487305,4124.102539,4138.974121,4122.563965,0.000000,4.000000,,,,0.000000,4.000000,4.000000,4.000000,4.000000,4.000000,4.000000,4.000000,4.000000,4.000000,4.000000,4.000000,4.000000,4.000000,4.000000,100.000000
1602006808.011468,57.000000,0.000000,4117.436035,4110.769043,4128.205078,4120.000000,4133.333496,4120.000000,4130.256348,4135.897461,4091.794922,4207.692383,4126.666504,4133.846191,4132.820313,4123.077148,0.000000,4.000000,,,,0.000000,4.000000,4.000000,4.000000,4.000000,4.000000,4.000000,4.000000,4.000000,4.000000,4.000000,4.000000,4.000000,4.000000,4.000000,100.000000
1602006808.019350,58.000000,0.000000,4125.641113,4115.897461,4140.512695,4123.077148,4130.256348,4107.692383,4124.615234,4134.871582,4095.897461,4197.436035,4125.128418,4142.051270,4126.153809,4123.589844,0.000000,4.000000,,,,0.000000,4.000000,4.000000,4.000000,4.000000,4.000000,4.000000,4.000000,4.000000,4.000000,4.000000,4.000000,4.000000,4.000000,4.000000,100.000000
1602006808.027231,59.000000,0.000000,4127.179688,4123.589844,4140.000000,4130.256348,4127.179688,4108.717773,4123.589844,4134.358887,4098.974121,4211.794922,4138.461426,4144.102539,4127.692383,4125.128418,0.000000,4.000000,,,,0.000000,4.000000,4.000000,4.000000,4.000000,4.000000,4.000000,4.000000,4.000000,4.000000,4.000000,4.000000,4.000000,4.000000,4.000000,100.000000
1602006808.035112,60.000000,0.000000,4126.666504,4128.205078,4141.025879,4135.384766,4133.333496,4113.333496,4125.128418,4135.897461,4095.384521,4215.384766,4141.025879,4145.128418,4133.333496,4136.922852,0.000000,4.000000,,,,0.000000,4.000000,4.000000,4.000000,4.000000,4.000000,4.000000,4.000000,4.000000,4.000000,4.000000,4.000000,4.000000,4.000000,4.000000,100.000000
1602006808.042993,61.000000,0.000000,4121.025879,4120.512695,4143.077148,4128.717773,4134.358887,4105.641113,4121.538574,4138.461426,4096.410156,4188.205078,4134.871582,4143.589844,4133.333496,4136.922852,0.000000,4.000000,,,,0.000000,4.000000,4.000000,4.000000,4.000000,4.000000,4.000000,4.000000,4.000000,4.000000,4.000000,4.000000,4.000000,4.000000,4.000000,100.000000
1602006808.050874,62.000000,0.000000,4113.846191,4111.794922,4138.974121,4120.512695,4127.692383,4105.128418,4124.102539,4136.922852,4101.025879,4165.128418,4137.436035,4143.077148,4131.282227,4121.538574,0.000000,4.000000,,,,0.000000,4.000000,4.000000,4.000000,4.000000,4.000000,4.000000,4.000000,4.000000,4.000000,4.000000,4.000000,4.000000,4.000000,4.000000,100.000000
1602006808.058855,63.000000,0.000000,4116.410156,4114.871582,4134.358887,4121.538574,4136.922852,4129.230957,4135.384766,4141.538574,4106.666504,4174.871582,4138.974121,4151.282227,4132.307617,4118.974121,0.000000,4.000000,,,,0.000000,4.000000,4.000000,4.000000,4.000000,4.000000,4.000000,4.000000,4.000000,4.000000,4.000000,4.000000,4.000000,4.000000,4.000000,100.000000
1602006808.066737,64.000000,0.000000,4123.589844,4122.051270,4138.974121,4125.128418,4154.358887,4147.179688,4142.563965,4151.282227,4118.461426,4192.820313,4141.538574,4163.589844,4141.538574,4131.794922,790.000000,4.000000,,,,0.000000,4.000000,4.000000,4.000000,4.000000,4.000000,4.000000,4.000000,4.000000,4.000000,4.000000,4.000000,4.000000,4.000000,4.000000,100.000000
1602006808.074618,65.000000,0.000000,4121.025879,4120.512695,4143.589844,4124.615234,4153.333496,4142.563965,4141.538574,4150.769043,4127.692383,4193.846191,4147.179688,4170.769043,4154.871582,4138.461426,784.000000,4.000000,,,,0.000000,4.000000,4.000000,4.000000,4.000000,4.000000,4.000000,4.000000,4.000000,4.000000,4.000000,4.000000,4.000000,4.000000,4.000000,100.000000
1602006808.082499,66.000000,0.000000,4110.769043,4110.769043,4141.025879,4123.077148,4140.000000,4133.333496,4138.974121,4141.025879,4125.128418,4191.794922,4142.051270,4168.717773,4151.794922,4137.948730,853.000000,4.000000,,,,0.000000,4.000000,4.000000,4.000000,4.000000,4.000000,4.000000,4.000000,4.000000,4.000000,4.000000,4.000000,4.000000,4.000000,4.000000,100.000000
1602006808.090380,67.000000,0.000000,4105.641113,4105.641113,4137.948730,4118.461426,4131.794922,4123.589844,4135.384766,4132.820313,4122.563965,4187.179688,4133.333496,4158.461426,4135.897461,4134.871582,868.000000,4.000000,,,,0.000000,4.000000,4.000000,4.000000,4.000000,4.000000,4.000000,4.000000,4.000000,4.000000,4.000000,4.000000,4.000000,4.000000,4.000000,100.000000
1602006808.098261,68.000000,0.000000,4108.717773,4106.666504,4138.461426,4118.461426,4128.717773,4120.512695,4131.794922,4127.692383,4125.128418,4168.205078,4136.922852,4152.820313,4131.794922,4129.743652,815.000000,4.000000,,,,0.000000,4.000000,4.000000,4.000000,4.000000,4.000000,4.000000,4.000000,4.000000,4.000000,4.000000,4.000000,4.000000,4.000000,4.000000,100.000000
1602006808.106142,69.000000,0.000000,4107.692383,4113.846191,4134.358887,4123.589844,4133.846191,4133.846191,4134.358887,4128.717773,4123.077148,4153.846191,4140.000000,4154.871582,4142.051270,4127.179688,827.000000,4.000000,,,,0.000000,4.000000,4.000000,4.000000,4.000000,4.000000,4.000000,4.000000,4.000000,4.000000,4.000000,4.000000,4.000000,4.000000,4.000000,100.000000
1602006808.114023,70.000000,0.000000,4106.153809,4120.000000,4127.179688,4123.077148,4139.487305,4133.333496,4137.948730,4133.846191,4118.461426,4156.410156,4133.846191,4153.846191,4139.487305,4130.256348,765.000000,4.000000,,,,0.000000,4.000000,4.000000,4.000000,4.000000,4.000000,4.000000,4.000000,4.000000,4.000000,4.000000,4.000000,4.000000,4.000000,4.000000,100.000000
1602006808.121905,71.000000,0.000000,4118.974121,4122.563965,4131.794922,4121.025879,4135.897461,4123.077148,4138.974121,4138.974121,4123.077148,4153.333496,4137.948730,4158.974121,4134.871582,4136.922852,661.000000,4.000000,,,,0.000000,4.000000,4.000000,4.000000,4.000000,4.000000,4.000000,4.000000,4.000000,4.000000,4.000000,4.000000,4.000000,4.000000,4.000000,100.000000
1602006808.129686,72.000000,0.000000,4133.333496,4127.692383,4142.051270,4126.666504,4137.948730,4132.307617,4139.487305,4147.179688,4135.897461,4149.743652,4152.307617,4172.307617,4147.179688,4142.563965,769.000000,4.000000,,,,0.000000,4.000000,4.000000,4.000000,4.000000,4.000000,4.000000,4.000000,4.000000,4.000000,4.000000,4.000000,4.000000,4.000000,4.000000,100.000000
1602006808.137567,73.000000,0.000000,4129.230957,4132.820313,4138.974121,4131.794922,4150.256348,4146.153809,4139.487305,4155.384766,4147.692383,4158.974121,4153.333496,4170.256348,4162.051270,4144.102539,835.000000,4.000000,,,,0.000000,4.000000,4.000000,4.000000,4.000000,4.000000,4.000000,4.000000,4.000000,4.000000,4.000000,4.000000,4.000000,4.000000,4.000000,100.000000
1602006808.145448,74.000000,0.000000,4114.358887,4128.717773,4123.077148,4128.717773,4153.333496,4144.102539,4137.436035,4150.256348,4144.615234,4156.410156,4141.025879,4151.282227,4155.384766,4135.384766,863.000000,4.000000,,,,0.000000,4.000000,4.000000,4.000000,4.000000,4.000000,4.000000,4.000000,4.000000,4.000000,4.000000,4.000000,4.000000,4.000000,4.000000,100.000000
1602006808.153329,75.000000,0.000000,4104.102539,4118.461426,4110.769043,4122.051270,4142.563965,4136.922852,4137.948730,4136.410156,4131.282227,4138.461426,4134.358887,4136.410156,4131.794922,4117.436035,841.000000,4.000000,,,,0.000000,4.000000,4.000000,4.000000,4.000000,4.000000,4.000000,4.000000,4.000000,4.000000,4.000000,4.000000,4.000000,4.000000,4.000000,100.000000
1602006808.161211,76.000000,0.000000,4105.641113,4115.897461,4114.871582,4121.025879,4133.846191,4130.256348,4136.922852,4127.179688,4121.025879,4137.948730,4135.384766,4134.358887,4123.589844,4108.717773,752.000000,4.000000,,,,0.000000,4.000000,4.000000,4.000000,4.000000,4.000000,4.000000,4.000000,4.000000,4.000000,4.000000,4.000000,4.000000,4.000000,4.000000,100.000000
1602006808.169092,77.000000,0.000000,4115.384766,4117.948730,4128.205078,4123.589844,4127.692383,4121.538574,4131.282227,4121.025879,4116.410156,4141.025879,4136.410156,4139.487305,4133.846191,4117.436035,726.000000,4.000000,,,,0.000000,4.000000,4.000000,4.000000,4.000000,4.000000,4.000000,4.000000,4.000000,4.000000,4.000000,4.000000,4.000000,4.000000,4.000000,100.000000
1602006808.176973,78.000000,0.000000,4129.743652,4120.512695,4137.436035,4125.128418,4122.563965,4120.000000,4131.282227,4124.615234,4120.000000,4138.461426,4138.974121,4153.846191,4145.128418,4133.846191,863.000000,4.000000,,,,0.000000,4.000000,4.000000,4.000000,4.000000,4.000000,4.000000,4.000000,4.000000,4.000000,4.000000,4.000000,4.000000,4.000000,4.000000,100.000000
1602006808.184854,79.000000,0.000000,4138.461426,4123.077148,4148.205078,4126.666504,4126.666504,4120.512695,4135.897461,4134.358887,4125.128418,4138.974121,4140.000000,4170.769043,4155.897461,4146.153809,841.000000,4.000000,,,,0.000000,4.000000,4.000000,4.000000,4.000000,4.000000,4.000000,4.000000,4.000000,4.000000,4.000000,4.000000,4.000000,4.000000,4.000000,100.000000
1602006808.192835,80.000000,0.000000,4138.461426,4124.102539,4154.871582,4131.282227,4135.384766,4118.974121,4130.769043,4132.820313,4126.153809,4129.230957,4144.615234,4169.743652,4160.512695,4141.025879,752.000000,4.000000,,,,0.000000,4.000000,4.000000,4.000000,4.000000,4.000000,4.000000,4.000000,4.000000,4.000000,4.000000,4.000000,4.000000,4.000000,4.000000,100.000000
1602006808.200716,81.000000,0.000000,4133.333496,4126.666504,4146.153809,4135.897461,4136.410156,4126.153809,4120.512695,4128.717773,4134.358887,4124.615234,4154.358887,4155.384766,4154.871582,4127.692383,726.000000,4.000000,,,,0.000000,4.000000,4.000000,4.000000,4.000000,4.000000,4.000000,4.000000,4.000000,4.000000,4.000000,4.000000,4.000000,4.000000,4.000000,100.000000
1602006808.208597,82.000000,0.000000,4129.743652,4127.179688,4138.974121,4136.922852,4137.436035,4130.256348,4121.025879,4133.333496,4150.256348,4148.205078,4153.846191,4151.794922,4150.769043,4131.282227,863.000000,4.000000,,,,0.000000,4.000000,4.000000,4.000000,4.000000,4.000000,4.000000,4.000000,4.000000,4.000000,4.000000,4.000000,4.000000,4.000000,4.000000,100.000000
1602006808.216479,83.000000,0.000000,4126.666504,4123.077148,4141.025879,4135.897461,4139.487305,4126.153809,4131.794922,4141.538574,4159.487305,4165.128418,4140.512695,4157.948730,4152.820313,4140.512695,841.000000,4.000000,,,,0.000000,4.000000,4.000000,4.000000,4.000000,4.000000,4.000000,4.000000,4.000000,4.000000,4.000000,4.000000,4.000000,4.000000,4.000000,100.000000
1602006808.224360,84.000000,0.000000,4124.102539,4121.025879,4140.512695,4134.358887,4137.948730,4129.743652,4137.436035,4142.051270,4157.948730,4149.230957,4133.846191,4157.948730,4151.794922,4136.410156,752.000000,4.000000,,,,0.000000,4.000000,4.000000,4.000000,4.000000,4.000000,4.000000,4.000000,4.000000,4.000000,4.000000,4.000000,4.000000,4.000000,4.000000,100.000000
1602006808.232241,85.000000,0.000000,4126.666504,4124.102539,4137.436035,4135.897461,4134.871582,4137.436035,4132.820313,4141.025879,4152.820313,4125.128418,4140.512695,4153.846191,4151.794922,4133.846191,726.000000,4.000000,,,,0.000000,4.000000,4.000000,4.000000,4.000000,4.000000,4.000000,4.000000,4.000000,4.000000,4.000000,4.000000,4.000000,4.000000,4.000000,100.000000
1602006808.240122,86.000000,0.000000,4127.179688,4125.641113,4140.512695,4135.384766,4134.871582,4133.846191,4125.641113,4140.512695,4140.512695,4104.615234,4138.461426,4154.358887,4149.743652,4141.025879,863.000000,4.000000,,,,0.000000,4.000000,4.000000,4.000000,4.000000,4.000000,4.000000,4.000000,4.000000,4.000000,4.000000,4.000000,4.000000,4.000000,4.000000,100.000000
1602006808.248003,87.000000,0.000000,4121.538574,4121.538574,4140.512695,4127.179688,4135.384766,4124.102539,4125.128418,4134.358887,4127.179688,4096.922852,4126.666504,4153.846191,4137.436035,4134.871582,841.000000,4.000000,,,,0.000000,4.000000,4.000000,4.000000,4.000000,4.000000,4.000000,4.000000,4.000000,4.000000,4.000000,4.000000,4.000000,4.000000,4.000000,100.000000
1602006808.255984,88.000000,0.000000,4117.948730,4116.922852,4137.436035,4118.974121,4134.358887,4117.948730,4125.641113,4125.641113,4117.948730,4105.641113,4125.641113,4151.282227,4132.307617,4123.589844,752.000000,4.000000,,,,0.000000,4.000000,4.000000,4.000000,4.000000,4.000000,4.000000,4.000000,4.000000,4.000000,4.000000,4.000000,4.000000,4.000000,4.000000,100.000000
1602006808.263866,89.000000,0.000000,4124.102539,4119.487305,4145.128418,4123.589844,4136.410156,4121.025879,4128.717773,4126.666504,4117.436035,4125.641113,4135.897461,4155.384766,4143.077148,4137.436035,726.000000,4.000000,,,,0.000000,4.000000,4.000000,4.000000,4.000000,4.000000,4.000000,4.000000,4.000000,4.000000,4.000000,4.000000,4.000000,4.000000,4.000000,100.000000
1602006808.271747,90.000000,0.000000,4137.948730,4127.692383,4156.410156,4133.846191,4138.974121,4135.384766,4135.897461,4136.410156,4132.307617,4154.871582,4150.769043,4167.179688,4158.974121,4158.974121,863.000000,4.000000,,,,0.000000,4.000000,4.000000,4.000000,4.000000,4.000000,4.000000,4.000000,4.000000,4.000000,4.000000,4.000000,4.000000,4.000000,4.000000,100.000000
1602006808.279628,91.000000,0.000000,4145.128418,4129.743652,4151.282227,4136.922852,4137.436035,4136.922852,4137.948730,4139.487305,4148.717773,4159.487305,4156.922852,4174.871582,4168.717773,4160.512695,841.000000,4.000000,,,,0.000000,4.000000,4.000000,4.000000,4.000000,4.000000,4.000000,4.000000,4.000000,4.000000,4.000000,4.000000,4.000000,4.000000,4.000000,100.000000
1602006808.287509,92.000000,0.000000,4141.025879,4127.179688,4139.487305,4135.897461,4134.358887,4124.102539,4131.282227,4138.461426,4148.205078,4131.794922,4149.230957,4168.717773,4165.641113,4152.820313,752.000000,4.000000,,,,0.000000,4.000000,4.000000,4.000000,4.000000,4.000000,4.000000,4.000000,4.000000,4.000000,4.000000,4.000000,4.000000,4.000000,4.000000,100.000000
1602006808.295390,93.000000,0.000000,4135.384766,4131.282227,4138.974121,4135.897461,4133.846191,4118.461426,4123.077148,4138.461426,4137.948730,4116.410156,4137.436035,4156.922852,4155.384766,4150.256348,726.000000,4.000000,,,,0.000000,4.000000,4.000000,4.000000,4.000000,4.000000,4.000000,4.000000,4.000000,4.000000,4.000000,4.000000,4.000000,4.000000,4.000000,100.000000
1602006808.303271,94.000000,0.000000,4135.384766,4137.948730,4142.563965,4137.948730,4135.897461,4120.512695,4121.538574,4135.897461,4133.846191,4124.102539,4138.461426,4153.333496,4152.307617,4150.256348,863.000000,4.000000,,,,0.000000,4.000000,4.000000,4.000000,4.000000,4.000000,4.000000,4.000000,4.000000,4.000000,4.000000,4.000000,4.000000,4.000000,4.000000,100.000000
1602006808.311153,95.000000,0.000000,4136.410156,4137.948730,4139.487305,4138.974121,4136.410156,4118.461426,4126.153809,4135.384766,4136.922852,4129.743652,4144.615234,4155.897461,4158.461426,4153.333496,841.000000,4.000000,,,,0.000000,4.000000,4.000000,4.000000,4.000000,4.000000,4.000000,4.000000,4.000000,4.000000,4.000000,4.000000,4.000000,4.000000,4.000000,100.000000
1602006808.319034,96.000000,0.000000,4139.487305,4136.410156,4136.410156,4137.948730,4137.948730,4115.384766,4130.769043,4138.974121,4141.025879,4136.410156,4143.077148,4155.897461,4164.615234,4156.410156,752.000000,4.000000,,,,0.000000,4.000000,4.000000,4.000000,4.000000,4.000000,4.000000,4.000000,4.000000,4.000000,4.000000,4.000000,4.000000,4.000000,4.000000,100.000000
1602006808.326815,97.000000,0.000000,4143.077148,4141.538574,4136.410156,4138.974121,4140.000000,4124.102539,4135.897461,4140.512695,4141.538574,4144.102539,4140.000000,4152.820313,4165.641113,4151.282227,726.000000,4.000000,,,,0.000000,4.000000,4.000000,4.000000,4.000000,4.000000,4.000000,4.000000,4.000000,4.000000,4.000000,4.000000,4.000000,4.000000,4.000000,100.000000
1602006808.334696,98.000000,0.000000,4141.025879,4145.128418,4137.948730,4143.077148,4140.000000,4136.410156,4140.000000,4140.000000,4136.922852,4126.666504,4138.974121,4153.333496,4160.512695,4143.589844,863.000000,4.000000,,,,0.000000,4.000000,4.000000,4.000000,4.000000,4.000000,4.000000,4.000000,4.000000,4.000000,4.000000,4.000000,4.000000,4.000000,4.000000,100.000000
1602006808.342577,99.000000,0.000000,4136.410156,4143.589844,4137.948730,4142.051270,4137.436035,4136.410156,4138.974121,4138.461426,4124.615234,4102.563965,4136.410156,4152.307617,4154.358887,4137.436035,841.000000,4.000000,,,,0.000000,4.000000,4.000000,4.000000,4.000000,4.000000,4.000000,4.000000,4.000000,4.000000,4.000000,4.000000,4.000000,4.000000,4.000000,100.000000
1602006808.350457,100.000000,0.000000,4145.641113,4145.641113,4140.512695,4140.000000,4135.897461,4133.846191,4137.948730,4138.974121,4112.307617,4101.025879,4136.410156,4149.743652,4154.358887,4136.922852,752.000000,4.000000,,,,0.000000,4.000000,4.000000,4.000000,4.000000,4.000000,4.000000,4.000000,4.000000,4.000000,4.000000,4.000000,4.000000,4.000000,4.000000,100.000000
1602006808.358338,101.000000,0.000000,4160.512695,4153.846191,4151.282227,4148.717773,4137.436035,4142.051270,4138.461426,4140.512695,4120.512695,4112.820313,4147.179688,4155.897461,4156.410156,4142.563965,726.000000,4.000000,,,,0.000000,4.000000,4.000000,4.000000,4.000000,4.000000,4.000000,4.000000,4.000000,4.000000,4.000000,4.000000,4.000000,4.000000,4.000000,100.000000
1602006808.366319,102.000000,0.000000,4160.000000,4154.871582,4158.461426,4152.307617,4137.436035,4144.102539,4137.436035,4140.000000,4138.461426,4122.563965,4156.922852,4164.102539,4158.974121,4150.256348,863.000000,4.000000,,,,0.000000,4.000000,4.000000,4.000000,4.000000,4.000000,4.000000,4.000000,4.000000,4.000000,4.000000,4.000000,4.000000,4.000000,4.000000,100.000000
1602006808.374200,103.000000,0.000000,4152.307617,4145.128418,4157.436035,4143.589844,4136.410156,4139.487305,4141.538574,4142.051270,4144.102539,4121.025879,4155.897461,4162.051270,4168.205078,4156.410156,841.000000,4.000000,,,,0.000000,4.000000,4.000000,4.000000,4.000000,4.000000,4.000000,4.000000,4.000000,4.000000,4.000000,4.000000,4.000000,4.000000,4.000000,100.000000
1602006808.382180,104.000000,0.000000,4154.871582,4138.974121,4157.436035,4138.461426,4140.000000,4144.102539,4150.256348,4144.615234,4143.077148,4113.846191,4153.846191,4160.512695,4174.358887,4157.948730,752.000000,4.000000,,,,0.000000,4.000000,4.000000,4.000000,4.000000,4.000000,4.000000,4.000000,4.000000,4.000000,4.000000,4.000000,4.000000,4.000000,4.000000,100.000000
1602006808.390061,105.000000,0.000000,4152.307617,4137.948730,4157.948730,4140.512695,4137.948730,4143.077148,4148.717773,4142.051270,4143.077148,4112.820313,4152.307617,4166.666504,4165.128418,4154.358887,726.000000,4.000000,,,,0.000000,4.000000,4.000000,4.000000,4.000000,4.000000,4.000000,4.000000,4.000000,4.000000,4.000000,4.000000,4.000000,4.000000,4.000000,100.000000
1602006808.398042,106.000000,0.000000,4140.512695,4135.384766,4153.333496,4140.512695,4127.179688,4123.589844,4139.487305,4142.051270,4137.948730,4126.153809,4151.282227,4170.769043,4152.820313,4149.743652,863.000000,4.000000,,,,0.000000,4.000000,4.000000,4.000000,4.000000,4.000000,4.000000,4.000000,4.000000,4.000000,4.000000,4.000000,4.000000,4.000000,4.000000,100.000000
1602006808.405922,107.000000,0.000000,4136.922852,4136.410156,4153.333496,4140.000000,4122.563965,4116.922852,4138.461426,4150.256348,4141.538574,4133.333496,4150.769043,4171.794922,4154.871582,4153.333496,841.000000,4.000000,,,,0.000000,4.000000,4.000000,4.000000,4.000000,4.000000,4.000000,4.000000,4.000000,4.000000,4.000000,4.000000,4.000000,4.000000,4.000000,100.000000
1602006808.413903,108.000000,0.000000,4141.538574,4138.974121,4157.948730,4141.025879,4126.666504,4131.282227,4137.436035,4149.230957,4154.358887,4130.256348,4153.846191,4171.794922,4160.000000,4157.948730,752.000000,4.000000,,,,0.000000,4.000000,4.000000,4.000000,4.000000,4.000000,4.000000,4.000000,4.000000,4.000000,4.000000,4.000000,4.000000,4.000000,4.000000,100.000000
1602006808.421784,109.000000,0.000000,4142.563965,4138.461426,4157.436035,4140.000000,4127.179688,4130.769043,4127.179688,4137.436035,4148.205078,4116.410156,4149.743652,4165.128418,4154.871582,4149.230957,726.000000,4.000000,,,,0.000000,4.000000,4.000000,4.000000,4.000000,4.000000,4.000000,4.000000,4.000000,4.000000,4.000000,4.000000,4.000000,4.000000,4.000000,100.000000
1602006808.429665,110.000000,0.000000,4140.000000,4137.436035,4149.230957,4138.461426,4125.128418,4117.436035,4118.461426,4132.307617,4126.666504,4091.281982,4139.487305,4156.922852,4149.743652,4138.974121,863.000000,4.000000,,,,0.000000,4.000000,4.000000,4.000000,4.000000,4.000000,4.000000,4.000000,4.000000,4.000000,4.000000,4.000000,4.000000,4.000000,4.000000,100.000000
1602006808.437546,111.000000,0.000000,4138.461426,4133.333496,4141.025879,4135.897461,4127.692383,4118.974121,4121.025879,4136.410156,4127.692383,4093.333252,4143.077148,4157.436035,4153.846191,4140.512695,841.000000,4.000000,,,,0.000000,4.000000,4.000000,4.000000,4.000000,4.000000,4.000000,4.000000,4.000000,4.000000,4.000000,4.000000,4.000000,4.000000,4.000000,100.000000
1602006808.445527,112.000000,0.000000,4135.384766,4125.641113,4138.461426,4134.871582,4129.230957,4127.692383,4125.128418,4135.384766,4136.410156,4125.641113,4152.307617,4158.974121,4152.307617,4144.102539,752.000000,4.000000,,,,0.000000,4.000000,4.000000,4.000000,4.000000,4.000000,4.000000,4.000000,4.000000,4.000000,4.000000,4.000000,4.000000,4.000000,4.000000,100.000000
1602006808.453408,113.000000,0.000000,4135.897461,4127.179688,4143.589844,4134.871582,4128.205078,4134.358887,4125.128418,4126.153809,4118.461426,4127.179688,4141.538574,4152.820313,4142.563965,4136.922852,726.000000,4.000000,,,,0.000000,4.000000,4.000000,4.000000,4.000000,4.000000,4.000000,4.000000,4.000000,4.000000,4.000000,4.000000,4.000000,4.000000,4.000000,100.000000
1602006808.461289,114.000000,0.000000,4146.153809,4135.384766,4153.846191,4136.922852,4128.205078,4138.461426,4130.256348,4125.128418,4103.589844,4106.153809,4134.871582,4150.256348,4144.615234,4136.922852,863.000000,4.000000,,,,0.000000,4.000000,4.000000,4.000000,4.000000,4.000000,4.000000,4.000000,4.000000,4.000000,4.000000,4.000000,4.000000,4.000000,4.000000,100.000000
1602006808.469169,115.000000,0.000000,4150.769043,4137.948730,4160.512695,4139.487305,4129.743652,4129.743652,4137.948730,4136.922852,4117.948730,4100.512695,4151.794922,4164.615234,4156.922852,4153.333496,841.000000,4.000000,,,,0.000000,4.000000,4.000000,4.000000,4.000000,4.000000,4.000000,4.000000,4.000000,4.000000,4.000000,4.000000,4.000000,4.000000,4.000000,100.000000
1602006808.477050,116.000000,0.000000,4143.589844,4134.871582,4158.461426,4138.974121,4130.256348,4125.641113,4140.512695,4144.102539,4127.179688,4095.897461,4158.461426,4174.358887,4154.871582,4155.897461,752.000000,4.000000,,,,0.000000,4.000000,4.000000,4.000000,4.000000,4.000000,4.000000,4.000000,4.000000,4.000000,4.000000,4.000000,4.000000,4.000000,4.000000,100.000000
1602006808.484831,117.000000,0.000000,4133.333496,4128.205078,4147.692383,4136.410156,4125.128418,4133.846191,4139.487305,4139.487305,4120.512695,4091.794922,4142.051270,4155.384766,4138.461426,4139.487305,726.000000,4.000000,,,,0.000000,4.000000,4.000000,4.000000,4.000000,4.000000,4.000000,4.000000,4.000000,4.000000,4.000000,4.000000,4.000000,4.000000,4.000000,100.000000
1602006808.492712,118.000000,0.000000,4127.179688,4122.563965,4137.436035,4129.743652,4120.512695,4129.230957,4137.948730,4135.897461,4122.563965,4103.077148,4130.769043,4134.871582,4133.333496,4131.794922,863.000000,4.000000,,,,0.000000,4.000000,4.000000,4.000000,4.000000,4.000000,4.000000,4.000000,4.000000,4.000000,4.000000,4.000000,4.000000,4.000000,4.000000,100.000000
1602006808.500493,119.000000,0.000000,4121.025879,4122.563965,4130.769043,4126.153809,4124.102539,4120.512695,4136.410156,4135.384766,4118.461426,4107.179688,4131.794922,4136.410156,4137.436035,4136.410156,841.000000,4.000000,,,,0.000000,4.000000,4.000000,4.000000,4.000000,4.000000,4.000000,4.000000,4.000000,4.000000,4.000000,4.000000,4.000000,4.000000,4.000000,100.000000
1602006808.508374,120.000000,0.000000,4118.461426,4124.102539,4129.743652,4131.794922,4132.307617,4128.205078,4135.384766,4135.897461,4106.666504,4107.179688,4136.922852,4145.128418,4138.461426,4136.410156,752.000000,4.000000,,,,0.000000,4.000000,4.000000,4.000000,4.000000,4.000000,4.000000,4.000000,4.000000,4.000000,4.000000,4.000000,4.000000,4.000000,4.000000,100.000000
1602006808.516255,121.000000,0.000000,4123.589844,4124.615234,4130.256348,4136.922852,4137.948730,4138.974121,4136.922852,4138.974121,4111.282227,4109.743652,4139.487305,4146.666504,4146.666504,4138.461426,726.000000,4.000000,,,,0.000000,4.000000,4.000000,4.000000,4.000000,4.000000,4.000000,4.000000,4.000000,4.000000,4.000000,4.000000,4.000000,4.000000,4.000000,100.000000
1602006808.524137,122.000000,0.000000,4121.538574,4125.641113,4127.179688,4132.307617,4134.358887,4138.461426,4138.461426,4141.025879,4121.538574,4103.589844,4132.820313,4144.102539,4152.820313,4142.051270,863.000000,4.000000,,,,0.000000,4.000000,4.000000,4.000000,4.000000,4.000000,4.000000,4.000000,4.000000,4.000000,4.000000,4.000000,4.000000,4.000000,4.000000,100.000000
1602006808.532018,123.000000,0.000000,4109.743652,4124.615234,4125.641113,4125.128418,4124.102539,4131.794922,4136.410156,4135.384766,4122.563965,4098.461426,4128.205078,4140.512695,4137.436035,4129.743652,841.000000,4.000000,,,,0.000000,4.000000,4.000000,4.000000,4.000000,4.000000,4.000000,4.000000,4.000000,4.000000,4.000000,4.000000,4.000000,4.000000,4.000000,100.000000
1602006808.539899,124.000000,0.000000,4103.077148,4123.589844,4129.230957,4123.077148,4118.461426,4122.563965,4129.230957,4126.666504,4125.641113,4105.641113,4134.358887,4142.563965,4125.128418,4121.025879,752.000000,4.000000,,,,0.000000,4.000000,4.000000,4.000000,4.000000,4.000000,4.000000,4.000000,4.000000,4.000000,4.000000,4.000000,4.000000,4.000000,4.000000,100.000000
1602006808.547780,125.000000,0.000000,4110.256348,4122.563965,4127.692383,4123.077148,4122.563965,4117.948730,4128.205078,4124.102539,4126.666504,4115.384766,4139.487305,4146.666504,4133.333496,4128.717773,726.000000,4.000000,,,,0.000000,4.000000,4.000000,4.000000,4.000000,4.000000,4.000000,4.000000,4.000000,4.000000,4.000000,4.000000,4.000000,4.000000,4.000000,100.000000
1602006808.555661,126.000000,0.000000,4117.948730,4123.589844,4121.538574,4124.102539,4125.128418,4119.487305,4136.410156,4129.743652,4114.358887,4107.692383,4136.922852,4141.025879,4137.436035,4131.794922,863.000000,4.000000,,,,0.000000,4.000000,4.000000,4.000000,4.000000,4.000000,4.000000,4.000000,4.000000,4.000000,4.000000,4.000000,4.000000,4.000000,4.000000,100.000000
1602006808.563642,127.000000,0.000000,4125.641113,4130.769043,4128.205078,4129.743652,4122.563965,4125.128418,4139.487305,4134.358887,4112.307617,4091.794922,4137.948730,4140.000000,4135.384766,4137.436035,841.000000,4.000000,,,,0.000000,4.000000,4.000000,4.000000,4.000000,4.000000,4.000000,4.000000,4.000000,4.000000,4.000000,4.000000,4.000000,4.000000,4.000000,100.000000
1602006808.571523,128.000000,0.000000,4137.948730,4137.436035,4138.974121,4134.871582,4121.025879,4129.743652,4138.974121,4136.410156,4119.487305,4092.820557,4136.922852,4151.282227,4133.846191,4154.358887,752.000000,4.000000,,,,0.000000,4.000000,4.000000,4.000000,4.000000,4.000000,4.000000,4.000000,4.000000,4.000000,4.000000,4.000000,4.000000,4.000000,4.000000,100.000000
1602006808.579405,0.000000,0.000000,4141.538574,4136.922852,4141.025879,4136.410156,4126.153809,4128.717773,4140.512695,4140.000000,4112.307617,4092.307617,4124.102539,4155.897461,4123.077148,4151.794922,790.000000,4.000000,,,,0.000000,4.000000,4.000000,4.000000,4.000000,4.000000,4.000000,4.000000,4.000000,4.000000,4.000000,4.000000,4.000000,4.000000,4.000000,100.000000
1602006808.587286,1.000000,0.000000,4137.436035,4136.410156,4141.538574,4136.922852,4132.307617,4121.538574,4133.846191,4141.025879,4111.282227,4093.333252,4123.077148,4150.769043,4124.102539,4138.974121,786.000000,4.000000,,,,0.000000,4.000000,4.000000,4.000000,4.000000,4.000000,4.000000,4.000000,4.000000,4.000000,4.000000,4.000000,4.000000,4.000000,4.000000,100.000000
1602006808.595167,2.000000,0.000000,4139.487305,4140.512695,4148.717773,4137.436035,4134.358887,4116.922852,4123.077148,4137.436035,4120.000000,4106.666504,4136.410156,4150.769043,4139.487305,4148.205078,853.000000,4.000000,,,,0.000000,4.000000,4.000000,4.000000,4.000000,4.000000,4.000000,4.000000,4.000000,4.000000,4.000000,4.000000,4.000000,4.000000,4.000000,100.000000
1602006808.603048,3.000000,0.000000,4145.128418,4147.692383,4152.307617,4145.128418,4142.563965,4124.615234,4126.666504,4136.410156,4115.897461,4112.307617,4140.000000,4154.358887,4143.077148,4156.922852,868.000000,4.000000,,,,0.000000,4.000000,4.000000,4.000000,4.000000,4.000000,4.000000,4.000000,4.000000,4.000000,4.000000,4.000000,4.000000,4.000000,4.000000,100.000000
1602006808.610929,4.000000,0.000000,4144.615234,4155.384766,4143.589844,4151.282227,4155.384766,4138.974121,4136.410156,4140.512695,4114.871582,4115.384766,4138.974121,4150.769043,4143.589844,4151.794922,815.000000,4.000000,,,,0.000000,4.000000,4.000000,4.000000,4.000000,4.000000,4.000000,4.000000,4.000000,4.000000,4.000000,4.000000,4.000000,4.000000,4.000000,100.000000
1602006808.618810,5.000000,0.000000,4139.487305,4151.794922,4130.256348,4142.051270,4152.820313,4152.307617,4140.512695,4142.563965,4128.205078,4127.692383,4150.769043,4145.641113,4155.384766,4150.769043,826.000000,4.000000,,,,0.000000,4.000000,4.000000,4.000000,4.000000,4.000000,4.000000,4.000000,4.000000,4.000000,4.000000,4.000000,4.000000,4.000000,4.000000,100.000000
1602006808.626792,6.000000,0.000000,4136.410156,4135.384766,4120.000000,4128.205078,4139.487305,4153.846191,4141.538574,4140.512695,4126.666504,4116.922852,4152.820313,4141.538574,4151.282227,4148.205078,765.000000,4.000000,,,,0.000000,4.000000,4.000000,4.000000,4.000000,4.000000,4.000000,4.000000,4.000000,4.000000,4.000000,4.000000,4.000000,4.000000,4.000000,100.000000
1602006808.634673,7.000000,0.000000,4136.410156,4125.641113,4116.922852,4125.641113,4136.922852,4139.487305,4142.051270,4135.897461,4109.230957,4093.333252,4134.358887,4137.948730,4136.922852,4141.025879,661.000000,4.000000,,,,0.000000,4.000000,4.000000,4.000000,4.000000,4.000000,4.000000,4.000000,4.000000,4.000000,4.000000,4.000000,4.000000,4.000000,4.000000,100.000000
1602006808.642554,8.000000,0.000000,4138.974121,4127.179688,4125.641113,4124.615234,4135.897461,4129.743652,4143.077148,4133.333496,4104.102539,4097.436035,4128.717773,4144.615234,4137.948730,4142.051270,773.000000,4.000000,,,,0.000000,4.000000,4.000000,4.000000,4.000000,4.000000,4.000000,4.000000,4.000000,4.000000,4.000000,4.000000,4.000000,4.000000,4.000000,100.000000
1602006808.650435,9.000000,0.000000,4140.512695,4126.666504,4144.615234,4124.615234,4127.179688,4133.333496,4144.615234,4137.436035,4109.230957,4106.666504,4139.487305,4150.256348,4140.512695,4143.589844,835.000000,4.000000,,,,0.000000,4.000000,4.000000,4.000000,4.000000,4.000000,4.000000,4.000000,4.000000,4.000000,4.000000,4.000000,4.000000,4.000000,4.000000,100.000000
1602006808.658316,10.000000,0.000000,4142.051270,4126.153809,4154.871582,4136.410156,4125.128418,4136.410156,4143.589844,4142.051270,4112.307617,4108.717773,4142.563965,4145.641113,4140.000000,4144.615234,866.000000,4.000000,,,,0.000000,4.000000,4.000000,4.000000,4.000000,4.000000,4.000000,4.000000,4.000000,4.000000,4.000000,4.000000,4.000000,4.000000,4.000000,100.000000
1602006808.666197,11.000000,0.000000,4139.487305,4125.128418,4146.666504,4136.922852,4128.205078,4121.538574,4138.461426,4140.512695,4108.205078,4114.358887,4135.384766,4137.948730,4135.897461,4141.025879,841.000000,4.000000,,,,0.000000,4.000000,4.000000,4.000000,4.000000,4.000000,4.000000,4.000000,4.000000,4.000000,4.000000,4.000000,4.000000,4.000000,4.000000,100.000000
1602006808.674079,12.000000,0.000000,4126.153809,4122.563965,4129.230957,4122.563965,4123.077148,4104.102539,4125.128418,4135.897461,4105.641113,4106.153809,4127.692383,4129.743652,4122.563965,4124.102539,758.000000,4.000000,,,,0.000000,4.000000,4.000000,4.000000,4.000000,4.000000,4.000000,4.000000,4.000000,4.000000,4.000000,4.000000,4.000000,4.000000,4.000000,100.000000
1602006808.681960,13.000000,0.000000,4119.487305,4126.666504,4119.487305,4126.153809,4121.025879,4109.743652,4121.025879,4137.436035,4115.897461,4090.769287,4125.641113,4127.179688,4125.128418,4115.384766,726.000000,4.000000,,,,0.000000,4.000000,4.000000,4.000000,4.000000,4.000000,4.000000,4.000000,4.000000,4.000000,4.000000,4.000000,4.000000,4.000000,4.000000,100.000000
1602006808.689841,14.000000,0.000000,4132.307617,4137.948730,4118.974121,4141.025879,4132.307617,4127.692383,4133.333496,4145.641113,4123.077148,4087.692383,4124.102539,4133.846191,4140.512695,4122.051270,866.000000,4.000000,,,,0.000000,4.000000,4.000000,4.000000,4.000000,4.000000,4.000000,4.000000,4.000000,4.000000,4.000000,4.000000,4.000000,4.000000,4.000000,100.000000
1602006808.697722,15.000000,0.000000,4142.051270,4144.102539,4121.025879,4140.512695,4141.025879,4128.205078,4140.512695,4147.692383,4117.948730,4095.384521,4123.077148,4140.000000,4135.897461,4126.153809,841.000000,4.000000,,,,0.000000,4.000000,4.000000,4.000000,4.000000,4.000000,4.000000,4.000000,4.000000,4.000000,4.000000,4.000000,4.000000,4.000000,4.000000,100.000000
1602006808.705503,16.000000,0.000000,4142.051270,4146.153809,4128.205078,4133.333496,4131.282227,4118.974121,4135.384766,4143.077148,4120.000000,4109.230957,4130.769043,4139.487305,4127.692383,4129.230957,0.000000,4.000000,,,,0.000000,4.000000,4.000000,4.000000,4.000000,4.000000,4.000000,4.000000,4.000000,4.000000,4.000000,4.000000,4.000000,4.000000,4.000000,100.000000
1602006808.713384,17.000000,0.000000,4150.769043,4152.307617,4145.128418,4144.102539,4123.589844,4122.051270,4135.897461,4143.589844,4129.743652,4123.077148,4140.512695,4147.179688,4138.974121,4137.436035,0.000000,4.000000,,,,0.000000,4.000000,4.000000,4.000000,4.000000,4.000000,4.000000,4.000000,4.000000,4.000000,4.000000,4.000000,4.000000,4.000000,4.000000,100.000000
1602006808.721266,18.000000,0.000000,4157.948730,4157.948730,4158.974121,4153.846191,4134.871582,4129.743652,4139.487305,4145.128418,4131.282227,4121.538574,4140.512695,4155.384766,4146.666504,4143.077148,0.000000,4.000000,,,,0.000000,4.000000,4.000000,4.000000,4.000000,4.000000,4.000000,4.000000,4.000000,4.000000,4.000000,4.000000,4.000000,4.000000,4.000000,100.000000
1602006808.729147,19.000000,0.000000,4145.641113,4151.282227,4153.333496,4145.128418,4141.538574,4126.666504,4130.769043,4138.974121,4124.615234,4107.179688,4131.794922,4155.384766,4141.538574,4143.589844,0.000000,4.000000,,,,0.000000,4.000000,4.000000,4.000000,4.000000,4.000000,4.000000,4.000000,4.000000,4.000000,4.000000,4.000000,4.000000,4.000000,4.000000,100.000000
1602006808.737028,20.000000,0.000000,4133.846191,4138.974121,4139.487305,4133.333496,4127.692383,4117.436035,4122.051270,4134.871582,4116.922852,4092.820557,4123.589844,4154.871582,4137.436035,4141.025879,0.000000,4.000000,,,,0.000000,4.000000,4.000000,4.000000,4.000000,4.000000,4.000000,4.000000,4.000000,4.000000,4.000000,4.000000,4.000000,4.000000,4.000000,100.000000
1602006808.744909,21.000000,0.000000,4135.384766,4136.410156,4138.461426,4134.871582,4124.102539,4121.538574,4126.153809,4136.410156,4116.410156,4082.564209,4123.589844,4153.846191,4135.384766,4140.512695,0.000000,4.000000,,,,0.000000,4.000000,4.000000,4.000000,4.000000,4.000000,4.000000,4.000000,4.000000,4.000000,4.000000,4.000000,4.000000,4.000000,4.000000,100.000000
1602006808.752790,22.000000,0.000000,4140.000000,4141.025879,4144.102539,4141.538574,4135.384766,4137.948730,4135.897461,4135.897461,4123.077148,4086.666748,4126.666504,4154.871582,4136.922852,4150.256348,0.000000,4.000000,,,,0.000000,4.000000,4.000000,4.000000,4.000000,4.000000,4.000000,4.000000,4.000000,4.000000,4.000000,4.000000,4.000000,4.000000,4.000000,100.000000
1602006808.760671,23.000000,0.000000,4138.461426,4144.615234,4138.461426,4140.512695,4137.948730,4139.487305,4137.436035,4135.897461,4121.025879,4108.205078,4130.256348,4154.871582,4138.461426,4154.871582,0.000000,4.000000,,,,0.000000,4.000000,4.000000,4.000000,4.000000,4.000000,4.000000,4.000000,4.000000,4.000000,4.000000,4.000000,4.000000,4.000000,4.000000,100.000000
1602006808.768553,24.000000,0.000000,4136.922852,4149.230957,4133.333496,4137.948730,4136.922852,4135.897461,4135.897461,4138.461426,4117.948730,4123.077148,4136.922852,4145.641113,4141.025879,4149.743652,0.000000,4.000000,,,,0.000000,4.000000,4.000000,4.000000,4.000000,4.000000,4.000000,4.000000,4.000000,4.000000,4.000000,4.000000,4.000000,4.000000,4.000000,100.000000
1602006808.776334,25.000000,0.000000,4137.948730,4150.769043,4136.922852,4140.512695,4140.512695,4142.563965,4134.871582,4138.461426,4124.102539,4112.307617,4140.512695,4136.410156,4144.615234,4150.769043,0.000000,4.000000,,,,0.000000,4.000000,4.000000,4.000000,4.000000,4.000000,4.000000,4.000000,4.000000,4.000000,4.000000,4.000000,4.000000,4.000000,4.000000,100.000000
1602006808.784215,26.000000,0.000000,4137.436035,4148.205078,4136.922852,4141.538574,4137.948730,4141.538574,4129.230957,4131.794922,4118.461426,4088.718018,4137.948730,4140.000000,4140.512695,4152.820313,0.000000,4.000000,,,,0.000000,4.000000,4.000000,4.000000,4.000000,4.000000,4.000000,4.000000,4.000000,4.000000,4.000000,4.000000,4.000000,4.000000,4.000000,100.000000
1602006808.792096,27.000000,0.000000,4138.974121,4149.743652,4140.000000,4142.563965,4135.897461,4134.358887,4125.641113,4127.692383,4111.282227,4094.358887,4140.512695,4150.769043,4138.974121,4150.256348,0.000000,4.000000,,,,0.000000,4.000000,4.000000,4.000000,4.000000,4.000000,4.000000,4.000000,4.000000,4.000000,4.000000,4.000000,4.000000,4.000000,4.000000,100.000000
1602006808.799977,28.000000,0.000000,4149.230957,4154.871582,4153.333496,4149.743652,4142.563965,4136.410156,4132.307617,4133.846191,4121.025879,4125.128418,4141.538574,4163.589844,4148.205078,4158.974121,0.000000,4.000000,,,,0.000000,4.000000,4.000000,4.000000,4.000000,4.000000,4.000000,4.000000,4.000000,4.000000,4.000000,4.000000,4.000000,4.000000,4.000000,100.000000
1602006808.807859,29.000000,0.000000,4158.974121,4156.922852,4159.487305,4154.358887,4142.563965,4137.436035,4136.410156,4137.948730,4126.666504,4129.230957,4143.589844,4166.153809,4157.436035,4171.794922,0.000000,4.000000,,,,0.000000,4.000000,4.000000,4.000000,4.000000,4.000000,4.000000,4.000000,4.000000,4.000000,4.000000,4.000000,4.000000,4.000000,4.000000,100.000000
1602006808.815740,30.000000,0.000000,4157.436035,4150.769043,4157.436035,4146.153809,4137.436035,4135.897461,4133.333496,4136.922852,4123.589844,4110.256348,4151.794922,4155.897461,4158.974121,4170.769043,0.000000,4.000000,,,,0.000000,4.000000,4.000000,4.000000,4.000000,4.000000,4.000000,4.000000,4.000000,4.000000,4.000000,4.000000,4.000000,4.000000,4.000000,100.000000
1602006808.823621,31.000000,0.000000,4152.307617,4142.051270,4160.000000,4136.410156,4139.487305,4143.589844,4139.487305,4146.153809,4131.794922,4114.358887,4156.922852,4161.025879,4160.000000,4166.666504,0.000000,4.000000,,,,0.000000,4.000000,4.000000,4.000000,4.000000,4.000000,4.000000,4.000000,4.000000,4.000000,4.000000,4.000000,4.000000,4.000000,4.000000,100.000000
1602006808.831502,32.000000,0.000000,4153.333496,4144.102539,4158.974121,4139.487305,4144.102539,4156.410156,4153.846191,4158.461426,4137.436035,4117.948730,4157.948730,4170.256348,4159.487305,4168.205078,0.000000,4.000000,,,,0.000000,4.000000,4.000000,4.000000,4.000000,4.000000,4.000000,4.000000,4.000000,4.000000,4.000000,4.000000,4.000000,4.000000,4.000000,100.000000
1602006808.839483,33.000000,0.000000,4144.102539,4141.025879,4143.589844,4140.000000,4138.974121,4153.333496,4152.820313,4151.794922,4127.179688,4093.846191,4145.641113,4147.692383,4144.102539,4157.948730,0.000000,4.000000,,,,0.000000,4.000000,4.000000,4.000000,4.000000,4.000000,4.000000,4.000000,4.000000,4.000000,4.000000,4.000000,4.000000,4.000000,4.000000,100.000000
1602006808.847364,34.000000,0.000000,4125.128418,4125.641113,4124.615234,4125.641113,4126.666504,4129.230957,4138.461426,4136.922852,4112.307617,4080.000000,4122.563965,4118.461426,4123.589844,4138.461426,0.000000,4.000000,,,,0.000000,4.000000,4.000000,4.000000,4.000000,4.000000,4.000000,4.000000,4.000000,4.000000,4.000000,4.000000,4.000000,4.000000,4.000000,100.000000
1602006808.855245,35.000000,0.000000,4125.128418,4126.666504,4124.102539,4122.563965,4123.077148,4115.897461,4134.358887,4132.820313,4107.179688,4093.333252,4115.384766,4119.487305,4121.538574,4134.358887,0.000000,4.000000,,,,0.000000,4.000000,4.000000,4.000000,4.000000,4.000000,4.000000,4.000000,4.000000,4.000000,4.000000,4.000000,4.000000,4.000000,4.000000,100.000000
1602006808.863126,36.000000,0.000000,4137.948730,4145.128418,4137.436035,4137.948730,4132.820313,4130.256348,4135.897461,4134.358887,4116.410156,4103.077148,4123.589844,4131.794922,4125.641113,4138.461426,0.000000,4.000000,,,,0.000000,4.000000,4.000000,4.000000,4.000000,4.000000,4.000000,4.000000,4.000000,4.000000,4.000000,4.000000,4.000000,4.000000,4.000000,100.000000
1602006808.871007,37.000000,0.000000,4142.051270,4151.282227,4143.077148,4145.128418,4142.563965,4140.512695,4129.743652,4136.410156,4124.102539,4104.615234,4130.256348,4132.820313,4127.692383,4134.871582,0.000000,4.000000,,,,0.000000,4.000000,4.000000,4.000000,4.000000,4.000000,4.000000,4.000000,4.000000,4.000000,4.000000,4.000000,4.000000,4.000000,4.000000,100.000000
1602006808.878887,38.000000,0.000000,4139.487305,4142.051270,4138.461426,4137.436035,4135.384766,4125.641113,4126.153809,4136.922852,4118.974121,4107.692383,4138.974121,4131.794922,4135.897461,4135.384766,0.000000,4.000000,,,,0.000000,4.000000,4.000000,4.000000,4.000000,4.000000,4.000000,4.000000,4.000000,4.000000,4.000000,4.000000,4.000000,4.000000,4.000000,100.000000
1602006808.886868,39.000000,0.000000,4138.461426,4137.436035,4142.563965,4136.410156,4127.692383,4116.410156,4133.333496,4137.948730,4115.897461,4104.102539,4144.615234,4143.077148,4142.051270,4148.717773,0.000000,4.000000,,,,0.000000,4.000000,4.000000,4.000000,4.000000,4.000000,4.000000,4.000000,4.000000,4.000000,4.000000,4.000000,4.000000,4.000000,4.000000,100.000000
1602006808.894749,40.000000,0.000000,4138.974121,4140.000000,4153.846191,4138.461426,4129.743652,4130.769043,4136.922852,4144.102539,4120.000000,4099.487305,4140.512695,4158.461426,4140.000000,4155.384766,0.000000,4.000000,,,,0.000000,4.000000,4.000000,4.000000,4.000000,4.000000,4.000000,4.000000,4.000000,4.000000,4.000000,4.000000,4.000000,4.000000,4.000000,100.000000
1602006808.902630,41.000000,0.000000,4140.000000,4133.333496,4158.461426,4132.307617,4131.282227,4144.615234,4140.000000,4153.846191,4129.230957,4112.307617,4142.051270,4160.000000,4142.051270,4152.820313,0.000000,4.000000,,,,0.000000,4.000000,4.000000,4.000000,4.000000,4.000000,4.000000,4.000000,4.000000,4.000000,4.000000,4.000000,4.000000,4.000000,4.000000,100.000000
1602006808.910511,42.000000,0.000000,4138.974121,4123.589844,4157.948730,4128.717773,4132.820313,4149.743652,4151.794922,4157.436035,4145.128418,4135.897461,4146.666504,4154.871582,4145.641113,4162.051270,0.000000,4.000000,,,,0.000000,4.000000,4.000000,4.000000,4.000000,4.000000,4.000000,4.000000,4.000000,4.000000,4.000000,4.000000,4.000000,4.000000,4.000000,100.000000
1602006808.918392,43.000000,0.000000,4133.846191,4127.692383,4157.436035,4133.846191,4137.436035,4152.307617,4154.358887,4152.307617,4144.615234,4128.717773,4142.563965,4154.871582,4142.051270,4170.769043,0.000000,4.000000,,,,0.000000,4.000000,4.000000,4.000000,4.000000,4.000000,4.000000,4.000000,4.000000,4.000000,4.000000,4.000000,4.000000,4.000000,4.000000,100.000000
1602006808.926273,44.000000,0.000000,4135.384766,4140.000000,4158.461426,4140.512695,4141.025879,4149.230957,4140.512695,4150.256348,4130.256348,4101.538574,4140.512695,4150.769043,4137.948730,4164.102539,0.000000,4.000000,,,,0.000000,4.000000,4.000000,4.000000,4.000000,4.000000,4.000000,4.000000,4.000000,4.000000,4.000000,4.000000,4.000000,4.000000,4.000000,100.000000
1602006808.934254,45.000000,0.000000,4138.461426,4142.051270,4154.871582,4141.025879,4140.000000,4142.563965,4132.820313,4153.846191,4134.871582,4107.692383,4144.102539,4142.051270,4138.461426,4156.922852,0.000000,4.000000,,,,0.000000,4.000000,4.000000,4.000000,4.000000,4.000000,4.000000,4.000000,4.000000,4.000000,4.000000,4.000000,4.000000,4.000000,4.000000,100.000000
1602006808.942135,46.000000,0.000000,4131.282227,4138.461426,4142.563965,4138.461426,4136.922852,4138.974121,4134.358887,4150.769043,4140.512695,4111.794922,4141.025879,4142.051270,4136.922852,4155.384766,0.000000,4.000000,,,,0.000000,4.000000,4.000000,4.000000,4.000000,4.000000,4.000000,4.000000,4.000000,4.000000,4.000000,4.000000,4.000000,4.000000,4.000000,100.000000
1602006808.950016,47.000000,0.000000,4126.666504,4138.974121,4138.974121,4138.974121,4135.897461,4134.871582,4133.846191,4141.025879,4121.538574,4083.076904,4135.384766,4150.256348,4135.384766,4156.922852,0.000000,4.000000,,,,0.000000,4.000000,4.000000,4.000000,4.000000,4.000000,4.000000,4.000000,4.000000,4.000000,4.000000,4.000000,4.000000,4.000000,4.000000,100.000000
1602006808.957897,48.000000,0.000000,4134.358887,4142.563965,4150.256348,4141.538574,4137.436035,4133.846191,4136.922852,4140.000000,4112.307617,4077.948730,4139.487305,4156.410156,4136.922852,4162.051270,0.000000,4.000000,,,,0.000000,4.000000,4.000000,4.000000,4.000000,4.000000,4.000000,4.000000,4.000000,4.000000,4.000000,4.000000,4.000000,4.000000,4.000000,100.000000
1602006808.965777,49.000000,0.000000,4141.025879,4145.641113,4152.820313,4142.051270,4136.410156,4137.436035,4138.974121,4151.794922,4131.282227,4109.743652,4145.128418,4156.410156,4144.102539,4160.512695,0.000000,4.000000,,,,0.000000,4.000000,4.000000,4.000000,4.000000,4.000000,4.000000,4.000000,4.000000,4.000000,4.000000,4.000000,4.000000,4.000000,4.000000,100.000000
1602006808.973658,50.000000,0.000000,4137.948730,4144.615234,4143.077148,4139.487305,4135.897461,4135.897461,4139.487305,4152.820313,4140.512695,4117.436035,4144.102539,4156.922852,4148.205078,4155.897461,0.000000,4.000000,,,,0.000000,4.000000,4.000000,4.000000,4.000000,4.000000,4.000000,4.000000,4.000000,4.000000,4.000000,4.000000,4.000000,4.000000,4.000000,100.000000
1602006808.981539,51.000000,0.000000,4133.846191,4140.000000,4141.025879,4138.974121,4135.384766,4134.358887,4147.179688,4142.563965,4126.153809,4103.077148,4140.000000,4154.871582,4144.615234,4153.846191,0.000000,4.000000,,,,0.000000,4.000000,4.000000,4.000000,4.000000,4.000000,4.000000,4.000000,4.000000,4.000000,4.000000,4.000000,4.000000,4.000000,4.000000,100.000000
1602006808.989321,52.000000,0.000000,4134.358887,4135.897461,4145.128418,4136.922852,4128.717773,4136.922852,4150.256348,4143.589844,4122.563965,4103.589844,4136.922852,4149.743652,4137.436035,4145.128418,0.000000,4.000000,,,,0.000000,4.000000,4.000000,4.000000,4.000000,4.000000,4.000000,4.000000,4.000000,4.000000,4.000000,4.000000,4.000000,4.000000,4.000000,100.000000
1602006808.997202,53.000000,0.000000,4136.922852,4138.461426,4144.615234,4137.948730,4128.717773,4136.922852,4142.051270,4152.307617,4139.487305,4118.974121,4137.948730,4150.769043,4138.461426,4139.487305,0.000000,4.000000,,,,0.000000,4.000000,4.000000,4.000000,4.000000,4.000000,4.000000,4.000000,4.000000,4.000000,4.000000,4.000000,4.000000,4.000000,4.000000,100.000000
1602006809.005083,54.000000,0.000000,4135.897461,4142.051270,4142.563965,4142.051270,4137.948730,4136.410156,4134.358887,4147.692383,4146.153809,4127.179688,4136.922852,4150.256348,4139.487305,4142.563965,0.000000,4.000000,,,,0.000000,4.000000,4.000000,4.000000,4.000000,4.000000,4.000000,4.000000,4.000000,4.000000,4.000000,4.000000,4.000000,4.000000,4.000000,100.000000
1602006809.012964,55.000000,0.000000,4126.666504,4132.307617,4139.487305,4135.897461,4139.487305,4136.922852,4130.769043,4137.948730,4136.922852,4113.333496,4125.128418,4137.948730,4127.179688,4131.794922,0.000000,4.000000,,,,0.000000,4.000000,4.000000,4.000000,4.000000,4.000000,4.000000,4.000000,4.000000,4.000000,4.000000,4.000000,4.000000,4.000000,4.000000,100.000000
1602006809.020845,56.000000,0.000000,4119.487305,4120.000000,4136.922852,4127.692383,4136.922852,4138.461426,4131.282227,4137.436035,4136.922852,4100.512695,4119.487305,4131.794922,4123.077148,4120.000000,0.000000,4.000000,,,,0.000000,4.000000,4.000000,4.000000,4.000000,4.000000,4.000000,4.000000,4.000000,4.000000,4.000000,4.000000,4.000000,4.000000,4.000000,100.000000
1602006809.028726,57.000000,0.000000,4125.641113,4124.102539,4139.487305,4132.820313,4138.974121,4141.538574,4136.922852,4137.948730,4134.358887,4108.717773,4125.641113,4143.077148,4136.410156,4127.692383,0.000000,4.000000,,,,0.000000,4.000000,4.000000,4.000000,4.000000,4.000000,4.000000,4.000000,4.000000,4.000000,4.000000,4.000000,4.000000,4.000000,4.000000,100.000000
1602006809.036608,58.000000,0.000000,4136.410156,4134.871582,4144.102539,4140.000000,4138.974121,4142.051270,4139.487305,4136.410156,4125.641113,4107.692383,4129.230957,4152.307617,4141.025879,4136.922852,0.000000,4.000000,,,,0.000000,4.000000,4.000000,4.000000,4.000000,4.000000,4.000000,4.000000,4.000000,4.000000,4.000000,4.000000,4.000000,4.000000,4.000000,100.000000
1602006809.044489,59.000000,0.000000,4142.051270,4135.384766,4144.102539,4138.974121,4143.077148,4141.025879,4138.461426,4137.436035,4130.256348,4094.871826,4133.846191,4159.487305,4135.384766,4145.128418,0.000000,4.000000,,,,0.000000,4.000000,4.000000,4.000000,4.000000,4.000000,4.000000,4.000000,4.000000,4.000000,4.000000,4.000000,4.000000,4.000000,4.000000,100.000000
1602006809.052370,60.000000,0.000000,4144.615234,4140.512695,4141.538574,4144.102539,4152.820313,4142.051270,4135.897461,4135.897461,4137.948730,4107.179688,4142.051270,4170.769043,4142.051270,4150.769043,0.000000,4.000000,,,,0.000000,4.000000,4.000000,4.000000,4.000000,4.000000,4.000000,4.000000,4.000000,4.000000,4.000000,4.000000,4.000000,4.000000,4.000000,100.000000
1602006809.060351,61.000000,0.000000,4145.641113,4153.846191,4143.589844,4149.230957,4156.410156,4135.897461,4126.666504,4129.230957,4141.025879,4135.384766,4144.102539,4169.743652,4154.358887,4143.589844,0.000000,4.000000,,,,0.000000,4.000000,4.000000,4.000000,4.000000,4.000000,4.000000,4.000000,4.000000,4.000000,4.000000,4.000000,4.000000,4.000000,4.000000,100.000000
1602006809.068232,62.000000,0.000000,4143.077148,4153.846191,4145.128418,4143.077148,4151.282227,4122.051270,4117.948730,4125.128418,4150.256348,4137.948730,4146.666504,4159.487305,4157.948730,4134.358887,0.000000,4.000000,,,,0.000000,4.000000,4.000000,4.000000,4.000000,4.000000,4.000000,4.000000,4.000000,4.000000,4.000000,4.000000,4.000000,4.000000,4.000000,100.000000
