Timestamp,EEG.Counter,EEG.Interpolated,EEG.AF3,EEG.F7,EEG.F3,EEG.FC5,EEG.T7,EEG.P7,EEG.O1,EEG.O2,EEG.P8,EEG.T8,EEG.FC6,EEG.F4,EEG.F8,EEG.AF4,EEG.RawCq,EEG.Battery,MarkerIndex,MarkerType,MarkerValueInt,EEG.MarkerHardware,CQ.AF3,CQ.F7,CQ.F3,CQ.FC5,CQ.T7,CQ.P7,CQ.O1,CQ.O2,CQ.P8,CQ.T8,CQ.FC6,CQ.F4,CQ.F8,CQ.AF4,CQ.Overall
1602006822.945185,16.000000,0.000000,4087.692383,4124.615234,4118.461426,4124.102539,4125.641113,4122.051270,4128.205078,4122.051270,4117.948730,4112.820313,4092.820557,4105.128418,4080.512939,4071.281982,0.000000,4.000000,,,,0.000000,4.000000,4.000000,4.000000,4.000000,4.000000,4.000000,4.000000,4.000000,4.000000,4.000000,4.000000,4.000000,4.000000,4.000000,100.000000
1602006822.953166,17.000000,0.000000,4112.820313,4136.922852,4130.256348,4135.897461,4129.230957,4138.461426,4139.487305,4131.282227,4128.717773,4122.563965,4123.589844,4123.077148,4100.000000,4101.025879,0.000000,4.000000,,,,0.000000,4.000000,4.000000,4.000000,4.000000,4.000000,4.000000,4.000000,4.000000,4.000000,4.000000,4.000000,4.000000,4.000000,4.000000,100.000000
1602006822.961047,18.000000,0.000000,4122.563965,4140.512695,4134.871582,4134.871582,4122.051270,4140.512695,4139.487305,4132.307617,4127.692383,4125.641113,4124.102539,4124.615234,4115.897461,4116.410156,0.000000,4.000000,,,,0.000000,4.000000,4.000000,4.000000,4.000000,4.000000,4.000000,4.000000,4.000000,4.000000,4.000000,4.000000,4.000000,4.000000,4.000000,100.000000
1602006822.968928,19.000000,0.000000,4117.948730,4126.153809,4129.743652,4123.589844,4116.922852,4132.820313,4132.307617,4127.692383,4126.666504,4125.128418,4119.487305,4121.025879,4117.948730,4109.230957,0.000000,4.000000,,,,0.000000,4.000000,4.000000,4.000000,4.000000,4.000000,4.000000,4.000000,4.000000,4.000000,4.000000,4.000000,4.000000,4.000000,4.000000,100.000000
1602006822.976810,20.000000,0.000000,4114.358887,4122.051270,4126.666504,4119.487305,4122.051270,4127.179688,4126.666504,4125.128418,4125.641113,4115.384766,4124.615234,4124.102539,4107.692383,4106.666504,0.000000,4.000000,,,,0.000000,4.000000,4.000000,4.000000,4.000000,4.000000,4.000000,4.000000,4.000000,4.000000,4.000000,4.000000,4.000000,4.000000,4.000000,100.000000
1602006822.984691,21.000000,0.000000,4113.333496,4121.025879,4126.666504,4122.051270,4121.538574,4124.102539,4118.461426,4122.563965,4116.410156,4097.436035,4118.974121,4121.538574,4098.461426,4107.692383,0.000000,4.000000,,,,0.000000,4.000000,4.000000,4.000000,4.000000,4.000000,4.000000,4.000000,4.000000,4.000000,4.000000,4.000000,4.000000,4.000000,4.000000,100.000000
1602006822.992572,22.000000,0.000000,4105.641113,4109.230957,4121.025879,4118.461426,4107.692383,4119.487305,4108.717773,4118.461426,4108.205078,4090.256348,4105.641113,4111.794922,4093.333252,4094.358887,0.000000,4.000000,,,,0.000000,4.000000,4.000000,4.000000,4.000000,4.000000,4.000000,4.000000,4.000000,4.000000,4.000000,4.000000,4.000000,4.000000,4.000000,100.000000
1602006823.000453,23.000000,0.000000,4101.025879,4112.307617,4118.974121,4118.461426,4106.666504,4124.102539,4111.282227,4118.974121,4112.307617,4105.128418,4102.051270,4108.717773,4090.256348,4088.205078,0.000000,4.000000,,,,0.000000,4.000000,4.000000,4.000000,4.000000,4.000000,4.000000,4.000000,4.000000,4.000000,4.000000,4.000000,4.000000,4.000000,4.000000,100.000000
1602006823.008334,24.000000,0.000000,4105.641113,4125.641113,4125.641113,4126.666504,4122.051270,4137.436035,4120.000000,4122.563965,4122.563965,4113.333496,4105.128418,4111.794922,4092.820557,4104.615234,0.000000,4.000000,,,,0.000000,4.000000,4.000000,4.000000,4.000000,4.000000,4.000000,4.000000,4.000000,4.000000,4.000000,4.000000,4.000000,4.000000,4.000000,100.000000
1602006823.016215,25.000000,0.000000,4105.641113,4125.641113,4126.153809,4130.256348,4125.641113,4141.538574,4123.077148,4122.051270,4127.179688,4102.051270,4113.333496,4113.846191,4100.000000,4108.717773,0.000000,4.000000,,,,0.000000,4.000000,4.000000,4.000000,4.000000,4.000000,4.000000,4.000000,4.000000,4.000000,4.000000,4.000000,4.000000,4.000000,4.000000,100.000000
1602006823.023997,26.000000,0.000000,4106.153809,4123.589844,4122.563965,4127.179688,4121.025879,4133.846191,4123.077148,4122.563965,4126.153809,4103.589844,4123.589844,4118.461426,4104.102539,4096.922852,0.000000,4.000000,,,,0.000000,4.000000,4.000000,4.000000,4.000000,4.000000,4.000000,4.000000,4.000000,4.000000,4.000000,4.000000,4.000000,4.000000,4.000000,100.000000
1602006823.031878,27.000000,0.000000,4110.769043,4128.205078,4123.077148,4131.282227,4125.128418,4127.179688,4124.102539,4127.179688,4125.641113,4123.077148,4126.153809,4123.077148,4105.128418,4100.000000,0.000000,4.000000,,,,0.000000,4.000000,4.000000,4.000000,4.000000,4.000000,4.000000,4.000000,4.000000,4.000000,4.000000,4.000000,4.000000,4.000000,4.000000,100.000000
1602006823.039759,28.000000,0.000000,4115.897461,4125.641113,4124.102539,4136.410156,4124.102539,4122.051270,4123.077148,4130.256348,4125.641113,4125.128418,4122.563965,4121.025879,4106.153809,4110.256348,0.000000,4.000000,,,,0.000000,4.000000,4.000000,4.000000,4.000000,4.000000,4.000000,4.000000,4.000000,4.000000,4.000000,4.000000,4.000000,4.000000,4.000000,100.000000
1602006823.047640,29.000000,0.000000,4120.512695,4122.051270,4130.769043,4134.871582,4112.820313,4118.461426,4129.743652,4130.769043,4118.461426,4114.358887,4123.077148,4122.051270,4105.641113,4109.743652,0.000000,4.000000,,,,0.000000,4.000000,4.000000,4.000000,4.000000,4.000000,4.000000,4.000000,4.000000,4.000000,4.000000,4.000000,4.000000,4.000000,4.000000,100.000000
1602006823.055521,30.000000,0.000000,4120.512695,4124.102539,4144.102539,4136.922852,4111.282227,4128.205078,4142.563965,4134.871582,4111.794922,4118.974121,4124.615234,4134.358887,4106.666504,4105.128418,0.000000,4.000000,,,,0.000000,4.000000,4.000000,4.000000,4.000000,4.000000,4.000000,4.000000,4.000000,4.000000,4.000000,4.000000,4.000000,4.000000,4.000000,100.000000
1602006823.063402,31.000000,0.000000,4114.871582,4125.641113,4147.179688,4137.436035,4118.974121,4136.410156,4144.615234,4139.487305,4120.000000,4128.717773,4126.153809,4138.461426,4107.692383,4106.153809,0.000000,4.000000,,,,0.000000,4.000000,4.000000,4.000000,4.000000,4.000000,4.000000,4.000000,4.000000,4.000000,4.000000,4.000000,4.000000,4.000000,4.000000,100.000000
1602006823.071284,32.000000,0.000000,4106.666504,4120.512695,4137.948730,4127.692383,4116.922852,4127.179688,4137.948730,4137.948730,4124.102539,4119.487305,4123.077148,4126.666504,4106.666504,4110.256348,0.000000,4.000000,,,,0.000000,4.000000,4.000000,4.000000,4.000000,4.000000,4.000000,4.000000,4.000000,4.000000,4.000000,4.000000,4.000000,4.000000,4.000000,100.000000
1602006823.079165,33.000000,0.000000,4104.615234,4115.897461,4137.436035,4121.025879,4109.230957,4124.102539,4135.897461,4137.948730,4114.358887,4105.641113,4120.512695,4121.025879,4106.153809,4105.641113,0.000000,4.000000,,,,0.000000,4.000000,4.000000,4.000000,4.000000,4.000000,4.000000,4.000000,4.000000,4.000000,4.000000,4.000000,4.000000,4.000000,4.000000,100.000000
1602006823.087146,34.000000,0.000000,4112.820313,4117.948730,4142.051270,4125.641113,4109.743652,4134.871582,4138.461426,4137.436035,4115.384766,4111.282227,4129.230957,4128.205078,4108.717773,4101.538574,0.000000,4.000000,,,,0.000000,4.000000,4.000000,4.000000,4.000000,4.000000,4.000000,4.000000,4.000000,4.000000,4.000000,4.000000,4.000000,4.000000,4.000000,100.000000
1602006823.095027,35.000000,0.000000,4110.256348,4115.897461,4131.794922,4128.205078,4113.846191,4136.410156,4133.333496,4129.230957,4119.487305,4121.025879,4126.153809,4126.666504,4105.641113,4106.153809,0.000000,4.000000,,,,0.000000,4.000000,4.000000,4.000000,4.000000,4.000000,4.000000,4.000000,4.000000,4.000000,4.000000,4.000000,4.000000,4.000000,4.000000,100.000000
1602006823.102908,36.000000,0.000000,4097.436035,4110.769043,4123.589844,4126.153809,4115.897461,4135.384766,4125.641113,4121.025879,4114.358887,4118.461426,4105.641113,4118.974121,4095.897461,4102.051270,0.000000,4.000000,,,,0.000000,4.000000,4.000000,4.000000,4.000000,4.000000,4.000000,4.000000,4.000000,4.000000,4.000000,4.000000,4.000000,4.000000,4.000000,100.000000
1602006823.110789,37.000000,0.000000,4099.487305,4110.256348,4126.666504,4125.128418,4114.871582,4138.461426,4122.051270,4115.384766,4112.307617,4109.230957,4101.538574,4118.974121,4091.281982,4093.333252,0.000000,4.000000,,,,0.000000,4.000000,4.000000,4.000000,4.000000,4.000000,4.000000,4.000000,4.000000,4.000000,4.000000,4.000000,4.000000,4.000000,4.000000,100.000000
1602006823.118671,38.000000,0.000000,4107.179688,4109.743652,4125.128418,4122.563965,4111.282227,4130.256348,4115.384766,4108.717773,4111.794922,4098.974121,4108.717773,4120.000000,4089.230713,4094.358887,0.000000,4.000000,,,,0.000000,4.000000,4.000000,4.000000,4.000000,4.000000,4.000000,4.000000,4.000000,4.000000,4.000000,4.000000,4.000000,4.000000,4.000000,100.000000
1602006823.126552,39.000000,0.000000,4103.589844,4109.743652,4124.102539,4124.615234,4116.922852,4126.153809,4109.743652,4104.615234,4107.692383,4096.410156,4106.153809,4121.025879,4087.692383,4094.358887,0.000000,4.000000,,,,0.000000,4.000000,4.000000,4.000000,4.000000,4.000000,4.000000,4.000000,4.000000,4.000000,4.000000,4.000000,4.000000,4.000000,4.000000,100.000000
1602006823.134433,40.000000,0.000000,4105.641113,4118.974121,4133.846191,4135.384766,4126.666504,4137.948730,4115.897461,4109.743652,4104.102539,4106.666504,4112.820313,4128.717773,4096.410156,4097.948730,0.000000,4.000000,,,,0.000000,4.000000,4.000000,4.000000,4.000000,4.000000,4.000000,4.000000,4.000000,4.000000,4.000000,4.000000,4.000000,4.000000,4.000000,100.000000
1602006823.142314,41.000000,0.000000,4117.948730,4129.743652,4141.025879,4141.025879,4123.077148,4136.922852,4121.538574,4117.948730,4107.179688,4114.871582,4123.589844,4137.436035,4109.230957,4120.000000,0.000000,4.000000,,,,0.000000,4.000000,4.000000,4.000000,4.000000,4.000000,4.000000,4.000000,4.000000,4.000000,4.000000,4.000000,4.000000,4.000000,4.000000,100.000000
1602006823.150095,42.000000,0.000000,4126.666504,4135.384766,4143.077148,4138.974121,4118.974121,4123.077148,4118.461426,4122.563965,4116.410156,4117.948730,4124.615234,4147.179688,4116.410156,4127.179688,0.000000,4.000000,,,,0.000000,4.000000,4.000000,4.000000,4.000000,4.000000,4.000000,4.000000,4.000000,4.000000,4.000000,4.000000,4.000000,4.000000,4.000000,100.000000
1602006823.157976,43.000000,0.000000,4128.717773,4138.974121,4146.666504,4140.000000,4122.563965,4117.948730,4120.512695,4126.153809,4124.615234,4127.692383,4128.717773,4151.794922,4121.538574,4114.358887,0.000000,4.000000,,,,0.000000,4.000000,4.000000,4.000000,4.000000,4.000000,4.000000,4.000000,4.000000,4.000000,4.000000,4.000000,4.000000,4.000000,4.000000,100.000000
1602006823.165858,44.000000,0.000000,4120.000000,4134.871582,4142.563965,4142.051270,4120.512695,4109.230957,4122.051270,4132.820313,4123.589844,4127.692383,4131.794922,4141.025879,4122.051270,4115.897461,0.000000,4.000000,,,,0.000000,4.000000,4.000000,4.000000,4.000000,4.000000,4.000000,4.000000,4.000000,4.000000,4.000000,4.000000,4.000000,4.000000,4.000000,100.000000
1602006823.173739,45.000000,0.000000,4108.205078,4133.333496,4137.436035,4140.512695,4119.487305,4106.666504,4124.615234,4137.948730,4122.051270,4120.512695,4124.102539,4135.897461,4119.487305,4126.666504,0.000000,4.000000,,,,0.000000,4.000000,4.000000,4.000000,4.000000,4.000000,4.000000,4.000000,4.000000,4.000000,4.000000,4.000000,4.000000,4.000000,4.000000,100.000000
1602006823.181620,46.000000,0.000000,4111.282227,4139.487305,4141.025879,4143.077148,4124.615234,4129.743652,4132.307617,4131.794922,4123.077148,4122.051270,4122.563965,4145.641113,4122.563965,4126.666504,0.000000,4.000000,,,,0.000000,4.000000,4.000000,4.000000,4.000000,4.000000,4.000000,4.000000,4.000000,4.000000,4.000000,4.000000,4.000000,4.000000,4.000000,100.000000
1602006823.189501,47.000000,0.000000,4112.307617,4133.333496,4131.794922,4141.025879,4127.692383,4142.051270,4131.282227,4123.589844,4119.487305,4122.563965,4126.666504,4142.051270,4119.487305,4118.461426,0.000000,4.000000,,,,0.000000,4.000000,4.000000,4.000000,4.000000,4.000000,4.000000,4.000000,4.000000,4.000000,4.000000,4.000000,4.000000,4.000000,4.000000,100.000000
1602006823.197382,48.000000,0.000000,4099.487305,4122.051270,4113.333496,4135.384766,4126.666504,4130.256348,4122.051270,4124.102539,4121.025879,4113.846191,4123.077148,4125.641113,4106.153809,4106.153809,0.000000,4.000000,,,,0.000000,4.000000,4.000000,4.000000,4.000000,4.000000,4.000000,4.000000,4.000000,4.000000,4.000000,4.000000,4.000000,4.000000,4.000000,100.000000
1602006823.205363,49.000000,0.000000,4090.769287,4123.077148,4113.333496,4134.871582,4129.230957,4129.230957,4122.563965,4123.077148,4125.128418,4105.128418,4121.538574,4123.077148,4110.256348,4093.846191,0.000000,4.000000,,,,0.000000,4.000000,4.000000,4.000000,4.000000,4.000000,4.000000,4.000000,4.000000,4.000000,4.000000,4.000000,4.000000,4.000000,4.000000,100.000000
1602006823.213244,50.000000,0.000000,4093.846191,4125.128418,4120.512695,4130.769043,4136.922852,4138.461426,4124.615234,4113.333496,4125.128418,4108.205078,4118.974121,4127.179688,4119.487305,4091.794922,0.000000,4.000000,,,,0.000000,4.000000,4.000000,4.000000,4.000000,4.000000,4.000000,4.000000,4.000000,4.000000,4.000000,4.000000,4.000000,4.000000,4.000000,100.000000
1602006823.221224,51.000000,0.000000,4101.025879,4124.615234,4119.487305,4128.205078,4135.897461,4134.871582,4118.461426,4113.333496,4133.333496,4121.538574,4117.948730,4131.282227,4119.487305,4101.025879,0.000000,4.000000,,,,0.000000,4.000000,4.000000,4.000000,4.000000,4.000000,4.000000,4.000000,4.000000,4.000000,4.000000,4.000000,4.000000,4.000000,4.000000,100.000000
1602006823.229105,52.000000,0.000000,4113.333496,4135.897461,4128.717773,4138.461426,4129.230957,4137.948730,4127.179688,4131.282227,4152.820313,4137.436035,4133.333496,4144.615234,4131.282227,4118.974121,0.000000,4.000000,,,,0.000000,4.000000,4.000000,4.000000,4.000000,4.000000,4.000000,4.000000,4.000000,4.000000,4.000000,4.000000,4.000000,4.000000,4.000000,100.000000
1602006823.236986,53.000000,0.000000,4121.538574,4142.051270,4143.589844,4145.641113,4128.205078,4140.512695,4143.077148,4145.128418,4157.948730,4140.512695,4145.641113,4159.487305,4143.589844,4128.205078,0.000000,4.000000,,,,0.000000,4.000000,4.000000,4.000000,4.000000,4.000000,4.000000,4.000000,4.000000,4.000000,4.000000,4.000000,4.000000,4.000000,4.000000,100.000000
1602006823.244867,54.000000,0.000000,4121.538574,4135.384766,4140.000000,4138.461426,4125.641113,4123.077148,4135.384766,4136.922852,4140.512695,4124.102539,4137.948730,4155.897461,4130.769043,4115.384766,0.000000,4.000000,,,,0.000000,4.000000,4.000000,4.000000,4.000000,4.000000,4.000000,4.000000,4.000000,4.000000,4.000000,4.000000,4.000000,4.000000,4.000000,100.000000
1602006823.252848,55.000000,0.000000,4122.563965,4136.410156,4137.436035,4136.922852,4122.563965,4122.563965,4124.615234,4123.077148,4132.307617,4111.282227,4126.666504,4144.102539,4120.512695,4106.153809,0.000000,4.000000,,,,0.000000,4.000000,4.000000,4.000000,4.000000,4.000000,4.000000,4.000000,4.000000,4.000000,4.000000,4.000000,4.000000,4.000000,4.000000,100.000000
1602006823.260729,56.000000,0.000000,4123.589844,4135.897461,4148.205078,4141.538574,4124.102539,4141.025879,4134.358887,4120.000000,4136.922852,4112.307617,4125.641113,4147.692383,4125.641113,4109.230957,0.000000,4.000000,,,,0.000000,4.000000,4.000000,4.000000,4.000000,4.000000,4.000000,4.000000,4.000000,4.000000,4.000000,4.000000,4.000000,4.000000,4.000000,100.000000
1602006823.268610,57.000000,0.000000,4115.897461,4124.615234,4145.641113,4139.487305,4123.077148,4140.000000,4140.512695,4121.025879,4136.410156,4109.743652,4125.128418,4155.897461,4118.974121,4110.769043,0.000000,4.000000,,,,0.000000,4.000000,4.000000,4.000000,4.000000,4.000000,4.000000,4.000000,4.000000,4.000000,4.000000,4.000000,4.000000,4.000000,4.000000,100.000000
1602006823.276491,58.000000,0.000000,4106.666504,4120.000000,4130.256348,4131.282227,4122.051270,4132.307617,4132.307617,4122.051270,4135.897461,4101.025879,4118.974121,4147.179688,4106.153809,4107.179688,0.000000,4.000000,,,,0.000000,4.000000,4.000000,4.000000,4.000000,4.000000,4.000000,4.000000,4.000000,4.000000,4.000000,4.000000,4.000000,4.000000,4.000000,100.000000
1602006823.284272,59.000000,0.000000,4105.128418,4122.563965,4121.025879,4122.051270,4128.717773,4137.436035,4127.692383,4123.077148,4145.128418,4111.794922,4117.436035,4133.846191,4105.641113,4102.051270,0.000000,4.000000,,,,0.000000,4.000000,4.000000,4.000000,4.000000,4.000000,4.000000,4.000000,4.000000,4.000000,4.000000,4.000000,4.000000,4.000000,4.000000,100.000000
1602006823.292153,60.000000,0.000000,4102.051270,4122.563965,4120.000000,4125.128418,4128.717773,4138.974121,4124.615234,4124.615234,4153.333496,4133.846191,4123.589844,4135.384766,4111.282227,4098.461426,0.000000,4.000000,,,,0.000000,4.000000,4.000000,4.000000,4.000000,4.000000,4.000000,4.000000,4.000000,4.000000,4.000000,4.000000,4.000000,4.000000,4.000000,100.000000
1602006823.300034,61.000000,0.000000,4095.384521,4122.563965,4121.538574,4137.436035,4122.051270,4136.922852,4119.487305,4123.589844,4152.307617,4133.846191,4120.512695,4138.461426,4113.846191,4104.102539,0.000000,4.000000,,,,0.000000,4.000000,4.000000,4.000000,4.000000,4.000000,4.000000,4.000000,4.000000,4.000000,4.000000,4.000000,4.000000,4.000000,4.000000,100.000000
1602006823.307915,62.000000,0.000000,4090.769287,4122.051270,4122.563965,4134.871582,4128.717773,4143.589844,4118.974121,4117.948730,4143.589844,4123.589844,4108.717773,4138.974121,4110.256348,4103.589844,0.000000,4.000000,,,,0.000000,4.000000,4.000000,4.000000,4.000000,4.000000,4.000000,4.000000,4.000000,4.000000,4.000000,4.000000,4.000000,4.000000,4.000000,100.000000
1602006823.315795,63.000000,0.000000,4086.153809,4116.410156,4122.051270,4122.051270,4134.871582,4137.436035,4113.846191,4109.230957,4135.384766,4122.051270,4111.794922,4146.153809,4103.077148,4084.615479,0.000000,4.000000,,,,0.000000,4.000000,4.000000,4.000000,4.000000,4.000000,4.000000,4.000000,4.000000,4.000000,4.000000,4.000000,4.000000,4.000000,4.000000,100.000000
1602006823.323676,64.000000,0.000000,4095.384521,4121.025879,4126.666504,4127.179688,4134.358887,4120.000000,4103.589844,4102.563965,4136.410156,4112.307617,4122.563965,4149.743652,4102.051270,4081.025635,788.000000,4.000000,,,,0.000000,4.000000,4.000000,4.000000,4.000000,4.000000,4.000000,4.000000,4.000000,4.000000,4.000000,4.000000,4.000000,4.000000,4.000000,100.000000
1602006823.331657,65.000000,0.000000,4104.102539,4125.641113,4136.922852,4138.461426,4136.410156,4118.461426,4107.692383,4109.743652,4137.948730,4099.487305,4126.153809,4151.282227,4110.769043,4097.948730,790.000000,4.000000,,,,0.000000,4.000000,4.000000,4.000000,4.000000,4.000000,4.000000,4.000000,4.000000,4.000000,4.000000,4.000000,4.000000,4.000000,4.000000,100.000000
1602006823.339538,66.000000,0.000000,4097.436035,4115.897461,4140.000000,4133.333496,4131.794922,4128.717773,4122.051270,4120.512695,4129.743652,4108.717773,4135.897461,4157.436035,4120.000000,4107.179688,846.000000,4.000000,,,,0.000000,4.000000,4.000000,4.000000,4.000000,4.000000,4.000000,4.000000,4.000000,4.000000,4.000000,4.000000,4.000000,4.000000,4.000000,100.000000
1602006823.347419,67.000000,0.000000,4107.179688,4128.205078,4137.436035,4136.410156,4127.179688,4128.205078,4124.615234,4117.436035,4123.589844,4120.512695,4143.589844,4159.487305,4127.179688,4113.846191,872.000000,4.000000,,,,0.000000,4.000000,4.000000,4.000000,4.000000,4.000000,4.000000,4.000000,4.000000,4.000000,4.000000,4.000000,4.000000,4.000000,4.000000,100.000000
1602006823.355300,68.000000,0.000000,4129.230957,4160.512695,4138.461426,4152.820313,4133.846191,4121.538574,4120.512695,4107.692383,4127.692383,4111.282227,4130.256348,4152.820313,4125.641113,4114.871582,809.000000,4.000000,,,,0.000000,4.000000,4.000000,4.000000,4.000000,4.000000,4.000000,4.000000,4.000000,4.000000,4.000000,4.000000,4.000000,4.000000,4.000000,100.000000
1602006823.363181,69.000000,0.000000,4128.717773,4166.153809,4140.000000,4154.358887,4136.410156,4121.538574,4123.589844,4111.794922,4127.179688,4109.230957,4120.000000,4151.282227,4114.358887,4099.487305,822.000000,4.000000,,,,0.000000,4.000000,4.000000,4.000000,4.000000,4.000000,4.000000,4.000000,4.000000,4.000000,4.000000,4.000000,4.000000,4.000000,4.000000,100.000000
1602006823.371062,70.000000,0.000000,4117.948730,4154.871582,4132.820313,4142.051270,4126.666504,4122.051270,4128.717773,4122.051270,4126.153809,4122.563965,4118.974121,4156.410156,4102.051270,4085.128174,744.000000,4.000000,,,,0.000000,4.000000,4.000000,4.000000,4.000000,4.000000,4.000000,4.000000,4.000000,4.000000,4.000000,4.000000,4.000000,4.000000,4.000000,100.000000
1602006823.378843,71.000000,0.000000,4116.410156,4157.436035,4124.102539,4136.922852,4120.000000,4122.563965,4127.179688,4123.589844,4141.025879,4135.384766,4116.922852,4152.820313,4098.461426,4082.564209,639.000000,4.000000,,,,0.000000,4.000000,4.000000,4.000000,4.000000,4.000000,4.000000,4.000000,4.000000,4.000000,4.000000,4.000000,4.000000,4.000000,4.000000,100.000000
1602006823.386724,72.000000,0.000000,4110.769043,4160.000000,4122.563965,4142.051270,4126.153809,4128.205078,4125.641113,4124.102539,4157.948730,4144.102539,4122.563965,4142.563965,4100.000000,4074.871826,779.000000,4.000000,,,,0.000000,4.000000,4.000000,4.000000,4.000000,4.000000,4.000000,4.000000,4.000000,4.000000,4.000000,4.000000,4.000000,4.000000,4.000000,100.000000
1602006823.394605,73.000000,0.000000,4104.615234,4155.897461,4123.589844,4147.692383,4135.897461,4128.205078,4126.666504,4126.153809,4156.922852,4143.077148,4121.538574,4137.948730,4094.358887,4064.102539,835.000000,4.000000,,,,0.000000,4.000000,4.000000,4.000000,4.000000,4.000000,4.000000,4.000000,4.000000,4.000000,4.000000,4.000000,4.000000,4.000000,4.000000,100.000000
1602006823.402487,74.000000,0.000000,4108.717773,4157.948730,4122.051270,4146.666504,4135.384766,4122.563965,4126.153809,4124.615234,4145.641113,4127.179688,4105.128418,4133.846191,4089.230713,4066.153809,871.000000,4.000000,,,,0.000000,4.000000,4.000000,4.000000,4.000000,4.000000,4.000000,4.000000,4.000000,4.000000,4.000000,4.000000,4.000000,4.000000,4.000000,100.000000
1602006823.410368,75.000000,0.000000,4112.820313,4157.436035,4122.563965,4142.563965,4126.666504,4127.179688,4122.051270,4116.922852,4135.897461,4100.000000,4103.077148,4124.615234,4090.256348,4063.076904,841.000000,4.000000,,,,0.000000,4.000000,4.000000,4.000000,4.000000,4.000000,4.000000,4.000000,4.000000,4.000000,4.000000,4.000000,4.000000,4.000000,4.000000,100.000000
1602006823.418249,76.000000,0.000000,4107.179688,4152.820313,4124.615234,4140.512695,4123.077148,4125.641113,4111.794922,4106.666504,4116.922852,4083.589844,4110.769043,4116.922852,4083.589844,4052.307617,764.000000,4.000000,,,,0.000000,4.000000,4.000000,4.000000,4.000000,4.000000,4.000000,4.000000,4.000000,4.000000,4.000000,4.000000,4.000000,4.000000,4.000000,100.000000
1602006823.426130,77.000000,0.000000,4100.512695,4152.820313,4122.051270,4141.025879,4125.128418,4108.717773,4105.128418,4102.051270,4107.179688,4100.000000,4106.153809,4118.461426,4074.358887,4051.281982,726.000000,4.000000,,,,0.000000,4.000000,4.000000,4.000000,4.000000,4.000000,4.000000,4.000000,4.000000,4.000000,4.000000,4.000000,4.000000,4.000000,4.000000,100.000000
1602006823.434111,78.000000,0.000000,4111.282227,4157.436035,4122.051270,4146.153809,4131.794922,4108.717773,4112.307617,4109.230957,4123.077148,4125.128418,4108.717773,4124.615234,4083.589844,4060.512939,871.000000,4.000000,,,,0.000000,4.000000,4.000000,4.000000,4.000000,4.000000,4.000000,4.000000,4.000000,4.000000,4.000000,4.000000,4.000000,4.000000,4.000000,100.000000
1602006823.441992,79.000000,0.000000,4123.077148,4158.461426,4126.153809,4154.358887,4139.487305,4124.615234,4120.000000,4119.487305,4137.436035,4123.589844,4117.948730,4127.179688,4096.410156,4067.692383,841.000000,4.000000,,,,0.000000,4.000000,4.000000,4.000000,4.000000,4.000000,4.000000,4.000000,4.000000,4.000000,4.000000,4.000000,4.000000,4.000000,4.000000,100.000000
1602006823.449873,80.000000,0.000000,4113.333496,4155.384766,4124.615234,4149.230957,4132.820313,4116.922852,4122.051270,4122.051270,4133.846191,4120.000000,4111.282227,4123.077148,4091.794922,4064.102539,764.000000,4.000000,,,,0.000000,4.000000,4.000000,4.000000,4.000000,4.000000,4.000000,4.000000,4.000000,4.000000,4.000000,4.000000,4.000000,4.000000,4.000000,100.000000
1602006823.457754,81.000000,0.000000,4103.077148,4152.820313,4115.384766,4138.461426,4119.487305,4103.589844,4131.282227,4125.128418,4134.358887,4125.128418,4100.512695,4120.512695,4089.230713,4051.281982,726.000000,4.000000,,,,0.000000,4.000000,4.000000,4.000000,4.000000,4.000000,4.000000,4.000000,4.000000,4.000000,4.000000,4.000000,4.000000,4.000000,4.000000,100.000000
1602006823.465534,82.000000,0.000000,4105.641113,4146.153809,4106.153809,4137.948730,4120.000000,4117.436035,4142.051270,4133.333496,4142.563965,4118.461426,4101.538574,4121.538574,4093.333252,4046.666748,871.000000,4.000000,,,,0.000000,4.000000,4.000000,4.000000,4.000000,4.000000,4.000000,4.000000,4.000000,4.000000,4.000000,4.000000,4.000000,4.000000,4.000000,100.000000
1602006823.473415,83.000000,0.000000,4102.051270,4137.948730,4105.641113,4137.436035,4125.641113,4136.922852,4142.051270,4136.410156,4146.153809,4124.102539,4104.615234,4121.025879,4091.794922,4061.538574,841.000000,4.000000,,,,0.000000,4.000000,4.000000,4.000000,4.000000,4.000000,4.000000,4.000000,4.000000,4.000000,4.000000,4.000000,4.000000,4.000000,4.000000,100.000000
1602006823.481396,84.000000,0.000000,4092.307617,4142.563965,4108.205078,4134.358887,4125.128418,4138.974121,4143.077148,4136.410156,4157.948730,4140.000000,4106.666504,4119.487305,4089.743652,4071.281982,764.000000,4.000000,,,,0.000000,4.000000,4.000000,4.000000,4.000000,4.000000,4.000000,4.000000,4.000000,4.000000,4.000000,4.000000,4.000000,4.000000,4.000000,100.000000
1602006823.489277,85.000000,0.000000,4090.769287,4154.358887,4103.077148,4138.974121,4128.717773,4140.512695,4140.512695,4137.436035,4170.769043,4129.743652,4114.358887,4120.512695,4096.410156,4070.256348,726.000000,4.000000,,,,0.000000,4.000000,4.000000,4.000000,4.000000,4.000000,4.000000,4.000000,4.000000,4.000000,4.000000,4.000000,4.000000,4.000000,4.000000,100.000000
1602006823.497159,86.000000,0.000000,4094.871826,4153.846191,4097.436035,4138.974121,4137.436035,4143.077148,4129.743652,4130.769043,4169.743652,4124.102539,4119.487305,4121.538574,4104.102539,4072.820557,871.000000,4.000000,,,,0.000000,4.000000,4.000000,4.000000,4.000000,4.000000,4.000000,4.000000,4.000000,4.000000,4.000000,4.000000,4.000000,4.000000,4.000000,100.000000
1602006823.505040,87.000000,0.000000,4101.538574,4151.282227,4108.717773,4134.358887,4139.487305,4140.512695,4128.205078,4123.589844,4168.717773,4146.153809,4120.512695,4120.000000,4107.179688,4075.384521,841.000000,4.000000,,,,0.000000,4.000000,4.000000,4.000000,4.000000,4.000000,4.000000,4.000000,4.000000,4.000000,4.000000,4.000000,4.000000,4.000000,4.000000,100.000000
1602006823.512921,88.000000,0.000000,4110.256348,4160.512695,4124.615234,4144.615234,4140.000000,4144.615234,4138.974121,4128.717773,4170.769043,4151.282227,4123.589844,4121.025879,4110.256348,4076.410156,764.000000,4.000000,,,,0.000000,4.000000,4.000000,4.000000,4.000000,4.000000,4.000000,4.000000,4.000000,4.000000,4.000000,4.000000,4.000000,4.000000,4.000000,100.000000
1602006823.520802,89.000000,0.000000,4114.871582,4168.717773,4126.153809,4154.358887,4143.589844,4152.307617,4139.487305,4132.820313,4173.333496,4135.897461,4127.179688,4126.666504,4113.846191,4081.025635,726.000000,4.000000,,,,0.000000,4.000000,4.000000,4.000000,4.000000,4.000000,4.000000,4.000000,4.000000,4.000000,4.000000,4.000000,4.000000,4.000000,4.000000,100.000000
1602006823.528683,90.000000,0.000000,4112.307617,4155.384766,4120.512695,4142.051270,4134.358887,4145.128418,4128.717773,4124.102539,4167.692383,4135.897461,4121.025879,4125.128418,4110.769043,4078.461426,871.000000,4.000000,,,,0.000000,4.000000,4.000000,4.000000,4.000000,4.000000,4.000000,4.000000,4.000000,4.000000,4.000000,4.000000,4.000000,4.000000,4.000000,100.000000
1602006823.536564,91.000000,0.000000,4104.102539,4137.948730,4120.000000,4130.256348,4122.051270,4134.871582,4127.692383,4118.974121,4153.846191,4140.512695,4117.948730,4121.025879,4105.128418,4071.794922,841.000000,4.000000,,,,0.000000,4.000000,4.000000,4.000000,4.000000,4.000000,4.000000,4.000000,4.000000,4.000000,4.000000,4.000000,4.000000,4.000000,4.000000,100.000000
1602006823.544545,92.000000,0.000000,4098.461426,4137.436035,4124.102539,4137.436035,4132.307617,4140.512695,4139.487305,4132.307617,4160.512695,4139.487305,4124.102539,4126.153809,4105.128418,4075.384521,764.000000,4.000000,,,,0.000000,4.000000,4.000000,4.000000,4.000000,4.000000,4.000000,4.000000,4.000000,4.000000,4.000000,4.000000,4.000000,4.000000,4.000000,100.000000
1602006823.552427,93.000000,0.000000,4098.461426,4139.487305,4121.538574,4135.384766,4134.871582,4144.615234,4143.077148,4144.102539,4182.563965,4141.538574,4125.128418,4128.717773,4101.538574,4075.897461,726.000000,4.000000,,,,0.000000,4.000000,4.000000,4.000000,4.000000,4.000000,4.000000,4.000000,4.000000,4.000000,4.000000,4.000000,4.000000,4.000000,4.000000,100.000000
1602006823.560308,94.000000,0.000000,4098.974121,4133.846191,4114.871582,4122.563965,4120.512695,4135.384766,4139.487305,4140.000000,4175.897461,4137.948730,4120.000000,4122.563965,4092.307617,4065.641113,871.000000,4.000000,,,,0.000000,4.000000,4.000000,4.000000,4.000000,4.000000,4.000000,4.000000,4.000000,4.000000,4.000000,4.000000,4.000000,4.000000,4.000000,100.000000
1602006823.568189,95.000000,0.000000,4103.077148,4135.384766,4124.615234,4129.230957,4121.025879,4133.333496,4144.615234,4138.461426,4157.948730,4130.769043,4123.589844,4122.563965,4098.461426,4073.846191,841.000000,4.000000,,,,0.000000,4.000000,4.000000,4.000000,4.000000,4.000000,4.000000,4.000000,4.000000,4.000000,4.000000,4.000000,4.000000,4.000000,4.000000,100.000000
1602006823.576070,96.000000,0.000000,4110.769043,4142.563965,4136.410156,4141.025879,4128.717773,4140.512695,4146.666504,4138.461426,4155.897461,4123.589844,4124.102539,4130.256348,4113.846191,4095.384521,764.000000,4.000000,,,,0.000000,4.000000,4.000000,4.000000,4.000000,4.000000,4.000000,4.000000,4.000000,4.000000,4.000000,4.000000,4.000000,4.000000,4.000000,100.000000
1602006823.583951,97.000000,0.000000,4111.794922,4139.487305,4127.692383,4133.846191,4121.025879,4132.820313,4136.922852,4124.615234,4143.077148,4110.769043,4112.820313,4129.230957,4104.615234,4086.666748,726.000000,4.000000,,,,0.000000,4.000000,4.000000,4.000000,4.000000,4.000000,4.000000,4.000000,4.000000,4.000000,4.000000,4.000000,4.000000,4.000000,4.000000,100.000000
1602006823.591832,98.000000,0.000000,4104.102539,4132.307617,4118.461426,4126.666504,4117.948730,4119.487305,4132.307617,4113.333496,4121.538574,4102.051270,4108.717773,4121.538574,4089.230713,4067.692383,871.000000,4.000000,,,,0.000000,4.000000,4.000000,4.000000,4.000000,4.000000,4.000000,4.000000,4.000000,4.000000,4.000000,4.000000,4.000000,4.000000,4.000000,100.000000
1602006823.599714,99.000000,0.000000,4103.589844,4137.948730,4122.563965,4136.410156,4123.589844,4128.205078,4135.384766,4118.461426,4127.692383,4109.230957,4120.000000,4122.563965,4098.974121,4081.025635,841.000000,4.000000,,,,0.000000,4.000000,4.000000,4.000000,4.000000,4.000000,4.000000,4.000000,4.000000,4.000000,4.000000,4.000000,4.000000,4.000000,4.000000,100.000000
1602006823.607595,100.000000,0.000000,4111.794922,4143.589844,4124.102539,4141.025879,4126.153809,4139.487305,4137.436035,4121.538574,4142.051270,4119.487305,4126.666504,4122.563965,4108.717773,4092.820557,764.000000,4.000000,,,,0.000000,4.000000,4.000000,4.000000,4.000000,4.000000,4.000000,4.000000,4.000000,4.000000,4.000000,4.000000,4.000000,4.000000,4.000000,100.000000
1602006823.615476,101.000000,0.000000,4105.128418,4131.282227,4115.897461,4127.692383,4123.077148,4124.615234,4134.871582,4118.974121,4139.487305,4121.538574,4117.436035,4111.794922,4094.358887,4077.435791,726.000000,4.000000,,,,0.000000,4.000000,4.000000,4.000000,4.000000,4.000000,4.000000,4.000000,4.000000,4.000000,4.000000,4.000000,4.000000,4.000000,4.000000,100.000000
1602006823.623257,102.000000,0.000000,4090.256348,4117.436035,4108.717773,4116.410156,4114.358887,4108.717773,4132.820313,4121.025879,4138.461426,4123.589844,4109.230957,4110.256348,4084.102539,4067.179443,871.000000,4.000000,,,,0.000000,4.000000,4.000000,4.000000,4.000000,4.000000,4.000000,4.000000,4.000000,4.000000,4.000000,4.000000,4.000000,4.000000,4.000000,100.000000
1602006823.631138,103.000000,0.000000,4094.871826,4123.077148,4112.820313,4120.512695,4113.333496,4120.512695,4137.436035,4131.794922,4153.846191,4121.025879,4114.358887,4127.692383,4098.974121,4081.538574,841.000000,4.000000,,,,0.000000,4.000000,4.000000,4.000000,4.000000,4.000000,4.000000,4.000000,4.000000,4.000000,4.000000,4.000000,4.000000,4.000000,4.000000,100.000000
1602006823.639020,104.000000,0.000000,4113.333496,4131.282227,4126.666504,4128.717773,4124.102539,4142.563965,4146.666504,4141.538574,4169.230957,4112.307617,4114.871582,4142.051270,4113.333496,4097.436035,764.000000,4.000000,,,,0.000000,4.000000,4.000000,4.000000,4.000000,4.000000,4.000000,4.000000,4.000000,4.000000,4.000000,4.000000,4.000000,4.000000,4.000000,100.000000
1602006823.646901,105.000000,0.000000,4109.743652,4124.102539,4131.794922,4124.615234,4124.615234,4138.974121,4143.077148,4141.025879,4162.051270,4111.794922,4104.102539,4136.410156,4102.051270,4084.615479,726.000000,4.000000,,,,0.000000,4.000000,4.000000,4.000000,4.000000,4.000000,4.000000,4.000000,4.000000,4.000000,4.000000,4.000000,4.000000,4.000000,4.000000,100.000000
1602006823.654782,106.000000,0.000000,4088.718018,4116.922852,4125.128418,4118.974121,4118.461426,4121.025879,4138.461426,4134.358887,4150.256348,4122.051270,4099.487305,4122.563965,4081.025635,4056.410156,871.000000,4.000000,,,,0.000000,4.000000,4.000000,4.000000,4.000000,4.000000,4.000000,4.000000,4.000000,4.000000,4.000000,4.000000,4.000000,4.000000,4.000000,100.000000
1602006823.662663,107.000000,0.000000,4079.487061,4120.000000,4115.384766,4122.563965,4122.051270,4125.128418,4148.205078,4135.897461,4154.358887,4126.666504,4105.641113,4112.820313,4082.051270,4054.871826,841.000000,4.000000,,,,0.000000,4.000000,4.000000,4.000000,4.000000,4.000000,4.000000,4.000000,4.000000,4.000000,4.000000,4.000000,4.000000,4.000000,4.000000,100.000000
1602006823.670544,108.000000,0.000000,4081.025635,4121.538574,4104.615234,4122.051270,4126.153809,4141.025879,4151.794922,4136.410156,4152.307617,4122.563965,4105.641113,4108.205078,4091.794922,4070.256348,764.000000,4.000000,,,,0.000000,4.000000,4.000000,4.000000,4.000000,4.000000,4.000000,4.000000,4.000000,4.000000,4.000000,4.000000,4.000000,4.000000,4.000000,100.000000
1602006823.678425,109.000000,0.000000,4083.076904,4123.077148,4101.538574,4118.974121,4124.102539,4140.512695,4138.974121,4129.743652,4139.487305,4125.641113,4104.615234,4105.641113,4085.128174,4072.820557,726.000000,4.000000,,,,0.000000,4.000000,4.000000,4.000000,4.000000,4.000000,4.000000,4.000000,4.000000,4.000000,4.000000,4.000000,4.000000,4.000000,4.000000,100.000000
1602006823.686307,110.000000,0.000000,4091.281982,4130.256348,4110.769043,4127.179688,4124.102539,4134.871582,4133.333496,4128.717773,4138.461426,4117.436035,4111.282227,4109.743652,4079.487061,4074.871826,871.000000,4.000000,,,,0.000000,4.000000,4.000000,4.000000,4.000000,4.000000,4.000000,4.000000,4.000000,4.000000,4.000000,4.000000,4.000000,4.000000,4.000000,100.000000
1602006823.694088,111.000000,0.000000,4108.717773,4138.974121,4124.615234,4137.948730,4125.128418,4139.487305,4140.512695,4137.436035,4152.820313,4102.051270,4122.563965,4125.128418,4095.384521,4088.718018,841.000000,4.000000,,,,0.000000,4.000000,4.000000,4.000000,4.000000,4.000000,4.000000,4.000000,4.000000,4.000000,4.000000,4.000000,4.000000,4.000000,4.000000,100.000000
1602006823.701969,112.000000,0.000000,4125.128418,4143.077148,4137.436035,4138.974121,4123.589844,4137.948730,4141.025879,4147.692383,4165.128418,4122.563965,4132.307617,4142.051270,4117.436035,4106.153809,764.000000,4.000000,,,,0.000000,4.000000,4.000000,4.000000,4.000000,4.000000,4.000000,4.000000,4.000000,4.000000,4.000000,4.000000,4.000000,4.000000,4.000000,100.000000
1602006823.709850,113.000000,0.000000,4127.692383,4142.563965,4143.077148,4138.461426,4120.000000,4125.641113,4136.410156,4143.589844,4157.948730,4143.589844,4121.025879,4143.589844,4116.410156,4109.743652,726.000000,4.000000,,,,0.000000,4.000000,4.000000,4.000000,4.000000,4.000000,4.000000,4.000000,4.000000,4.000000,4.000000,4.000000,4.000000,4.000000,4.000000,100.000000
1602006823.717731,114.000000,0.000000,4123.589844,4141.538574,4140.512695,4139.487305,4122.563965,4117.948730,4136.410156,4135.384766,4136.922852,4123.077148,4110.256348,4130.256348,4097.948730,4095.384521,871.000000,4.000000,,,,0.000000,4.000000,4.000000,4.000000,4.000000,4.000000,4.000000,4.000000,4.000000,4.000000,4.000000,4.000000,4.000000,4.000000,4.000000,100.000000
1602006823.725612,115.000000,0.000000,4116.922852,4142.563965,4131.794922,4137.948730,4134.358887,4120.512695,4137.948730,4135.897461,4132.820313,4114.871582,4120.000000,4122.051270,4094.871826,4087.179443,841.000000,4.000000,,,,0.000000,4.000000,4.000000,4.000000,4.000000,4.000000,4.000000,4.000000,4.000000,4.000000,4.000000,4.000000,4.000000,4.000000,4.000000,100.000000
1602006823.733494,116.000000,0.000000,4108.205078,4142.563965,4122.563965,4135.897461,4141.025879,4126.666504,4138.461426,4136.922852,4149.230957,4142.563965,4128.717773,4121.538574,4107.692383,4096.922852,764.000000,4.000000,,,,0.000000,4.000000,4.000000,4.000000,4.000000,4.000000,4.000000,4.000000,4.000000,4.000000,4.000000,4.000000,4.000000,4.000000,4.000000,100.000000
1602006823.741375,117.000000,0.000000,4108.717773,4140.000000,4120.512695,4136.922852,4138.461426,4130.769043,4138.461426,4135.384766,4153.846191,4145.641113,4132.820313,4120.000000,4110.256348,4107.692383,726.000000,4.000000,,,,0.000000,4.000000,4.000000,4.000000,4.000000,4.000000,4.000000,4.000000,4.000000,4.000000,4.000000,4.000000,4.000000,4.000000,4.000000,100.000000
1602006823.749256,118.000000,0.000000,4109.743652,4137.436035,4120.512695,4135.897461,4133.846191,4134.358887,4138.461426,4134.871582,4147.179688,4120.000000,4135.384766,4119.487305,4104.615234,4105.128418,871.000000,4.000000,,,,0.000000,4.000000,4.000000,4.000000,4.000000,4.000000,4.000000,4.000000,4.000000,4.000000,4.000000,4.000000,4.000000,4.000000,4.000000,100.000000
1602006823.757137,119.000000,0.000000,4105.641113,4137.948730,4123.077148,4135.897461,4130.769043,4137.436035,4139.487305,4138.974121,4152.820313,4116.410156,4128.205078,4123.077148,4107.179688,4098.461426,841.000000,4.000000,,,,0.000000,4.000000,4.000000,4.000000,4.000000,4.000000,4.000000,4.000000,4.000000,4.000000,4.000000,4.000000,4.000000,4.000000,4.000000,100.000000
1602006823.764918,120.000000,0.000000,4111.794922,4138.974121,4132.307617,4136.922852,4123.589844,4132.820313,4141.538574,4140.512695,4159.487305,4131.282227,4122.563965,4125.128418,4108.717773,4099.487305,764.000000,4.000000,,,,0.000000,4.000000,4.000000,4.000000,4.000000,4.000000,4.000000,4.000000,4.000000,4.000000,4.000000,4.000000,4.000000,4.000000,4.000000,100.000000
1602006823.772799,121.000000,0.000000,4118.461426,4135.384766,4136.922852,4134.871582,4111.282227,4113.846191,4137.948730,4137.436035,4150.256348,4139.487305,4125.641113,4122.051270,4104.615234,4103.589844,726.000000,4.000000,,,,0.000000,4.000000,4.000000,4.000000,4.000000,4.000000,4.000000,4.000000,4.000000,4.000000,4.000000,4.000000,4.000000,4.000000,4.000000,100.000000
1602006823.780680,122.000000,0.000000,4116.922852,4134.871582,4137.436035,4134.871582,4108.205078,4107.179688,4133.846191,4134.871582,4142.563965,4143.589844,4122.563965,4124.102539,4111.282227,4106.666504,871.000000,4.000000,,,,0.000000,4.000000,4.000000,4.000000,4.000000,4.000000,4.000000,4.000000,4.000000,4.000000,4.000000,4.000000,4.000000,4.000000,4.000000,100.000000
1602006823.788561,123.000000,0.000000,4130.769043,4140.000000,4142.051270,4137.948730,4118.461426,4124.615234,4139.487305,4138.974121,4148.717773,4150.256348,4128.717773,4135.897461,4129.230957,4115.384766,841.000000,4.000000,,,,0.000000,4.000000,4.000000,4.000000,4.000000,4.000000,4.000000,4.000000,4.000000,4.000000,4.000000,4.000000,4.000000,4.000000,4.000000,100.000000
1602006823.796442,124.000000,0.000000,4145.128418,4140.000000,4143.077148,4139.487305,4124.615234,4130.769043,4146.666504,4144.102539,4153.333496,4152.307617,4148.205078,4142.563965,4140.512695,4125.641113,764.000000,4.000000,,,,0.000000,4.000000,4.000000,4.000000,4.000000,4.000000,4.000000,4.000000,4.000000,4.000000,4.000000,4.000000,4.000000,4.000000,4.000000,100.000000
1602006823.804223,125.000000,0.000000,4134.871582,4140.000000,4136.922852,4138.461426,4122.051270,4122.051270,4143.589844,4150.769043,4152.307617,4144.102539,4150.769043,4132.820313,4141.025879,4127.692383,726.000000,4.000000,,,,0.000000,4.000000,4.000000,4.000000,4.000000,4.000000,4.000000,4.000000,4.000000,4.000000,4.000000,4.000000,4.000000,4.000000,4.000000,100.000000
1602006823.812104,126.000000,0.000000,4123.589844,4149.743652,4131.282227,4140.000000,4130.256348,4132.820313,4138.974121,4154.358887,4152.307617,4140.512695,4141.025879,4123.077148,4135.384766,4122.051270,871.000000,4.000000,,,,0.000000,4.000000,4.000000,4.000000,4.000000,4.000000,4.000000,4.000000,4.000000,4.000000,4.000000,4.000000,4.000000,4.000000,4.000000,100.000000
1602006823.819985,127.000000,0.000000,4121.025879,4149.230957,4124.615234,4142.563965,4141.538574,4145.128418,4141.538574,4145.128418,4149.230957,4144.102539,4140.512695,4123.077148,4127.692383,4113.333496,841.000000,4.000000,,,,0.000000,4.000000,4.000000,4.000000,4.000000,4.000000,4.000000,4.000000,4.000000,4.000000,4.000000,4.000000,4.000000,4.000000,4.000000,100.000000
1602006823.827867,128.000000,0.000000,4104.615234,4135.897461,4120.000000,4135.897461,4134.358887,4130.769043,4141.025879,4132.307617,4138.974121,4143.589844,4140.000000,4122.563965,4120.512695,4108.205078,764.000000,4.000000,,,,0.000000,4.000000,4.000000,4.000000,4.000000,4.000000,4.000000,4.000000,4.000000,4.000000,4.000000,4.000000,4.000000,4.000000,4.000000,100.000000
1602006823.835748,0.000000,0.000000,4089.743652,4132.307617,4122.051270,4126.666504,4123.077148,4122.051270,4138.974121,4130.769043,4135.897461,4145.128418,4129.743652,4122.563965,4120.000000,4112.307617,788.000000,4.000000,,,,0.000000,4.000000,4.000000,4.000000,4.000000,4.000000,4.000000,4.000000,4.000000,4.000000,4.000000,4.000000,4.000000,4.000000,4.000000,100.000000
1602006823.843629,1.000000,0.000000,4097.436035,4137.948730,4127.179688,4129.230957,4123.589844,4133.333496,4146.666504,4135.384766,4146.666504,4149.743652,4125.641113,4125.641113,4124.102539,4111.282227,790.000000,4.000000,,,,0.000000,4.000000,4.000000,4.000000,4.000000,4.000000,4.000000,4.000000,4.000000,4.000000,4.000000,4.000000,4.000000,4.000000,4.000000,100.000000
1602006823.851510,2.000000,0.000000,4104.615234,4136.410156,4127.179688,4135.897461,4125.128418,4140.000000,4154.871582,4140.000000,4157.436035,4144.615234,4133.333496,4124.102539,4119.487305,4104.102539,847.000000,4.000000,,,,0.000000,4.000000,4.000000,4.000000,4.000000,4.000000,4.000000,4.000000,4.000000,4.000000,4.000000,4.000000,4.000000,4.000000,4.000000,100.000000
1602006823.859391,3.000000,0.000000,4092.307617,4126.153809,4117.948730,4130.256348,4120.512695,4129.230957,4151.282227,4141.025879,4152.307617,4127.692383,4130.769043,4119.487305,4109.230957,4104.102539,872.000000,4.000000,,,,0.000000,4.000000,4.000000,4.000000,4.000000,4.000000,4.000000,4.000000,4.000000,4.000000,4.000000,4.000000,4.000000,4.000000,4.000000,100.000000
1602006823.867372,4.000000,0.000000,4082.564209,4123.077148,4105.641113,4121.025879,4123.589844,4116.922852,4143.077148,4141.025879,4141.538574,4123.589844,4121.025879,4120.000000,4107.179688,4106.666504,809.000000,4.000000,,,,0.000000,4.000000,4.000000,4.000000,4.000000,4.000000,4.000000,4.000000,4.000000,4.000000,4.000000,4.000000,4.000000,4.000000,4.000000,100.000000
1602006823.875253,5.000000,0.000000,4094.358887,4132.307617,4103.077148,4127.692383,4135.384766,4124.615234,4138.974121,4142.563965,4141.538574,4148.717773,4129.230957,4123.589844,4120.512695,4105.641113,822.000000,4.000000,,,,0.000000,4.000000,4.000000,4.000000,4.000000,4.000000,4.000000,4.000000,4.000000,4.000000,4.000000,4.000000,4.000000,4.000000,4.000000,100.000000
1602006823.883135,6.000000,0.000000,4110.256348,4144.615234,4108.717773,4139.487305,4144.615234,4141.025879,4136.410156,4141.538574,4141.025879,4162.563965,4141.025879,4122.563965,4132.307617,4103.589844,753.000000,4.000000,,,,0.000000,4.000000,4.000000,4.000000,4.000000,4.000000,4.000000,4.000000,4.000000,4.000000,4.000000,4.000000,4.000000,4.000000,4.000000,100.000000
1602006823.891016,7.000000,0.000000,4108.205078,4143.589844,4112.820313,4141.025879,4142.051270,4139.487305,4134.871582,4135.897461,4133.846191,4151.282227,4137.436035,4116.922852,4127.179688,4111.282227,646.000000,4.000000,,,,0.000000,4.000000,4.000000,4.000000,4.000000,4.000000,4.000000,4.000000,4.000000,4.000000,4.000000,4.000000,4.000000,4.000000,4.000000,100.000000
1602006823.898897,8.000000,0.000000,4104.102539,4138.974121,4121.025879,4137.436035,4136.410156,4128.205078,4135.384766,4133.333496,4133.846191,4151.794922,4132.820313,4119.487305,4120.000000,4122.563965,779.000000,4.000000,,,,0.000000,4.000000,4.000000,4.000000,4.000000,4.000000,4.000000,4.000000,4.000000,4.000000,4.000000,4.000000,4.000000,4.000000,4.000000,100.000000
1602006823.906778,9.000000,0.000000,4117.436035,4148.205078,4137.436035,4142.563965,4138.974121,4137.436035,4142.563965,4142.563965,4136.922852,4160.000000,4136.410156,4137.948730,4132.820313,4127.179688,835.000000,4.000000,,,,0.000000,4.000000,4.000000,4.000000,4.000000,4.000000,4.000000,4.000000,4.000000,4.000000,4.000000,4.000000,4.000000,4.000000,4.000000,100.000000
1602006823.914659,10.000000,0.000000,4127.692383,4154.871582,4145.641113,4145.641113,4130.256348,4142.563965,4151.282227,4154.358887,4136.410156,4145.641113,4140.000000,4151.282227,4143.077148,4133.846191,871.000000,4.000000,,,,0.000000,4.000000,4.000000,4.000000,4.000000,4.000000,4.000000,4.000000,4.000000,4.000000,4.000000,4.000000,4.000000,4.000000,4.000000,100.000000
1602006823.922540,11.000000,0.000000,4122.051270,4143.077148,4143.077148,4137.948730,4108.205078,4125.641113,4154.358887,4156.922852,4142.051270,4135.384766,4138.974121,4146.666504,4130.769043,4147.179688,841.000000,4.000000,,,,0.000000,4.000000,4.000000,4.000000,4.000000,4.000000,4.000000,4.000000,4.000000,4.000000,4.000000,4.000000,4.000000,4.000000,4.000000,100.000000
1602006823.930522,12.000000,0.000000,4124.102539,4135.384766,4148.717773,4135.897461,4101.538574,4127.179688,4155.384766,4154.358887,4156.410156,4154.358887,4144.615234,4143.077148,4122.563965,4155.897461,764.000000,4.000000,,,,0.000000,4.000000,4.000000,4.000000,4.000000,4.000000,4.000000,4.000000,4.000000,4.000000,4.000000,4.000000,4.000000,4.000000,4.000000,100.000000
1602006823.938403,13.000000,0.000000,4131.794922,4138.461426,4154.871582,4135.897461,4109.230957,4142.563965,4150.769043,4150.256348,4153.846191,4163.589844,4142.563965,4145.128418,4128.717773,4148.717773,726.000000,4.000000,,,,0.000000,4.000000,4.000000,4.000000,4.000000,4.000000,4.000000,4.000000,4.000000,4.000000,4.000000,4.000000,4.000000,4.000000,4.000000,100.000000
1602006823.946284,14.000000,0.000000,4126.666504,4132.820313,4142.563965,4128.717773,4115.897461,4139.487305,4143.589844,4140.512695,4131.794922,4142.051270,4126.666504,4135.384766,4124.615234,4128.717773,871.000000,4.000000,,,,0.000000,4.000000,4.000000,4.000000,4.000000,4.000000,4.000000,4.000000,4.000000,4.000000,4.000000,4.000000,4.000000,4.000000,4.000000,100.000000
1602006823.954165,15.000000,0.000000,4115.897461,4128.205078,4125.128418,4123.589844,4127.179688,4135.897461,4141.025879,4128.205078,4120.512695,4122.051270,4116.922852,4115.384766,4108.205078,4108.717773,841.000000,4.000000,,,,0.000000,4.000000,4.000000,4.000000,4.000000,4.000000,4.000000,4.000000,4.000000,4.000000,4.000000,4.000000,4.000000,4.000000,4.000000,100.000000
1602006823.962046,16.000000,0.000000,4111.282227,4134.871582,4115.897461,4125.128418,4137.436035,4136.922852,4137.948730,4122.563965,4118.461426,4121.538574,4117.436035,4103.077148,4100.000000,4103.077148,0.000000,4.000000,,,,0.000000,4.000000,4.000000,4.000000,4.000000,4.000000,4.000000,4.000000,4.000000,4.000000,4.000000,4.000000,4.000000,4.000000,4.000000,100.000000
1602006823.969927,17.000000,0.000000,4108.205078,4135.384766,4111.282227,4128.205078,4135.384766,4123.589844,4132.307617,4120.000000,4111.794922,4118.974121,4116.410156,4106.666504,4110.256348,4103.077148,0.000000,4.000000,,,,0.000000,4.000000,4.000000,4.000000,4.000000,4.000000,4.000000,4.000000,4.000000,4.000000,4.000000,4.000000,4.000000,4.000000,4.000000,100.000000
1602006823.977809,18.000000,0.000000,4105.641113,4134.358887,4111.282227,4133.333496,4138.974121,4115.384766,4134.358887,4124.615234,4108.205078,4115.384766,4116.922852,4116.410156,4120.512695,4106.153809,0.000000,4.000000,,,,0.000000,4.000000,4.000000,4.000000,4.000000,4.000000,4.000000,4.000000,4.000000,4.000000,4.000000,4.000000,4.000000,4.000000,4.000000,100.000000
1602006823.985690,19.000000,0.000000,4106.666504,4138.461426,4110.769043,4136.410156,4141.025879,4120.000000,4134.358887,4134.358887,4110.256348,4125.641113,4121.538574,4125.128418,4115.384766,4115.897461,0.000000,4.000000,,,,0.000000,4.000000,4.000000,4.000000,4.000000,4.000000,4.000000,4.000000,4.000000,4.000000,4.000000,4.000000,4.000000,4.000000,4.000000,100.000000
1602006823.993571,20.000000,0.000000,4115.897461,4138.461426,4112.820313,4136.410156,4129.743652,4112.307617,4124.615234,4137.948730,4116.922852,4136.922852,4127.692383,4132.307617,4114.358887,4121.025879,0.000000,4.000000,,,,0.000000,4.000000,4.000000,4.000000,4.000000,4.000000,4.000000,4.000000,4.000000,4.000000,4.000000,4.000000,4.000000,4.000000,4.000000,100.000000
1602006824.001552,21.000000,0.000000,4132.820313,4139.487305,4126.153809,4139.487305,4122.563965,4106.666504,4121.025879,4145.128418,4134.871582,4141.538574,4138.974121,4142.051270,4133.333496,4127.692383,0.000000,4.000000,,,,0.000000,4.000000,4.000000,4.000000,4.000000,4.000000,4.000000,4.000000,4.000000,4.000000,4.000000,4.000000,4.000000,4.000000,4.000000,100.000000
1602006824.009433,22.000000,0.000000,4145.128418,4146.153809,4137.436035,4142.563965,4129.743652,4116.922852,4128.717773,4152.307617,4152.307617,4151.794922,4145.641113,4154.358887,4145.128418,4142.563965,0.000000,4.000000,,,,0.000000,4.000000,4.000000,4.000000,4.000000,4.000000,4.000000,4.000000,4.000000,4.000000,4.000000,4.000000,4.000000,4.000000,4.000000,100.000000
1602006824.017314,23.000000,0.000000,4149.230957,4152.307617,4139.487305,4142.563965,4137.436035,4126.153809,4136.410156,4147.692383,4155.384766,4161.538574,4143.077148,4163.077148,4142.051270,4148.717773,0.000000,4.000000,,,,0.000000,4.000000,4.000000,4.000000,4.000000,4.000000,4.000000,4.000000,4.000000,4.000000,4.000000,4.000000,4.000000,4.000000,4.000000,100.000000
1602006824.025195,24.000000,0.000000,4148.205078,4153.846191,4141.025879,4144.615234,4136.922852,4133.333496,4135.897461,4138.461426,4148.205078,4155.897461,4144.102539,4153.846191,4141.025879,4134.358887,0.000000,4.000000,,,,0.000000,4.000000,4.000000,4.000000,4.000000,4.000000,4.000000,4.000000,4.000000,4.000000,4.000000,4.000000,4.000000,4.000000,4.000000,100.000000
1602006824.033077,25.000000,0.000000,4141.025879,4153.846191,4143.589844,4143.589844,4137.436035,4142.051270,4134.358887,4133.333496,4141.025879,4142.563965,4145.128418,4135.897461,4140.000000,4121.025879,0.000000,4.000000,,,,0.000000,4.000000,4.000000,4.000000,4.000000,4.000000,4.000000,4.000000,4.000000,4.000000,4.000000,4.000000,4.000000,4.000000,4.000000,100.000000
1602006824.040958,26.000000,0.000000,4135.897461,4151.794922,4140.000000,4139.487305,4145.128418,4143.077148,4137.436035,4125.641113,4138.461426,4134.871582,4132.820313,4134.871582,4134.871582,4120.000000,0.000000,4.000000,,,,0.000000,4.000000,4.000000,4.000000,4.000000,4.000000,4.000000,4.000000,4.000000,4.000000,4.000000,4.000000,4.000000,4.000000,4.000000,100.000000
1602006824.048839,27.000000,0.000000,4139.487305,4149.743652,4136.410156,4140.000000,4155.897461,4139.487305,4135.897461,4121.538574,4135.897461,4139.487305,4120.512695,4144.102539,4134.358887,4126.153809,0.000000,4.000000,,,,0.000000,4.000000,4.000000,4.000000,4.000000,4.000000,4.000000,4.000000,4.000000,4.000000,4.000000,4.000000,4.000000,4.000000,4.000000,100.000000
1602006824.056720,28.000000,0.000000,4142.563965,4151.282227,4137.948730,4143.077148,4156.922852,4138.974121,4126.153809,4124.615234,4128.205078,4139.487305,4128.205078,4141.538574,4132.307617,4128.205078,0.000000,4.000000,,,,0.000000,4.000000,4.000000,4.000000,4.000000,4.000000,4.000000,4.000000,4.000000,4.000000,4.000000,4.000000,4.000000,4.000000,4.000000,100.000000
1602006824.064601,29.000000,0.000000,4134.358887,4151.282227,4135.897461,4141.538574,4145.641113,4128.205078,4118.461426,4123.077148,4124.615234,4120.512695,4138.974121,4136.410156,4121.538574,4116.410156,0.000000,4.000000,,,,0.000000,4.000000,4.000000,4.000000,4.000000,4.000000,4.000000,4.000000,4.000000,4.000000,4.000000,4.000000,4.000000,4.000000,4.000000,100.000000
1602006824.072582,30.000000,0.000000,4131.282227,4147.692383,4135.897461,4137.436035,4140.000000,4111.282227,4117.948730,4125.641113,4134.358887,4123.077148,4135.897461,4142.563965,4121.538574,4114.358887,0.000000,4.000000,,,,0.000000,4.000000,4.000000,4.000000,4.000000,4.000000,4.000000,4.000000,4.000000,4.000000,4.000000,4.000000,4.000000,4.000000,4.000000,100.000000
1602006824.080463,31.000000,0.000000,4150.256348,4154.871582,4153.846191,4145.641113,4143.589844,4113.333496,4127.692383,4141.538574,4154.358887,4156.922852,4149.743652,4162.563965,4152.307617,4148.205078,0.000000,4.000000,,,,0.000000,4.000000,4.000000,4.000000,4.000000,4.000000,4.000000,4.000000,4.000000,4.000000,4.000000,4.000000,4.000000,4.000000,4.000000,100.000000
1602006824.088345,32.000000,0.000000,4168.205078,4160.512695,4174.871582,4154.871582,4135.897461,4124.102539,4137.948730,4155.384766,4176.410156,4184.615234,4176.922852,4181.538574,4180.000000,4177.436035,0.000000,4.000000,,,,0.000000,4.000000,4.000000,4.000000,4.000000,4.000000,4.000000,4.000000,4.000000,4.000000,4.000000,4.000000,4.000000,4.000000,4.000000,100.000000
1602006824.096226,33.000000,0.000000,4156.410156,4144.615234,4172.307617,4144.102539,4117.436035,4120.512695,4136.922852,4152.820313,4177.436035,4189.230957,4171.794922,4177.436035,4165.641113,4155.897461,0.000000,4.000000,,,,0.000000,4.000000,4.000000,4.000000,4.000000,4.000000,4.000000,4.000000,4.000000,4.000000,4.000000,4.000000,4.000000,4.000000,4.000000,100.000000
1602006824.104107,34.000000,0.000000,4140.512695,4133.333496,4161.538574,4134.871582,4112.307617,4117.948730,4134.871582,4138.974121,4155.897461,4178.974121,4150.769043,4161.538574,4146.666504,4132.307617,0.000000,4.000000,,,,0.000000,4.000000,4.000000,4.000000,4.000000,4.000000,4.000000,4.000000,4.000000,4.000000,4.000000,4.000000,4.000000,4.000000,4.000000,100.000000
1602006824.111988,35.000000,0.000000,4136.410156,4135.384766,4156.922852,4137.436035,4122.051270,4132.307617,4136.922852,4127.179688,4135.384766,4153.846191,4152.307617,4154.871582,4153.846191,4141.025879,0.000000,4.000000,,,,0.000000,4.000000,4.000000,4.000000,4.000000,4.000000,4.000000,4.000000,4.000000,4.000000,4.000000,4.000000,4.000000,4.000000,4.000000,100.000000
1602006824.119869,36.000000,0.000000,4116.922852,4118.461426,4140.512695,4127.692383,4128.205078,4142.051270,4132.820313,4120.000000,4122.563965,4118.974121,4154.871582,4143.589844,4158.974121,4143.589844,0.000000,4.000000,,,,0.000000,4.000000,4.000000,4.000000,4.000000,4.000000,4.000000,4.000000,4.000000,4.000000,4.000000,4.000000,4.000000,4.000000,4.000000,100.000000
1602006824.127750,37.000000,0.000000,4088.205078,4092.820557,4116.410156,4110.769043,4127.692383,4136.410156,4129.230957,4117.436035,4117.948730,4105.641113,4145.641113,4129.743652,4160.000000,4133.846191,0.000000,4.000000,,,,0.000000,4.000000,4.000000,4.000000,4.000000,4.000000,4.000000,4.000000,4.000000,4.000000,4.000000,4.000000,4.000000,4.000000,4.000000,100.000000
1602006824.135632,38.000000,0.000000,4085.641113,4093.846191,4107.179688,4110.256348,4138.974121,4140.512695,4136.410156,4127.692383,4132.307617,4125.128418,4156.410156,4140.000000,4178.461426,4135.384766,0.000000,4.000000,,,,0.000000,4.000000,4.000000,4.000000,4.000000,4.000000,4.000000,4.000000,4.000000,4.000000,4.000000,4.000000,4.000000,4.000000,4.000000,100.000000
1602006824.143613,39.000000,0.000000,4090.769287,4106.153809,4112.307617,4118.461426,4155.384766,4149.743652,4143.589844,4140.000000,4147.179688,4150.256348,4171.282227,4153.333496,4192.307617,4142.563965,0.000000,4.000000,,,,0.000000,4.000000,4.000000,4.000000,4.000000,4.000000,4.000000,4.000000,4.000000,4.000000,4.000000,4.000000,4.000000,4.000000,4.000000,100.000000
1602006824.151494,40.000000,0.000000,4086.666748,4106.153809,4116.410156,4120.512695,4149.743652,4136.922852,4137.436035,4135.384766,4140.000000,4152.820313,4156.410156,4143.077148,4180.000000,4151.282227,0.000000,4.000000,,,,0.000000,4.000000,4.000000,4.000000,4.000000,4.000000,4.000000,4.000000,4.000000,4.000000,4.000000,4.000000,4.000000,4.000000,4.000000,100.000000
1602006824.159375,41.000000,0.000000,4089.230713,4104.615234,4114.871582,4119.487305,4136.410156,4117.436035,4123.077148,4128.717773,4134.871582,4147.179688,4146.153809,4134.358887,4173.846191,4156.410156,0.000000,4.000000,,,,0.000000,4.000000,4.000000,4.000000,4.000000,4.000000,4.000000,4.000000,4.000000,4.000000,4.000000,4.000000,4.000000,4.000000,4.000000,100.000000
1602006824.167256,42.000000,0.000000,4092.307617,4105.641113,4115.897461,4120.000000,4135.897461,4116.410156,4122.051270,4135.384766,4144.615234,4156.410156,4164.102539,4135.897461,4182.563965,4145.128418,0.000000,4.000000,,,,0.000000,4.000000,4.000000,4.000000,4.000000,4.000000,4.000000,4.000000,4.000000,4.000000,4.000000,4.000000,4.000000,4.000000,4.000000,100.000000
1602006824.175137,43.000000,0.000000,4090.769287,4109.230957,4123.589844,4124.615234,4130.769043,4124.102539,4136.410156,4140.512695,4144.615234,4161.025879,4172.307617,4137.948730,4187.179688,4141.025879,0.000000,4.000000,,,,0.000000,4.000000,4.000000,4.000000,4.000000,4.000000,4.000000,4.000000,4.000000,4.000000,4.000000,4.000000,4.000000,4.000000,4.000000,100.000000
1602006824.183018,44.000000,0.000000,4098.461426,4110.256348,4132.820313,4125.641113,4119.487305,4127.179688,4141.025879,4133.333496,4133.333496,4145.641113,4166.153809,4146.666504,4185.641113,4154.358887,0.000000,4.000000,,,,0.000000,4.000000,4.000000,4.000000,4.000000,4.000000,4.000000,4.000000,4.000000,4.000000,4.000000,4.000000,4.000000,4.000000,4.000000,100.000000
1602006824.190900,45.000000,0.000000,4106.153809,4107.179688,4140.512695,4121.538574,4116.410156,4121.538574,4135.897461,4134.871582,4136.410156,4137.436035,4171.282227,4156.410156,4181.025879,4156.410156,0.000000,4.000000,,,,0.000000,4.000000,4.000000,4.000000,4.000000,4.000000,4.000000,4.000000,4.000000,4.000000,4.000000,4.000000,4.000000,4.000000,4.000000,100.000000
1602006824.198781,46.000000,0.000000,4110.769043,4106.666504,4152.307617,4121.025879,4121.538574,4123.077148,4146.666504,4151.282227,4152.820313,4160.512695,4172.307617,4163.589844,4185.128418,4153.846191,0.000000,4.000000,,,,0.000000,4.000000,4.000000,4.000000,4.000000,4.000000,4.000000,4.000000,4.000000,4.000000,4.000000,4.000000,4.000000,4.000000,4.000000,100.000000
1602006824.206762,47.000000,0.000000,4117.436035,4110.256348,4162.051270,4124.102539,4124.615234,4136.410156,4155.897461,4155.897461,4158.461426,4172.307617,4161.025879,4173.333496,4189.743652,4163.077148,0.000000,4.000000,,,,0.000000,4.000000,4.000000,4.000000,4.000000,4.000000,4.000000,4.000000,4.000000,4.000000,4.000000,4.000000,4.000000,4.000000,4.000000,100.000000
1602006824.214643,48.000000,0.000000,4113.333496,4108.717773,4155.384766,4121.025879,4123.589844,4136.922852,4143.589844,4140.512695,4151.794922,4148.205078,4153.333496,4164.102539,4174.358887,4160.512695,0.000000,4.000000,,,,0.000000,4.000000,4.000000,4.000000,4.000000,4.000000,4.000000,4.000000,4.000000,4.000000,4.000000,4.000000,4.000000,4.000000,4.000000,100.000000
1602006824.222523,49.000000,0.000000,4097.948730,4104.102539,4140.000000,4111.282227,4125.128418,4120.512695,4130.769043,4134.871582,4150.256348,4140.000000,4152.307617,4139.487305,4148.717773,4140.000000,0.000000,4.000000,,,,0.000000,4.000000,4.000000,4.000000,4.000000,4.000000,4.000000,4.000000,4.000000,4.000000,4.000000,4.000000,4.000000,4.000000,4.000000,100.000000
1602006824.230404,50.000000,0.000000,4094.871826,4105.128418,4133.846191,4107.692383,4136.410156,4122.051270,4128.717773,4143.589844,4153.333496,4158.461426,4152.820313,4139.487305,4150.769043,4133.333496,0.000000,4.000000,,,,0.000000,4.000000,4.000000,4.000000,4.000000,4.000000,4.000000,4.000000,4.000000,4.000000,4.000000,4.000000,4.000000,4.000000,4.000000,100.000000
1602006824.238185,51.000000,0.000000,4099.487305,4105.641113,4136.410156,4112.307617,4142.563965,4136.410156,4128.205078,4142.051270,4152.307617,4154.871582,4153.333496,4155.384766,4166.666504,4145.641113,0.000000,4.000000,,,,0.000000,4.000000,4.000000,4.000000,4.000000,4.000000,4.000000,4.000000,4.000000,4.000000,4.000000,4.000000,4.000000,4.000000,4.000000,100.000000
1602006824.246066,52.000000,0.000000,4096.922852,4104.102539,4136.410156,4114.358887,4138.974121,4138.974121,4131.794922,4137.948730,4153.846191,4140.512695,4153.846191,4157.436035,4167.692383,4154.358887,0.000000,4.000000,,,,0.000000,4.000000,4.000000,4.000000,4.000000,4.000000,4.000000,4.000000,4.000000,4.000000,4.000000,4.000000,4.000000,4.000000,4.000000,100.000000
1602006824.253947,53.000000,0.000000,4096.922852,4106.666504,4136.922852,4113.846191,4141.025879,4139.487305,4140.000000,4143.589844,4153.846191,4148.205078,4154.358887,4153.333496,4168.205078,4158.461426,0.000000,4.000000,,,,0.000000,4.000000,4.000000,4.000000,4.000000,4.000000,4.000000,4.000000,4.000000,4.000000,4.000000,4.000000,4.000000,4.000000,4.000000,100.000000
1602006824.261728,54.000000,0.000000,4096.410156,4101.538574,4132.307617,4110.256348,4138.461426,4139.487305,4138.974121,4139.487305,4139.487305,4145.128418,4152.820313,4152.307617,4164.615234,4156.922852,0.000000,4.000000,,,,0.000000,4.000000,4.000000,4.000000,4.000000,4.000000,4.000000,4.000000,4.000000,4.000000,4.000000,4.000000,4.000000,4.000000,4.000000,100.000000
1602006824.269609,55.000000,0.000000,4089.230713,4090.256348,4125.641113,4106.666504,4129.743652,4137.436035,4141.025879,4136.922852,4136.410156,4131.282227,4149.743652,4152.820313,4159.487305,4152.820313,0.000000,4.000000,,,,0.000000,4.000000,4.000000,4.000000,4.000000,4.000000,4.000000,4.000000,4.000000,4.000000,4.000000,4.000000,4.000000,4.000000,4.000000,100.000000
1602006824.277490,56.000000,0.000000,4087.692383,4091.281982,4126.666504,4107.179688,4128.717773,4142.563965,4154.358887,4150.769043,4152.820313,4145.641113,4154.358887,4156.922852,4166.666504,4151.794922,0.000000,4.000000,,,,0.000000,4.000000,4.000000,4.000000,4.000000,4.000000,4.000000,4.000000,4.000000,4.000000,4.000000,4.000000,4.000000,4.000000,4.000000,100.000000
1602006824.285471,57.000000,0.000000,4089.743652,4096.410156,4127.692383,4108.205078,4124.615234,4143.589844,4151.794922,4153.846191,4154.871582,4155.384766,4162.051270,4155.897461,4164.615234,4144.102539,0.000000,4.000000,,,,0.000000,4.000000,4.000000,4.000000,4.000000,4.000000,4.000000,4.000000,4.000000,4.000000,4.000000,4.000000,4.000000,4.000000,4.000000,100.000000
1602006824.293352,58.000000,0.000000,4090.769287,4093.333252,4130.256348,4106.153809,4120.512695,4135.384766,4138.974121,4144.615234,4154.871582,4137.948730,4157.948730,4151.794922,4152.307617,4132.820313,0.000000,4.000000,,,,0.000000,4.000000,4.000000,4.000000,4.000000,4.000000,4.000000,4.000000,4.000000,4.000000,4.000000,4.000000,4.000000,4.000000,4.000000,100.000000
1602006824.301234,59.000000,0.000000,4096.922852,4098.461426,4135.897461,4105.641113,4132.820313,4137.436035,4139.487305,4151.282227,4169.743652,4140.512695,4149.743652,4155.384766,4159.487305,4141.025879,0.000000,4.000000,,,,0.000000,4.000000,4.000000,4.000000,4.000000,4.000000,4.000000,4.000000,4.000000,4.000000,4.000000,4.000000,4.000000,4.000000,4.000000,100.000000
1602006824.309115,60.000000,0.000000,4099.487305,4105.128418,4131.282227,4106.153809,4143.077148,4145.128418,4142.563965,4156.922852,4162.051270,4155.384766,4155.384766,4157.436035,4168.717773,4152.307617,0.000000,4.000000,,,,0.000000,4.000000,4.000000,4.000000,4.000000,4.000000,4.000000,4.000000,4.000000,4.000000,4.000000,4.000000,4.000000,4.000000,4.000000,100.000000
1602006824.316996,61.000000,0.000000,4092.820557,4097.948730,4119.487305,4107.179688,4135.897461,4141.538574,4137.948730,4140.512695,4134.871582,4146.666504,4153.333496,4144.615234,4157.948730,4141.538574,0.000000,4.000000,,,,0.000000,4.000000,4.000000,4.000000,4.000000,4.000000,4.000000,4.000000,4.000000,4.000000,4.000000,4.000000,4.000000,4.000000,4.000000,100.000000
1602006824.324877,62.000000,0.000000,4089.230713,4089.230713,4112.820313,4107.692383,4132.307617,4139.487305,4138.461426,4126.153809,4133.846191,4138.461426,4131.794922,4129.230957,4153.333496,4126.666504,0.000000,4.000000,,,,0.000000,4.000000,4.000000,4.000000,4.000000,4.000000,4.000000,4.000000,4.000000,4.000000,4.000000,4.000000,4.000000,4.000000,4.000000,100.000000
1602006824.332758,63.000000,0.000000,4086.153809,4088.718018,4104.102539,4105.128418,4132.820313,4137.948730,4137.948730,4124.615234,4138.461426,4132.820313,4123.077148,4121.025879,4148.205078,4122.563965,0.000000,4.000000,,,,0.000000,4.000000,4.000000,4.000000,4.000000,4.000000,4.000000,4.000000,4.000000,4.000000,4.000000,4.000000,4.000000,4.000000,4.000000,100.000000
1602006824.340639,64.000000,0.000000,4088.205078,4094.871826,4106.153809,4106.153809,4131.794922,4128.717773,4134.871582,4127.692383,4133.333496,4125.128418,4135.897461,4121.538574,4138.974121,4121.025879,788.000000,4.000000,,,,0.000000,4.000000,4.000000,4.000000,4.000000,4.000000,4.000000,4.000000,4.000000,4.000000,4.000000,4.000000,4.000000,4.000000,4.000000,100.000000
1602006824.348521,65.000000,0.000000,4102.051270,4107.179688,4129.743652,4116.922852,4136.922852,4128.717773,4138.974121,4135.897461,4145.128418,4145.641113,4140.512695,4131.282227,4145.128418,4126.666504,790.000000,4.000000,,,,0.000000,4.000000,4.000000,4.000000,4.000000,4.000000,4.000000,4.000000,4.000000,4.000000,4.000000,4.000000,4.000000,4.000000,4.000000,100.000000
1602006824.356502,66.000000,0.000000,4111.794922,4117.436035,4143.589844,4127.692383,4135.897461,4133.846191,4143.077148,4147.692383,4153.846191,4176.922852,4138.461426,4144.102539,4162.051270,4142.563965,847.000000,4.000000,,,,0.000000,4.000000,4.000000,4.000000,4.000000,4.000000,4.000000,4.000000,4.000000,4.000000,4.000000,4.000000,4.000000,4.000000,4.000000,100.000000
1602006824.364383,67.000000,0.000000,4113.333496,4113.333496,4137.436035,4124.102539,4125.641113,4131.794922,4142.563965,4152.307617,4142.051270,4163.077148,4147.179688,4151.794922,4167.692383,4152.307617,872.000000,4.000000,,,,0.000000,4.000000,4.000000,4.000000,4.000000,4.000000,4.000000,4.000000,4.000000,4.000000,4.000000,4.000000,4.000000,4.000000,4.000000,100.000000
1602006824.372264,68.000000,0.000000,4117.948730,4107.179688,4136.922852,4117.436035,4123.589844,4133.333496,4143.589844,4150.256348,4135.384766,4132.820313,4156.410156,4152.307617,4166.153809,4155.897461,809.000000,4.000000,,,,0.000000,4.000000,4.000000,4.000000,4.000000,4.000000,4.000000,4.000000,4.000000,4.000000,4.000000,4.000000,4.000000,4.000000,4.000000,100.000000
1602006824.380145,69.000000,0.000000,4127.179688,4113.846191,4149.230957,4121.538574,4128.205078,4143.589844,4146.153809,4154.871582,4141.538574,4144.615234,4158.461426,4154.871582,4170.769043,4163.589844,822.000000,4.000000,,,,0.000000,4.000000,4.000000,4.000000,4.000000,4.000000,4.000000,4.000000,4.000000,4.000000,4.000000,4.000000,4.000000,4.000000,4.000000,100.000000
1602006824.388026,70.000000,0.000000,4125.641113,4113.333496,4147.179688,4122.563965,4123.589844,4144.615234,4145.641113,4154.871582,4142.563965,4161.538574,4158.974121,4160.000000,4169.743652,4162.051270,755.000000,4.000000,,,,0.000000,4.000000,4.000000,4.000000,4.000000,4.000000,4.000000,4.000000,4.000000,4.000000,4.000000,4.000000,4.000000,4.000000,4.000000,100.000000
1602006824.395907,71.000000,0.000000,4108.717773,4101.025879,4127.692383,4109.230957,4118.461426,4130.256348,4140.000000,4137.948730,4130.256348,4136.922852,4149.743652,4154.871582,4155.897461,4151.282227,651.000000,4.000000,,,,0.000000,4.000000,4.000000,4.000000,4.000000,4.000000,4.000000,4.000000,4.000000,4.000000,4.000000,4.000000,4.000000,4.000000,4.000000,100.000000
1602006824.403789,72.000000,0.000000,4092.307617,4099.487305,4121.025879,4103.077148,4118.974121,4120.512695,4137.948730,4128.205078,4118.974121,4121.025879,4137.436035,4152.307617,4146.153809,4149.230957,779.000000,4.000000,,,,0.000000,4.000000,4.000000,4.000000,4.000000,4.000000,4.000000,4.000000,4.000000,4.000000,4.000000,4.000000,4.000000,4.000000,4.000000,100.000000
1602006824.411670,73.000000,0.000000,4093.333252,4109.230957,4133.333496,4115.384766,4121.538574,4129.230957,4140.512695,4137.436035,4119.487305,4146.153809,4142.563965,4167.179688,4159.487305,4155.384766,835.000000,4.000000,,,,0.000000,4.000000,4.000000,4.000000,4.000000,4.000000,4.000000,4.000000,4.000000,4.000000,4.000000,4.000000,4.000000,4.000000,4.000000,100.000000
1602006824.419551,74.000000,0.000000,4103.589844,4110.769043,4140.512695,4123.077148,4125.128418,4138.461426,4141.538574,4140.512695,4126.153809,4158.461426,4156.922852,4171.282227,4170.256348,4155.384766,871.000000,4.000000,,,,0.000000,4.000000,4.000000,4.000000,4.000000,4.000000,4.000000,4.000000,4.000000,4.000000,4.000000,4.000000,4.000000,4.000000,4.000000,100.000000
1602006824.427532,75.000000,0.000000,4106.153809,4107.692383,4132.820313,4121.025879,4125.641113,4137.436035,4142.051270,4134.358887,4131.794922,4152.820313,4160.512695,4156.922852,4160.512695,4153.333496,841.000000,4.000000,,,,0.000000,4.000000,4.000000,4.000000,4.000000,4.000000,4.000000,4.000000,4.000000,4.000000,4.000000,4.000000,4.000000,4.000000,4.000000,100.000000
1602006824.435413,76.000000,0.000000,4102.051270,4107.692383,4123.077148,4119.487305,4129.230957,4142.051270,4144.102539,4135.897461,4144.102539,4166.666504,4154.871582,4150.769043,4152.820313,4151.282227,764.000000,4.000000,,,,0.000000,4.000000,4.000000,4.000000,4.000000,4.000000,4.000000,4.000000,4.000000,4.000000,4.000000,4.000000,4.000000,4.000000,4.000000,100.000000
1602006824.443294,77.000000,0.000000,4093.333252,4106.666504,4121.025879,4112.820313,4136.922852,4149.230957,4141.538574,4142.563965,4155.897461,4165.641113,4150.256348,4149.743652,4154.358887,4150.769043,726.000000,4.000000,,,,0.000000,4.000000,4.000000,4.000000,4.000000,4.000000,4.000000,4.000000,4.000000,4.000000,4.000000,4.000000,4.000000,4.000000,4.000000,100.000000
1602006824.451175,78.000000,0.000000,4089.230713,4102.563965,4122.051270,4106.666504,4135.897461,4143.077148,4138.461426,4147.179688,4156.922852,4150.256348,4152.820313,4144.615234,4157.436035,4152.820313,871.000000,4.000000,,,,0.000000,4.000000,4.000000,4.000000,4.000000,4.000000,4.000000,4.000000,4.000000,4.000000,4.000000,4.000000,4.000000,4.000000,4.000000,100.000000
1602006824.459055,79.000000,0.000000,4088.718018,4094.358887,4109.230957,4105.641113,4124.615234,4129.743652,4138.461426,4152.307617,4149.743652,4156.410156,4147.692383,4140.000000,4153.846191,4142.051270,841.000000,4.000000,,,,0.000000,4.000000,4.000000,4.000000,4.000000,4.000000,4.000000,4.000000,4.000000,4.000000,4.000000,4.000000,4.000000,4.000000,4.000000,100.000000
1602006824.467037,80.000000,0.000000,4084.615479,4092.307617,4095.384521,4105.128418,4117.436035,4126.666504,4141.025879,4155.384766,4139.487305,4159.487305,4140.512695,4134.871582,4151.282227,4137.436035,764.000000,4.000000,,,,0.000000,4.000000,4.000000,4.000000,4.000000,4.000000,4.000000,4.000000,4.000000,4.000000,4.000000,4.000000,4.000000,4.000000,4.000000,100.000000
1602006824.474918,81.000000,0.000000,4086.153809,4103.589844,4108.205078,4111.282227,4125.641113,4135.384766,4147.179688,4157.436035,4137.948730,4158.461426,4150.256348,4144.102539,4160.000000,4152.820313,726.000000,4.000000,,,,0.000000,4.000000,4.000000,4.000000,4.000000,4.000000,4.000000,4.000000,4.000000,4.000000,4.000000,4.000000,4.000000,4.000000,4.000000,100.000000
1602006824.482799,82.000000,0.000000,4096.922852,4115.384766,4125.641113,4122.051270,4133.846191,4135.897461,4145.641113,4157.948730,4137.436035,4170.769043,4161.025879,4157.948730,4170.769043,4153.846191,871.000000,4.000000,,,,0.000000,4.000000,4.000000,4.000000,4.000000,4.000000,4.000000,4.000000,4.000000,4.000000,4.000000,4.000000,4.000000,4.000000,4.000000,100.000000
1602006824.490680,83.000000,0.000000,4107.692383,4119.487305,4127.692383,4125.128418,4127.692383,4122.051270,4137.436035,4153.846191,4127.692383,4164.102539,4155.897461,4149.743652,4173.846191,4138.461426,841.000000,4.000000,,,,0.000000,4.000000,4.000000,4.000000,4.000000,4.000000,4.000000,4.000000,4.000000,4.000000,4.000000,4.000000,4.000000,4.000000,4.000000,100.000000
1602006824.498561,84.000000,0.000000,4108.717773,4117.436035,4126.666504,4123.589844,4118.461426,4113.333496,4136.922852,4143.077148,4120.000000,4134.358887,4153.333496,4137.948730,4168.717773,4143.589844,764.000000,4.000000,,,,0.000000,4.000000,4.000000,4.000000,4.000000,4.000000,4.000000,4.000000,4.000000,4.000000,4.000000,4.000000,4.000000,4.000000,4.000000,100.000000
1602006824.506442,85.000000,0.000000,4098.461426,4106.153809,4118.974121,4120.000000,4120.000000,4108.717773,4133.333496,4129.230957,4111.282227,4123.589844,4149.743652,4130.769043,4153.846191,4146.666504,726.000000,4.000000,,,,0.000000,4.000000,4.000000,4.000000,4.000000,4.000000,4.000000,4.000000,4.000000,4.000000,4.000000,4.000000,4.000000,4.000000,4.000000,100.000000
1602006824.514324,86.000000,0.000000,4089.743652,4098.461426,4106.153809,4114.358887,4120.512695,4100.000000,4125.128418,4122.563965,4105.641113,4127.692383,4127.179688,4118.974121,4131.282227,4120.000000,871.000000,4.000000,,,,0.000000,4.000000,4.000000,4.000000,4.000000,4.000000,4.000000,4.000000,4.000000,4.000000,4.000000,4.000000,4.000000,4.000000,4.000000,100.000000
1602006824.522205,87.000000,0.000000,4099.487305,4109.743652,4112.307617,4116.410156,4121.538574,4112.307617,4132.307617,4132.820313,4122.563965,4136.922852,4119.487305,4121.538574,4127.692383,4115.384766,841.000000,4.000000,,,,0.000000,4.000000,4.000000,4.000000,4.000000,4.000000,4.000000,4.000000,4.000000,4.000000,4.000000,4.000000,4.000000,4.000000,4.000000,100.000000
1602006824.529986,88.000000,0.000000,4117.948730,4125.641113,4132.307617,4128.717773,4134.871582,4138.461426,4145.641113,4151.282227,4143.589844,4161.025879,4138.974121,4140.512695,4148.717773,4147.179688,764.000000,4.000000,,,,0.000000,4.000000,4.000000,4.000000,4.000000,4.000000,4.000000,4.000000,4.000000,4.000000,4.000000,4.000000,4.000000,4.000000,4.000000,100.000000
1602006824.537867,89.000000,0.000000,4115.897461,4127.692383,4138.461426,4132.307617,4137.436035,4141.538574,4142.051270,4154.358887,4142.051270,4160.000000,4147.179688,4143.589844,4155.384766,4156.410156,726.000000,4.000000,,,,0.000000,4.000000,4.000000,4.000000,4.000000,4.000000,4.000000,4.000000,4.000000,4.000000,4.000000,4.000000,4.000000,4.000000,4.000000,100.000000
1602006824.545748,90.000000,0.000000,4106.666504,4117.436035,4133.846191,4124.102539,4122.563965,4122.051270,4131.282227,4142.563965,4131.282227,4126.666504,4135.897461,4133.333496,4140.000000,4138.974121,871.000000,4.000000,,,,0.000000,4.000000,4.000000,4.000000,4.000000,4.000000,4.000000,4.000000,4.000000,4.000000,4.000000,4.000000,4.000000,4.000000,4.000000,100.000000
1602006824.553628,91.000000,0.000000,4114.358887,4109.230957,4136.410156,4120.000000,4117.948730,4110.769043,4125.128418,4136.922852,4125.641113,4116.922852,4131.282227,4133.846191,4131.282227,4132.820313,841.000000,4.000000,,,,0.000000,4.000000,4.000000,4.000000,4.000000,4.000000,4.000000,4.000000,4.000000,4.000000,4.000000,4.000000,4.000000,4.000000,4.000000,100.000000
1602006824.561509,92.000000,0.000000,4126.153809,4109.743652,4143.589844,4123.077148,4120.000000,4116.922852,4122.563965,4139.487305,4121.025879,4135.384766,4138.461426,4139.487305,4137.948730,4133.846191,764.000000,4.000000,,,,0.000000,4.000000,4.000000,4.000000,4.000000,4.000000,4.000000,4.000000,4.000000,4.000000,4.000000,4.000000,4.000000,4.000000,4.000000,100.000000
1602006824.569490,93.000000,0.000000,4124.102539,4114.871582,4144.102539,4123.077148,4114.871582,4121.538574,4127.692383,4138.974121,4123.077148,4142.051270,4133.333496,4135.384766,4140.512695,4134.871582,726.000000,4.000000,,,,0.000000,4.000000,4.000000,4.000000,4.000000,4.000000,4.000000,4.000000,4.000000,4.000000,4.000000,4.000000,4.000000,4.000000,4.000000,100.000000
1602006824.577372,94.000000,0.000000,4111.794922,4110.769043,4138.461426,4120.512695,4113.333496,4121.025879,4134.871582,4129.230957,4125.128418,4132.820313,4121.538574,4124.615234,4125.641113,4138.461426,871.000000,4.000000,,,,0.000000,4.000000,4.000000,4.000000,4.000000,4.000000,4.000000,4.000000,4.000000,4.000000,4.000000,4.000000,4.000000,4.000000,4.000000,100.000000
1602006824.585253,95.000000,0.000000,4106.666504,4111.794922,4135.384766,4122.563965,4121.025879,4122.051270,4137.948730,4126.153809,4119.487305,4127.179688,4118.974121,4123.589844,4116.410156,4136.922852,841.000000,4.000000,,,,0.000000,4.000000,4.000000,4.000000,4.000000,4.000000,4.000000,4.000000,4.000000,4.000000,4.000000,4.000000,4.000000,4.000000,4.000000,100.000000
1602006824.593134,96.000000,0.000000,4109.743652,4121.025879,4131.282227,4124.102539,4126.666504,4122.563965,4136.410156,4133.846191,4123.589844,4135.897461,4118.461426,4133.333496,4126.153809,4134.871582,764.000000,4.000000,,,,0.000000,4.000000,4.000000,4.000000,4.000000,4.000000,4.000000,4.000000,4.000000,4.000000,4.000000,4.000000,4.000000,4.000000,4.000000,100.000000
1602006824.601015,97.000000,0.000000,4110.769043,4118.461426,4128.205078,4121.025879,4126.666504,4122.563965,4131.794922,4141.538574,4140.000000,4152.307617,4127.692383,4136.410156,4137.948730,4143.589844,726.000000,4.000000,,,,0.000000,4.000000,4.000000,4.000000,4.000000,4.000000,4.000000,4.000000,4.000000,4.000000,4.000000,4.000000,4.000000,4.000000,4.000000,100.000000
1602006824.608896,98.000000,0.000000,4113.846191,4114.871582,4127.179688,4121.025879,4127.692383,4125.641113,4128.205078,4144.102539,4145.641113,4150.769043,4145.641113,4135.897461,4140.000000,4140.000000,871.000000,4.000000,,,,0.000000,4.000000,4.000000,4.000000,4.000000,4.000000,4.000000,4.000000,4.000000,4.000000,4.000000,4.000000,4.000000,4.000000,4.000000,100.000000
1602006824.616777,99.000000,0.000000,4120.000000,4119.487305,4124.615234,4121.538574,4128.717773,4127.692383,4125.641113,4140.000000,4130.769043,4130.769043,4145.128418,4136.410156,4134.871582,4127.179688,841.000000,4.000000,,,,0.000000,4.000000,4.000000,4.000000,4.000000,4.000000,4.000000,4.000000,4.000000,4.000000,4.000000,4.000000,4.000000,4.000000,4.000000,100.000000
1602006824.624659,100.000000,0.000000,4116.922852,4116.922852,4121.025879,4121.025879,4126.666504,4121.538574,4123.077148,4128.205078,4111.794922,4124.615234,4126.153809,4130.256348,4125.641113,4135.897461,764.000000,4.000000,,,,0.000000,4.000000,4.000000,4.000000,4.000000,4.000000,4.000000,4.000000,4.000000,4.000000,4.000000,4.000000,4.000000,4.000000,4.000000,100.000000
1602006824.632540,101.000000,0.000000,4105.641113,4109.743652,4122.563965,4121.538574,4122.051270,4120.512695,4122.563965,4117.436035,4108.205078,4121.538574,4121.538574,4122.051270,4120.000000,4142.563965,726.000000,4.000000,,,,0.000000,4.000000,4.000000,4.000000,4.000000,4.000000,4.000000,4.000000,4.000000,4.000000,4.000000,4.000000,4.000000,4.000000,4.000000,100.000000
1602006824.640521,102.000000,0.000000,4105.641113,4108.205078,4122.563965,4120.000000,4120.512695,4128.205078,4126.666504,4118.461426,4116.922852,4117.436035,4130.769043,4124.615234,4123.077148,4126.666504,871.000000,4.000000,,,,0.000000,4.000000,4.000000,4.000000,4.000000,4.000000,4.000000,4.000000,4.000000,4.000000,4.000000,4.000000,4.000000,4.000000,4.000000,100.000000
1602006824.648402,103.000000,0.000000,4110.769043,4106.153809,4118.974121,4116.922852,4122.051270,4123.589844,4120.512695,4122.563965,4124.102539,4135.897461,4132.820313,4131.282227,4129.230957,4124.615234,841.000000,4.000000,,,,0.000000,4.000000,4.000000,4.000000,4.000000,4.000000,4.000000,4.000000,4.000000,4.000000,4.000000,4.000000,4.000000,4.000000,4.000000,100.000000
1602006824.656283,104.000000,0.000000,4117.948730,4111.794922,4126.666504,4118.974121,4119.487305,4112.307617,4110.256348,4121.025879,4122.563965,4152.820313,4142.051270,4137.436035,4143.589844,4151.794922,764.000000,4.000000,,,,0.000000,4.000000,4.000000,4.000000,4.000000,4.000000,4.000000,4.000000,4.000000,4.000000,4.000000,4.000000,4.000000,4.000000,4.000000,100.000000
1602006824.664164,105.000000,0.000000,4132.820313,4123.589844,4143.589844,4126.153809,4121.025879,4113.846191,4114.358887,4125.128418,4122.563965,4149.743652,4155.384766,4147.692383,4160.000000,4163.077148,726.000000,4.000000,,,,0.000000,4.000000,4.000000,4.000000,4.000000,4.000000,4.000000,4.000000,4.000000,4.000000,4.000000,4.000000,4.000000,4.000000,4.000000,100.000000
1602006824.672046,106.000000,0.000000,4144.615234,4126.153809,4151.282227,4134.358887,4126.666504,4122.563965,4122.051270,4134.358887,4124.615234,4144.102539,4151.282227,4151.282227,4159.487305,4149.743652,871.000000,4.000000,,,,0.000000,4.000000,4.000000,4.000000,4.000000,4.000000,4.000000,4.000000,4.000000,4.000000,4.000000,4.000000,4.000000,4.000000,4.000000,100.000000
1602006824.679927,107.000000,0.000000,4140.000000,4125.128418,4144.615234,4134.358887,4128.205078,4127.179688,4125.641113,4131.794922,4121.025879,4127.692383,4138.974121,4141.538574,4147.179688,4140.512695,841.000000,4.000000,,,,0.000000,4.000000,4.000000,4.000000,4.000000,4.000000,4.000000,4.000000,4.000000,4.000000,4.000000,4.000000,4.000000,4.000000,4.000000,100.000000
1602006824.687808,108.000000,0.000000,4125.641113,4119.487305,4129.743652,4124.615234,4123.589844,4125.128418,4134.358887,4126.153809,4112.307617,4108.717773,4129.743652,4128.717773,4133.333496,4137.436035,764.000000,4.000000,,,,0.000000,4.000000,4.000000,4.000000,4.000000,4.000000,4.000000,4.000000,4.000000,4.000000,4.000000,4.000000,4.000000,4.000000,4.000000,100.000000
1602006824.695689,109.000000,0.000000,4114.871582,4113.333496,4122.563965,4117.436035,4121.538574,4123.589844,4140.512695,4132.820313,4106.153809,4113.333496,4124.102539,4125.641113,4123.077148,4134.358887,726.000000,4.000000,,,,0.000000,4.000000,4.000000,4.000000,4.000000,4.000000,4.000000,4.000000,4.000000,4.000000,4.000000,4.000000,4.000000,4.000000,4.000000,100.000000
1602006824.703570,110.000000,0.000000,4119.487305,4115.384766,4128.717773,4122.563965,4122.563965,4119.487305,4130.769043,4136.410156,4109.230957,4126.666504,4120.000000,4130.769043,4119.487305,4132.307617,871.000000,4.000000,,,,0.000000,4.000000,4.000000,4.000000,4.000000,4.000000,4.000000,4.000000,4.000000,4.000000,4.000000,4.000000,4.000000,4.000000,4.000000,100.000000
1602006824.711551,111.000000,0.000000,4134.358887,4126.153809,4138.974121,4131.794922,4123.077148,4115.384766,4120.512695,4128.205078,4117.948730,4127.692383,4124.102539,4140.000000,4127.179688,4132.307617,841.000000,4.000000,,,,0.000000,4.000000,4.000000,4.000000,4.000000,4.000000,4.000000,4.000000,4.000000,4.000000,4.000000,4.000000,4.000000,4.000000,4.000000,100.000000
1602006824.719432,112.000000,0.000000,4138.974121,4133.846191,4148.205078,4136.410156,4122.051270,4116.410156,4121.538574,4124.615234,4122.563965,4129.743652,4132.820313,4144.615234,4136.922852,4139.487305,764.000000,4.000000,,,,0.000000,4.000000,4.000000,4.000000,4.000000,4.000000,4.000000,4.000000,4.000000,4.000000,4.000000,4.000000,4.000000,4.000000,4.000000,100.000000
1602006824.727313,113.000000,0.000000,4140.000000,4137.436035,4154.358887,4139.487305,4123.077148,4118.974121,4123.077148,4123.589844,4120.512695,4130.769043,4147.179688,4140.512695,4141.538574,4153.846191,726.000000,4.000000,,,,0.000000,4.000000,4.000000,4.000000,4.000000,4.000000,4.000000,4.000000,4.000000,4.000000,4.000000,4.000000,4.000000,4.000000,4.000000,100.000000
1602006824.735293,114.000000,0.000000,4152.307617,4141.025879,4158.461426,4140.512695,4125.128418,4121.025879,4121.538574,4122.563965,4118.461426,4122.051270,4158.461426,4142.563965,4145.641113,4160.000000,871.000000,4.000000,,,,0.000000,4.000000,4.000000,4.000000,4.000000,4.000000,4.000000,4.000000,4.000000,4.000000,4.000000,4.000000,4.000000,4.000000,4.000000,100.000000
1602006824.743174,115.000000,0.000000,4158.461426,4137.948730,4157.948730,4138.461426,4126.666504,4122.051270,4121.538574,4133.333496,4124.102539,4123.077148,4151.282227,4149.230957,4146.153809,4155.897461,841.000000,4.000000,,,,0.000000,4.000000,4.000000,4.000000,4.000000,4.000000,4.000000,4.000000,4.000000,4.000000,4.000000,4.000000,4.000000,4.000000,4.000000,100.000000
1602006824.750955,116.000000,0.000000,4150.769043,4129.743652,4151.282227,4137.436035,4133.846191,4127.692383,4130.769043,4142.051270,4130.256348,4142.563965,4148.205078,4154.871582,4147.692383,4158.461426,764.000000,4.000000,,,,0.000000,4.000000,4.000000,4.000000,4.000000,4.000000,4.000000,4.000000,4.000000,4.000000,4.000000,4.000000,4.000000,4.000000,4.000000,100.000000
1602006824.758836,117.000000,0.000000,4145.641113,4123.077148,4138.974121,4135.384766,4134.358887,4127.692383,4140.000000,4138.974121,4122.051270,4153.333496,4151.794922,4155.897461,4149.743652,4157.436035,726.000000,4.000000,,,,0.000000,4.000000,4.000000,4.000000,4.000000,4.000000,4.000000,4.000000,4.000000,4.000000,4.000000,4.000000,4.000000,4.000000,4.000000,100.000000
1602006824.766717,118.000000,0.000000,4143.077148,4123.077148,4135.384766,4128.205078,4125.128418,4125.128418,4136.922852,4137.436035,4110.256348,4141.538574,4142.051270,4148.205078,4143.589844,4145.128418,871.000000,4.000000,,,,0.000000,4.000000,4.000000,4.000000,4.000000,4.000000,4.000000,4.000000,4.000000,4.000000,4.000000,4.000000,4.000000,4.000000,4.000000,100.000000
1602006824.774598,119.000000,0.000000,4136.410156,4125.641113,4144.615234,4128.205078,4126.153809,4131.794922,4133.846191,4137.948730,4107.179688,4126.666504,4132.820313,4140.000000,4133.333496,4144.102539,841.000000,4.000000,,,,0.000000,4.000000,4.000000,4.000000,4.000000,4.000000,4.000000,4.000000,4.000000,4.000000,4.000000,4.000000,4.000000,4.000000,4.000000,100.000000
1602006824.782479,120.000000,0.000000,4135.897461,4126.153809,4146.666504,4137.948730,4136.922852,4133.846191,4136.922852,4130.256348,4112.820313,4113.846191,4140.512695,4142.563965,4135.897461,4153.846191,764.000000,4.000000,,,,0.000000,4.000000,4.000000,4.000000,4.000000,4.000000,4.000000,4.000000,4.000000,4.000000,4.000000,4.000000,4.000000,4.000000,4.000000,100.000000
1602006824.790360,121.000000,0.000000,4137.948730,4128.205078,4138.974121,4137.948730,4137.948730,4129.743652,4133.846191,4124.102539,4117.948730,4110.769043,4147.179688,4150.769043,4140.512695,4150.769043,726.000000,4.000000,,,,0.000000,4.000000,4.000000,4.000000,4.000000,4.000000,4.000000,4.000000,4.000000,4.000000,4.000000,4.000000,4.000000,4.000000,4.000000,100.000000
1602006824.798341,122.000000,0.000000,4136.410156,4129.230957,4133.846191,4132.307617,4132.820313,4124.102539,4129.743652,4125.641113,4115.897461,4129.743652,4142.563965,4151.794922,4135.897461,4140.512695,871.000000,4.000000,,,,0.000000,4.000000,4.000000,4.000000,4.000000,4.000000,4.000000,4.000000,4.000000,4.000000,4.000000,4.000000,4.000000,4.000000,4.000000,100.000000
1602006824.806222,123.000000,0.000000,4135.384766,4127.179688,4137.948730,4135.897461,4134.871582,4122.563965,4135.384766,4127.692383,4112.307617,4143.589844,4135.897461,4148.717773,4135.897461,4140.000000,841.000000,4.000000,,,,0.000000,4.000000,4.000000,4.000000,4.000000,4.000000,4.000000,4.000000,4.000000,4.000000,4.000000,4.000000,4.000000,4.000000,4.000000,100.000000
1602006824.814103,124.000000,0.000000,4134.871582,4129.230957,4138.461426,4138.461426,4137.948730,4129.743652,4137.436035,4131.794922,4114.358887,4137.436035,4133.333496,4148.205078,4135.384766,4143.077148,764.000000,4.000000,,,,0.000000,4.000000,4.000000,4.000000,4.000000,4.000000,4.000000,4.000000,4.000000,4.000000,4.000000,4.000000,4.000000,4.000000,4.000000,100.000000
1602006824.821984,125.000000,0.000000,4137.948730,4136.922852,4138.974121,4137.948730,4140.512695,4134.871582,4136.922852,4140.512695,4130.769043,4138.974121,4145.128418,4156.922852,4142.051270,4152.307617,726.000000,4.000000,,,,0.000000,4.000000,4.000000,4.000000,4.000000,4.000000,4.000000,4.000000,4.000000,4.000000,4.000000,4.000000,4.000000,4.000000,4.000000,100.000000
1602006824.829866,126.000000,0.000000,4141.538574,4139.487305,4148.717773,4142.051270,4143.589844,4132.307617,4138.461426,4148.717773,4141.538574,4146.666504,4160.512695,4173.333496,4163.077148,4162.563965,871.000000,4.000000,,,,0.000000,4.000000,4.000000,4.000000,4.000000,4.000000,4.000000,4.000000,4.000000,4.000000,4.000000,4.000000,4.000000,4.000000,4.000000,100.000000
1602006824.837747,127.000000,0.000000,4139.487305,4130.256348,4148.717773,4137.436035,4142.051270,4131.282227,4131.282227,4152.307617,4139.487305,4149.743652,4158.461426,4176.922852,4169.743652,4158.974121,841.000000,4.000000,,,,0.000000,4.000000,4.000000,4.000000,4.000000,4.000000,4.000000,4.000000,4.000000,4.000000,4.000000,4.000000,4.000000,4.000000,4.000000,100.000000
1602006824.845628,128.000000,0.000000,4137.948730,4123.077148,4138.974121,4126.666504,4143.077148,4136.922852,4125.128418,4154.871582,4145.641113,4156.922852,4151.282227,4172.307617,4158.461426,4155.384766,764.000000,4.000000,,,,0.000000,4.000000,4.000000,4.000000,4.000000,4.000000,4.000000,4.000000,4.000000,4.000000,4.000000,4.000000,4.000000,4.000000,4.000000,100.000000
1602006824.853509,0.000000,0.000000,4134.358887,4122.563965,4139.487305,4131.794922,4148.205078,4138.974121,4129.230957,4152.307617,4156.410156,4162.051270,4155.897461,4168.717773,4155.384766,4156.922852,788.000000,4.000000,,,,0.000000,4.000000,4.000000,4.000000,4.000000,4.000000,4.000000,4.000000,4.000000,4.000000,4.000000,4.000000,4.000000,4.000000,4.000000,100.000000
1602006824.861490,1.000000,0.000000,4125.128418,4124.102539,4142.563965,4136.922852,4146.666504,4138.461426,4129.230957,4141.025879,4150.256348,4157.948730,4151.282227,4159.487305,4152.307617,4146.153809,790.000000,4.000000,,,,0.000000,4.000000,4.000000,4.000000,4.000000,4.000000,4.000000,4.000000,4.000000,4.000000,4.000000,4.000000,4.000000,4.000000,4.000000,100.000000
1602006824.869371,2.000000,0.000000,4125.641113,4123.589844,4135.384766,4126.666504,4136.410156,4133.333496,4129.230957,4130.769043,4128.205078,4145.128418,4131.282227,4145.641113,4138.461426,4126.153809,847.000000,4.000000,,,,0.000000,4.000000,4.000000,4.000000,4.000000,4.000000,4.000000,4.000000,4.000000,4.000000,4.000000,4.000000,4.000000,4.000000,4.000000,100.000000
1602006824.877252,3.000000,0.000000,4135.384766,4122.563965,4132.307617,4124.615234,4133.333496,4124.102539,4138.974121,4124.615234,4111.282227,4126.666504,4125.128418,4143.077148,4134.871582,4117.436035,872.000000,4.000000,,,,0.000000,4.000000,4.000000,4.000000,4.000000,4.000000,4.000000,4.000000,4.000000,4.000000,4.000000,4.000000,4.000000,4.000000,4.000000,100.000000
1602006824.885134,4.000000,0.000000,4136.922852,4130.256348,4140.000000,4136.410156,4135.897461,4121.025879,4143.589844,4125.128418,4110.769043,4126.666504,4136.410156,4151.794922,4138.974121,4128.205078,809.000000,4.000000,,,,0.000000,4.000000,4.000000,4.000000,4.000000,4.000000,4.000000,4.000000,4.000000,4.000000,4.000000,4.000000,4.000000,4.000000,4.000000,100.000000
1602006824.893015,5.000000,0.000000,4136.922852,4138.974121,4143.077148,4140.000000,4136.410156,4122.051270,4137.948730,4131.794922,4127.692383,4146.153809,4146.153809,4160.512695,4140.512695,4141.538574,822.000000,4.000000,,,,0.000000,4.000000,4.000000,4.000000,4.000000,4.000000,4.000000,4.000000,4.000000,4.000000,4.000000,4.000000,4.000000,4.000000,4.000000,100.000000
1602006824.900896,6.000000,0.000000,4138.974121,4140.000000,4138.461426,4135.384766,4139.487305,4118.974121,4138.974121,4140.512695,4143.077148,4157.948730,4149.743652,4164.615234,4147.179688,4138.461426,756.000000,4.000000,,,,0.000000,4.000000,4.000000,4.000000,4.000000,4.000000,4.000000,4.000000,4.000000,4.000000,4.000000,4.000000,4.000000,4.000000,4.000000,100.000000
1602006824.908777,7.000000,0.000000,4138.461426,4145.128418,4137.436035,4140.000000,4143.589844,4119.487305,4138.461426,4143.077148,4141.025879,4157.436035,4154.358887,4166.153809,4152.820313,4134.871582,651.000000,4.000000,,,,0.000000,4.000000,4.000000,4.000000,4.000000,4.000000,4.000000,4.000000,4.000000,4.000000,4.000000,4.000000,4.000000,4.000000,4.000000,100.000000
1602006824.916658,8.000000,0.000000,4146.153809,4155.897461,4148.205078,4151.794922,4148.717773,4130.256348,4127.692383,4136.410156,4138.461426,4151.282227,4156.410156,4171.794922,4153.846191,4156.922852,779.000000,4.000000,,,,0.000000,4.000000,4.000000,4.000000,4.000000,4.000000,4.000000,4.000000,4.000000,4.000000,4.000000,4.000000,4.000000,4.000000,4.000000,100.000000
1602006824.924439,9.000000,0.000000,4157.948730,4160.000000,4158.974121,4159.487305,4155.897461,4140.000000,4115.384766,4126.153809,4134.871582,4137.436035,4154.871582,4175.897461,4157.436035,4171.794922,835.000000,4.000000,,,,0.000000,4.000000,4.000000,4.000000,4.000000,4.000000,4.000000,4.000000,4.000000,4.000000,4.000000,4.000000,4.000000,4.000000,4.000000,100.000000
1602006824.932321,10.000000,0.000000,4155.897461,4157.436035,4158.461426,4156.922852,4150.256348,4128.717773,4109.230957,4119.487305,4123.589844,4131.282227,4153.333496,4173.846191,4155.897461,4151.282227,871.000000,4.000000,,,,0.000000,4.000000,4.000000,4.000000,4.000000,4.000000,4.000000,4.000000,4.000000,4.000000,4.000000,4.000000,4.000000,4.000000,4.000000,100.000000
1602006824.940202,11.000000,0.000000,4151.282227,4152.307617,4154.358887,4151.282227,4139.487305,4118.974121,4114.358887,4121.025879,4121.025879,4146.153809,4153.846191,4172.307617,4150.256348,4137.948730,841.000000,4.000000,,,,0.000000,4.000000,4.000000,4.000000,4.000000,4.000000,4.000000,4.000000,4.000000,4.000000,4.000000,4.000000,4.000000,4.000000,4.000000,100.000000
1602006824.948083,12.000000,0.000000,4150.769043,4143.077148,4157.948730,4147.179688,4146.153809,4136.922852,4127.692383,4128.205078,4130.256348,4147.692383,4157.436035,4173.333496,4153.333496,4152.307617,764.000000,4.000000,,,,0.000000,4.000000,4.000000,4.000000,4.000000,4.000000,4.000000,4.000000,4.000000,4.000000,4.000000,4.000000,4.000000,4.000000,4.000000,100.000000
1602006824.955964,13.000000,0.000000,4144.102539,4135.384766,4158.461426,4139.487305,4152.820313,4154.871582,4140.512695,4137.436035,4137.436035,4139.487305,4155.897461,4172.820313,4156.410156,4156.922852,726.000000,4.000000,,,,0.000000,4.000000,4.000000,4.000000,4.000000,4.000000,4.000000,4.000000,4.000000,4.000000,4.000000,4.000000,4.000000,4.000000,4.000000,100.000000
1602006824.963845,14.000000,0.000000,4132.820313,4129.743652,4147.692383,4133.846191,4140.512695,4149.230957,4146.666504,4139.487305,4141.538574,4142.563965,4146.153809,4171.282227,4146.153809,4140.512695,871.000000,4.000000,,,,0.000000,4.000000,4.000000,4.000000,4.000000,4.000000,4.000000,4.000000,4.000000,4.000000,4.000000,4.000000,4.000000,4.000000,4.000000,100.000000
1602006824.971726,15.000000,0.000000,4127.692383,4122.051270,4137.436035,4132.820313,4131.282227,4132.820313,4144.102539,4134.358887,4134.871582,4128.205078,4134.871582,4166.666504,4132.307617,4129.230957,841.000000,4.000000,,,,0.000000,4.000000,4.000000,4.000000,4.000000,4.000000,4.000000,4.000000,4.000000,4.000000,4.000000,4.000000,4.000000,4.000000,4.000000,100.000000
1602006824.979707,16.000000,0.000000,4133.333496,4125.128418,4147.179688,4136.410156,4137.948730,4121.538574,4141.025879,4135.384766,4126.153809,4117.948730,4140.512695,4168.205078,4134.358887,4143.077148,0.000000,4.000000,,,,0.000000,4.000000,4.000000,4.000000,4.000000,4.000000,4.000000,4.000000,4.000000,4.000000,4.000000,4.000000,4.000000,4.000000,4.000000,100.000000
1602006824.987588,17.000000,0.000000,4148.717773,4140.000000,4167.179688,4142.051270,4142.051270,4122.051270,4138.461426,4136.922852,4130.769043,4146.153809,4154.358887,4179.487305,4147.179688,4157.948730,0.000000,4.000000,,,,0.000000,4.000000,4.000000,4.000000,4.000000,4.000000,4.000000,4.000000,4.000000,4.000000,4.000000,4.000000,4.000000,4.000000,4.000000,100.000000
1602006824.995469,18.000000,0.000000,4152.307617,4138.461426,4165.128418,4140.512695,4137.436035,4123.077148,4129.230957,4126.153809,4129.743652,4161.538574,4144.102539,4172.820313,4141.025879,4143.077148,0.000000,4.000000,,,,0.000000,4.000000,4.000000,4.000000,4.000000,4.000000,4.000000,4.000000,4.000000,4.000000,4.000000,4.000000,4.000000,4.000000,4.000000,100.000000
1602006825.003350,19.000000,0.000000,4140.512695,4122.563965,4151.794922,4135.897461,4137.436035,4122.563965,4122.051270,4116.922852,4114.358887,4139.487305,4128.717773,4155.384766,4129.743652,4126.153809,0.000000,4.000000,,,,0.000000,4.000000,4.000000,4.000000,4.000000,4.000000,4.000000,4.000000,4.000000,4.000000,4.000000,4.000000,4.000000,4.000000,4.000000,100.000000
1602006825.011231,20.000000,0.000000,4136.922852,4127.692383,4149.743652,4137.436035,4142.563965,4132.307617,4124.102539,4122.563965,4110.256348,4124.615234,4144.102539,4157.436035,4143.589844,4138.461426,0.000000,4.000000,,,,0.000000,4.000000,4.000000,4.000000,4.000000,4.000000,4.000000,4.000000,4.000000,4.000000,4.000000,4.000000,4.000000,4.000000,4.000000,100.000000
1602006825.019112,21.000000,0.000000,4140.512695,4140.000000,4146.666504,4139.487305,4143.589844,4143.077148,4116.410156,4121.538574,4119.487305,4130.256348,4156.922852,4165.128418,4156.922852,4146.666504,0.000000,4.000000,,,,0.000000,4.000000,4.000000,4.000000,4.000000,4.000000,4.000000,4.000000,4.000000,4.000000,4.000000,4.000000,4.000000,4.000000,4.000000,100.000000
1602006825.027093,22.000000,0.000000,4136.922852,4130.256348,4131.282227,4134.871582,4136.410156,4134.358887,4103.589844,4105.128418,4121.538574,4133.846191,4141.025879,4153.333496,4137.436035,4128.205078,0.000000,4.000000,,,,0.000000,4.000000,4.000000,4.000000,4.000000,4.000000,4.000000,4.000000,4.000000,4.000000,4.000000,4.000000,4.000000,4.000000,4.000000,100.000000
1602006825.034974,23.000000,0.000000,4133.333496,4125.641113,4121.025879,4134.871582,4135.384766,4128.717773,4108.205078,4105.641113,4120.512695,4134.358887,4132.307617,4138.974121,4118.461426,4115.897461,0.000000,4.000000,,,,0.000000,4.000000,4.000000,4.000000,4.000000,4.000000,4.000000,4.000000,4.000000,4.000000,4.000000,4.000000,4.000000,4.000000,4.000000,100.000000
1602006825.042855,24.000000,0.000000,4137.436035,4139.487305,4124.102539,4138.461426,4146.666504,4140.512695,4121.025879,4122.051270,4121.538574,4135.897461,4138.974121,4140.512695,4128.717773,4122.563965,0.000000,4.000000,,,,0.000000,4.000000,4.000000,4.000000,4.000000,4.000000,4.000000,4.000000,4.000000,4.000000,4.000000,4.000000,4.000000,4.000000,4.000000,100.000000
1602006825.050736,25.000000,0.000000,4137.436035,4143.077148,4129.743652,4137.436035,4146.666504,4143.077148,4129.230957,4123.589844,4128.717773,4142.563965,4140.000000,4147.179688,4139.487305,4123.589844,0.000000,4.000000,,,,0.000000,4.000000,4.000000,4.000000,4.000000,4.000000,4.000000,4.000000,4.000000,4.000000,4.000000,4.000000,4.000000,4.000000,4.000000,100.000000
1602006825.058618,26.000000,0.000000,4141.538574,4137.436035,4141.025879,4135.897461,4135.897461,4131.794922,4136.922852,4124.615234,4138.974121,4139.487305,4133.333496,4153.333496,4135.897461,4123.589844,0.000000,4.000000,,,,0.000000,4.000000,4.000000,4.000000,4.000000,4.000000,4.000000,4.000000,4.000000,4.000000,4.000000,4.000000,4.000000,4.000000,4.000000,100.000000
1602006825.066499,27.000000,0.000000,4154.358887,4138.974121,4150.769043,4137.948730,4136.922852,4132.307617,4142.051270,4138.461426,4133.333496,4128.717773,4136.410156,4158.461426,4134.871582,4135.897461,0.000000,4.000000,,,,0.000000,4.000000,4.000000,4.000000,4.000000,4.000000,4.000000,4.000000,4.000000,4.000000,4.000000,4.000000,4.000000,4.000000,4.000000,100.000000
1602006825.074380,28.000000,0.000000,4154.358887,4139.487305,4148.205078,4136.410156,4141.025879,4138.461426,4142.051270,4138.974121,4122.051270,4134.871582,4141.025879,4158.974121,4137.436035,4142.563965,0.000000,4.000000,,,,0.000000,4.000000,4.000000,4.000000,4.000000,4.000000,4.000000,4.000000,4.000000,4.000000,4.000000,4.000000,4.000000,4.000000,4.000000,100.000000
1602006825.082261,29.000000,0.000000,4134.358887,4131.282227,4134.871582,4128.717773,4130.769043,4126.666504,4133.333496,4122.051270,4122.051270,4143.589844,4127.692383,4149.230957,4128.717773,4128.205078,0.000000,4.000000,,,,0.000000,4.000000,4.000000,4.000000,4.000000,4.000000,4.000000,4.000000,4.000000,4.000000,4.000000,4.000000,4.000000,4.000000,4.000000,100.000000
1602006825.090142,30.000000,0.000000,4122.563965,4124.102539,4126.153809,4125.128418,4127.179688,4115.897461,4122.563965,4116.410156,4121.025879,4136.922852,4116.410156,4136.922852,4117.436035,4117.436035,0.000000,4.000000,,,,0.000000,4.000000,4.000000,4.000000,4.000000,4.000000,4.000000,4.000000,4.000000,4.000000,4.000000,4.000000,4.000000,4.000000,4.000000,100.000000
1602006825.098123,31.000000,0.000000,4136.922852,4131.794922,4132.820313,4134.871582,4135.384766,4127.692383,4124.102539,4122.563965,4120.000000,4132.307617,4128.205078,4142.051270,4125.128418,4125.128418,0.000000,4.000000,,,,0.000000,4.000000,4.000000,4.000000,4.000000,4.000000,4.000000,4.000000,4.000000,4.000000,4.000000,4.000000,4.000000,4.000000,4.000000,100.000000
1602006825.106005,32.000000,0.000000,4157.948730,4150.769043,4145.128418,4147.692383,4139.487305,4137.436035,4132.820313,4124.102539,4120.000000,4127.692383,4138.974121,4164.615234,4138.461426,4143.077148,0.000000,4.000000,,,,0.000000,4.000000,4.000000,4.000000,4.000000,4.000000,4.000000,4.000000,4.000000,4.000000,4.000000,4.000000,4.000000,4.000000,4.000000,100.000000
1602006825.113886,33.000000,0.000000,4157.948730,4152.307617,4146.666504,4145.641113,4138.974121,4128.717773,4131.282227,4123.077148,4113.333496,4117.436035,4138.974121,4176.410156,4140.000000,4157.436035,0.000000,4.000000,,,,0.000000,4.000000,4.000000,4.000000,4.000000,4.000000,4.000000,4.000000,4.000000,4.000000,4.000000,4.000000,4.000000,4.000000,4.000000,100.000000
1602006825.121767,34.000000,0.000000,4141.538574,4137.436035,4137.436035,4135.897461,4136.922852,4120.512695,4123.589844,4121.538574,4111.282227,4117.436035,4135.384766,4167.179688,4138.461426,4151.282227,0.000000,4.000000,,,,0.000000,4.000000,4.000000,4.000000,4.000000,4.000000,4.000000,4.000000,4.000000,4.000000,4.000000,4.000000,4.000000,4.000000,4.000000,100.000000
1602006825.129648,35.000000,0.000000,4132.820313,4133.333496,4135.384766,4135.384766,4135.897461,4120.512695,4121.025879,4119.487305,4118.974121,4119.487305,4126.153809,4153.333496,4138.461426,4135.384766,0.000000,4.000000,,,,0.000000,4.000000,4.000000,4.000000,4.000000,4.000000,4.000000,4.000000,4.000000,4.000000,4.000000,4.000000,4.000000,4.000000,4.000000,100.000000
1602006825.137529,36.000000,0.000000,4136.922852,4135.897461,4137.948730,4137.436035,4135.384766,4121.538574,4123.589844,4117.948730,4125.128418,4124.102539,4127.179688,4149.743652,4136.410156,4134.871582,0.000000,4.000000,,,,0.000000,4.000000,4.000000,4.000000,4.000000,4.000000,4.000000,4.000000,4.000000,4.000000,4.000000,4.000000,4.000000,4.000000,4.000000,100.000000
1602006825.145410,37.000000,0.000000,4137.436035,4133.333496,4133.846191,4134.871582,4135.897461,4122.051270,4124.615234,4121.025879,4126.153809,4143.589844,4134.871582,4152.307617,4134.358887,4135.897461,0.000000,4.000000,,,,0.000000,4.000000,4.000000,4.000000,4.000000,4.000000,4.000000,4.000000,4.000000,4.000000,4.000000,4.000000,4.000000,4.000000,4.000000,100.000000
1602006825.153292,38.000000,0.000000,4128.205078,4132.307617,4124.615234,4133.846191,4136.410156,4122.051270,4120.512695,4123.077148,4122.051270,4142.563965,4131.794922,4150.769043,4136.410156,4124.615234,0.000000,4.000000,,,,0.000000,4.000000,4.000000,4.000000,4.000000,4.000000,4.000000,4.000000,4.000000,4.000000,4.000000,4.000000,4.000000,4.000000,4.000000,100.000000
1602006825.161173,39.000000,0.000000,4127.692383,4136.410156,4121.538574,4136.410156,4133.333496,4123.589844,4126.153809,4121.538574,4117.436035,4118.461426,4130.769043,4149.230957,4138.461426,4125.641113,0.000000,4.000000,,,,0.000000,4.000000,4.000000,4.000000,4.000000,4.000000,4.000000,4.000000,4.000000,4.000000,4.000000,4.000000,4.000000,4.000000,4.000000,100.000000
1602006825.169054,40.000000,0.000000,4141.025879,4137.436035,4128.205078,4137.948730,4126.153809,4126.666504,4139.487305,4125.641113,4119.487305,4120.000000,4137.436035,4156.922852,4136.410156,4144.615234,0.000000,4.000000,,,,0.000000,4.000000,4.000000,4.000000,4.000000,4.000000,4.000000,4.000000,4.000000,4.000000,4.000000,4.000000,4.000000,4.000000,4.000000,100.000000
1602006825.176935,41.000000,0.000000,4152.820313,4137.436035,4139.487305,4137.436035,4122.563965,4125.128418,4142.051270,4138.974121,4126.666504,4140.000000,4143.077148,4170.769043,4136.410156,4158.461426,0.000000,4.000000,,,,0.000000,4.000000,4.000000,4.000000,4.000000,4.000000,4.000000,4.000000,4.000000,4.000000,4.000000,4.000000,4.000000,4.000000,4.000000,100.000000
1602006825.184816,42.000000,0.000000,4158.461426,4140.512695,4147.179688,4134.358887,4128.717773,4125.128418,4141.025879,4145.128418,4130.256348,4143.589844,4150.769043,4177.436035,4142.563965,4159.487305,0.000000,4.000000,,,,0.000000,4.000000,4.000000,4.000000,4.000000,4.000000,4.000000,4.000000,4.000000,4.000000,4.000000,4.000000,4.000000,4.000000,4.000000,100.000000
1602006825.192697,43.000000,0.000000,4152.820313,4137.436035,4145.128418,4128.205078,4133.333496,4131.794922,4143.589844,4133.333496,4127.179688,4140.512695,4148.717773,4169.743652,4140.000000,4147.692383,0.000000,4.000000,,,,0.000000,4.000000,4.000000,4.000000,4.000000,4.000000,4.000000,4.000000,4.000000,4.000000,4.000000,4.000000,4.000000,4.000000,4.000000,100.000000
1602006825.200578,44.000000,0.000000,4139.487305,4126.666504,4137.436035,4126.153809,4132.307617,4134.358887,4134.358887,4120.000000,4118.974121,4126.153809,4128.205078,4155.897461,4122.051270,4135.384766,0.000000,4.000000,,,,0.000000,4.000000,4.000000,4.000000,4.000000,4.000000,4.000000,4.000000,4.000000,4.000000,4.000000,4.000000,4.000000,4.000000,4.000000,100.000000
1602006825.208460,45.000000,0.000000,4137.436035,4124.102539,4133.846191,4134.358887,4135.384766,4138.461426,4122.051270,4119.487305,4122.051270,4110.256348,4124.615234,4147.179688,4116.410156,4135.384766,0.000000,4.000000,,,,0.000000,4.000000,4.000000,4.000000,4.000000,4.000000,4.000000,4.000000,4.000000,4.000000,4.000000,4.000000,4.000000,4.000000,4.000000,100.000000
1602006825.216341,46.000000,0.000000,4147.692383,4132.820313,4135.384766,4140.512695,4136.922852,4141.025879,4120.000000,4117.948730,4120.000000,4116.410156,4135.897461,4144.102539,4124.615234,4130.769043,0.000000,4.000000,,,,0.000000,4.000000,4.000000,4.000000,4.000000,4.000000,4.000000,4.000000,4.000000,4.000000,4.000000,4.000000,4.000000,4.000000,4.000000,100.000000
1602006825.224222,47.000000,0.000000,4139.487305,4128.717773,4129.743652,4130.256348,4126.153809,4126.153809,4110.256348,4106.153809,4096.922852,4114.358887,4124.102539,4137.948730,4116.410156,4109.230957,0.000000,4.000000,,,,0.000000,4.000000,4.000000,4.000000,4.000000,4.000000,4.000000,4.000000,4.000000,4.000000,4.000000,4.000000,4.000000,4.000000,4.000000,100.000000
1602006825.232003,48.000000,0.000000,4123.589844,4115.897461,4123.077148,4119.487305,4117.948730,4116.410156,4103.589844,4104.615234,4088.205078,4102.563965,4110.256348,4133.846191,4108.205078,4107.692383,0.000000,4.000000,,,,0.000000,4.000000,4.000000,4.000000,4.000000,4.000000,4.000000,4.000000,4.000000,4.000000,4.000000,4.000000,4.000000,4.000000,4.000000,100.000000
1602006825.239883,49.000000,0.000000,4129.743652,4125.641113,4130.256348,4128.717773,4124.615234,4126.666504,4113.846191,4118.974121,4104.615234,4122.563965,4127.179688,4143.589844,4119.487305,4134.358887,0.000000,4.000000,,,,0.000000,4.000000,4.000000,4.000000,4.000000,4.000000,4.000000,4.000000,4.000000,4.000000,4.000000,4.000000,4.000000,4.000000,4.000000,100.000000
1602006825.247864,50.000000,0.000000,4141.025879,4141.025879,4140.000000,4141.538574,4130.256348,4128.717773,4126.153809,4131.282227,4115.897461,4145.641113,4151.282227,4155.384766,4129.230957,4143.589844,0.000000,4.000000,,,,0.000000,4.000000,4.000000,4.000000,4.000000,4.000000,4.000000,4.000000,4.000000,4.000000,4.000000,4.000000,4.000000,4.000000,4.000000,100.000000
1602006825.255745,51.000000,0.000000,4138.974121,4134.358887,4138.974121,4134.871582,4126.153809,4123.589844,4132.307617,4135.384766,4117.948730,4130.256348,4148.205078,4155.897461,4125.641113,4135.384766,0.000000,4.000000,,,,0.000000,4.000000,4.000000,4.000000,4.000000,4.000000,4.000000,4.000000,4.000000,4.000000,4.000000,4.000000,4.000000,4.000000,4.000000,100.000000
1602006825.263626,52.000000,0.000000,4131.794922,4122.051270,4133.846191,4123.589844,4123.589844,4129.230957,4136.922852,4139.487305,4122.563965,4115.897461,4137.436035,4153.846191,4121.025879,4138.461426,0.000000,4.000000,,,,0.000000,4.000000,4.000000,4.000000,4.000000,4.000000,4.000000,4.000000,4.000000,4.000000,4.000000,4.000000,4.000000,4.000000,4.000000,100.000000
1602006825.271607,53.000000,0.000000,4131.794922,4123.589844,4142.563965,4126.153809,4124.102539,4130.256348,4139.487305,4142.051270,4128.205078,4135.384766,4141.538574,4163.077148,4128.717773,4146.153809,0.000000,4.000000,,,,0.000000,4.000000,4.000000,4.000000,4.000000,4.000000,4.000000,4.000000,4.000000,4.000000,4.000000,4.000000,4.000000,4.000000,4.000000,100.000000
1602006825.279487,54.000000,0.000000,4137.948730,4128.205078,4156.922852,4136.922852,4122.051270,4122.563965,4137.436035,4136.922852,4131.282227,4155.897461,4145.641113,4175.897461,4140.000000,4143.589844,0.000000,4.000000,,,,0.000000,4.000000,4.000000,4.000000,4.000000,4.000000,4.000000,4.000000,4.000000,4.000000,4.000000,4.000000,4.000000,4.000000,4.000000,100.000000
1602006825.287468,55.000000,0.000000,4142.563965,4126.153809,4155.897461,4140.000000,4120.512695,4120.000000,4129.743652,4126.153809,4126.153809,4150.769043,4137.948730,4173.846191,4138.974121,4140.512695,0.000000,4.000000,,,,0.000000,4.000000,4.000000,4.000000,4.000000,4.000000,4.000000,4.000000,4.000000,4.000000,4.000000,4.000000,4.000000,4.000000,4.000000,100.000000
1602006825.295249,56.000000,0.000000,4133.846191,4123.077148,4141.025879,4126.666504,4121.538574,4118.461426,4120.512695,4122.563965,4113.846191,4134.871582,4127.179688,4160.512695,4126.153809,4139.487305,0.000000,4.000000,,,,0.000000,4.000000,4.000000,4.000000,4.000000,4.000000,4.000000,4.000000,4.000000,4.000000,4.000000,4.000000,4.000000,4.000000,4.000000,100.000000
1602006825.303130,57.000000,0.000000,4123.077148,4122.051270,4133.333496,4120.000000,4123.077148,4125.641113,4120.000000,4123.589844,4107.179688,4129.230957,4128.205078,4153.333496,4122.051270,4137.948730,0.000000,4.000000,,,,0.000000,4.000000,4.000000,4.000000,4.000000,4.000000,4.000000,4.000000,4.000000,4.000000,4.000000,4.000000,4.000000,4.000000,4.000000,100.000000
1602006825.311012,58.000000,0.000000,4128.717773,4125.128418,4133.846191,4131.282227,4124.615234,4133.846191,4122.563965,4120.512695,4098.974121,4125.641113,4135.897461,4153.846191,4124.615234,4138.461426,0.000000,4.000000,,,,0.000000,4.000000,4.000000,4.000000,4.000000,4.000000,4.000000,4.000000,4.000000,4.000000,4.000000,4.000000,4.000000,4.000000,4.000000,100.000000
1602006825.318893,59.000000,0.000000,4136.410156,4125.128418,4132.307617,4135.897461,4124.615234,4130.256348,4118.461426,4123.077148,4088.205078,4119.487305,4136.922852,4149.743652,4122.051270,4141.025879,0.000000,4.000000,,,,0.000000,4.000000,4.000000,4.000000,4.000000,4.000000,4.000000,4.000000,4.000000,4.000000,4.000000,4.000000,4.000000,4.000000,4.000000,100.000000
1602006825.326774,60.000000,0.000000,4133.846191,4121.538574,4132.820313,4129.743652,4127.179688,4131.282227,4122.563965,4135.384766,4094.358887,4123.077148,4137.436035,4153.846191,4126.666504,4145.641113,0.000000,4.000000,,,,0.000000,4.000000,4.000000,4.000000,4.000000,4.000000,4.000000,4.000000,4.000000,4.000000,4.000000,4.000000,4.000000,4.000000,4.000000,100.000000
1602006825.334655,61.000000,0.000000,4136.410156,4127.692383,4143.589844,4133.846191,4131.282227,4142.051270,4134.871582,4142.563965,4109.230957,4120.512695,4141.025879,4167.692383,4140.000000,4152.307617,0.000000,4.000000,,,,0.000000,4.000000,4.000000,4.000000,4.000000,4.000000,4.000000,4.000000,4.000000,4.000000,4.000000,4.000000,4.000000,4.000000,4.000000,100.000000
1602006825.342536,62.000000,0.000000,4149.743652,4136.922852,4157.948730,4142.051270,4128.717773,4141.538574,4138.461426,4141.538574,4111.794922,4110.256348,4143.077148,4173.846191,4139.487305,4156.922852,0.000000,4.000000,,,,0.000000,4.000000,4.000000,4.000000,4.000000,4.000000,4.000000,4.000000,4.000000,4.000000,4.000000,4.000000,4.000000,4.000000,4.000000,100.000000
1602006825.350417,63.000000,0.000000,4148.717773,4129.230957,4155.384766,4137.436035,4122.051270,4128.205078,4133.333496,4137.436035,4105.128418,4120.512695,4136.922852,4164.102539,4124.615234,4152.307617,0.000000,4.000000,,,,0.000000,4.000000,4.000000,4.000000,4.000000,4.000000,4.000000,4.000000,4.000000,4.000000,4.000000,4.000000,4.000000,4.000000,4.000000,100.000000
1602006825.358199,64.000000,0.000000,4135.384766,4119.487305,4140.512695,4133.333496,4121.538574,4116.922852,4137.948730,4135.384766,4108.205078,4146.666504,4134.871582,4159.487305,4122.563965,4147.179688,822.000000,4.000000,,,,0.000000,4.000000,4.000000,4.000000,4.000000,4.000000,4.000000,4.000000,4.000000,4.000000,4.000000,4.000000,4.000000,4.000000,4.000000,100.000000
1602006825.366080,65.000000,0.000000,4141.538574,4131.794922,4138.974121,4140.000000,4129.743652,4128.717773,4151.282227,4145.128418,4120.512695,4161.538574,4148.205078,4167.179688,4141.025879,4155.897461,790.000000,4.000000,,,,0.000000,4.000000,4.000000,4.000000,4.000000,4.000000,4.000000,4.000000,4.000000,4.000000,4.000000,4.000000,4.000000,4.000000,4.000000,100.000000
1602006825.373961,66.000000,0.000000,4153.846191,4138.974121,4144.615234,4140.000000,4132.307617,4152.307617,4157.436035,4151.282227,4127.179688,4156.922852,4155.384766,4168.205078,4145.128418,4154.871582,847.000000,4.000000,,,,0.000000,4.000000,4.000000,4.000000,4.000000,4.000000,4.000000,4.000000,4.000000,4.000000,4.000000,4.000000,4.000000,4.000000,4.000000,100.000000
1602006825.381842,67.000000,0.000000,4145.128418,4125.128418,4136.922852,4126.153809,4123.077148,4151.282227,4149.743652,4140.000000,4115.384766,4133.846191,4140.512695,4156.922852,4126.666504,4137.948730,872.000000,4.000000,,,,0.000000,4.000000,4.000000,4.000000,4.000000,4.000000,4.000000,4.000000,4.000000,4.000000,4.000000,4.000000,4.000000,4.000000,4.000000,100.000000
1602006825.389723,68.000000,0.000000,4135.897461,4119.487305,4133.846191,4124.615234,4125.128418,4142.563965,4140.512695,4132.307617,4101.538574,4116.922852,4130.769043,4151.794922,4125.128418,4136.922852,809.000000,4.000000,,,,0.000000,4.000000,4.000000,4.000000,4.000000,4.000000,4.000000,4.000000,4.000000,4.000000,4.000000,4.000000,4.000000,4.000000,4.000000,100.000000
1602006825.397605,69.000000,0.000000,4141.025879,4125.641113,4140.000000,4134.871582,4133.846191,4151.282227,4137.436035,4137.948730,4115.384766,4132.307617,4137.436035,4155.384766,4136.922852,4145.641113,822.000000,4.000000,,,,0.000000,4.000000,4.000000,4.000000,4.000000,4.000000,4.000000,4.000000,4.000000,4.000000,4.000000,4.000000,4.000000,4.000000,4.000000,100.000000
1602006825.405486,70.000000,0.000000,4137.436035,4124.102539,4132.820313,4127.179688,4125.641113,4147.692383,4134.358887,4136.922852,4125.641113,4146.666504,4137.436035,4150.769043,4127.179688,4134.358887,756.000000,4.000000,,,,0.000000,4.000000,4.000000,4.000000,4.000000,4.000000,4.000000,4.000000,4.000000,4.000000,4.000000,4.000000,4.000000,4.000000,4.000000,100.000000
1602006825.413467,71.000000,0.000000,4131.794922,4121.025879,4127.692383,4117.436035,4116.922852,4134.871582,4131.282227,4134.358887,4110.256348,4142.051270,4130.769043,4147.179688,4117.436035,4129.743652,651.000000,4.000000,,,,0.000000,4.000000,4.000000,4.000000,4.000000,4.000000,4.000000,4.000000,4.000000,4.000000,4.000000,4.000000,4.000000,4.000000,4.000000,100.000000
1602006825.421347,72.000000,0.000000,4140.000000,4127.179688,4138.974121,4133.333496,4125.128418,4139.487305,4136.410156,4136.410156,4102.563965,4138.461426,4128.717773,4153.333496,4127.692383,4149.743652,779.000000,4.000000,,,,0.000000,4.000000,4.000000,4.000000,4.000000,4.000000,4.000000,4.000000,4.000000,4.000000,4.000000,4.000000,4.000000,4.000000,4.000000,100.000000
1602006825.429228,73.000000,0.000000,4133.333496,4125.128418,4132.307617,4136.922852,4124.615234,4133.333496,4138.974121,4126.666504,4098.974121,4121.025879,4127.179688,4153.846191,4126.153809,4158.974121,835.000000,4.000000,,,,0.000000,4.000000,4.000000,4.000000,4.000000,4.000000,4.000000,4.000000,4.000000,4.000000,4.000000,4.000000,4.000000,4.000000,4.000000,100.000000
1602006825.437109,74.000000,0.000000,4114.871582,4117.948730,4116.410156,4120.512695,4116.922852,4118.461426,4135.897461,4120.512695,4089.230713,4105.641113,4129.230957,4148.205078,4121.025879,4150.256348,871.000000,4.000000,,,,0.000000,4.000000,4.000000,4.000000,4.000000,4.000000,4.000000,4.000000,4.000000,4.000000,4.000000,4.000000,4.000000,4.000000,4.000000,100.000000
1602006825.444990,75.000000,0.000000,4124.102539,4127.692383,4127.179688,4124.102539,4123.077148,4129.230957,4137.948730,4132.820313,4098.461426,4123.589844,4134.871582,4152.820313,4137.436035,4149.230957,841.000000,4.000000,,,,0.000000,4.000000,4.000000,4.000000,4.000000,4.000000,4.000000,4.000000,4.000000,4.000000,4.000000,4.000000,4.000000,4.000000,4.000000,100.000000
1602006825.452871,76.000000,0.000000,4148.717773,4141.025879,4144.102539,4138.974121,4126.153809,4140.512695,4142.563965,4143.589844,4111.794922,4142.563965,4143.589844,4164.102539,4145.128418,4156.922852,764.000000,4.000000,,,,0.000000,4.000000,4.000000,4.000000,4.000000,4.000000,4.000000,4.000000,4.000000,4.000000,4.000000,4.000000,4.000000,4.000000,4.000000,100.000000
1602006825.460752,77.000000,0.000000,4156.410156,4139.487305,4146.666504,4140.000000,4123.077148,4135.897461,4145.128418,4146.153809,4113.333496,4145.641113,4154.871582,4171.794922,4142.563965,4164.615234,726.000000,4.000000,,,,0.000000,4.000000,4.000000,4.000000,4.000000,4.000000,4.000000,4.000000,4.000000,4.000000,4.000000,4.000000,4.000000,4.000000,4.000000,100.000000
