Timestamp,EEG.Counter,EEG.Interpolated,EEG.AF3,EEG.F7,EEG.F3,EEG.FC5,EEG.T7,EEG.P7,EEG.O1,EEG.O2,EEG.P8,EEG.T8,EEG.FC6,EEG.F4,EEG.F8,EEG.AF4,EEG.RawCq,EEG.Battery,MarkerIndex,MarkerType,MarkerValueInt,EEG.MarkerHardware,CQ.AF3,CQ.F7,CQ.F3,CQ.FC5,CQ.T7,CQ.P7,CQ.O1,CQ.O2,CQ.P8,CQ.T8,CQ.FC6,CQ.F4,CQ.F8,CQ.AF4,CQ.Overall
1602005855.669298,83.000000,0.000000,4177.436035,4160.512695,4137.436035,4144.102539,4134.871582,4096.922852,4108.717773,4119.487305,4121.538574,4105.641113,4137.436035,4123.589844,4120.512695,4103.077148,895.000000,4.000000,,,,0.000000,4.000000,4.000000,4.000000,4.000000,4.000000,4.000000,4.000000,4.000000,4.000000,4.000000,4.000000,4.000000,4.000000,4.000000,100.000000
1602005855.677085,84.000000,0.000000,4187.179688,4166.666504,4147.692383,4150.256348,4137.436035,4096.410156,4105.128418,4108.205078,4117.948730,4103.589844,4125.128418,4136.410156,4124.615234,4108.205078,757.000000,4.000000,,,,0.000000,4.000000,4.000000,4.000000,4.000000,4.000000,4.000000,4.000000,4.000000,4.000000,4.000000,4.000000,4.000000,4.000000,4.000000,100.000000
1602005855.684971,85.000000,0.000000,4191.794922,4170.769043,4155.384766,4152.307617,4134.358887,4102.563965,4108.205078,4106.666504,4123.077148,4133.846191,4126.153809,4147.692383,4127.692383,4110.256348,754.000000,4.000000,,,,0.000000,4.000000,4.000000,4.000000,4.000000,4.000000,4.000000,4.000000,4.000000,4.000000,4.000000,4.000000,4.000000,4.000000,4.000000,100.000000
1602005855.692858,86.000000,0.000000,4172.820313,4159.487305,4143.589844,4140.000000,4128.205078,4102.051270,4115.384766,4110.769043,4122.563965,4136.922852,4128.717773,4140.512695,4120.512695,4097.948730,877.000000,4.000000,,,,0.000000,4.000000,4.000000,4.000000,4.000000,4.000000,4.000000,4.000000,4.000000,4.000000,4.000000,4.000000,4.000000,4.000000,4.000000,100.000000
1602005855.700744,87.000000,0.000000,4153.846191,4151.282227,4125.128418,4131.282227,4133.846191,4111.794922,4125.641113,4117.436035,4121.538574,4129.743652,4125.128418,4125.641113,4108.205078,4090.256348,895.000000,4.000000,,,,0.000000,4.000000,4.000000,4.000000,4.000000,4.000000,4.000000,4.000000,4.000000,4.000000,4.000000,4.000000,4.000000,4.000000,4.000000,100.000000
1602005855.708631,88.000000,0.000000,4144.615234,4146.666504,4120.000000,4124.615234,4138.461426,4130.256348,4136.410156,4124.102539,4124.102539,4134.358887,4120.512695,4119.487305,4105.128418,4084.615479,757.000000,4.000000,,,,0.000000,4.000000,4.000000,4.000000,4.000000,4.000000,4.000000,4.000000,4.000000,4.000000,4.000000,4.000000,4.000000,4.000000,4.000000,100.000000
1602005855.716517,89.000000,0.000000,4136.410156,4136.922852,4121.025879,4119.487305,4134.871582,4138.461426,4141.025879,4126.153809,4123.077148,4110.769043,4120.512695,4120.512695,4110.769043,4068.718018,754.000000,4.000000,,,,0.000000,4.000000,4.000000,4.000000,4.000000,4.000000,4.000000,4.000000,4.000000,4.000000,4.000000,4.000000,4.000000,4.000000,4.000000,100.000000
1602005855.724403,90.000000,0.000000,4141.538574,4145.641113,4121.538574,4129.743652,4141.538574,4138.974121,4137.948730,4130.769043,4115.384766,4082.051270,4130.256348,4116.922852,4112.307617,4070.256348,877.000000,4.000000,,,,0.000000,4.000000,4.000000,4.000000,4.000000,4.000000,4.000000,4.000000,4.000000,4.000000,4.000000,4.000000,4.000000,4.000000,4.000000,100.000000
1602005855.732290,91.000000,0.000000,4156.410156,4170.769043,4128.205078,4142.563965,4153.846191,4142.563965,4135.897461,4134.358887,4109.743652,4108.205078,4131.794922,4114.358887,4109.743652,4090.256348,895.000000,4.000000,,,,0.000000,4.000000,4.000000,4.000000,4.000000,4.000000,4.000000,4.000000,4.000000,4.000000,4.000000,4.000000,4.000000,4.000000,4.000000,100.000000
1602005855.740074,92.000000,0.000000,4157.948730,4175.897461,4135.897461,4143.077148,4156.410156,4143.589844,4138.461426,4129.743652,4112.820313,4143.589844,4123.077148,4120.000000,4114.358887,4092.820557,757.000000,4.000000,,,,0.000000,4.000000,4.000000,4.000000,4.000000,4.000000,4.000000,4.000000,4.000000,4.000000,4.000000,4.000000,4.000000,4.000000,4.000000,100.000000
1602005855.747958,93.000000,0.000000,4156.410156,4169.230957,4137.948730,4142.051270,4156.410156,4137.948730,4134.871582,4124.102539,4114.871582,4132.820313,4130.769043,4124.615234,4124.102539,4078.461426,754.000000,4.000000,,,,0.000000,4.000000,4.000000,4.000000,4.000000,4.000000,4.000000,4.000000,4.000000,4.000000,4.000000,4.000000,4.000000,4.000000,4.000000,100.000000
1602005855.755843,94.000000,0.000000,4156.410156,4171.794922,4131.794922,4143.589844,4153.333496,4125.128418,4123.589844,4121.538574,4109.743652,4116.410156,4143.589844,4120.000000,4127.179688,4077.948730,877.000000,4.000000,,,,0.000000,4.000000,4.000000,4.000000,4.000000,4.000000,4.000000,4.000000,4.000000,4.000000,4.000000,4.000000,4.000000,4.000000,4.000000,100.000000
1602005855.763727,95.000000,0.000000,4144.615234,4172.307617,4123.589844,4143.077148,4142.563965,4109.743652,4118.974121,4114.871582,4104.615234,4124.102539,4141.025879,4109.743652,4122.563965,4084.615479,895.000000,4.000000,,,,0.000000,4.000000,4.000000,4.000000,4.000000,4.000000,4.000000,4.000000,4.000000,4.000000,4.000000,4.000000,4.000000,4.000000,4.000000,100.000000
1602005855.771611,96.000000,0.000000,4138.461426,4166.153809,4120.000000,4140.000000,4136.922852,4103.589844,4118.974121,4109.230957,4103.077148,4128.205078,4134.871582,4109.230957,4126.153809,4076.923096,757.000000,4.000000,,,,0.000000,4.000000,4.000000,4.000000,4.000000,4.000000,4.000000,4.000000,4.000000,4.000000,4.000000,4.000000,4.000000,4.000000,4.000000,100.000000
1602005855.779598,97.000000,0.000000,4149.743652,4164.615234,4127.692383,4138.974121,4139.487305,4110.256348,4117.436035,4108.717773,4103.589844,4114.358887,4140.000000,4122.563965,4136.922852,4075.897461,754.000000,4.000000,,,,0.000000,4.000000,4.000000,4.000000,4.000000,4.000000,4.000000,4.000000,4.000000,4.000000,4.000000,4.000000,4.000000,4.000000,4.000000,100.000000
1602005855.787485,98.000000,0.000000,4157.436035,4166.666504,4138.974121,4140.512695,4136.922852,4121.025879,4119.487305,4114.358887,4105.641113,4116.410156,4150.256348,4133.846191,4140.512695,4092.820557,877.000000,4.000000,,,,0.000000,4.000000,4.000000,4.000000,4.000000,4.000000,4.000000,4.000000,4.000000,4.000000,4.000000,4.000000,4.000000,4.000000,4.000000,100.000000
1602005855.795373,99.000000,0.000000,4155.384766,4169.230957,4142.051270,4142.563965,4135.384766,4122.051270,4123.589844,4120.512695,4107.179688,4141.025879,4150.769043,4138.974121,4141.025879,4097.948730,895.000000,4.000000,,,,0.000000,4.000000,4.000000,4.000000,4.000000,4.000000,4.000000,4.000000,4.000000,4.000000,4.000000,4.000000,4.000000,4.000000,4.000000,100.000000
1602005855.803260,100.000000,0.000000,4149.743652,4166.666504,4136.410156,4142.051270,4137.948730,4119.487305,4128.717773,4126.666504,4112.820313,4148.205078,4147.692383,4140.512695,4141.538574,4089.230713,757.000000,4.000000,,,,0.000000,4.000000,4.000000,4.000000,4.000000,4.000000,4.000000,4.000000,4.000000,4.000000,4.000000,4.000000,4.000000,4.000000,4.000000,100.000000
1602005855.811147,101.000000,0.000000,4140.000000,4156.922852,4124.615234,4138.461426,4138.974121,4125.641113,4134.871582,4134.871582,4120.512695,4139.487305,4149.743652,4129.743652,4137.436035,4090.256348,754.000000,4.000000,,,,0.000000,4.000000,4.000000,4.000000,4.000000,4.000000,4.000000,4.000000,4.000000,4.000000,4.000000,4.000000,4.000000,4.000000,4.000000,100.000000
1602005855.819034,102.000000,0.000000,4135.384766,4151.794922,4121.025879,4136.410156,4138.974121,4132.820313,4136.922852,4139.487305,4125.128418,4132.307617,4141.538574,4119.487305,4134.871582,4087.179443,877.000000,4.000000,,,,0.000000,4.000000,4.000000,4.000000,4.000000,4.000000,4.000000,4.000000,4.000000,4.000000,4.000000,4.000000,4.000000,4.000000,4.000000,100.000000
1602005855.826921,103.000000,0.000000,4136.410156,4154.358887,4124.102539,4136.410156,4140.512695,4129.230957,4136.922852,4139.487305,4126.153809,4118.461426,4121.025879,4120.000000,4135.897461,4076.923096,895.000000,4.000000,,,,0.000000,4.000000,4.000000,4.000000,4.000000,4.000000,4.000000,4.000000,4.000000,4.000000,4.000000,4.000000,4.000000,4.000000,4.000000,100.000000
1602005855.834808,104.000000,0.000000,4134.358887,4153.846191,4122.563965,4135.384766,4142.563965,4123.077148,4134.358887,4135.897461,4122.051270,4101.025879,4117.948730,4121.538574,4126.153809,4075.897461,757.000000,4.000000,,,,0.000000,4.000000,4.000000,4.000000,4.000000,4.000000,4.000000,4.000000,4.000000,4.000000,4.000000,4.000000,4.000000,4.000000,4.000000,100.000000
1602005855.842695,105.000000,0.000000,4132.307617,4152.820313,4118.461426,4134.871582,4141.025879,4118.974121,4125.641113,4126.153809,4114.871582,4096.922852,4132.820313,4124.102539,4117.436035,4067.179443,754.000000,4.000000,,,,0.000000,4.000000,4.000000,4.000000,4.000000,4.000000,4.000000,4.000000,4.000000,4.000000,4.000000,4.000000,4.000000,4.000000,4.000000,100.000000
1602005855.850582,106.000000,0.000000,4137.436035,4156.410156,4123.077148,4136.922852,4136.410156,4120.000000,4120.512695,4118.461426,4114.358887,4110.256348,4137.436035,4132.820313,4128.205078,4060.512939,877.000000,4.000000,,,,0.000000,4.000000,4.000000,4.000000,4.000000,4.000000,4.000000,4.000000,4.000000,4.000000,4.000000,4.000000,4.000000,4.000000,4.000000,100.000000
1602005855.858365,107.000000,0.000000,4141.538574,4159.487305,4133.333496,4139.487305,4134.871582,4131.794922,4127.179688,4124.615234,4126.153809,4135.897461,4134.358887,4140.000000,4140.512695,4081.538574,895.000000,4.000000,,,,0.000000,4.000000,4.000000,4.000000,4.000000,4.000000,4.000000,4.000000,4.000000,4.000000,4.000000,4.000000,4.000000,4.000000,4.000000,100.000000
1602005855.866248,108.000000,0.000000,4138.974121,4157.948730,4136.922852,4144.615234,4137.436035,4140.000000,4127.692383,4130.256348,4135.384766,4151.282227,4135.897461,4141.025879,4143.589844,4094.358887,757.000000,4.000000,,,,0.000000,4.000000,4.000000,4.000000,4.000000,4.000000,4.000000,4.000000,4.000000,4.000000,4.000000,4.000000,4.000000,4.000000,4.000000,100.000000
1602005855.874131,109.000000,0.000000,4143.077148,4161.538574,4143.589844,4149.743652,4143.589844,4135.897461,4125.128418,4125.641113,4136.922852,4143.077148,4145.128418,4142.563965,4150.256348,4093.846191,754.000000,4.000000,,,,0.000000,4.000000,4.000000,4.000000,4.000000,4.000000,4.000000,4.000000,4.000000,4.000000,4.000000,4.000000,4.000000,4.000000,4.000000,100.000000
1602005855.881913,110.000000,0.000000,4154.871582,4169.743652,4155.384766,4153.333496,4152.820313,4136.922852,4132.307617,4126.153809,4138.461426,4135.384766,4152.820313,4154.358887,4159.487305,4103.589844,877.000000,4.000000,,,,0.000000,4.000000,4.000000,4.000000,4.000000,4.000000,4.000000,4.000000,4.000000,4.000000,4.000000,4.000000,4.000000,4.000000,4.000000,100.000000
1602005855.889795,111.000000,0.000000,4157.436035,4173.846191,4160.512695,4154.358887,4154.871582,4140.512695,4132.820313,4126.666504,4135.897461,4142.563965,4155.384766,4165.641113,4156.410156,4101.025879,895.000000,4.000000,,,,0.000000,4.000000,4.000000,4.000000,4.000000,4.000000,4.000000,4.000000,4.000000,4.000000,4.000000,4.000000,4.000000,4.000000,4.000000,100.000000
1602005855.897576,112.000000,0.000000,4151.282227,4168.717773,4156.410156,4149.743652,4145.128418,4131.282227,4120.512695,4120.000000,4122.051270,4139.487305,4153.846191,4160.512695,4146.153809,4086.666748,757.000000,4.000000,,,,0.000000,4.000000,4.000000,4.000000,4.000000,4.000000,4.000000,4.000000,4.000000,4.000000,4.000000,4.000000,4.000000,4.000000,4.000000,100.000000
1602005855.905359,113.000000,0.000000,4144.615234,4162.051270,4149.230957,4140.000000,4143.589844,4127.692383,4118.461426,4117.948730,4111.794922,4112.307617,4142.563965,4150.256348,4141.025879,4088.205078,754.000000,4.000000,,,,0.000000,4.000000,4.000000,4.000000,4.000000,4.000000,4.000000,4.000000,4.000000,4.000000,4.000000,4.000000,4.000000,4.000000,4.000000,100.000000
1602005855.913242,114.000000,0.000000,4140.512695,4158.974121,4141.538574,4137.948730,4154.871582,4136.922852,4125.128418,4123.589844,4117.436035,4094.871826,4135.384766,4154.871582,4142.051270,4094.358887,877.000000,4.000000,,,,0.000000,4.000000,4.000000,4.000000,4.000000,4.000000,4.000000,4.000000,4.000000,4.000000,4.000000,4.000000,4.000000,4.000000,4.000000,100.000000
1602005855.921125,115.000000,0.000000,4136.922852,4155.384766,4133.846191,4138.461426,4152.820313,4137.436035,4123.077148,4125.641113,4123.589844,4114.358887,4136.410156,4156.410156,4140.512695,4087.692383,895.000000,4.000000,,,,0.000000,4.000000,4.000000,4.000000,4.000000,4.000000,4.000000,4.000000,4.000000,4.000000,4.000000,4.000000,4.000000,4.000000,4.000000,100.000000
1602005855.929009,116.000000,0.000000,4137.948730,4158.461426,4134.358887,4137.436035,4141.538574,4132.820313,4121.025879,4126.153809,4122.051270,4135.897461,4126.666504,4149.743652,4134.358887,4085.641113,757.000000,4.000000,,,,0.000000,4.000000,4.000000,4.000000,4.000000,4.000000,4.000000,4.000000,4.000000,4.000000,4.000000,4.000000,4.000000,4.000000,4.000000,100.000000
1602005855.936795,117.000000,0.000000,4142.051270,4165.128418,4142.563965,4141.025879,4139.487305,4136.410156,4123.589844,4129.743652,4125.128418,4140.512695,4121.538574,4155.897461,4134.358887,4093.333252,754.000000,4.000000,,,,0.000000,4.000000,4.000000,4.000000,4.000000,4.000000,4.000000,4.000000,4.000000,4.000000,4.000000,4.000000,4.000000,4.000000,4.000000,100.000000
1602005855.944681,118.000000,0.000000,4139.487305,4162.051270,4142.051270,4142.051270,4141.025879,4132.820313,4121.025879,4126.153809,4130.769043,4138.974121,4133.846191,4158.974121,4139.487305,4090.769287,877.000000,4.000000,,,,0.000000,4.000000,4.000000,4.000000,4.000000,4.000000,4.000000,4.000000,4.000000,4.000000,4.000000,4.000000,4.000000,4.000000,4.000000,100.000000
1602005855.952567,119.000000,0.000000,4126.666504,4151.282227,4128.205078,4135.897461,4139.487305,4123.077148,4117.948730,4121.025879,4127.692383,4128.205078,4136.410156,4142.051270,4134.871582,4072.820557,895.000000,4.000000,,,,0.000000,4.000000,4.000000,4.000000,4.000000,4.000000,4.000000,4.000000,4.000000,4.000000,4.000000,4.000000,4.000000,4.000000,4.000000,100.000000
1602005855.960453,120.000000,0.000000,4116.410156,4149.743652,4118.461426,4134.358887,4140.000000,4118.974121,4120.000000,4121.025879,4120.512695,4120.512695,4124.102539,4129.743652,4125.128418,4064.615479,757.000000,4.000000,,,,0.000000,4.000000,4.000000,4.000000,4.000000,4.000000,4.000000,4.000000,4.000000,4.000000,4.000000,4.000000,4.000000,4.000000,4.000000,100.000000
1602005855.968339,121.000000,0.000000,4122.563965,4151.794922,4126.666504,4136.410156,4143.589844,4119.487305,4124.102539,4122.051270,4120.512695,4126.666504,4119.487305,4136.922852,4131.282227,4080.512939,754.000000,4.000000,,,,0.000000,4.000000,4.000000,4.000000,4.000000,4.000000,4.000000,4.000000,4.000000,4.000000,4.000000,4.000000,4.000000,4.000000,4.000000,100.000000
1602005855.976226,122.000000,0.000000,4135.384766,4154.871582,4136.410156,4138.974121,4150.256348,4127.179688,4128.717773,4122.563965,4127.179688,4121.538574,4130.769043,4143.589844,4148.717773,4098.461426,877.000000,4.000000,,,,0.000000,4.000000,4.000000,4.000000,4.000000,4.000000,4.000000,4.000000,4.000000,4.000000,4.000000,4.000000,4.000000,4.000000,4.000000,100.000000
1602005855.984112,123.000000,0.000000,4141.538574,4160.000000,4139.487305,4143.589844,4154.358887,4136.410156,4128.717773,4124.615234,4125.641113,4110.256348,4146.666504,4140.512695,4152.820313,4107.179688,895.000000,4.000000,,,,0.000000,4.000000,4.000000,4.000000,4.000000,4.000000,4.000000,4.000000,4.000000,4.000000,4.000000,4.000000,4.000000,4.000000,4.000000,100.000000
1602005855.991998,124.000000,0.000000,4141.025879,4158.461426,4142.051270,4145.641113,4147.179688,4131.794922,4125.128418,4125.128418,4114.358887,4118.974121,4145.128418,4148.717773,4150.256348,4108.205078,757.000000,4.000000,,,,0.000000,4.000000,4.000000,4.000000,4.000000,4.000000,4.000000,4.000000,4.000000,4.000000,4.000000,4.000000,4.000000,4.000000,4.000000,100.000000
1602005855.999782,125.000000,0.000000,4137.948730,4154.358887,4141.538574,4140.000000,4139.487305,4123.077148,4122.051270,4122.563965,4106.666504,4137.436035,4135.384766,4154.358887,4153.333496,4101.025879,754.000000,4.000000,,,,0.000000,4.000000,4.000000,4.000000,4.000000,4.000000,4.000000,4.000000,4.000000,4.000000,4.000000,4.000000,4.000000,4.000000,4.000000,100.000000
1602005856.007666,126.000000,0.000000,4136.922852,4154.358887,4139.487305,4138.461426,4144.615234,4122.051270,4113.846191,4122.563965,4111.282227,4151.794922,4146.153809,4142.563965,4157.436035,4102.563965,877.000000,4.000000,,,,0.000000,4.000000,4.000000,4.000000,4.000000,4.000000,4.000000,4.000000,4.000000,4.000000,4.000000,4.000000,4.000000,4.000000,4.000000,100.000000
1602005856.015550,127.000000,0.000000,4139.487305,4156.410156,4136.410156,4145.641113,4153.846191,4121.538574,4108.205078,4124.102539,4121.025879,4148.205078,4155.384766,4140.512695,4156.410156,4111.794922,895.000000,4.000000,,,,0.000000,4.000000,4.000000,4.000000,4.000000,4.000000,4.000000,4.000000,4.000000,4.000000,4.000000,4.000000,4.000000,4.000000,4.000000,100.000000
1602005856.023434,128.000000,0.000000,4143.077148,4162.563965,4140.000000,4150.256348,4151.794922,4128.205078,4115.897461,4126.666504,4131.794922,4125.128418,4141.025879,4154.871582,4153.846191,4111.282227,757.000000,4.000000,,,,0.000000,4.000000,4.000000,4.000000,4.000000,4.000000,4.000000,4.000000,4.000000,4.000000,4.000000,4.000000,4.000000,4.000000,4.000000,100.000000
1602005856.031318,0.000000,0.000000,4141.538574,4163.077148,4146.153809,4150.769043,4141.025879,4135.897461,4122.051270,4126.666504,4140.512695,4126.153809,4136.410156,4159.487305,4153.333496,4107.179688,800.000000,4.000000,,,,0.000000,4.000000,4.000000,4.000000,4.000000,4.000000,4.000000,4.000000,4.000000,4.000000,4.000000,4.000000,4.000000,4.000000,4.000000,100.000000
1602005856.039104,1.000000,0.000000,4138.974121,4157.436035,4145.128418,4149.743652,4137.436035,4128.205078,4119.487305,4123.589844,4140.512695,4141.538574,4143.589844,4152.307617,4152.820313,4108.205078,795.000000,4.000000,,,,0.000000,4.000000,4.000000,4.000000,4.000000,4.000000,4.000000,4.000000,4.000000,4.000000,4.000000,4.000000,4.000000,4.000000,4.000000,100.000000
1602005856.046990,2.000000,0.000000,4138.461426,4156.410156,4137.948730,4145.641113,4141.025879,4119.487305,4120.000000,4128.717773,4140.512695,4134.871582,4143.589844,4149.743652,4152.307617,4111.794922,851.000000,4.000000,,,,0.000000,4.000000,4.000000,4.000000,4.000000,4.000000,4.000000,4.000000,4.000000,4.000000,4.000000,4.000000,4.000000,4.000000,4.000000,100.000000
1602005856.054876,3.000000,0.000000,4127.692383,4151.794922,4127.692383,4138.974121,4137.948730,4121.025879,4122.563965,4132.820313,4137.948730,4127.692383,4132.307617,4140.000000,4148.205078,4102.051270,864.000000,4.000000,,,,0.000000,4.000000,4.000000,4.000000,4.000000,4.000000,4.000000,4.000000,4.000000,4.000000,4.000000,4.000000,4.000000,4.000000,4.000000,100.000000
1602005856.062762,4.000000,0.000000,4109.743652,4137.948730,4115.897461,4130.769043,4133.846191,4129.743652,4122.563965,4124.615234,4129.743652,4122.563965,4121.025879,4125.128418,4135.897461,4080.000000,813.000000,4.000000,,,,0.000000,4.000000,4.000000,4.000000,4.000000,4.000000,4.000000,4.000000,4.000000,4.000000,4.000000,4.000000,4.000000,4.000000,4.000000,100.000000
1602005856.070648,5.000000,0.000000,4103.077148,4132.820313,4108.205078,4125.128418,4137.436035,4140.000000,4124.102539,4119.487305,4123.589844,4110.769043,4124.615234,4119.487305,4127.692383,4074.358887,824.000000,4.000000,,,,0.000000,4.000000,4.000000,4.000000,4.000000,4.000000,4.000000,4.000000,4.000000,4.000000,4.000000,4.000000,4.000000,4.000000,4.000000,100.000000
1602005856.078534,6.000000,0.000000,4106.153809,4136.410156,4107.179688,4124.615234,4134.871582,4133.846191,4123.077148,4122.563965,4125.641113,4112.820313,4135.384766,4123.589844,4132.820313,4091.281982,778.000000,4.000000,,,,0.000000,4.000000,4.000000,4.000000,4.000000,4.000000,4.000000,4.000000,4.000000,4.000000,4.000000,4.000000,4.000000,4.000000,4.000000,100.000000
1602005856.086420,7.000000,0.000000,4106.153809,4128.205078,4106.153809,4121.025879,4122.563965,4110.769043,4117.948730,4121.538574,4126.153809,4122.051270,4137.436035,4131.794922,4139.487305,4094.358887,688.000000,4.000000,,,,0.000000,4.000000,4.000000,4.000000,4.000000,4.000000,4.000000,4.000000,4.000000,4.000000,4.000000,4.000000,4.000000,4.000000,4.000000,100.000000
1602005856.094306,8.000000,0.000000,4105.128418,4121.025879,4106.666504,4117.436035,4120.000000,4109.230957,4118.461426,4122.051270,4127.179688,4128.205078,4137.948730,4136.410156,4136.922852,4085.641113,787.000000,4.000000,,,,0.000000,4.000000,4.000000,4.000000,4.000000,4.000000,4.000000,4.000000,4.000000,4.000000,4.000000,4.000000,4.000000,4.000000,4.000000,100.000000
1602005856.102089,9.000000,0.000000,4107.179688,4129.230957,4108.717773,4119.487305,4123.589844,4125.641113,4126.666504,4132.307617,4131.794922,4149.230957,4139.487305,4136.410156,4135.384766,4100.000000,839.000000,4.000000,,,,0.000000,4.000000,4.000000,4.000000,4.000000,4.000000,4.000000,4.000000,4.000000,4.000000,4.000000,4.000000,4.000000,4.000000,4.000000,100.000000
1602005856.109973,10.000000,0.000000,4113.846191,4137.436035,4108.205078,4121.538574,4126.153809,4124.615234,4130.256348,4136.922852,4137.436035,4160.000000,4135.897461,4133.846191,4145.128418,4113.846191,877.000000,4.000000,,,,0.000000,4.000000,4.000000,4.000000,4.000000,4.000000,4.000000,4.000000,4.000000,4.000000,4.000000,4.000000,4.000000,4.000000,4.000000,100.000000
1602005856.117857,11.000000,0.000000,4124.102539,4140.512695,4114.871582,4127.179688,4134.358887,4127.179688,4127.692383,4141.025879,4153.333496,4145.128418,4137.948730,4142.051270,4155.897461,4112.820313,848.000000,4.000000,,,,0.000000,4.000000,4.000000,4.000000,4.000000,4.000000,4.000000,4.000000,4.000000,4.000000,4.000000,4.000000,4.000000,4.000000,4.000000,100.000000
1602005856.125740,12.000000,0.000000,4126.666504,4140.000000,4119.487305,4134.871582,4142.563965,4143.077148,4126.666504,4140.512695,4155.897461,4136.922852,4143.077148,4152.820313,4152.820313,4117.436035,764.000000,4.000000,,,,0.000000,4.000000,4.000000,4.000000,4.000000,4.000000,4.000000,4.000000,4.000000,4.000000,4.000000,4.000000,4.000000,4.000000,4.000000,100.000000
1602005856.133527,13.000000,0.000000,4117.436035,4138.461426,4111.794922,4130.769043,4141.538574,4138.461426,4118.461426,4127.692383,4133.846191,4128.205078,4134.358887,4146.666504,4140.000000,4118.974121,754.000000,4.000000,,,,0.000000,4.000000,4.000000,4.000000,4.000000,4.000000,4.000000,4.000000,4.000000,4.000000,4.000000,4.000000,4.000000,4.000000,4.000000,100.000000
1602005856.141413,14.000000,0.000000,4108.717773,4136.410156,4108.717773,4127.179688,4137.436035,4122.051270,4109.230957,4120.512695,4128.205078,4116.922852,4132.307617,4136.410156,4133.846191,4108.205078,877.000000,4.000000,,,,0.000000,4.000000,4.000000,4.000000,4.000000,4.000000,4.000000,4.000000,4.000000,4.000000,4.000000,4.000000,4.000000,4.000000,4.000000,100.000000
1602005856.149300,15.000000,0.000000,4105.641113,4132.307617,4111.794922,4129.743652,4131.794922,4121.538574,4115.384766,4123.589844,4142.563965,4128.717773,4142.563965,4136.410156,4138.974121,4103.589844,848.000000,4.000000,,,,0.000000,4.000000,4.000000,4.000000,4.000000,4.000000,4.000000,4.000000,4.000000,4.000000,4.000000,4.000000,4.000000,4.000000,4.000000,100.000000
1602005856.157187,16.000000,0.000000,4103.077148,4125.128418,4108.205078,4127.179688,4123.077148,4124.102539,4122.051270,4123.589844,4135.897461,4136.922852,4137.948730,4137.948730,4136.410156,4103.589844,0.000000,4.000000,,,,0.000000,4.000000,4.000000,4.000000,4.000000,4.000000,4.000000,4.000000,4.000000,4.000000,4.000000,4.000000,4.000000,4.000000,4.000000,100.000000
1602005856.165073,17.000000,0.000000,4101.538574,4121.025879,4106.666504,4122.051270,4118.461426,4121.538574,4116.922852,4118.974121,4116.410156,4120.512695,4121.538574,4132.307617,4122.051270,4102.051270,0.000000,4.000000,,,,0.000000,4.000000,4.000000,4.000000,4.000000,4.000000,4.000000,4.000000,4.000000,4.000000,4.000000,4.000000,4.000000,4.000000,4.000000,100.000000
1602005856.172960,18.000000,0.000000,4105.128418,4123.077148,4113.333496,4123.589844,4123.589844,4125.641113,4124.102539,4121.025879,4116.922852,4117.436035,4118.974121,4129.743652,4119.487305,4112.307617,0.000000,4.000000,,,,0.000000,4.000000,4.000000,4.000000,4.000000,4.000000,4.000000,4.000000,4.000000,4.000000,4.000000,4.000000,4.000000,4.000000,4.000000,100.000000
1602005856.180847,19.000000,0.000000,4108.717773,4124.102539,4110.769043,4123.589844,4123.589844,4130.256348,4136.410156,4123.589844,4122.563965,4125.641113,4127.179688,4127.692383,4126.666504,4121.538574,0.000000,4.000000,,,,0.000000,4.000000,4.000000,4.000000,4.000000,4.000000,4.000000,4.000000,4.000000,4.000000,4.000000,4.000000,4.000000,4.000000,4.000000,100.000000
1602005856.188733,20.000000,0.000000,4107.692383,4121.025879,4104.102539,4120.000000,4114.871582,4123.077148,4126.666504,4120.000000,4120.000000,4108.717773,4126.666504,4122.051270,4126.666504,4118.461426,0.000000,4.000000,,,,0.000000,4.000000,4.000000,4.000000,4.000000,4.000000,4.000000,4.000000,4.000000,4.000000,4.000000,4.000000,4.000000,4.000000,4.000000,100.000000
1602005856.196620,21.000000,0.000000,4112.820313,4121.025879,4110.256348,4121.025879,4114.871582,4120.000000,4120.000000,4125.641113,4127.179688,4103.589844,4124.615234,4127.692383,4129.230957,4120.512695,0.000000,4.000000,,,,0.000000,4.000000,4.000000,4.000000,4.000000,4.000000,4.000000,4.000000,4.000000,4.000000,4.000000,4.000000,4.000000,4.000000,4.000000,100.000000
1602005856.204404,22.000000,0.000000,4115.384766,4123.077148,4114.358887,4123.077148,4124.102539,4125.641113,4129.230957,4133.846191,4137.948730,4134.871582,4126.666504,4136.410156,4132.820313,4126.153809,0.000000,4.000000,,,,0.000000,4.000000,4.000000,4.000000,4.000000,4.000000,4.000000,4.000000,4.000000,4.000000,4.000000,4.000000,4.000000,4.000000,4.000000,100.000000
1602005856.212288,23.000000,0.000000,4105.641113,4118.974121,4106.666504,4119.487305,4121.025879,4120.512695,4128.717773,4131.282227,4135.384766,4151.794922,4123.077148,4133.333496,4122.563965,4117.436035,0.000000,4.000000,,,,0.000000,4.000000,4.000000,4.000000,4.000000,4.000000,4.000000,4.000000,4.000000,4.000000,4.000000,4.000000,4.000000,4.000000,4.000000,100.000000
1602005856.220172,24.000000,0.000000,4108.205078,4119.487305,4113.333496,4122.563965,4117.948730,4115.384766,4122.051270,4130.769043,4133.333496,4129.230957,4121.025879,4132.307617,4120.000000,4112.307617,0.000000,4.000000,,,,0.000000,4.000000,4.000000,4.000000,4.000000,4.000000,4.000000,4.000000,4.000000,4.000000,4.000000,4.000000,4.000000,4.000000,4.000000,100.000000
1602005856.228056,25.000000,0.000000,4125.128418,4132.820313,4136.922852,4136.922852,4131.794922,4130.256348,4126.666504,4136.410156,4137.948730,4114.871582,4127.692383,4142.563965,4131.794922,4133.333496,0.000000,4.000000,,,,0.000000,4.000000,4.000000,4.000000,4.000000,4.000000,4.000000,4.000000,4.000000,4.000000,4.000000,4.000000,4.000000,4.000000,4.000000,100.000000
1602005856.235940,26.000000,0.000000,4124.615234,4137.948730,4139.487305,4140.000000,4139.487305,4143.589844,4129.230957,4131.282227,4133.846191,4129.743652,4132.307617,4145.641113,4131.282227,4146.153809,0.000000,4.000000,,,,0.000000,4.000000,4.000000,4.000000,4.000000,4.000000,4.000000,4.000000,4.000000,4.000000,4.000000,4.000000,4.000000,4.000000,4.000000,100.000000
1602005856.243723,27.000000,0.000000,4109.230957,4127.179688,4121.025879,4128.717773,4129.743652,4136.922852,4124.102539,4122.051270,4124.615234,4133.333496,4125.128418,4136.922852,4120.512695,4129.743652,0.000000,4.000000,,,,0.000000,4.000000,4.000000,4.000000,4.000000,4.000000,4.000000,4.000000,4.000000,4.000000,4.000000,4.000000,4.000000,4.000000,4.000000,100.000000
1602005856.251606,28.000000,0.000000,4112.307617,4122.051270,4118.461426,4123.589844,4123.077148,4128.205078,4121.538574,4123.589844,4122.563965,4117.948730,4118.461426,4134.358887,4120.512695,4121.538574,0.000000,4.000000,,,,0.000000,4.000000,4.000000,4.000000,4.000000,4.000000,4.000000,4.000000,4.000000,4.000000,4.000000,4.000000,4.000000,4.000000,4.000000,100.000000
1602005856.259489,29.000000,0.000000,4125.641113,4127.179688,4126.153809,4128.717773,4126.666504,4122.563965,4120.512695,4124.102539,4128.205078,4123.589844,4121.025879,4144.102539,4127.179688,4136.410156,0.000000,4.000000,,,,0.000000,4.000000,4.000000,4.000000,4.000000,4.000000,4.000000,4.000000,4.000000,4.000000,4.000000,4.000000,4.000000,4.000000,4.000000,100.000000
1602005856.267274,30.000000,0.000000,4125.641113,4128.717773,4123.077148,4129.743652,4124.102539,4114.871582,4118.461426,4122.563965,4132.820313,4153.333496,4126.153809,4152.820313,4128.717773,4145.128418,0.000000,4.000000,,,,0.000000,4.000000,4.000000,4.000000,4.000000,4.000000,4.000000,4.000000,4.000000,4.000000,4.000000,4.000000,4.000000,4.000000,4.000000,100.000000
1602005856.275159,31.000000,0.000000,4120.512695,4124.615234,4120.512695,4128.205078,4121.025879,4114.358887,4118.974121,4126.666504,4131.794922,4159.487305,4129.230957,4147.692383,4129.230957,4147.692383,0.000000,4.000000,,,,0.000000,4.000000,4.000000,4.000000,4.000000,4.000000,4.000000,4.000000,4.000000,4.000000,4.000000,4.000000,4.000000,4.000000,4.000000,100.000000
1602005856.283044,32.000000,0.000000,4122.051270,4125.128418,4124.615234,4130.769043,4131.794922,4122.563965,4126.153809,4125.128418,4130.769043,4131.282227,4133.333496,4145.128418,4135.897461,4155.897461,0.000000,4.000000,,,,0.000000,4.000000,4.000000,4.000000,4.000000,4.000000,4.000000,4.000000,4.000000,4.000000,4.000000,4.000000,4.000000,4.000000,4.000000,100.000000
1602005856.290929,33.000000,0.000000,4125.641113,4131.282227,4127.692383,4134.871582,4136.410156,4131.794922,4137.436035,4125.128418,4136.922852,4117.436035,4135.384766,4151.794922,4140.512695,4150.769043,0.000000,4.000000,,,,0.000000,4.000000,4.000000,4.000000,4.000000,4.000000,4.000000,4.000000,4.000000,4.000000,4.000000,4.000000,4.000000,4.000000,4.000000,100.000000
1602005856.298814,34.000000,0.000000,4126.666504,4135.897461,4134.358887,4138.461426,4130.769043,4135.897461,4140.000000,4134.358887,4140.000000,4129.230957,4132.820313,4154.358887,4138.974121,4142.051270,0.000000,4.000000,,,,0.000000,4.000000,4.000000,4.000000,4.000000,4.000000,4.000000,4.000000,4.000000,4.000000,4.000000,4.000000,4.000000,4.000000,4.000000,100.000000
1602005856.306699,35.000000,0.000000,4128.717773,4138.974121,4139.487305,4140.000000,4133.846191,4137.436035,4136.410156,4135.384766,4127.692383,4131.794922,4122.051270,4152.307617,4138.974121,4153.333496,0.000000,4.000000,,,,0.000000,4.000000,4.000000,4.000000,4.000000,4.000000,4.000000,4.000000,4.000000,4.000000,4.000000,4.000000,4.000000,4.000000,4.000000,100.000000
1602005856.314685,36.000000,0.000000,4125.641113,4135.897461,4129.743652,4132.307617,4135.897461,4139.487305,4136.410156,4124.102539,4114.871582,4126.666504,4111.794922,4147.692383,4137.948730,4157.948730,0.000000,4.000000,,,,0.000000,4.000000,4.000000,4.000000,4.000000,4.000000,4.000000,4.000000,4.000000,4.000000,4.000000,4.000000,4.000000,4.000000,4.000000,100.000000
1602005856.322571,37.000000,0.000000,4116.410156,4127.692383,4118.461426,4124.615234,4129.743652,4136.410156,4132.820313,4121.538574,4114.871582,4136.922852,4121.025879,4137.436035,4135.384766,4149.743652,0.000000,4.000000,,,,0.000000,4.000000,4.000000,4.000000,4.000000,4.000000,4.000000,4.000000,4.000000,4.000000,4.000000,4.000000,4.000000,4.000000,4.000000,100.000000
1602005856.330457,38.000000,0.000000,4117.948730,4129.230957,4121.538574,4131.794922,4129.743652,4134.871582,4130.769043,4126.666504,4124.615234,4149.230957,4139.487305,4132.820313,4141.025879,4160.000000,0.000000,4.000000,,,,0.000000,4.000000,4.000000,4.000000,4.000000,4.000000,4.000000,4.000000,4.000000,4.000000,4.000000,4.000000,4.000000,4.000000,4.000000,100.000000
1602005856.338343,39.000000,0.000000,4126.153809,4137.948730,4125.128418,4138.461426,4128.205078,4134.358887,4131.794922,4123.589844,4131.282227,4154.871582,4141.025879,4131.794922,4145.128418,4166.666504,0.000000,4.000000,,,,0.000000,4.000000,4.000000,4.000000,4.000000,4.000000,4.000000,4.000000,4.000000,4.000000,4.000000,4.000000,4.000000,4.000000,4.000000,100.000000
1602005856.346230,40.000000,0.000000,4123.077148,4137.948730,4121.538574,4134.871582,4124.102539,4124.615234,4125.641113,4116.922852,4126.153809,4153.333496,4135.384766,4122.563965,4140.512695,4152.820313,0.000000,4.000000,,,,0.000000,4.000000,4.000000,4.000000,4.000000,4.000000,4.000000,4.000000,4.000000,4.000000,4.000000,4.000000,4.000000,4.000000,4.000000,100.000000
1602005856.354116,41.000000,0.000000,4125.641113,4134.358887,4128.717773,4136.922852,4133.846191,4118.461426,4119.487305,4120.000000,4120.512695,4126.666504,4139.487305,4121.538574,4140.000000,4153.846191,0.000000,4.000000,,,,0.000000,4.000000,4.000000,4.000000,4.000000,4.000000,4.000000,4.000000,4.000000,4.000000,4.000000,4.000000,4.000000,4.000000,4.000000,100.000000
1602005856.362002,42.000000,0.000000,4137.948730,4139.487305,4135.897461,4142.563965,4138.974121,4125.128418,4121.025879,4122.563965,4126.153809,4103.077148,4134.871582,4134.358887,4144.615234,4173.333496,0.000000,4.000000,,,,0.000000,4.000000,4.000000,4.000000,4.000000,4.000000,4.000000,4.000000,4.000000,4.000000,4.000000,4.000000,4.000000,4.000000,4.000000,100.000000
1602005856.369888,43.000000,0.000000,4132.820313,4137.436035,4126.666504,4136.410156,4128.205078,4120.000000,4120.000000,4119.487305,4137.436035,4118.974121,4122.051270,4134.358887,4137.948730,4170.769043,0.000000,4.000000,,,,0.000000,4.000000,4.000000,4.000000,4.000000,4.000000,4.000000,4.000000,4.000000,4.000000,4.000000,4.000000,4.000000,4.000000,4.000000,100.000000
1602005856.377672,44.000000,0.000000,4127.179688,4133.846191,4117.436035,4135.384766,4125.641113,4110.769043,4121.538574,4126.153809,4142.051270,4151.282227,4125.641113,4126.153809,4135.384766,4161.538574,0.000000,4.000000,,,,0.000000,4.000000,4.000000,4.000000,4.000000,4.000000,4.000000,4.000000,4.000000,4.000000,4.000000,4.000000,4.000000,4.000000,4.000000,100.000000
1602005856.385557,45.000000,0.000000,4139.487305,4147.692383,4124.615234,4145.641113,4134.358887,4124.615234,4135.384766,4139.487305,4144.102539,4167.692383,4143.077148,4133.333496,4152.307617,4176.410156,0.000000,4.000000,,,,0.000000,4.000000,4.000000,4.000000,4.000000,4.000000,4.000000,4.000000,4.000000,4.000000,4.000000,4.000000,4.000000,4.000000,4.000000,100.000000
1602005856.393441,46.000000,0.000000,4143.077148,4153.846191,4132.820313,4147.179688,4135.384766,4141.538574,4144.102539,4137.436035,4136.410156,4163.077148,4154.871582,4139.487305,4161.538574,4187.692383,0.000000,4.000000,,,,0.000000,4.000000,4.000000,4.000000,4.000000,4.000000,4.000000,4.000000,4.000000,4.000000,4.000000,4.000000,4.000000,4.000000,4.000000,100.000000
1602005856.401325,47.000000,0.000000,4136.922852,4143.077148,4130.769043,4140.000000,4135.897461,4141.025879,4141.538574,4124.615234,4115.384766,4146.153809,4153.846191,4128.205078,4155.897461,4177.948730,0.000000,4.000000,,,,0.000000,4.000000,4.000000,4.000000,4.000000,4.000000,4.000000,4.000000,4.000000,4.000000,4.000000,4.000000,4.000000,4.000000,4.000000,100.000000
1602005856.409210,48.000000,0.000000,4135.897461,4136.410156,4127.179688,4137.436035,4136.922852,4136.922852,4133.333496,4116.922852,4102.563965,4135.897461,4148.205078,4121.538574,4154.358887,4168.717773,0.000000,4.000000,,,,0.000000,4.000000,4.000000,4.000000,4.000000,4.000000,4.000000,4.000000,4.000000,4.000000,4.000000,4.000000,4.000000,4.000000,4.000000,100.000000
1602005856.416997,49.000000,0.000000,4128.205078,4138.461426,4122.563965,4137.436035,4128.205078,4135.897461,4125.128418,4111.282227,4105.128418,4140.512695,4140.512695,4120.512695,4156.410156,4169.743652,0.000000,4.000000,,,,0.000000,4.000000,4.000000,4.000000,4.000000,4.000000,4.000000,4.000000,4.000000,4.000000,4.000000,4.000000,4.000000,4.000000,4.000000,100.000000
1602005856.424884,50.000000,0.000000,4118.461426,4135.897461,4120.512695,4132.307617,4124.615234,4129.743652,4124.615234,4105.641113,4107.692383,4133.846191,4133.333496,4110.769043,4152.307617,4168.717773,0.000000,4.000000,,,,0.000000,4.000000,4.000000,4.000000,4.000000,4.000000,4.000000,4.000000,4.000000,4.000000,4.000000,4.000000,4.000000,4.000000,4.000000,100.000000
1602005856.432771,51.000000,0.000000,4123.589844,4133.333496,4120.512695,4130.769043,4135.384766,4126.153809,4126.666504,4109.743652,4118.974121,4134.871582,4136.410156,4108.205078,4149.743652,4168.205078,0.000000,4.000000,,,,0.000000,4.000000,4.000000,4.000000,4.000000,4.000000,4.000000,4.000000,4.000000,4.000000,4.000000,4.000000,4.000000,4.000000,4.000000,100.000000
1602005856.440658,52.000000,0.000000,4126.153809,4138.461426,4120.000000,4135.897461,4141.025879,4128.205078,4123.589844,4116.410156,4142.051270,4160.512695,4147.179688,4117.948730,4155.384766,4173.333496,0.000000,4.000000,,,,0.000000,4.000000,4.000000,4.000000,4.000000,4.000000,4.000000,4.000000,4.000000,4.000000,4.000000,4.000000,4.000000,4.000000,4.000000,100.000000
1602005856.448545,53.000000,0.000000,4123.589844,4141.538574,4127.179688,4137.436035,4137.948730,4129.230957,4126.153809,4124.615234,4153.846191,4166.153809,4153.846191,4127.692383,4158.461426,4181.538574,0.000000,4.000000,,,,0.000000,4.000000,4.000000,4.000000,4.000000,4.000000,4.000000,4.000000,4.000000,4.000000,4.000000,4.000000,4.000000,4.000000,4.000000,100.000000
1602005856.456432,54.000000,0.000000,4129.743652,4141.538574,4137.436035,4136.922852,4141.538574,4132.820313,4136.922852,4135.897461,4155.384766,4161.538574,4156.410156,4129.743652,4158.974121,4192.307617,0.000000,4.000000,,,,0.000000,4.000000,4.000000,4.000000,4.000000,4.000000,4.000000,4.000000,4.000000,4.000000,4.000000,4.000000,4.000000,4.000000,4.000000,100.000000
1602005856.464320,55.000000,0.000000,4137.948730,4139.487305,4136.410156,4137.948730,4140.000000,4140.000000,4140.000000,4140.000000,4155.897461,4171.282227,4155.384766,4124.615234,4157.948730,4193.333496,0.000000,4.000000,,,,0.000000,4.000000,4.000000,4.000000,4.000000,4.000000,4.000000,4.000000,4.000000,4.000000,4.000000,4.000000,4.000000,4.000000,4.000000,100.000000
1602005856.472207,56.000000,0.000000,4136.922852,4135.897461,4127.179688,4134.358887,4128.205078,4134.358887,4136.922852,4135.897461,4148.205078,4164.615234,4150.769043,4121.538574,4155.384766,4184.102539,0.000000,4.000000,,,,0.000000,4.000000,4.000000,4.000000,4.000000,4.000000,4.000000,4.000000,4.000000,4.000000,4.000000,4.000000,4.000000,4.000000,4.000000,100.000000
1602005856.480094,57.000000,0.000000,4135.897461,4135.384766,4122.563965,4129.743652,4127.692383,4122.563965,4138.974121,4135.897461,4138.461426,4148.205078,4150.769043,4125.128418,4159.487305,4180.000000,0.000000,4.000000,,,,0.000000,4.000000,4.000000,4.000000,4.000000,4.000000,4.000000,4.000000,4.000000,4.000000,4.000000,4.000000,4.000000,4.000000,4.000000,100.000000
1602005856.487981,58.000000,0.000000,4139.487305,4145.641113,4124.102539,4136.410156,4136.922852,4126.666504,4144.615234,4135.897461,4134.358887,4154.871582,4153.333496,4123.077148,4167.692383,4190.256348,0.000000,4.000000,,,,0.000000,4.000000,4.000000,4.000000,4.000000,4.000000,4.000000,4.000000,4.000000,4.000000,4.000000,4.000000,4.000000,4.000000,4.000000,100.000000
1602005856.495767,59.000000,0.000000,4138.974121,4150.769043,4122.051270,4142.051270,4136.922852,4129.743652,4145.128418,4127.692383,4121.538574,4147.692383,4152.307617,4111.794922,4167.179688,4202.563965,0.000000,4.000000,,,,0.000000,4.000000,4.000000,4.000000,4.000000,4.000000,4.000000,4.000000,4.000000,4.000000,4.000000,4.000000,4.000000,4.000000,4.000000,100.000000
1602005856.503652,60.000000,0.000000,4137.948730,4143.077148,4121.025879,4138.461426,4134.358887,4121.025879,4141.538574,4122.563965,4106.153809,4128.205078,4153.333496,4112.820313,4165.128418,4195.384766,0.000000,4.000000,,,,0.000000,4.000000,4.000000,4.000000,4.000000,4.000000,4.000000,4.000000,4.000000,4.000000,4.000000,4.000000,4.000000,4.000000,4.000000,100.000000
1602005856.511538,61.000000,0.000000,4142.051270,4140.000000,4124.615234,4138.461426,4137.948730,4118.974121,4138.974121,4122.051270,4105.641113,4146.666504,4154.871582,4121.538574,4170.256348,4184.615234,0.000000,4.000000,,,,0.000000,4.000000,4.000000,4.000000,4.000000,4.000000,4.000000,4.000000,4.000000,4.000000,4.000000,4.000000,4.000000,4.000000,4.000000,100.000000
1602005856.519424,62.000000,0.000000,4141.025879,4142.051270,4126.666504,4137.948730,4137.436035,4122.051270,4131.282227,4118.461426,4103.077148,4159.487305,4151.794922,4120.000000,4167.179688,4192.820313,0.000000,4.000000,,,,0.000000,4.000000,4.000000,4.000000,4.000000,4.000000,4.000000,4.000000,4.000000,4.000000,4.000000,4.000000,4.000000,4.000000,4.000000,100.000000
1602005856.527309,63.000000,0.000000,4136.922852,4141.025879,4130.769043,4135.897461,4134.358887,4124.615234,4127.179688,4116.922852,4096.410156,4142.563965,4153.846191,4118.974121,4158.974121,4203.077148,0.000000,4.000000,,,,0.000000,4.000000,4.000000,4.000000,4.000000,4.000000,4.000000,4.000000,4.000000,4.000000,4.000000,4.000000,4.000000,4.000000,4.000000,100.000000
1602005856.535195,64.000000,0.000000,4137.948730,4134.871582,4136.410156,4136.410156,4135.897461,4132.820313,4129.743652,4116.410156,4104.615234,4133.846191,4153.846191,4117.948730,4158.461426,4190.256348,800.000000,4.000000,,,,0.000000,4.000000,4.000000,4.000000,4.000000,4.000000,4.000000,4.000000,4.000000,4.000000,4.000000,4.000000,4.000000,4.000000,4.000000,100.000000
1602005856.543081,65.000000,0.000000,4140.000000,4127.179688,4134.358887,4129.743652,4137.436035,4140.000000,4128.205078,4112.820313,4124.102539,4142.051270,4142.051270,4110.769043,4155.384766,4180.000000,795.000000,4.000000,,,,0.000000,4.000000,4.000000,4.000000,4.000000,4.000000,4.000000,4.000000,4.000000,4.000000,4.000000,4.000000,4.000000,4.000000,4.000000,100.000000
1602005856.551067,66.000000,0.000000,4138.974121,4127.692383,4126.153809,4124.102539,4138.974121,4138.461426,4127.179688,4118.461426,4143.077148,4147.692383,4137.436035,4113.333496,4154.871582,4193.846191,851.000000,4.000000,,,,0.000000,4.000000,4.000000,4.000000,4.000000,4.000000,4.000000,4.000000,4.000000,4.000000,4.000000,4.000000,4.000000,4.000000,4.000000,100.000000
1602005856.558954,67.000000,0.000000,4140.000000,4136.410156,4124.102539,4131.282227,4142.051270,4140.000000,4136.410156,4132.307617,4155.897461,4150.256348,4147.179688,4126.153809,4164.615234,4206.153809,864.000000,4.000000,,,,0.000000,4.000000,4.000000,4.000000,4.000000,4.000000,4.000000,4.000000,4.000000,4.000000,4.000000,4.000000,4.000000,4.000000,4.000000,100.000000
1602005856.566840,68.000000,0.000000,4140.512695,4141.025879,4127.692383,4136.922852,4142.563965,4144.102539,4141.025879,4138.461426,4161.538574,4155.384766,4153.846191,4127.179688,4163.589844,4198.974121,813.000000,4.000000,,,,0.000000,4.000000,4.000000,4.000000,4.000000,4.000000,4.000000,4.000000,4.000000,4.000000,4.000000,4.000000,4.000000,4.000000,4.000000,100.000000
1602005856.574726,69.000000,0.000000,4142.051270,4141.538574,4128.205078,4136.410156,4141.025879,4136.922852,4138.461426,4140.000000,4160.512695,4153.333496,4154.871582,4125.128418,4162.563965,4201.025879,824.000000,4.000000,,,,0.000000,4.000000,4.000000,4.000000,4.000000,4.000000,4.000000,4.000000,4.000000,4.000000,4.000000,4.000000,4.000000,4.000000,4.000000,100.000000
1602005856.582613,70.000000,0.000000,4144.615234,4143.589844,4126.153809,4137.436035,4138.974121,4122.051270,4137.948730,4141.025879,4153.333496,4145.641113,4153.333496,4128.717773,4168.717773,4209.743652,778.000000,4.000000,,,,0.000000,4.000000,4.000000,4.000000,4.000000,4.000000,4.000000,4.000000,4.000000,4.000000,4.000000,4.000000,4.000000,4.000000,4.000000,100.000000
1602005856.590499,71.000000,0.000000,4138.974121,4137.948730,4123.589844,4136.410156,4134.871582,4120.000000,4136.922852,4140.000000,4142.051270,4140.512695,4145.128418,4123.077148,4158.974121,4189.743652,688.000000,4.000000,,,,0.000000,4.000000,4.000000,4.000000,4.000000,4.000000,4.000000,4.000000,4.000000,4.000000,4.000000,4.000000,4.000000,4.000000,4.000000,100.000000
1602005856.598386,72.000000,0.000000,4143.077148,4137.948730,4127.692383,4137.948730,4136.922852,4134.358887,4135.897461,4142.051270,4137.436035,4135.384766,4147.179688,4123.077148,4161.538574,4183.077148,787.000000,4.000000,,,,0.000000,4.000000,4.000000,4.000000,4.000000,4.000000,4.000000,4.000000,4.000000,4.000000,4.000000,4.000000,4.000000,4.000000,4.000000,100.000000
1602005856.606272,73.000000,0.000000,4153.846191,4142.563965,4129.743652,4138.974121,4144.102539,4142.051270,4133.333496,4142.563965,4140.000000,4140.512695,4164.102539,4134.358887,4191.794922,4220.512695,839.000000,4.000000,,,,0.000000,4.000000,4.000000,4.000000,4.000000,4.000000,4.000000,4.000000,4.000000,4.000000,4.000000,4.000000,4.000000,4.000000,4.000000,100.000000
1602005856.614158,74.000000,0.000000,4138.974121,4127.692383,4126.153809,4129.230957,4142.051270,4137.948730,4126.666504,4140.512695,4141.025879,4155.897461,4171.794922,4137.436035,4205.128418,4241.025879,877.000000,4.000000,,,,0.000000,4.000000,4.000000,4.000000,4.000000,4.000000,4.000000,4.000000,4.000000,4.000000,4.000000,4.000000,4.000000,4.000000,4.000000,100.000000
1602005856.621944,75.000000,0.000000,4119.487305,4107.179688,4130.769043,4121.025879,4135.384766,4135.384766,4122.051270,4137.436035,4131.282227,4152.820313,4166.153809,4143.077148,4203.077148,4231.282227,844.000000,4.000000,,,,0.000000,4.000000,4.000000,4.000000,4.000000,4.000000,4.000000,4.000000,4.000000,4.000000,4.000000,4.000000,4.000000,4.000000,4.000000,100.000000
1602005856.629830,76.000000,0.000000,4119.487305,4098.461426,4140.000000,4118.461426,4135.384766,4135.897461,4122.563965,4132.307617,4124.102539,4136.410156,4167.692383,4155.384766,4218.461426,4232.307617,764.000000,4.000000,,,,0.000000,4.000000,4.000000,4.000000,4.000000,4.000000,4.000000,4.000000,4.000000,4.000000,4.000000,4.000000,4.000000,4.000000,4.000000,100.000000
1602005856.637716,77.000000,0.000000,4113.846191,4091.794922,4135.384766,4108.717773,4135.384766,4128.205078,4123.077148,4124.615234,4119.487305,4129.230957,4171.794922,4151.282227,4218.974121,4236.410156,754.000000,4.000000,,,,0.000000,4.000000,4.000000,4.000000,4.000000,4.000000,4.000000,4.000000,4.000000,4.000000,4.000000,4.000000,4.000000,4.000000,4.000000,100.000000
1602005856.645602,78.000000,0.000000,4099.487305,4090.256348,4123.589844,4106.153809,4135.384766,4117.948730,4120.000000,4118.461426,4111.794922,4122.051270,4167.692383,4143.077148,4204.102539,4229.230957,877.000000,4.000000,,,,0.000000,4.000000,4.000000,4.000000,4.000000,4.000000,4.000000,4.000000,4.000000,4.000000,4.000000,4.000000,4.000000,4.000000,4.000000,100.000000
1602005856.653488,79.000000,0.000000,4104.615234,4104.102539,4123.589844,4120.000000,4139.487305,4129.743652,4121.025879,4118.974121,4123.077148,4131.794922,4167.179688,4150.256348,4212.307617,4231.794922,844.000000,4.000000,,,,0.000000,4.000000,4.000000,4.000000,4.000000,4.000000,4.000000,4.000000,4.000000,4.000000,4.000000,4.000000,4.000000,4.000000,4.000000,100.000000
1602005856.661374,80.000000,0.000000,4111.794922,4111.282227,4126.666504,4126.666504,4142.051270,4152.307617,4131.282227,4130.256348,4146.666504,4163.589844,4171.282227,4155.384766,4222.563965,4234.871582,764.000000,4.000000,,,,0.000000,4.000000,4.000000,4.000000,4.000000,4.000000,4.000000,4.000000,4.000000,4.000000,4.000000,4.000000,4.000000,4.000000,4.000000,100.000000
1602005856.669260,81.000000,0.000000,4107.692383,4101.538574,4122.563965,4120.000000,4142.051270,4154.871582,4141.025879,4143.077148,4146.666504,4174.871582,4171.282227,4152.820313,4217.948730,4231.282227,754.000000,4.000000,,,,0.000000,4.000000,4.000000,4.000000,4.000000,4.000000,4.000000,4.000000,4.000000,4.000000,4.000000,4.000000,4.000000,4.000000,4.000000,100.000000
1602005856.677146,82.000000,0.000000,4101.025879,4098.461426,4123.077148,4115.384766,4141.538574,4149.743652,4142.563965,4143.077148,4135.897461,4162.563965,4168.717773,4155.897461,4216.410156,4233.333496,877.000000,4.000000,,,,0.000000,4.000000,4.000000,4.000000,4.000000,4.000000,4.000000,4.000000,4.000000,4.000000,4.000000,4.000000,4.000000,4.000000,4.000000,100.000000
1602005856.684933,83.000000,0.000000,4097.436035,4099.487305,4126.666504,4111.794922,4136.410156,4150.256348,4143.589844,4138.461426,4137.436035,4142.051270,4168.205078,4153.333496,4210.769043,4224.615234,844.000000,4.000000,,,,0.000000,4.000000,4.000000,4.000000,4.000000,4.000000,4.000000,4.000000,4.000000,4.000000,4.000000,4.000000,4.000000,4.000000,4.000000,100.000000
1602005856.692819,84.000000,0.000000,4099.487305,4094.871826,4125.128418,4106.666504,4126.666504,4135.897461,4142.563965,4135.384766,4133.333496,4118.461426,4165.641113,4147.179688,4202.563965,4209.743652,764.000000,4.000000,,,,0.000000,4.000000,4.000000,4.000000,4.000000,4.000000,4.000000,4.000000,4.000000,4.000000,4.000000,4.000000,4.000000,4.000000,4.000000,100.000000
1602005856.700706,85.000000,0.000000,4104.615234,4096.410156,4130.769043,4110.769043,4120.512695,4118.974121,4137.948730,4134.871582,4128.205078,4120.512695,4168.205078,4156.410156,4208.205078,4225.128418,754.000000,4.000000,,,,0.000000,4.000000,4.000000,4.000000,4.000000,4.000000,4.000000,4.000000,4.000000,4.000000,4.000000,4.000000,4.000000,4.000000,4.000000,100.000000
1602005856.708593,86.000000,0.000000,4115.384766,4106.666504,4145.641113,4121.025879,4127.179688,4123.077148,4138.974121,4144.102539,4143.589844,4151.282227,4178.461426,4170.769043,4218.974121,4254.358887,877.000000,4.000000,,,,0.000000,4.000000,4.000000,4.000000,4.000000,4.000000,4.000000,4.000000,4.000000,4.000000,4.000000,4.000000,4.000000,4.000000,4.000000,100.000000
1602005856.716479,87.000000,0.000000,4127.179688,4115.897461,4148.717773,4127.692383,4137.948730,4127.179688,4141.538574,4154.871582,4161.025879,4170.256348,4186.153809,4172.307617,4223.589844,4255.384766,844.000000,4.000000,,,,0.000000,4.000000,4.000000,4.000000,4.000000,4.000000,4.000000,4.000000,4.000000,4.000000,4.000000,4.000000,4.000000,4.000000,4.000000,100.000000
1602005856.724366,88.000000,0.000000,4125.641113,4121.025879,4142.563965,4127.692383,4138.974121,4120.512695,4136.922852,4154.871582,4170.769043,4180.512695,4191.794922,4168.717773,4230.769043,4247.179688,764.000000,4.000000,,,,0.000000,4.000000,4.000000,4.000000,4.000000,4.000000,4.000000,4.000000,4.000000,4.000000,4.000000,4.000000,4.000000,4.000000,4.000000,100.000000
1602005856.732253,89.000000,0.000000,4120.000000,4120.512695,4136.922852,4123.589844,4134.358887,4118.974121,4131.282227,4153.846191,4171.282227,4185.641113,4185.128418,4166.153809,4230.769043,4250.256348,754.000000,4.000000,,,,0.000000,4.000000,4.000000,4.000000,4.000000,4.000000,4.000000,4.000000,4.000000,4.000000,4.000000,4.000000,4.000000,4.000000,4.000000,100.000000
1602005856.740139,90.000000,0.000000,4126.153809,4122.051270,4132.820313,4124.102539,4140.000000,4135.897461,4135.384766,4158.461426,4169.230957,4168.717773,4176.410156,4163.589844,4222.563965,4252.307617,877.000000,4.000000,,,,0.000000,4.000000,4.000000,4.000000,4.000000,4.000000,4.000000,4.000000,4.000000,4.000000,4.000000,4.000000,4.000000,4.000000,4.000000,100.000000
1602005856.748026,91.000000,0.000000,4127.692383,4126.666504,4127.179688,4128.205078,4147.179688,4161.025879,4142.051270,4158.974121,4174.871582,4160.512695,4178.974121,4156.410156,4220.000000,4245.641113,844.000000,4.000000,,,,0.000000,4.000000,4.000000,4.000000,4.000000,4.000000,4.000000,4.000000,4.000000,4.000000,4.000000,4.000000,4.000000,4.000000,4.000000,100.000000
1602005856.755811,92.000000,0.000000,4107.179688,4116.922852,4113.846191,4117.948730,4141.538574,4165.641113,4141.025879,4153.846191,4170.256348,4153.333496,4169.743652,4140.512695,4210.769043,4221.538574,764.000000,4.000000,,,,0.000000,4.000000,4.000000,4.000000,4.000000,4.000000,4.000000,4.000000,4.000000,4.000000,4.000000,4.000000,4.000000,4.000000,4.000000,100.000000
1602005856.763696,93.000000,0.000000,4098.974121,4102.563965,4106.666504,4106.666504,4135.384766,4161.538574,4143.589844,4150.256348,4158.974121,4129.743652,4157.436035,4132.307617,4196.410156,4204.102539,754.000000,4.000000,,,,0.000000,4.000000,4.000000,4.000000,4.000000,4.000000,4.000000,4.000000,4.000000,4.000000,4.000000,4.000000,4.000000,4.000000,4.000000,100.000000
1602005856.771580,94.000000,0.000000,4122.563965,4108.205078,4126.666504,4117.436035,4139.487305,4169.743652,4155.384766,4154.358887,4163.589844,4133.333496,4165.641113,4146.153809,4201.025879,4225.641113,877.000000,4.000000,,,,0.000000,4.000000,4.000000,4.000000,4.000000,4.000000,4.000000,4.000000,4.000000,4.000000,4.000000,4.000000,4.000000,4.000000,4.000000,100.000000
1602005856.779465,95.000000,0.000000,4134.871582,4111.794922,4140.512695,4121.538574,4134.871582,4165.641113,4160.000000,4154.871582,4168.205078,4162.051270,4162.051270,4158.974121,4202.051270,4239.487305,844.000000,4.000000,,,,0.000000,4.000000,4.000000,4.000000,4.000000,4.000000,4.000000,4.000000,4.000000,4.000000,4.000000,4.000000,4.000000,4.000000,4.000000,100.000000
1602005856.787350,96.000000,0.000000,4116.410156,4102.563965,4129.743652,4112.307617,4123.077148,4140.512695,4149.743652,4143.589844,4152.307617,4158.974121,4143.589844,4151.282227,4183.589844,4221.538574,764.000000,4.000000,,,,0.000000,4.000000,4.000000,4.000000,4.000000,4.000000,4.000000,4.000000,4.000000,4.000000,4.000000,4.000000,4.000000,4.000000,4.000000,100.000000
1602005856.795234,97.000000,0.000000,4110.769043,4104.102539,4129.230957,4117.436035,4130.769043,4133.333496,4141.538574,4136.922852,4138.974121,4144.615234,4154.358887,4148.205078,4188.205078,4225.641113,754.000000,4.000000,,,,0.000000,4.000000,4.000000,4.000000,4.000000,4.000000,4.000000,4.000000,4.000000,4.000000,4.000000,4.000000,4.000000,4.000000,4.000000,100.000000
1602005856.803020,98.000000,0.000000,4125.128418,4111.794922,4141.538574,4128.205078,4141.538574,4143.077148,4140.000000,4139.487305,4142.051270,4155.384766,4176.922852,4161.025879,4213.846191,4248.205078,877.000000,4.000000,,,,0.000000,4.000000,4.000000,4.000000,4.000000,4.000000,4.000000,4.000000,4.000000,4.000000,4.000000,4.000000,4.000000,4.000000,4.000000,100.000000
1602005856.810906,99.000000,0.000000,4127.179688,4108.205078,4142.051270,4124.615234,4135.897461,4138.461426,4140.512695,4138.974121,4143.077148,4156.410156,4177.436035,4168.717773,4214.358887,4252.820313,844.000000,4.000000,,,,0.000000,4.000000,4.000000,4.000000,4.000000,4.000000,4.000000,4.000000,4.000000,4.000000,4.000000,4.000000,4.000000,4.000000,4.000000,100.000000
1602005856.818792,100.000000,0.000000,4120.000000,4107.692383,4134.358887,4120.512695,4133.333496,4139.487305,4140.512695,4135.897461,4136.922852,4130.256348,4172.820313,4158.974121,4203.589844,4244.615234,764.000000,4.000000,,,,0.000000,4.000000,4.000000,4.000000,4.000000,4.000000,4.000000,4.000000,4.000000,4.000000,4.000000,4.000000,4.000000,4.000000,4.000000,100.000000
1602005856.826677,101.000000,0.000000,4112.307617,4107.692383,4128.205078,4116.410156,4135.897461,4141.538574,4132.820313,4130.769043,4134.871582,4109.230957,4167.179688,4143.589844,4196.410156,4228.717773,754.000000,4.000000,,,,0.000000,4.000000,4.000000,4.000000,4.000000,4.000000,4.000000,4.000000,4.000000,4.000000,4.000000,4.000000,4.000000,4.000000,4.000000,100.000000
1602005856.834563,102.000000,0.000000,4096.922852,4096.410156,4120.000000,4105.641113,4126.666504,4124.615234,4128.205078,4124.615234,4141.025879,4115.897461,4155.384766,4129.743652,4185.641113,4208.205078,877.000000,4.000000,,,,0.000000,4.000000,4.000000,4.000000,4.000000,4.000000,4.000000,4.000000,4.000000,4.000000,4.000000,4.000000,4.000000,4.000000,4.000000,100.000000
1602005856.842449,103.000000,0.000000,4092.307617,4094.358887,4117.436035,4108.205078,4124.615234,4120.000000,4133.846191,4131.282227,4152.820313,4144.102539,4153.846191,4128.717773,4185.641113,4212.820313,844.000000,4.000000,,,,0.000000,4.000000,4.000000,4.000000,4.000000,4.000000,4.000000,4.000000,4.000000,4.000000,4.000000,4.000000,4.000000,4.000000,4.000000,100.000000
1602005856.850334,104.000000,0.000000,4111.794922,4107.692383,4125.641113,4122.051270,4136.410156,4137.436035,4139.487305,4148.205078,4162.563965,4166.666504,4165.128418,4145.128418,4200.512695,4227.179688,764.000000,4.000000,,,,0.000000,4.000000,4.000000,4.000000,4.000000,4.000000,4.000000,4.000000,4.000000,4.000000,4.000000,4.000000,4.000000,4.000000,4.000000,100.000000
1602005856.858320,105.000000,0.000000,4125.641113,4118.974121,4135.384766,4126.666504,4139.487305,4145.641113,4144.102539,4157.436035,4170.256348,4180.000000,4182.563965,4156.922852,4212.307617,4229.230957,754.000000,4.000000,,,,0.000000,4.000000,4.000000,4.000000,4.000000,4.000000,4.000000,4.000000,4.000000,4.000000,4.000000,4.000000,4.000000,4.000000,4.000000,100.000000
1602005856.866205,106.000000,0.000000,4124.615234,4120.512695,4138.974121,4122.563965,4137.948730,4142.051270,4153.846191,4156.922852,4168.717773,4172.820313,4188.717773,4152.307617,4214.871582,4240.000000,877.000000,4.000000,,,,0.000000,4.000000,4.000000,4.000000,4.000000,4.000000,4.000000,4.000000,4.000000,4.000000,4.000000,4.000000,4.000000,4.000000,4.000000,100.000000
1602005856.874090,107.000000,0.000000,4124.615234,4115.384766,4136.410156,4122.051270,4136.410156,4143.589844,4154.358887,4155.897461,4161.538574,4141.025879,4175.897461,4152.307617,4207.179688,4251.282227,844.000000,4.000000,,,,0.000000,4.000000,4.000000,4.000000,4.000000,4.000000,4.000000,4.000000,4.000000,4.000000,4.000000,4.000000,4.000000,4.000000,4.000000,100.000000
1602005856.881975,108.000000,0.000000,4120.000000,4107.179688,4131.282227,4118.974121,4128.205078,4141.538574,4145.641113,4151.794922,4156.410156,4133.846191,4167.179688,4154.871582,4200.512695,4238.461426,764.000000,4.000000,,,,0.000000,4.000000,4.000000,4.000000,4.000000,4.000000,4.000000,4.000000,4.000000,4.000000,4.000000,4.000000,4.000000,4.000000,4.000000,100.000000
1602005856.889860,109.000000,0.000000,4107.179688,4107.179688,4122.563965,4108.717773,4121.538574,4131.282227,4144.102539,4142.563965,4153.333496,4154.871582,4167.692383,4145.641113,4201.538574,4220.000000,754.000000,4.000000,,,,0.000000,4.000000,4.000000,4.000000,4.000000,4.000000,4.000000,4.000000,4.000000,4.000000,4.000000,4.000000,4.000000,4.000000,4.000000,100.000000
1602005856.897746,110.000000,0.000000,4104.102539,4107.179688,4118.974121,4106.666504,4123.077148,4123.589844,4141.025879,4134.871582,4150.256348,4146.666504,4164.102539,4137.436035,4190.769043,4220.512695,877.000000,4.000000,,,,0.000000,4.000000,4.000000,4.000000,4.000000,4.000000,4.000000,4.000000,4.000000,4.000000,4.000000,4.000000,4.000000,4.000000,4.000000,100.000000
1602005856.905631,111.000000,0.000000,4114.358887,4103.589844,4129.230957,4114.871582,4122.051270,4121.538574,4135.384766,4135.897461,4149.743652,4128.205078,4151.282227,4143.077148,4179.487305,4226.153809,844.000000,4.000000,,,,0.000000,4.000000,4.000000,4.000000,4.000000,4.000000,4.000000,4.000000,4.000000,4.000000,4.000000,4.000000,4.000000,4.000000,4.000000,100.000000
1602005856.913417,112.000000,0.000000,4124.615234,4114.871582,4140.000000,4123.589844,4125.641113,4130.256348,4136.922852,4144.615234,4153.846191,4151.794922,4154.358887,4154.871582,4193.333496,4229.230957,764.000000,4.000000,,,,0.000000,4.000000,4.000000,4.000000,4.000000,4.000000,4.000000,4.000000,4.000000,4.000000,4.000000,4.000000,4.000000,4.000000,4.000000,100.000000
1602005856.921304,113.000000,0.000000,4128.205078,4122.563965,4142.563965,4126.153809,4135.897461,4137.436035,4138.974121,4148.717773,4163.077148,4175.897461,4177.948730,4157.436035,4206.666504,4234.871582,754.000000,4.000000,,,,0.000000,4.000000,4.000000,4.000000,4.000000,4.000000,4.000000,4.000000,4.000000,4.000000,4.000000,4.000000,4.000000,4.000000,4.000000,100.000000
1602005856.929190,114.000000,0.000000,4120.000000,4110.769043,4136.922852,4125.128418,4137.436035,4133.333496,4136.922852,4148.205078,4166.153809,4163.077148,4185.641113,4147.692383,4201.025879,4233.333496,877.000000,4.000000,,,,0.000000,4.000000,4.000000,4.000000,4.000000,4.000000,4.000000,4.000000,4.000000,4.000000,4.000000,4.000000,4.000000,4.000000,4.000000,100.000000
1602005856.937077,115.000000,0.000000,4114.871582,4106.666504,4132.820313,4122.563965,4135.897461,4129.230957,4134.358887,4147.692383,4160.000000,4147.692383,4172.307617,4141.025879,4198.461426,4230.256348,844.000000,4.000000,,,,0.000000,4.000000,4.000000,4.000000,4.000000,4.000000,4.000000,4.000000,4.000000,4.000000,4.000000,4.000000,4.000000,4.000000,4.000000,100.000000
1602005856.944963,116.000000,0.000000,4123.589844,4115.897461,4129.230957,4122.051270,4137.436035,4137.436035,4136.922852,4144.615234,4150.769043,4141.025879,4168.717773,4142.051270,4200.512695,4232.307617,764.000000,4.000000,,,,0.000000,4.000000,4.000000,4.000000,4.000000,4.000000,4.000000,4.000000,4.000000,4.000000,4.000000,4.000000,4.000000,4.000000,4.000000,100.000000
1602005856.952849,117.000000,0.000000,4118.974121,4115.384766,4122.051270,4120.512695,4131.282227,4140.000000,4136.922852,4136.922852,4140.512695,4136.922852,4162.563965,4143.077148,4189.743652,4224.615234,754.000000,4.000000,,,,0.000000,4.000000,4.000000,4.000000,4.000000,4.000000,4.000000,4.000000,4.000000,4.000000,4.000000,4.000000,4.000000,4.000000,4.000000,100.000000
1602005856.960736,118.000000,0.000000,4106.153809,4107.179688,4126.666504,4116.922852,4124.102539,4134.871582,4135.897461,4132.307617,4134.358887,4141.025879,4145.641113,4146.153809,4181.025879,4212.307617,877.000000,4.000000,,,,0.000000,4.000000,4.000000,4.000000,4.000000,4.000000,4.000000,4.000000,4.000000,4.000000,4.000000,4.000000,4.000000,4.000000,4.000000,100.000000
1602005856.968622,119.000000,0.000000,4113.333496,4106.666504,4141.538574,4113.333496,4129.230957,4146.666504,4145.641113,4139.487305,4137.436035,4142.563965,4154.358887,4154.358887,4188.717773,4225.641113,844.000000,4.000000,,,,0.000000,4.000000,4.000000,4.000000,4.000000,4.000000,4.000000,4.000000,4.000000,4.000000,4.000000,4.000000,4.000000,4.000000,4.000000,100.000000
1602005856.976609,120.000000,0.000000,4121.025879,4106.153809,4140.000000,4108.205078,4129.230957,4155.384766,4152.820313,4144.615234,4140.512695,4138.974121,4171.282227,4154.871582,4189.230957,4236.410156,764.000000,4.000000,,,,0.000000,4.000000,4.000000,4.000000,4.000000,4.000000,4.000000,4.000000,4.000000,4.000000,4.000000,4.000000,4.000000,4.000000,4.000000,100.000000
1602005856.984495,121.000000,0.000000,4107.179688,4104.102539,4124.615234,4106.153809,4120.512695,4142.563965,4144.102539,4140.000000,4138.974121,4142.563965,4162.563965,4150.256348,4178.974121,4220.000000,754.000000,4.000000,,,,0.000000,4.000000,4.000000,4.000000,4.000000,4.000000,4.000000,4.000000,4.000000,4.000000,4.000000,4.000000,4.000000,4.000000,4.000000,100.000000
1602005856.992382,122.000000,0.000000,4101.025879,4107.179688,4123.589844,4108.717773,4121.025879,4130.769043,4132.820313,4137.436035,4142.563965,4137.436035,4154.871582,4154.358887,4183.077148,4215.384766,877.000000,4.000000,,,,0.000000,4.000000,4.000000,4.000000,4.000000,4.000000,4.000000,4.000000,4.000000,4.000000,4.000000,4.000000,4.000000,4.000000,4.000000,100.000000
1602005857.000269,123.000000,0.000000,4106.666504,4107.692383,4125.641113,4111.794922,4124.615234,4124.102539,4125.128418,4134.871582,4139.487305,4120.000000,4156.410156,4155.897461,4184.615234,4222.563965,844.000000,4.000000,,,,0.000000,4.000000,4.000000,4.000000,4.000000,4.000000,4.000000,4.000000,4.000000,4.000000,4.000000,4.000000,4.000000,4.000000,4.000000,100.000000
1602005857.008155,124.000000,0.000000,4108.717773,4106.153809,4121.538574,4113.846191,4119.487305,4110.769043,4118.461426,4127.179688,4129.743652,4124.615234,4157.948730,4153.846191,4173.333496,4213.333496,764.000000,4.000000,,,,0.000000,4.000000,4.000000,4.000000,4.000000,4.000000,4.000000,4.000000,4.000000,4.000000,4.000000,4.000000,4.000000,4.000000,4.000000,100.000000
1602005857.016042,125.000000,0.000000,4118.461426,4114.358887,4130.256348,4120.512695,4118.461426,4110.769043,4124.102539,4128.717773,4136.410156,4148.717773,4169.230957,4163.589844,4178.974121,4211.794922,754.000000,4.000000,,,,0.000000,4.000000,4.000000,4.000000,4.000000,4.000000,4.000000,4.000000,4.000000,4.000000,4.000000,4.000000,4.000000,4.000000,4.000000,100.000000
1602005857.023929,126.000000,0.000000,4129.230957,4124.102539,4143.589844,4125.641113,4123.077148,4129.743652,4135.897461,4140.000000,4148.717773,4161.538574,4172.820313,4167.692383,4189.743652,4228.717773,877.000000,4.000000,,,,0.000000,4.000000,4.000000,4.000000,4.000000,4.000000,4.000000,4.000000,4.000000,4.000000,4.000000,4.000000,4.000000,4.000000,4.000000,100.000000
1602005857.031815,127.000000,0.000000,4126.666504,4122.563965,4141.025879,4123.589844,4123.077148,4140.000000,4136.922852,4138.974121,4143.077148,4161.538574,4158.461426,4152.820313,4178.461426,4231.282227,844.000000,4.000000,,,,0.000000,4.000000,4.000000,4.000000,4.000000,4.000000,4.000000,4.000000,4.000000,4.000000,4.000000,4.000000,4.000000,4.000000,4.000000,100.000000
1602005857.039702,128.000000,0.000000,4124.102539,4120.512695,4129.230957,4121.538574,4122.051270,4138.461426,4137.436035,4135.384766,4133.846191,4147.179688,4150.769043,4140.512695,4168.717773,4218.974121,764.000000,4.000000,,,,0.000000,4.000000,4.000000,4.000000,4.000000,4.000000,4.000000,4.000000,4.000000,4.000000,4.000000,4.000000,4.000000,4.000000,4.000000,100.000000
1602005857.047488,0.000000,0.000000,4118.461426,4120.000000,4121.025879,4123.589844,4125.641113,4140.000000,4137.948730,4140.000000,4138.461426,4122.563965,4153.333496,4140.512695,4172.307617,4215.384766,800.000000,4.000000,,,,0.000000,4.000000,4.000000,4.000000,4.000000,4.000000,4.000000,4.000000,4.000000,4.000000,4.000000,4.000000,4.000000,4.000000,4.000000,100.000000
1602005857.055375,1.000000,0.000000,4108.717773,4112.307617,4120.000000,4120.000000,4125.128418,4143.589844,4129.743652,4136.410156,4138.461426,4120.512695,4154.358887,4138.974121,4173.846191,4214.871582,795.000000,4.000000,,,,0.000000,4.000000,4.000000,4.000000,4.000000,4.000000,4.000000,4.000000,4.000000,4.000000,4.000000,4.000000,4.000000,4.000000,4.000000,100.000000
1602005857.063261,2.000000,0.000000,4107.179688,4105.128418,4120.512695,4112.820313,4118.974121,4136.410156,4121.025879,4124.615234,4127.179688,4130.769043,4154.871582,4134.358887,4168.717773,4205.128418,851.000000,4.000000,,,,0.000000,4.000000,4.000000,4.000000,4.000000,4.000000,4.000000,4.000000,4.000000,4.000000,4.000000,4.000000,4.000000,4.000000,4.000000,100.000000
1602005857.071148,3.000000,0.000000,4107.692383,4107.179688,4120.512695,4115.897461,4113.846191,4127.692383,4127.179688,4122.563965,4123.589844,4132.307617,4149.743652,4135.897461,4160.000000,4196.410156,864.000000,4.000000,,,,0.000000,4.000000,4.000000,4.000000,4.000000,4.000000,4.000000,4.000000,4.000000,4.000000,4.000000,4.000000,4.000000,4.000000,4.000000,100.000000
1602005857.079034,4.000000,0.000000,4109.230957,4107.179688,4127.179688,4122.051270,4114.358887,4128.205078,4135.897461,4126.153809,4126.153809,4133.846191,4142.563965,4143.589844,4156.410156,4201.538574,813.000000,4.000000,,,,0.000000,4.000000,4.000000,4.000000,4.000000,4.000000,4.000000,4.000000,4.000000,4.000000,4.000000,4.000000,4.000000,4.000000,4.000000,100.000000
1602005857.086921,5.000000,0.000000,4117.436035,4106.666504,4137.436035,4118.974121,4116.410156,4125.641113,4130.256348,4122.563965,4123.077148,4131.282227,4145.128418,4149.743652,4163.077148,4204.102539,824.000000,4.000000,,,,0.000000,4.000000,4.000000,4.000000,4.000000,4.000000,4.000000,4.000000,4.000000,4.000000,4.000000,4.000000,4.000000,4.000000,4.000000,100.000000
1602005857.094807,6.000000,0.000000,4126.666504,4114.871582,4141.025879,4118.974121,4117.436035,4120.512695,4127.179688,4126.153809,4121.538574,4120.000000,4149.230957,4154.358887,4168.717773,4198.974121,777.000000,4.000000,,,,0.000000,4.000000,4.000000,4.000000,4.000000,4.000000,4.000000,4.000000,4.000000,4.000000,4.000000,4.000000,4.000000,4.000000,4.000000,100.000000
1602005857.102693,7.000000,0.000000,4130.256348,4127.179688,4140.512695,4124.102539,4119.487305,4124.615234,4136.922852,4140.000000,4129.743652,4131.282227,4152.307617,4163.589844,4169.230957,4207.692383,688.000000,4.000000,,,,0.000000,4.000000,4.000000,4.000000,4.000000,4.000000,4.000000,4.000000,4.000000,4.000000,4.000000,4.000000,4.000000,4.000000,4.000000,100.000000
1602005857.110678,8.000000,0.000000,4120.000000,4125.128418,4133.846191,4125.128418,4118.974121,4129.230957,4135.897461,4138.461426,4131.282227,4151.794922,4160.000000,4160.512695,4171.794922,4222.051270,787.000000,4.000000,,,,0.000000,4.000000,4.000000,4.000000,4.000000,4.000000,4.000000,4.000000,4.000000,4.000000,4.000000,4.000000,4.000000,4.000000,4.000000,100.000000
1602005857.118563,9.000000,0.000000,4105.128418,4112.820313,4122.563965,4120.512695,4116.922852,4118.974121,4121.538574,4123.077148,4122.051270,4132.307617,4156.410156,4141.538574,4170.256348,4219.487305,839.000000,4.000000,,,,0.000000,4.000000,4.000000,4.000000,4.000000,4.000000,4.000000,4.000000,4.000000,4.000000,4.000000,4.000000,4.000000,4.000000,4.000000,100.000000
1602005857.126447,10.000000,0.000000,4111.282227,4113.846191,4125.641113,4119.487305,4121.025879,4109.743652,4121.025879,4123.077148,4125.128418,4115.384766,4149.230957,4136.922852,4170.256348,4210.256348,877.000000,4.000000,,,,0.000000,4.000000,4.000000,4.000000,4.000000,4.000000,4.000000,4.000000,4.000000,4.000000,4.000000,4.000000,4.000000,4.000000,4.000000,100.000000
1602005857.134332,11.000000,0.000000,4125.641113,4126.666504,4138.974121,4129.743652,4125.128418,4117.436035,4127.692383,4136.410156,4140.512695,4138.461426,4159.487305,4146.153809,4180.512695,4213.846191,843.000000,4.000000,,,,0.000000,4.000000,4.000000,4.000000,4.000000,4.000000,4.000000,4.000000,4.000000,4.000000,4.000000,4.000000,4.000000,4.000000,4.000000,100.000000
1602005857.142217,12.000000,0.000000,4125.128418,4129.743652,4142.563965,4136.410156,4124.102539,4127.692383,4125.128418,4137.948730,4143.077148,4148.717773,4169.743652,4150.769043,4189.743652,4226.666504,764.000000,4.000000,,,,0.000000,4.000000,4.000000,4.000000,4.000000,4.000000,4.000000,4.000000,4.000000,4.000000,4.000000,4.000000,4.000000,4.000000,4.000000,100.000000
1602005857.150102,13.000000,0.000000,4119.487305,4122.563965,4137.948730,4126.666504,4122.563965,4125.128418,4120.512695,4128.717773,4134.358887,4142.563965,4170.256348,4150.769043,4186.666504,4231.794922,754.000000,4.000000,,,,0.000000,4.000000,4.000000,4.000000,4.000000,4.000000,4.000000,4.000000,4.000000,4.000000,4.000000,4.000000,4.000000,4.000000,4.000000,100.000000
1602005857.157888,14.000000,0.000000,4119.487305,4121.025879,4131.794922,4120.000000,4123.589844,4119.487305,4121.025879,4126.666504,4135.897461,4155.384766,4167.692383,4148.205078,4176.410156,4222.051270,877.000000,4.000000,,,,0.000000,4.000000,4.000000,4.000000,4.000000,4.000000,4.000000,4.000000,4.000000,4.000000,4.000000,4.000000,4.000000,4.000000,4.000000,100.000000
1602005857.165774,15.000000,0.000000,4112.307617,4118.974121,4123.077148,4121.025879,4119.487305,4120.512695,4124.615234,4127.692383,4134.358887,4155.384766,4155.897461,4139.487305,4171.794922,4204.102539,843.000000,4.000000,,,,0.000000,4.000000,4.000000,4.000000,4.000000,4.000000,4.000000,4.000000,4.000000,4.000000,4.000000,4.000000,4.000000,4.000000,4.000000,100.000000
1602005857.173660,16.000000,0.000000,4103.077148,4108.205078,4116.922852,4114.358887,4112.820313,4122.563965,4125.641113,4126.153809,4123.077148,4134.871582,4145.641113,4135.384766,4167.179688,4186.666504,0.000000,4.000000,,,,0.000000,4.000000,4.000000,4.000000,4.000000,4.000000,4.000000,4.000000,4.000000,4.000000,4.000000,4.000000,4.000000,4.000000,4.000000,100.000000
1602005857.181546,17.000000,0.000000,4108.717773,4106.666504,4123.077148,4111.282227,4113.846191,4124.615234,4124.615234,4133.333496,4126.153809,4140.000000,4156.922852,4144.615234,4167.179688,4188.717773,0.000000,4.000000,,,,0.000000,4.000000,4.000000,4.000000,4.000000,4.000000,4.000000,4.000000,4.000000,4.000000,4.000000,4.000000,4.000000,4.000000,4.000000,100.000000
1602005857.189433,18.000000,0.000000,4121.025879,4119.487305,4137.436035,4120.512695,4122.051270,4130.769043,4125.641113,4140.512695,4140.000000,4144.615234,4166.666504,4160.512695,4176.922852,4212.820313,0.000000,4.000000,,,,0.000000,4.000000,4.000000,4.000000,4.000000,4.000000,4.000000,4.000000,4.000000,4.000000,4.000000,4.000000,4.000000,4.000000,4.000000,100.000000
1602005857.197319,19.000000,0.000000,4128.717773,4127.692383,4145.128418,4127.179688,4126.153809,4132.820313,4125.641113,4134.358887,4140.000000,4131.794922,4165.128418,4170.769043,4182.563965,4226.153809,0.000000,4.000000,,,,0.000000,4.000000,4.000000,4.000000,4.000000,4.000000,4.000000,4.000000,4.000000,4.000000,4.000000,4.000000,4.000000,4.000000,4.000000,100.000000
1602005857.205205,20.000000,0.000000,4124.615234,4121.538574,4141.538574,4125.128418,4117.948730,4124.102539,4121.025879,4122.051270,4132.820313,4134.358887,4163.077148,4166.666504,4175.384766,4215.384766,0.000000,4.000000,,,,0.000000,4.000000,4.000000,4.000000,4.000000,4.000000,4.000000,4.000000,4.000000,4.000000,4.000000,4.000000,4.000000,4.000000,4.000000,100.000000
1602005857.213091,21.000000,0.000000,4114.871582,4115.897461,4136.922852,4121.538574,4115.897461,4118.974121,4118.461426,4117.948730,4134.358887,4136.922852,4158.461426,4156.922852,4164.615234,4205.641113,0.000000,4.000000,,,,0.000000,4.000000,4.000000,4.000000,4.000000,4.000000,4.000000,4.000000,4.000000,4.000000,4.000000,4.000000,4.000000,4.000000,4.000000,100.000000
1602005857.220873,22.000000,0.000000,4110.256348,4114.871582,4133.333496,4123.589844,4121.538574,4128.205078,4123.077148,4120.512695,4133.846191,4129.743652,4154.358887,4147.692383,4157.948730,4198.461426,0.000000,4.000000,,,,0.000000,4.000000,4.000000,4.000000,4.000000,4.000000,4.000000,4.000000,4.000000,4.000000,4.000000,4.000000,4.000000,4.000000,4.000000,100.000000
1602005857.228756,23.000000,0.000000,4105.128418,4112.307617,4121.538574,4118.461426,4116.410156,4125.641113,4125.128418,4121.025879,4124.102539,4127.692383,4149.743652,4132.820313,4147.692383,4178.974121,0.000000,4.000000,,,,0.000000,4.000000,4.000000,4.000000,4.000000,4.000000,4.000000,4.000000,4.000000,4.000000,4.000000,4.000000,4.000000,4.000000,4.000000,100.000000
1602005857.236542,24.000000,0.000000,4096.922852,4103.589844,4110.256348,4106.666504,4102.051270,4108.717773,4121.025879,4121.025879,4116.410156,4125.641113,4136.922852,4121.025879,4139.487305,4166.153809,0.000000,4.000000,,,,0.000000,4.000000,4.000000,4.000000,4.000000,4.000000,4.000000,4.000000,4.000000,4.000000,4.000000,4.000000,4.000000,4.000000,4.000000,100.000000
1602005857.244427,25.000000,0.000000,4103.077148,4102.563965,4114.871582,4109.743652,4102.563965,4110.769043,4126.153809,4129.743652,4124.102539,4118.461426,4135.384766,4130.769043,4146.666504,4175.897461,0.000000,4.000000,,,,0.000000,4.000000,4.000000,4.000000,4.000000,4.000000,4.000000,4.000000,4.000000,4.000000,4.000000,4.000000,4.000000,4.000000,4.000000,100.000000
1602005857.252313,26.000000,0.000000,4124.102539,4115.897461,4132.307617,4123.077148,4117.948730,4126.153809,4140.512695,4142.051270,4133.333496,4129.230957,4160.512695,4152.307617,4164.615234,4188.717773,0.000000,4.000000,,,,0.000000,4.000000,4.000000,4.000000,4.000000,4.000000,4.000000,4.000000,4.000000,4.000000,4.000000,4.000000,4.000000,4.000000,4.000000,100.000000
1602005857.260199,27.000000,0.000000,4124.615234,4120.000000,4137.436035,4123.589844,4121.025879,4125.128418,4141.538574,4140.512695,4129.230957,4147.179688,4174.358887,4158.974121,4169.230957,4185.128418,0.000000,4.000000,,,,0.000000,4.000000,4.000000,4.000000,4.000000,4.000000,4.000000,4.000000,4.000000,4.000000,4.000000,4.000000,4.000000,4.000000,4.000000,100.000000
1602005857.268085,28.000000,0.000000,4109.743652,4109.230957,4128.205078,4117.436035,4113.846191,4120.000000,4128.205078,4128.205078,4120.000000,4140.000000,4159.487305,4153.846191,4156.922852,4182.563965,0.000000,4.000000,,,,0.000000,4.000000,4.000000,4.000000,4.000000,4.000000,4.000000,4.000000,4.000000,4.000000,4.000000,4.000000,4.000000,4.000000,4.000000,100.000000
1602005857.275971,29.000000,0.000000,4110.256348,4104.102539,4121.538574,4118.974121,4111.794922,4118.974121,4122.563965,4122.051270,4114.358887,4123.077148,4149.743652,4148.717773,4151.794922,4184.102539,0.000000,4.000000,,,,0.000000,4.000000,4.000000,4.000000,4.000000,4.000000,4.000000,4.000000,4.000000,4.000000,4.000000,4.000000,4.000000,4.000000,4.000000,100.000000
1602005857.283857,30.000000,0.000000,4114.871582,4107.179688,4123.077148,4120.000000,4113.333496,4110.769043,4123.589844,4122.051270,4113.846191,4127.179688,4154.871582,4143.589844,4151.794922,4176.410156,0.000000,4.000000,,,,0.000000,4.000000,4.000000,4.000000,4.000000,4.000000,4.000000,4.000000,4.000000,4.000000,4.000000,4.000000,4.000000,4.000000,4.000000,100.000000
1602005857.291743,31.000000,0.000000,4111.282227,4107.179688,4127.692383,4118.461426,4110.256348,4111.282227,4122.563965,4123.077148,4118.461426,4136.922852,4156.922852,4142.563965,4152.307617,4174.871582,0.000000,4.000000,,,,0.000000,4.000000,4.000000,4.000000,4.000000,4.000000,4.000000,4.000000,4.000000,4.000000,4.000000,4.000000,4.000000,4.000000,4.000000,100.000000
1602005857.299528,32.000000,0.000000,4112.307617,4106.666504,4127.692383,4119.487305,4109.230957,4122.563965,4122.563965,4123.077148,4124.102539,4121.025879,4152.820313,4142.051270,4158.974121,4182.563965,0.000000,4.000000,,,,0.000000,4.000000,4.000000,4.000000,4.000000,4.000000,4.000000,4.000000,4.000000,4.000000,4.000000,4.000000,4.000000,4.000000,4.000000,100.000000
1602005857.307412,33.000000,0.000000,4121.025879,4111.794922,4127.692383,4122.051270,4110.256348,4122.051270,4122.051270,4120.000000,4121.538574,4114.358887,4154.358887,4143.077148,4167.179688,4184.615234,0.000000,4.000000,,,,0.000000,4.000000,4.000000,4.000000,4.000000,4.000000,4.000000,4.000000,4.000000,4.000000,4.000000,4.000000,4.000000,4.000000,4.000000,100.000000
1602005857.315297,34.000000,0.000000,4126.666504,4120.000000,4134.871582,4124.102539,4109.743652,4121.538574,4123.589844,4125.128418,4123.589844,4144.615234,4166.153809,4150.769043,4169.230957,4195.384766,0.000000,4.000000,,,,0.000000,4.000000,4.000000,4.000000,4.000000,4.000000,4.000000,4.000000,4.000000,4.000000,4.000000,4.000000,4.000000,4.000000,4.000000,100.000000
1602005857.323181,35.000000,0.000000,4130.256348,4127.179688,4142.563965,4129.743652,4117.436035,4131.282227,4132.307617,4134.871582,4134.358887,4161.538574,4175.897461,4156.410156,4170.769043,4203.077148,0.000000,4.000000,,,,0.000000,4.000000,4.000000,4.000000,4.000000,4.000000,4.000000,4.000000,4.000000,4.000000,4.000000,4.000000,4.000000,4.000000,4.000000,100.000000
1602005857.331066,36.000000,0.000000,4136.410156,4125.128418,4143.077148,4137.436035,4125.641113,4131.282227,4137.948730,4138.461426,4138.461426,4152.307617,4171.282227,4155.897461,4172.307617,4188.717773,0.000000,4.000000,,,,0.000000,4.000000,4.000000,4.000000,4.000000,4.000000,4.000000,4.000000,4.000000,4.000000,4.000000,4.000000,4.000000,4.000000,4.000000,100.000000
1602005857.338950,37.000000,0.000000,4141.025879,4124.102539,4142.051270,4140.000000,4124.615234,4123.589844,4132.307617,4141.538574,4141.025879,4155.897461,4167.179688,4157.948730,4173.333496,4183.077148,0.000000,4.000000,,,,0.000000,4.000000,4.000000,4.000000,4.000000,4.000000,4.000000,4.000000,4.000000,4.000000,4.000000,4.000000,4.000000,4.000000,4.000000,100.000000
1602005857.346737,38.000000,0.000000,4136.922852,4126.153809,4142.563965,4132.307617,4122.563965,4123.589844,4126.153809,4141.025879,4141.025879,4154.358887,4169.230957,4150.769043,4168.717773,4189.743652,0.000000,4.000000,,,,0.000000,4.000000,4.000000,4.000000,4.000000,4.000000,4.000000,4.000000,4.000000,4.000000,4.000000,4.000000,4.000000,4.000000,4.000000,100.000000
1602005857.354623,39.000000,0.000000,4124.615234,4119.487305,4134.358887,4124.102539,4121.025879,4121.538574,4129.743652,4130.769043,4129.743652,4130.256348,4162.051270,4135.384766,4156.922852,4174.871582,0.000000,4.000000,,,,0.000000,4.000000,4.000000,4.000000,4.000000,4.000000,4.000000,4.000000,4.000000,4.000000,4.000000,4.000000,4.000000,4.000000,4.000000,100.000000
1602005857.362510,40.000000,0.000000,4115.897461,4110.256348,4122.563965,4118.461426,4112.820313,4117.436035,4136.922852,4124.102539,4120.512695,4118.461426,4153.846191,4132.307617,4151.794922,4160.512695,0.000000,4.000000,,,,0.000000,4.000000,4.000000,4.000000,4.000000,4.000000,4.000000,4.000000,4.000000,4.000000,4.000000,4.000000,4.000000,4.000000,4.000000,100.000000
1602005857.370396,41.000000,0.000000,4120.512695,4110.256348,4120.000000,4118.461426,4107.692383,4122.563965,4137.948730,4124.615234,4117.948730,4122.563965,4157.436035,4136.410156,4155.384766,4171.794922,0.000000,4.000000,,,,0.000000,4.000000,4.000000,4.000000,4.000000,4.000000,4.000000,4.000000,4.000000,4.000000,4.000000,4.000000,4.000000,4.000000,4.000000,100.000000
1602005857.378282,42.000000,0.000000,4124.102539,4112.820313,4125.641113,4120.000000,4107.692383,4123.077148,4131.282227,4121.538574,4107.692383,4127.179688,4154.871582,4135.384766,4154.358887,4176.922852,0.000000,4.000000,,,,0.000000,4.000000,4.000000,4.000000,4.000000,4.000000,4.000000,4.000000,4.000000,4.000000,4.000000,4.000000,4.000000,4.000000,4.000000,100.000000
1602005857.386169,43.000000,0.000000,4121.538574,4115.897461,4131.794922,4120.512695,4105.128418,4111.794922,4123.589844,4119.487305,4105.641113,4140.000000,4148.717773,4140.000000,4152.820313,4172.307617,0.000000,4.000000,,,,0.000000,4.000000,4.000000,4.000000,4.000000,4.000000,4.000000,4.000000,4.000000,4.000000,4.000000,4.000000,4.000000,4.000000,4.000000,100.000000
1602005857.394055,44.000000,0.000000,4131.794922,4124.102539,4136.922852,4128.717773,4109.743652,4111.794922,4122.563965,4124.615234,4120.512695,4154.871582,4164.615234,4147.692383,4165.128418,4185.128418,0.000000,4.000000,,,,0.000000,4.000000,4.000000,4.000000,4.000000,4.000000,4.000000,4.000000,4.000000,4.000000,4.000000,4.000000,4.000000,4.000000,4.000000,100.000000
1602005857.401942,45.000000,0.000000,4143.077148,4130.256348,4143.077148,4135.384766,4122.051270,4122.051270,4126.153809,4127.179688,4124.615234,4141.538574,4174.871582,4146.153809,4175.384766,4199.487305,0.000000,4.000000,,,,0.000000,4.000000,4.000000,4.000000,4.000000,4.000000,4.000000,4.000000,4.000000,4.000000,4.000000,4.000000,4.000000,4.000000,4.000000,100.000000
1602005857.409926,46.000000,0.000000,4132.820313,4126.666504,4142.051270,4127.692383,4121.538574,4122.563965,4123.589844,4124.615234,4117.948730,4114.358887,4158.461426,4143.589844,4166.153809,4185.128418,0.000000,4.000000,,,,0.000000,4.000000,4.000000,4.000000,4.000000,4.000000,4.000000,4.000000,4.000000,4.000000,4.000000,4.000000,4.000000,4.000000,4.000000,100.000000
1602005857.417810,47.000000,0.000000,4125.641113,4121.538574,4136.922852,4118.974121,4114.358887,4116.922852,4118.974121,4122.563965,4119.487305,4113.846191,4148.205078,4143.077148,4155.384766,4168.717773,0.000000,4.000000,,,,0.000000,4.000000,4.000000,4.000000,4.000000,4.000000,4.000000,4.000000,4.000000,4.000000,4.000000,4.000000,4.000000,4.000000,4.000000,100.000000
1602005857.425695,48.000000,0.000000,4135.384766,4121.025879,4135.384766,4123.077148,4117.436035,4118.461426,4123.077148,4122.563965,4124.102539,4132.307617,4154.871582,4137.436035,4158.461426,4175.897461,0.000000,4.000000,,,,0.000000,4.000000,4.000000,4.000000,4.000000,4.000000,4.000000,4.000000,4.000000,4.000000,4.000000,4.000000,4.000000,4.000000,4.000000,100.000000
1602005857.433579,49.000000,0.000000,4133.333496,4120.512695,4129.230957,4122.563965,4118.461426,4122.051270,4126.666504,4125.128418,4123.589844,4143.589844,4155.384766,4126.153809,4158.974121,4179.487305,0.000000,4.000000,,,,0.000000,4.000000,4.000000,4.000000,4.000000,4.000000,4.000000,4.000000,4.000000,4.000000,4.000000,4.000000,4.000000,4.000000,4.000000,100.000000
1602005857.441464,50.000000,0.000000,4120.512695,4118.974121,4121.538574,4118.974121,4112.820313,4121.538574,4126.666504,4132.307617,4122.051270,4141.025879,4152.820313,4122.563965,4150.769043,4170.256348,0.000000,4.000000,,,,0.000000,4.000000,4.000000,4.000000,4.000000,4.000000,4.000000,4.000000,4.000000,4.000000,4.000000,4.000000,4.000000,4.000000,4.000000,100.000000
1602005857.449348,51.000000,0.000000,4123.589844,4120.512695,4124.102539,4125.641113,4118.461426,4121.025879,4131.282227,4137.436035,4121.538574,4126.153809,4156.922852,4127.179688,4154.358887,4170.769043,0.000000,4.000000,,,,0.000000,4.000000,4.000000,4.000000,4.000000,4.000000,4.000000,4.000000,4.000000,4.000000,4.000000,4.000000,4.000000,4.000000,4.000000,100.000000
1602005857.457135,52.000000,0.000000,4127.179688,4120.512695,4126.153809,4128.717773,4122.051270,4122.563965,4136.410156,4136.410156,4124.615234,4116.922852,4154.871582,4124.615234,4159.487305,4168.717773,0.000000,4.000000,,,,0.000000,4.000000,4.000000,4.000000,4.000000,4.000000,4.000000,4.000000,4.000000,4.000000,4.000000,4.000000,4.000000,4.000000,4.000000,100.000000
1602005857.465022,53.000000,0.000000,4121.538574,4118.974121,4122.051270,4124.102539,4119.487305,4124.615234,4136.410156,4134.871582,4126.153809,4128.717773,4151.282227,4120.000000,4154.871582,4157.948730,0.000000,4.000000,,,,0.000000,4.000000,4.000000,4.000000,4.000000,4.000000,4.000000,4.000000,4.000000,4.000000,4.000000,4.000000,4.000000,4.000000,4.000000,100.000000
1602005857.472909,54.000000,0.000000,4122.051270,4120.512695,4122.563965,4123.077148,4125.128418,4126.153809,4132.820313,4134.358887,4123.589844,4138.461426,4152.307617,4131.794922,4160.000000,4162.563965,0.000000,4.000000,,,,0.000000,4.000000,4.000000,4.000000,4.000000,4.000000,4.000000,4.000000,4.000000,4.000000,4.000000,4.000000,4.000000,4.000000,4.000000,100.000000
1602005857.480795,55.000000,0.000000,4124.102539,4123.077148,4123.589844,4123.589844,4125.128418,4124.102539,4126.153809,4127.179688,4122.563965,4129.743652,4152.820313,4143.589844,4170.256348,4170.769043,0.000000,4.000000,,,,0.000000,4.000000,4.000000,4.000000,4.000000,4.000000,4.000000,4.000000,4.000000,4.000000,4.000000,4.000000,4.000000,4.000000,4.000000,100.000000
1602005857.488682,56.000000,0.000000,4123.077148,4123.589844,4125.128418,4124.102539,4115.897461,4116.410156,4123.077148,4121.538574,4123.077148,4130.256348,4151.794922,4137.436035,4167.692383,4166.666504,0.000000,4.000000,,,,0.000000,4.000000,4.000000,4.000000,4.000000,4.000000,4.000000,4.000000,4.000000,4.000000,4.000000,4.000000,4.000000,4.000000,4.000000,100.000000
1602005857.496568,57.000000,0.000000,4130.256348,4125.128418,4132.307617,4129.230957,4122.051270,4110.769043,4125.128418,4127.179688,4122.563965,4146.666504,4154.358887,4138.974121,4168.717773,4169.230957,0.000000,4.000000,,,,0.000000,4.000000,4.000000,4.000000,4.000000,4.000000,4.000000,4.000000,4.000000,4.000000,4.000000,4.000000,4.000000,4.000000,4.000000,100.000000
1602005857.504455,58.000000,0.000000,4141.538574,4130.256348,4140.512695,4135.897461,4132.307617,4116.922852,4125.641113,4135.384766,4131.794922,4155.897461,4163.077148,4154.358887,4183.589844,4176.922852,0.000000,4.000000,,,,0.000000,4.000000,4.000000,4.000000,4.000000,4.000000,4.000000,4.000000,4.000000,4.000000,4.000000,4.000000,4.000000,4.000000,4.000000,100.000000
1602005857.512342,59.000000,0.000000,4143.589844,4136.922852,4140.000000,4139.487305,4128.717773,4125.128418,4130.769043,4145.641113,4146.153809,4153.333496,4173.846191,4159.487305,4194.358887,4176.410156,0.000000,4.000000,,,,0.000000,4.000000,4.000000,4.000000,4.000000,4.000000,4.000000,4.000000,4.000000,4.000000,4.000000,4.000000,4.000000,4.000000,4.000000,100.000000
1602005857.520228,60.000000,0.000000,4142.051270,4138.461426,4130.769043,4136.922852,4126.153809,4126.666504,4138.461426,4151.282227,4144.615234,4145.641113,4173.846191,4153.846191,4190.769043,4180.000000,0.000000,4.000000,,,,0.000000,4.000000,4.000000,4.000000,4.000000,4.000000,4.000000,4.000000,4.000000,4.000000,4.000000,4.000000,4.000000,4.000000,4.000000,100.000000
1602005857.528013,61.000000,0.000000,4142.051270,4130.256348,4123.077148,4127.179688,4129.230957,4121.538574,4137.948730,4145.641113,4135.897461,4137.436035,4161.025879,4151.794922,4178.974121,4185.128418,0.000000,4.000000,,,,0.000000,4.000000,4.000000,4.000000,4.000000,4.000000,4.000000,4.000000,4.000000,4.000000,4.000000,4.000000,4.000000,4.000000,4.000000,100.000000
1602005857.535898,62.000000,0.000000,4135.384766,4122.563965,4120.512695,4123.077148,4127.692383,4118.974121,4138.461426,4139.487305,4135.897461,4140.512695,4154.358887,4154.358887,4167.692383,4179.487305,0.000000,4.000000,,,,0.000000,4.000000,4.000000,4.000000,4.000000,4.000000,4.000000,4.000000,4.000000,4.000000,4.000000,4.000000,4.000000,4.000000,4.000000,100.000000
1602005857.543783,63.000000,0.000000,4125.128418,4120.000000,4114.358887,4124.102539,4125.128418,4121.025879,4135.897461,4134.871582,4123.077148,4138.461426,4153.333496,4147.179688,4156.410156,4166.666504,0.000000,4.000000,,,,0.000000,4.000000,4.000000,4.000000,4.000000,4.000000,4.000000,4.000000,4.000000,4.000000,4.000000,4.000000,4.000000,4.000000,4.000000,100.000000
1602005857.551668,64.000000,0.000000,4119.487305,4117.948730,4108.205078,4119.487305,4122.563965,4120.512695,4125.128418,4122.563965,4102.563965,4120.000000,4137.436035,4136.410156,4142.051270,4153.333496,784.000000,4.000000,,,,0.000000,4.000000,4.000000,4.000000,4.000000,4.000000,4.000000,4.000000,4.000000,4.000000,4.000000,4.000000,4.000000,4.000000,4.000000,100.000000
1602005857.559552,65.000000,0.000000,4125.128418,4122.563965,4118.974121,4124.615234,4126.153809,4118.974121,4121.025879,4114.871582,4106.153809,4111.282227,4126.153809,4140.000000,4144.102539,4150.769043,795.000000,4.000000,,,,0.000000,4.000000,4.000000,4.000000,4.000000,4.000000,4.000000,4.000000,4.000000,4.000000,4.000000,4.000000,4.000000,4.000000,4.000000,100.000000
1602005857.567437,66.000000,0.000000,4144.102539,4134.358887,4133.846191,4136.922852,4136.922852,4123.589844,4126.153809,4126.153809,4124.102539,4130.256348,4140.512695,4152.820313,4166.153809,4165.128418,851.000000,4.000000,,,,0.000000,4.000000,4.000000,4.000000,4.000000,4.000000,4.000000,4.000000,4.000000,4.000000,4.000000,4.000000,4.000000,4.000000,4.000000,100.000000
1602005857.575222,67.000000,0.000000,4163.077148,4147.179688,4143.077148,4143.077148,4141.025879,4128.717773,4129.743652,4136.922852,4133.846191,4154.358887,4156.922852,4164.102539,4182.051270,4184.615234,864.000000,4.000000,,,,0.000000,4.000000,4.000000,4.000000,4.000000,4.000000,4.000000,4.000000,4.000000,4.000000,4.000000,4.000000,4.000000,4.000000,4.000000,100.000000
1602005857.583107,68.000000,0.000000,4169.230957,4154.358887,4150.256348,4145.128418,4139.487305,4126.153809,4133.846191,4138.461426,4137.948730,4152.820313,4166.153809,4171.794922,4186.666504,4191.282227,813.000000,4.000000,,,,0.000000,4.000000,4.000000,4.000000,4.000000,4.000000,4.000000,4.000000,4.000000,4.000000,4.000000,4.000000,4.000000,4.000000,4.000000,100.000000
1602005857.590992,69.000000,0.000000,4168.717773,4151.794922,4148.205078,4143.589844,4138.461426,4124.615234,4135.897461,4138.461426,4142.563965,4134.358887,4170.769043,4172.820313,4183.589844,4189.743652,824.000000,4.000000,,,,0.000000,4.000000,4.000000,4.000000,4.000000,4.000000,4.000000,4.000000,4.000000,4.000000,4.000000,4.000000,4.000000,4.000000,4.000000,100.000000
1602005857.598877,70.000000,0.000000,4164.102539,4143.077148,4140.000000,4139.487305,4132.307617,4132.820313,4134.358887,4140.512695,4142.051270,4126.666504,4163.077148,4166.666504,4171.282227,4184.102539,777.000000,4.000000,,,,0.000000,4.000000,4.000000,4.000000,4.000000,4.000000,4.000000,4.000000,4.000000,4.000000,4.000000,4.000000,4.000000,4.000000,4.000000,100.000000
1602005857.606762,71.000000,0.000000,4152.307617,4133.333496,4136.922852,4135.897461,4125.641113,4140.512695,4138.461426,4141.025879,4132.820313,4129.230957,4149.230957,4159.487305,4158.461426,4169.230957,688.000000,4.000000,,,,0.000000,4.000000,4.000000,4.000000,4.000000,4.000000,4.000000,4.000000,4.000000,4.000000,4.000000,4.000000,4.000000,4.000000,4.000000,100.000000
1602005857.614647,72.000000,0.000000,4134.358887,4123.589844,4127.179688,4125.641113,4123.077148,4134.358887,4137.436035,4131.794922,4121.538574,4124.102539,4135.384766,4148.205078,4146.153809,4146.153809,751.000000,4.000000,,,,0.000000,4.000000,4.000000,4.000000,4.000000,4.000000,4.000000,4.000000,4.000000,4.000000,4.000000,4.000000,4.000000,4.000000,4.000000,100.000000
1602005857.622532,73.000000,0.000000,4126.153809,4117.948730,4117.436035,4117.436035,4121.025879,4129.743652,4127.692383,4122.051270,4118.461426,4124.102539,4125.641113,4140.000000,4134.871582,4132.820313,839.000000,4.000000,,,,0.000000,4.000000,4.000000,4.000000,4.000000,4.000000,4.000000,4.000000,4.000000,4.000000,4.000000,4.000000,4.000000,4.000000,4.000000,100.000000
1602005857.630316,74.000000,0.000000,4133.333496,4124.102539,4128.205078,4126.153809,4126.153809,4137.436035,4129.743652,4123.589844,4123.589844,4140.000000,4137.948730,4143.077148,4140.000000,4141.538574,877.000000,4.000000,,,,0.000000,4.000000,4.000000,4.000000,4.000000,4.000000,4.000000,4.000000,4.000000,4.000000,4.000000,4.000000,4.000000,4.000000,4.000000,100.000000
1602005857.638201,75.000000,0.000000,4141.538574,4129.743652,4136.410156,4131.282227,4129.743652,4135.384766,4135.384766,4129.230957,4128.717773,4135.897461,4150.256348,4148.717773,4152.307617,4151.282227,773.000000,4.000000,,,,0.000000,4.000000,4.000000,4.000000,4.000000,4.000000,4.000000,4.000000,4.000000,4.000000,4.000000,4.000000,4.000000,4.000000,4.000000,100.000000
1602005857.646085,76.000000,0.000000,4139.487305,4125.641113,4125.641113,4123.589844,4123.077148,4124.102539,4131.282227,4127.692383,4128.205078,4120.000000,4142.051270,4152.307617,4153.333496,4148.717773,764.000000,4.000000,,,,0.000000,4.000000,4.000000,4.000000,4.000000,4.000000,4.000000,4.000000,4.000000,4.000000,4.000000,4.000000,4.000000,4.000000,4.000000,100.000000
1602005857.653969,77.000000,0.000000,4134.358887,4123.077148,4118.461426,4126.666504,4121.538574,4129.230957,4132.820313,4126.666504,4122.051270,4127.692383,4143.077148,4148.717773,4153.333496,4151.282227,754.000000,4.000000,,,,0.000000,4.000000,4.000000,4.000000,4.000000,4.000000,4.000000,4.000000,4.000000,4.000000,4.000000,4.000000,4.000000,4.000000,4.000000,100.000000
1602005857.661853,78.000000,0.000000,4133.846191,4129.743652,4121.538574,4136.410156,4128.717773,4136.410156,4136.410156,4134.358887,4120.000000,4141.025879,4151.794922,4145.128418,4158.974121,4159.487305,877.000000,4.000000,,,,0.000000,4.000000,4.000000,4.000000,4.000000,4.000000,4.000000,4.000000,4.000000,4.000000,4.000000,4.000000,4.000000,4.000000,4.000000,100.000000
1602005857.669738,79.000000,0.000000,4138.974121,4137.948730,4128.717773,4140.512695,4128.717773,4131.794922,4126.666504,4136.410156,4125.128418,4146.666504,4149.230957,4151.282227,4160.000000,4157.948730,773.000000,4.000000,,,,0.000000,4.000000,4.000000,4.000000,4.000000,4.000000,4.000000,4.000000,4.000000,4.000000,4.000000,4.000000,4.000000,4.000000,4.000000,100.000000
1602005857.677522,80.000000,0.000000,4149.743652,4136.410156,4136.410156,4140.000000,4125.128418,4127.179688,4117.948730,4129.743652,4126.153809,4155.897461,4149.230957,4157.436035,4160.512695,4153.333496,764.000000,4.000000,,,,0.000000,4.000000,4.000000,4.000000,4.000000,4.000000,4.000000,4.000000,4.000000,4.000000,4.000000,4.000000,4.000000,4.000000,4.000000,100.000000
1602005857.685407,81.000000,0.000000,4150.769043,4135.384766,4139.487305,4140.512695,4129.743652,4124.615234,4121.025879,4130.256348,4126.153809,4150.256348,4157.948730,4158.461426,4166.666504,4159.487305,754.000000,4.000000,,,,0.000000,4.000000,4.000000,4.000000,4.000000,4.000000,4.000000,4.000000,4.000000,4.000000,4.000000,4.000000,4.000000,4.000000,4.000000,100.000000
1602005857.693292,82.000000,0.000000,4141.025879,4138.461426,4138.461426,4140.000000,4130.769043,4123.077148,4121.025879,4136.922852,4133.846191,4124.102539,4152.820313,4157.948730,4164.615234,4162.051270,877.000000,4.000000,,,,0.000000,4.000000,4.000000,4.000000,4.000000,4.000000,4.000000,4.000000,4.000000,4.000000,4.000000,4.000000,4.000000,4.000000,4.000000,100.000000
1602005857.701177,83.000000,0.000000,4139.487305,4140.000000,4139.487305,4141.025879,4127.179688,4126.153809,4120.000000,4138.461426,4141.025879,4124.615234,4137.436035,4156.922852,4153.846191,4155.384766,773.000000,4.000000,,,,0.000000,4.000000,4.000000,4.000000,4.000000,4.000000,4.000000,4.000000,4.000000,4.000000,4.000000,4.000000,4.000000,4.000000,4.000000,100.000000
1602005857.709061,84.000000,0.000000,4148.205078,4140.000000,4136.922852,4142.051270,4127.692383,4127.692383,4129.743652,4141.025879,4136.922852,4152.307617,4139.487305,4153.846191,4152.307617,4155.384766,764.000000,4.000000,,,,0.000000,4.000000,4.000000,4.000000,4.000000,4.000000,4.000000,4.000000,4.000000,4.000000,4.000000,4.000000,4.000000,4.000000,4.000000,100.000000
1602005857.716946,85.000000,0.000000,4145.128418,4133.333496,4123.077148,4133.846191,4128.717773,4126.666504,4137.948730,4141.025879,4127.179688,4144.615234,4145.641113,4145.128418,4152.307617,4150.256348,754.000000,4.000000,,,,0.000000,4.000000,4.000000,4.000000,4.000000,4.000000,4.000000,4.000000,4.000000,4.000000,4.000000,4.000000,4.000000,4.000000,4.000000,100.000000
1602005857.724733,86.000000,0.000000,4127.692383,4116.410156,4105.641113,4121.538574,4118.461426,4129.743652,4137.436035,4131.794922,4121.538574,4111.794922,4129.230957,4128.717773,4140.000000,4128.717773,877.000000,4.000000,,,,0.000000,4.000000,4.000000,4.000000,4.000000,4.000000,4.000000,4.000000,4.000000,4.000000,4.000000,4.000000,4.000000,4.000000,4.000000,100.000000
1602005857.732620,87.000000,0.000000,4125.641113,4109.743652,4103.077148,4117.948730,4109.743652,4128.205078,4137.948730,4129.230957,4120.512695,4114.871582,4115.897461,4117.948730,4128.717773,4118.461426,773.000000,4.000000,,,,0.000000,4.000000,4.000000,4.000000,4.000000,4.000000,4.000000,4.000000,4.000000,4.000000,4.000000,4.000000,4.000000,4.000000,4.000000,100.000000
1602005857.740507,88.000000,0.000000,4139.487305,4118.461426,4117.948730,4122.051270,4116.922852,4120.000000,4137.948730,4137.436035,4126.153809,4140.512695,4139.487305,4128.717773,4137.948730,4132.820313,764.000000,4.000000,,,,0.000000,4.000000,4.000000,4.000000,4.000000,4.000000,4.000000,4.000000,4.000000,4.000000,4.000000,4.000000,4.000000,4.000000,4.000000,100.000000
1602005857.748394,89.000000,0.000000,4144.615234,4125.128418,4128.205078,4123.077148,4118.461426,4121.025879,4131.794922,4140.000000,4136.922852,4140.000000,4157.948730,4145.641113,4154.871582,4143.589844,754.000000,4.000000,,,,0.000000,4.000000,4.000000,4.000000,4.000000,4.000000,4.000000,4.000000,4.000000,4.000000,4.000000,4.000000,4.000000,4.000000,4.000000,100.000000
1602005857.756281,90.000000,0.000000,4133.846191,4118.974121,4124.102539,4121.025879,4111.282227,4122.051270,4122.563965,4134.871582,4140.000000,4131.794922,4140.000000,4146.666504,4152.820313,4134.871582,877.000000,4.000000,,,,0.000000,4.000000,4.000000,4.000000,4.000000,4.000000,4.000000,4.000000,4.000000,4.000000,4.000000,4.000000,4.000000,4.000000,4.000000,100.000000
1602005857.764168,91.000000,0.000000,4127.692383,4112.307617,4120.000000,4120.000000,4114.871582,4113.846191,4118.461426,4126.153809,4129.230957,4143.077148,4129.743652,4142.051270,4145.128418,4130.256348,773.000000,4.000000,,,,0.000000,4.000000,4.000000,4.000000,4.000000,4.000000,4.000000,4.000000,4.000000,4.000000,4.000000,4.000000,4.000000,4.000000,4.000000,100.000000
1602005857.772054,92.000000,0.000000,4134.358887,4117.948730,4130.256348,4122.563965,4125.128418,4110.256348,4120.000000,4122.563965,4119.487305,4157.436035,4149.743652,4154.358887,4159.487305,4145.641113,764.000000,4.000000,,,,0.000000,4.000000,4.000000,4.000000,4.000000,4.000000,4.000000,4.000000,4.000000,4.000000,4.000000,4.000000,4.000000,4.000000,4.000000,100.000000
1602005857.779941,93.000000,0.000000,4144.102539,4126.153809,4138.461426,4127.692383,4127.179688,4121.538574,4119.487305,4124.102539,4124.615234,4160.000000,4164.615234,4169.230957,4170.256348,4158.974121,754.000000,4.000000,,,,0.000000,4.000000,4.000000,4.000000,4.000000,4.000000,4.000000,4.000000,4.000000,4.000000,4.000000,4.000000,4.000000,4.000000,4.000000,100.000000
1602005857.787828,94.000000,0.000000,4143.077148,4124.102539,4126.153809,4126.666504,4126.666504,4133.333496,4110.256348,4121.538574,4129.743652,4139.487305,4150.769043,4157.436035,4153.846191,4149.743652,877.000000,4.000000,,,,0.000000,4.000000,4.000000,4.000000,4.000000,4.000000,4.000000,4.000000,4.000000,4.000000,4.000000,4.000000,4.000000,4.000000,4.000000,100.000000
1602005857.795815,95.000000,0.000000,4127.692383,4118.974121,4106.153809,4123.077148,4125.641113,4135.384766,4108.717773,4116.922852,4122.051270,4106.153809,4134.871582,4139.487305,4142.051270,4135.897461,773.000000,4.000000,,,,0.000000,4.000000,4.000000,4.000000,4.000000,4.000000,4.000000,4.000000,4.000000,4.000000,4.000000,4.000000,4.000000,4.000000,4.000000,100.000000
1602005857.803701,96.000000,0.000000,4124.102539,4120.512695,4105.641113,4123.077148,4123.077148,4135.897461,4121.025879,4125.128418,4124.615234,4103.077148,4135.897461,4143.077148,4152.307617,4136.922852,764.000000,4.000000,,,,0.000000,4.000000,4.000000,4.000000,4.000000,4.000000,4.000000,4.000000,4.000000,4.000000,4.000000,4.000000,4.000000,4.000000,4.000000,100.000000
1602005857.811587,97.000000,0.000000,4141.025879,4124.615234,4120.000000,4124.615234,4127.179688,4139.487305,4126.666504,4142.051270,4148.717773,4136.410156,4140.000000,4152.820313,4157.436035,4139.487305,754.000000,4.000000,,,,0.000000,4.000000,4.000000,4.000000,4.000000,4.000000,4.000000,4.000000,4.000000,4.000000,4.000000,4.000000,4.000000,4.000000,4.000000,100.000000
1602005857.819474,98.000000,0.000000,4154.871582,4130.769043,4130.769043,4125.128418,4128.205078,4142.051270,4123.589844,4150.256348,4157.948730,4157.948730,4143.589844,4154.358887,4153.333496,4142.051270,877.000000,4.000000,,,,0.000000,4.000000,4.000000,4.000000,4.000000,4.000000,4.000000,4.000000,4.000000,4.000000,4.000000,4.000000,4.000000,4.000000,4.000000,100.000000
1602005857.827360,99.000000,0.000000,4154.358887,4138.461426,4137.948730,4131.794922,4122.051270,4140.512695,4126.153809,4146.153809,4140.512695,4152.307617,4153.846191,4154.871582,4156.410156,4147.179688,773.000000,4.000000,,,,0.000000,4.000000,4.000000,4.000000,4.000000,4.000000,4.000000,4.000000,4.000000,4.000000,4.000000,4.000000,4.000000,4.000000,4.000000,100.000000
1602005857.835247,100.000000,0.000000,4153.846191,4137.948730,4141.538574,4136.410156,4119.487305,4129.743652,4128.205078,4142.051270,4133.333496,4143.589844,4160.000000,4154.871582,4160.512695,4141.538574,764.000000,4.000000,,,,0.000000,4.000000,4.000000,4.000000,4.000000,4.000000,4.000000,4.000000,4.000000,4.000000,4.000000,4.000000,4.000000,4.000000,4.000000,100.000000
1602005857.843133,101.000000,0.000000,4154.358887,4134.358887,4139.487305,4130.256348,4122.051270,4123.077148,4127.179688,4140.512695,4138.974121,4140.512695,4147.692383,4147.179688,4157.948730,4132.820313,754.000000,4.000000,,,,0.000000,4.000000,4.000000,4.000000,4.000000,4.000000,4.000000,4.000000,4.000000,4.000000,4.000000,4.000000,4.000000,4.000000,4.000000,100.000000
1602005857.851019,102.000000,0.000000,4152.307617,4135.897461,4130.256348,4129.743652,4124.102539,4132.820313,4128.205078,4138.974121,4137.948730,4143.077148,4141.538574,4146.666504,4156.922852,4145.641113,877.000000,4.000000,,,,0.000000,4.000000,4.000000,4.000000,4.000000,4.000000,4.000000,4.000000,4.000000,4.000000,4.000000,4.000000,4.000000,4.000000,4.000000,100.000000
1602005857.858906,103.000000,0.000000,4154.358887,4135.384766,4122.051270,4132.820313,4122.051270,4137.436035,4126.666504,4136.410156,4134.358887,4140.512695,4150.256348,4161.538574,4158.461426,4154.358887,773.000000,4.000000,,,,0.000000,4.000000,4.000000,4.000000,4.000000,4.000000,4.000000,4.000000,4.000000,4.000000,4.000000,4.000000,4.000000,4.000000,4.000000,100.000000
1602005857.866692,104.000000,0.000000,4155.384766,4128.205078,4127.179688,4128.717773,4121.025879,4122.563965,4122.563965,4130.256348,4134.358887,4129.743652,4155.384766,4174.358887,4157.436035,4145.128418,764.000000,4.000000,,,,0.000000,4.000000,4.000000,4.000000,4.000000,4.000000,4.000000,4.000000,4.000000,4.000000,4.000000,4.000000,4.000000,4.000000,4.000000,100.000000
1602005857.874578,105.000000,0.000000,4152.820313,4124.102539,4137.948730,4129.743652,4120.512695,4115.384766,4117.948730,4125.641113,4136.922852,4133.846191,4154.871582,4173.333496,4156.922852,4147.692383,754.000000,4.000000,,,,0.000000,4.000000,4.000000,4.000000,4.000000,4.000000,4.000000,4.000000,4.000000,4.000000,4.000000,4.000000,4.000000,4.000000,4.000000,100.000000
1602005857.882464,106.000000,0.000000,4153.846191,4125.641113,4142.051270,4135.897461,4113.846191,4122.051270,4110.769043,4128.717773,4138.974121,4145.128418,4154.358887,4167.692383,4157.948730,4153.846191,877.000000,4.000000,,,,0.000000,4.000000,4.000000,4.000000,4.000000,4.000000,4.000000,4.000000,4.000000,4.000000,4.000000,4.000000,4.000000,4.000000,4.000000,100.000000
1602005857.890351,107.000000,0.000000,4157.948730,4126.666504,4143.077148,4132.307617,4111.282227,4123.077148,4112.820313,4135.897461,4143.077148,4144.615234,4155.384766,4171.282227,4156.410156,4145.128418,773.000000,4.000000,,,,0.000000,4.000000,4.000000,4.000000,4.000000,4.000000,4.000000,4.000000,4.000000,4.000000,4.000000,4.000000,4.000000,4.000000,4.000000,100.000000
1602005857.898237,108.000000,0.000000,4157.436035,4127.179688,4144.102539,4125.641113,4121.025879,4122.563965,4122.563965,4141.538574,4147.179688,4144.615234,4153.333496,4173.846191,4157.436035,4138.461426,764.000000,4.000000,,,,0.000000,4.000000,4.000000,4.000000,4.000000,4.000000,4.000000,4.000000,4.000000,4.000000,4.000000,4.000000,4.000000,4.000000,4.000000,100.000000
1602005857.906123,109.000000,0.000000,4152.820313,4125.128418,4138.461426,4124.615234,4121.538574,4124.615234,4123.589844,4141.025879,4139.487305,4143.589844,4146.153809,4160.512695,4154.871582,4141.025879,754.000000,4.000000,,,,0.000000,4.000000,4.000000,4.000000,4.000000,4.000000,4.000000,4.000000,4.000000,4.000000,4.000000,4.000000,4.000000,4.000000,4.000000,100.000000
1602005857.914009,110.000000,0.000000,4152.820313,4123.589844,4129.743652,4125.128418,4113.846191,4123.589844,4120.512695,4131.794922,4122.051270,4130.256348,4136.922852,4150.256348,4141.025879,4135.897461,877.000000,4.000000,,,,0.000000,4.000000,4.000000,4.000000,4.000000,4.000000,4.000000,4.000000,4.000000,4.000000,4.000000,4.000000,4.000000,4.000000,4.000000,100.000000
1602005857.921895,111.000000,0.000000,4149.743652,4123.077148,4125.641113,4127.692383,4115.897461,4124.102539,4123.077148,4124.102539,4104.102539,4116.410156,4133.333496,4151.282227,4134.358887,4123.589844,773.000000,4.000000,,,,0.000000,4.000000,4.000000,4.000000,4.000000,4.000000,4.000000,4.000000,4.000000,4.000000,4.000000,4.000000,4.000000,4.000000,4.000000,100.000000
1602005857.929882,112.000000,0.000000,4139.487305,4121.538574,4122.051270,4127.179688,4115.897461,4125.641113,4123.589844,4120.512695,4091.794922,4107.179688,4135.897461,4143.077148,4135.384766,4117.436035,764.000000,4.000000,,,,0.000000,4.000000,4.000000,4.000000,4.000000,4.000000,4.000000,4.000000,4.000000,4.000000,4.000000,4.000000,4.000000,4.000000,4.000000,100.000000
1602005857.937769,113.000000,0.000000,4135.384766,4121.025879,4122.051270,4123.077148,4112.820313,4123.077148,4123.077148,4113.846191,4087.692383,4095.897461,4134.358887,4126.153809,4129.230957,4117.948730,754.000000,4.000000,,,,0.000000,4.000000,4.000000,4.000000,4.000000,4.000000,4.000000,4.000000,4.000000,4.000000,4.000000,4.000000,4.000000,4.000000,4.000000,100.000000
1602005857.945657,114.000000,0.000000,4140.000000,4122.051270,4124.102539,4124.615234,4117.436035,4122.563965,4125.641113,4111.282227,4088.718018,4090.256348,4134.358887,4123.077148,4125.641113,4118.974121,877.000000,4.000000,,,,0.000000,4.000000,4.000000,4.000000,4.000000,4.000000,4.000000,4.000000,4.000000,4.000000,4.000000,4.000000,4.000000,4.000000,4.000000,100.000000
1602005857.953544,115.000000,0.000000,4143.589844,4122.051270,4125.641113,4126.666504,4113.333496,4122.051270,4125.128418,4118.461426,4092.820557,4107.179688,4136.922852,4132.307617,4135.384766,4119.487305,773.000000,4.000000,,,,0.000000,4.000000,4.000000,4.000000,4.000000,4.000000,4.000000,4.000000,4.000000,4.000000,4.000000,4.000000,4.000000,4.000000,4.000000,100.000000
1602005857.961431,116.000000,0.000000,4143.077148,4123.077148,4129.230957,4124.615234,4103.077148,4115.384766,4123.077148,4128.205078,4109.230957,4137.436035,4140.512695,4144.102539,4144.615234,4123.077148,764.000000,4.000000,,,,0.000000,4.000000,4.000000,4.000000,4.000000,4.000000,4.000000,4.000000,4.000000,4.000000,4.000000,4.000000,4.000000,4.000000,4.000000,100.000000
1602005857.969318,117.000000,0.000000,4139.487305,4126.153809,4128.717773,4124.102539,4106.666504,4110.769043,4124.102539,4132.820313,4127.692383,4146.153809,4143.589844,4153.846191,4147.179688,4124.615234,754.000000,4.000000,,,,0.000000,4.000000,4.000000,4.000000,4.000000,4.000000,4.000000,4.000000,4.000000,4.000000,4.000000,4.000000,4.000000,4.000000,4.000000,100.000000
1602005857.977205,118.000000,0.000000,4144.615234,4128.717773,4127.692383,4128.205078,4116.922852,4108.717773,4122.563965,4130.256348,4126.666504,4129.230957,4136.410156,4153.333496,4150.769043,4128.717773,877.000000,4.000000,,,,0.000000,4.000000,4.000000,4.000000,4.000000,4.000000,4.000000,4.000000,4.000000,4.000000,4.000000,4.000000,4.000000,4.000000,4.000000,100.000000
1602005857.985092,119.000000,0.000000,4155.384766,4128.717773,4130.256348,4133.846191,4120.000000,4109.230957,4114.358887,4119.487305,4117.948730,4122.051270,4133.846191,4144.102539,4143.589844,4133.333496,773.000000,4.000000,,,,0.000000,4.000000,4.000000,4.000000,4.000000,4.000000,4.000000,4.000000,4.000000,4.000000,4.000000,4.000000,4.000000,4.000000,4.000000,100.000000
1602005857.992979,120.000000,0.000000,4155.384766,4128.205078,4132.820313,4137.436035,4121.025879,4117.948730,4107.692383,4114.358887,4117.436035,4121.025879,4147.179688,4135.384766,4133.846191,4124.102539,764.000000,4.000000,,,,0.000000,4.000000,4.000000,4.000000,4.000000,4.000000,4.000000,4.000000,4.000000,4.000000,4.000000,4.000000,4.000000,4.000000,4.000000,100.000000
1602005858.000866,121.000000,0.000000,4151.794922,4130.769043,4134.358887,4135.897461,4123.589844,4124.615234,4107.692383,4118.974121,4114.871582,4106.666504,4155.897461,4136.410156,4142.563965,4115.897461,754.000000,4.000000,,,,0.000000,4.000000,4.000000,4.000000,4.000000,4.000000,4.000000,4.000000,4.000000,4.000000,4.000000,4.000000,4.000000,4.000000,4.000000,100.000000
1602005858.008653,122.000000,0.000000,4155.384766,4132.307617,4135.897461,4129.743652,4123.589844,4121.025879,4114.358887,4119.487305,4109.743652,4105.128418,4153.333496,4146.666504,4157.948730,4125.641113,877.000000,4.000000,,,,0.000000,4.000000,4.000000,4.000000,4.000000,4.000000,4.000000,4.000000,4.000000,4.000000,4.000000,4.000000,4.000000,4.000000,4.000000,100.000000
1602005858.016539,123.000000,0.000000,4156.410156,4127.692383,4137.948730,4125.128418,4121.538574,4125.128418,4118.974121,4118.974121,4102.563965,4122.051270,4154.358887,4155.897461,4158.974121,4135.897461,773.000000,4.000000,,,,0.000000,4.000000,4.000000,4.000000,4.000000,4.000000,4.000000,4.000000,4.000000,4.000000,4.000000,4.000000,4.000000,4.000000,4.000000,100.000000
1602005858.024426,124.000000,0.000000,4153.846191,4126.153809,4142.563965,4126.153809,4119.487305,4139.487305,4122.051270,4123.589844,4102.563965,4127.179688,4155.384766,4155.897461,4154.871582,4134.871582,764.000000,4.000000,,,,0.000000,4.000000,4.000000,4.000000,4.000000,4.000000,4.000000,4.000000,4.000000,4.000000,4.000000,4.000000,4.000000,4.000000,4.000000,100.000000
1602005858.032312,125.000000,0.000000,4152.820313,4129.743652,4143.589844,4128.205078,4117.436035,4138.974121,4128.205078,4124.615234,4114.358887,4121.538574,4153.846191,4152.820313,4156.922852,4136.922852,754.000000,4.000000,,,,0.000000,4.000000,4.000000,4.000000,4.000000,4.000000,4.000000,4.000000,4.000000,4.000000,4.000000,4.000000,4.000000,4.000000,4.000000,100.000000
1602005858.040199,126.000000,0.000000,4151.282227,4129.230957,4140.000000,4127.692383,4117.436035,4127.179688,4135.897461,4125.128418,4124.102539,4134.871582,4155.384766,4150.256348,4154.358887,4137.436035,877.000000,4.000000,,,,0.000000,4.000000,4.000000,4.000000,4.000000,4.000000,4.000000,4.000000,4.000000,4.000000,4.000000,4.000000,4.000000,4.000000,4.000000,100.000000
1602005858.048085,127.000000,0.000000,4154.358887,4125.128418,4138.461426,4124.615234,4121.538574,4126.666504,4140.000000,4131.282227,4128.205078,4147.179688,4154.358887,4144.615234,4146.153809,4128.717773,773.000000,4.000000,,,,0.000000,4.000000,4.000000,4.000000,4.000000,4.000000,4.000000,4.000000,4.000000,4.000000,4.000000,4.000000,4.000000,4.000000,4.000000,100.000000
1602005858.055971,128.000000,0.000000,4149.230957,4123.077148,4134.358887,4122.563965,4121.025879,4127.692383,4134.871582,4135.384766,4133.333496,4123.589844,4157.436035,4138.461426,4145.641113,4119.487305,764.000000,4.000000,,,,0.000000,4.000000,4.000000,4.000000,4.000000,4.000000,4.000000,4.000000,4.000000,4.000000,4.000000,4.000000,4.000000,4.000000,4.000000,100.000000
1602005858.063858,0.000000,0.000000,4138.461426,4124.102539,4130.769043,4123.589844,4117.436035,4121.538574,4128.717773,4137.436035,4140.000000,4108.717773,4170.256348,4138.461426,4152.820313,4124.102539,785.000000,4.000000,,,,0.000000,4.000000,4.000000,4.000000,4.000000,4.000000,4.000000,4.000000,4.000000,4.000000,4.000000,4.000000,4.000000,4.000000,4.000000,100.000000
1602005858.071744,1.000000,0.000000,4146.153809,4126.153809,4132.307617,4124.102539,4120.000000,4124.615234,4129.743652,4138.974121,4138.461426,4135.384766,4177.436035,4138.974121,4155.897461,4130.769043,795.000000,4.000000,,,,0.000000,4.000000,4.000000,4.000000,4.000000,4.000000,4.000000,4.000000,4.000000,4.000000,4.000000,4.000000,4.000000,4.000000,4.000000,100.000000
1602005858.079529,2.000000,0.000000,4153.846191,4123.589844,4127.692383,4122.563965,4123.077148,4137.948730,4133.333496,4131.282227,4129.743652,4145.641113,4166.153809,4136.922852,4146.153809,4123.589844,851.000000,4.000000,,,,0.000000,4.000000,4.000000,4.000000,4.000000,4.000000,4.000000,4.000000,4.000000,4.000000,4.000000,4.000000,4.000000,4.000000,4.000000,100.000000
1602005858.087414,3.000000,0.000000,4142.051270,4118.461426,4117.948730,4120.000000,4121.025879,4140.000000,4127.692383,4118.974121,4119.487305,4122.563965,4147.179688,4134.871582,4140.000000,4113.846191,864.000000,4.000000,,,,0.000000,4.000000,4.000000,4.000000,4.000000,4.000000,4.000000,4.000000,4.000000,4.000000,4.000000,4.000000,4.000000,4.000000,4.000000,100.000000
1602005858.095299,4.000000,0.000000,4143.077148,4125.128418,4124.102539,4123.077148,4126.153809,4135.897461,4124.615234,4115.897461,4115.384766,4121.025879,4155.384766,4138.974121,4149.743652,4117.948730,813.000000,4.000000,,,,0.000000,4.000000,4.000000,4.000000,4.000000,4.000000,4.000000,4.000000,4.000000,4.000000,4.000000,4.000000,4.000000,4.000000,4.000000,100.000000
1602005858.103184,5.000000,0.000000,4156.922852,4137.948730,4136.410156,4132.307617,4133.333496,4143.589844,4129.230957,4120.000000,4113.333496,4129.230957,4178.974121,4144.102539,4158.974121,4125.641113,824.000000,4.000000,,,,0.000000,4.000000,4.000000,4.000000,4.000000,4.000000,4.000000,4.000000,4.000000,4.000000,4.000000,4.000000,4.000000,4.000000,4.000000,100.000000
1602005858.111069,6.000000,0.000000,4155.897461,4137.436035,4137.436035,4133.846191,4124.615234,4145.128418,4126.666504,4121.025879,4107.179688,4125.128418,4177.948730,4141.025879,4154.871582,4123.589844,777.000000,4.000000,,,,0.000000,4.000000,4.000000,4.000000,4.000000,4.000000,4.000000,4.000000,4.000000,4.000000,4.000000,4.000000,4.000000,4.000000,4.000000,100.000000
1602005858.118954,7.000000,0.000000,4158.974121,4132.820313,4142.563965,4131.282227,4116.922852,4129.743652,4121.538574,4121.538574,4112.307617,4134.358887,4170.769043,4143.077148,4152.307617,4126.666504,688.000000,4.000000,,,,0.000000,4.000000,4.000000,4.000000,4.000000,4.000000,4.000000,4.000000,4.000000,4.000000,4.000000,4.000000,4.000000,4.000000,4.000000,100.000000
1602005858.126839,8.000000,0.000000,4173.333496,4138.974121,4152.307617,4136.410156,4125.641113,4122.051270,4124.615234,4128.717773,4123.589844,4138.461426,4185.128418,4154.871582,4165.641113,4141.025879,773.000000,4.000000,,,,0.000000,4.000000,4.000000,4.000000,4.000000,4.000000,4.000000,4.000000,4.000000,4.000000,4.000000,4.000000,4.000000,4.000000,4.000000,100.000000
1602005858.134624,9.000000,0.000000,4177.948730,4146.666504,4157.436035,4141.538574,4131.282227,4129.230957,4131.794922,4138.461426,4125.128418,4129.230957,4194.358887,4154.871582,4173.846191,4145.128418,840.000000,4.000000,,,,0.000000,4.000000,4.000000,4.000000,4.000000,4.000000,4.000000,4.000000,4.000000,4.000000,4.000000,4.000000,4.000000,4.000000,4.000000,100.000000
1602005858.142508,10.000000,0.000000,4170.256348,4144.102539,4156.410156,4138.974121,4125.641113,4127.179688,4131.794922,4138.461426,4124.102539,4135.384766,4183.077148,4144.102539,4162.563965,4133.333496,877.000000,4.000000,,,,0.000000,4.000000,4.000000,4.000000,4.000000,4.000000,4.000000,4.000000,4.000000,4.000000,4.000000,4.000000,4.000000,4.000000,4.000000,100.000000
1602005858.150393,11.000000,0.000000,4158.461426,4138.974121,4148.205078,4135.384766,4122.563965,4121.538574,4129.230957,4131.794922,4123.589844,4136.410156,4171.794922,4137.948730,4145.641113,4118.461426,821.000000,4.000000,,,,0.000000,4.000000,4.000000,4.000000,4.000000,4.000000,4.000000,4.000000,4.000000,4.000000,4.000000,4.000000,4.000000,4.000000,4.000000,100.000000
1602005858.158277,12.000000,0.000000,4153.333496,4138.461426,4135.897461,4131.794922,4125.128418,4131.282227,4131.794922,4129.230957,4123.589844,4119.487305,4170.256348,4131.282227,4140.000000,4115.897461,768.000000,4.000000,,,,0.000000,4.000000,4.000000,4.000000,4.000000,4.000000,4.000000,4.000000,4.000000,4.000000,4.000000,4.000000,4.000000,4.000000,4.000000,100.000000
1602005858.166162,13.000000,0.000000,4154.871582,4137.948730,4127.692383,4124.615234,4130.769043,4141.025879,4131.282227,4128.205078,4130.256348,4127.692383,4177.948730,4121.025879,4146.153809,4119.487305,754.000000,4.000000,,,,0.000000,4.000000,4.000000,4.000000,4.000000,4.000000,4.000000,4.000000,4.000000,4.000000,4.000000,4.000000,4.000000,4.000000,4.000000,100.000000
1602005858.174046,14.000000,0.000000,4152.307617,4136.922852,4129.743652,4126.153809,4133.333496,4142.051270,4124.615234,4125.128418,4138.974121,4152.307617,4188.205078,4120.512695,4154.871582,4116.410156,877.000000,4.000000,,,,0.000000,4.000000,4.000000,4.000000,4.000000,4.000000,4.000000,4.000000,4.000000,4.000000,4.000000,4.000000,4.000000,4.000000,4.000000,100.000000
1602005858.181833,15.000000,0.000000,4150.769043,4138.974121,4130.769043,4135.384766,4129.230957,4148.717773,4122.051270,4121.025879,4138.974121,4141.538574,4183.589844,4123.589844,4153.846191,4110.256348,821.000000,4.000000,,,,0.000000,4.000000,4.000000,4.000000,4.000000,4.000000,4.000000,4.000000,4.000000,4.000000,4.000000,4.000000,4.000000,4.000000,4.000000,100.000000
