Timestamp,EEG.Counter,EEG.Interpolated,EEG.AF3,EEG.F7,EEG.F3,EEG.FC5,EEG.T7,EEG.P7,EEG.O1,EEG.O2,EEG.P8,EEG.T8,EEG.FC6,EEG.F4,EEG.F8,EEG.AF4,EEG.RawCq,EEG.Battery,MarkerIndex,MarkerType,MarkerValueInt,EEG.MarkerHardware,CQ.AF3,CQ.F7,CQ.F3,CQ.FC5,CQ.T7,CQ.P7,CQ.O1,CQ.O2,CQ.P8,CQ.T8,CQ.FC6,CQ.F4,CQ.F8,CQ.AF4,CQ.Overall
1602005870.972100,90.000000,0.000000,4140.000000,4138.974121,4123.589844,4127.692383,4130.769043,4128.717773,4147.692383,4137.436035,4120.512695,4117.948730,4125.128418,4155.384766,4125.128418,4121.538574,877.000000,4.000000,,,,0.000000,4.000000,4.000000,4.000000,4.000000,4.000000,4.000000,4.000000,4.000000,4.000000,4.000000,4.000000,4.000000,4.000000,4.000000,100.000000
1602005870.980086,91.000000,0.000000,4142.051270,4140.512695,4125.128418,4127.179688,4134.871582,4137.948730,4146.153809,4135.384766,4120.512695,4124.102539,4116.922852,4147.692383,4125.128418,4114.871582,841.000000,4.000000,,,,0.000000,4.000000,4.000000,4.000000,4.000000,4.000000,4.000000,4.000000,4.000000,4.000000,4.000000,4.000000,4.000000,4.000000,4.000000,100.000000
1602005870.987973,92.000000,0.000000,4126.153809,4138.974121,4114.871582,4127.692383,4130.256348,4148.205078,4142.563965,4134.871582,4126.153809,4130.769043,4108.717773,4131.282227,4124.102539,4097.436035,920.000000,4.000000,,,,0.000000,4.000000,4.000000,4.000000,4.000000,4.000000,4.000000,4.000000,4.000000,4.000000,4.000000,4.000000,4.000000,4.000000,4.000000,100.000000
1602005870.995859,93.000000,0.000000,4121.538574,4138.461426,4103.589844,4123.589844,4123.589844,4152.307617,4139.487305,4135.897461,4146.666504,4152.307617,4109.230957,4122.051270,4125.641113,4095.384521,734.000000,4.000000,,,,0.000000,4.000000,4.000000,4.000000,4.000000,4.000000,4.000000,4.000000,4.000000,4.000000,4.000000,4.000000,4.000000,4.000000,4.000000,100.000000
1602005871.003745,94.000000,0.000000,4136.922852,4140.512695,4112.307617,4125.128418,4124.615234,4145.128418,4137.436035,4139.487305,4160.000000,4154.871582,4119.487305,4131.282227,4130.769043,4112.820313,877.000000,4.000000,,,,0.000000,4.000000,4.000000,4.000000,4.000000,4.000000,4.000000,4.000000,4.000000,4.000000,4.000000,4.000000,4.000000,4.000000,4.000000,100.000000
1602005871.011632,95.000000,0.000000,4143.077148,4142.051270,4127.179688,4132.307617,4125.641113,4137.948730,4136.922852,4142.051270,4152.820313,4125.641113,4123.589844,4138.974121,4130.256348,4124.615234,841.000000,4.000000,,,,0.000000,4.000000,4.000000,4.000000,4.000000,4.000000,4.000000,4.000000,4.000000,4.000000,4.000000,4.000000,4.000000,4.000000,4.000000,100.000000
1602005871.019518,96.000000,0.000000,4129.743652,4142.051270,4126.153809,4130.769043,4124.615234,4137.948730,4135.384766,4142.563965,4141.538574,4113.333496,4122.563965,4136.410156,4121.538574,4114.871582,920.000000,4.000000,,,,0.000000,4.000000,4.000000,4.000000,4.000000,4.000000,4.000000,4.000000,4.000000,4.000000,4.000000,4.000000,4.000000,4.000000,4.000000,100.000000
1602005871.027405,97.000000,0.000000,4121.538574,4134.871582,4121.025879,4123.077148,4123.589844,4132.820313,4129.743652,4138.461426,4137.436035,4130.256348,4122.563965,4138.974121,4112.820313,4103.589844,734.000000,4.000000,,,,0.000000,4.000000,4.000000,4.000000,4.000000,4.000000,4.000000,4.000000,4.000000,4.000000,4.000000,4.000000,4.000000,4.000000,4.000000,100.000000
1602005871.035291,98.000000,0.000000,4123.077148,4125.128418,4121.025879,4121.538574,4121.025879,4115.384766,4124.102539,4129.230957,4129.743652,4121.538574,4117.436035,4146.153809,4107.692383,4106.666504,877.000000,4.000000,,,,0.000000,4.000000,4.000000,4.000000,4.000000,4.000000,4.000000,4.000000,4.000000,4.000000,4.000000,4.000000,4.000000,4.000000,4.000000,100.000000
1602005871.043177,99.000000,0.000000,4124.102539,4124.615234,4121.538574,4127.179688,4119.487305,4103.077148,4125.128418,4123.589844,4122.563965,4103.077148,4106.153809,4145.128418,4105.641113,4107.692383,841.000000,4.000000,,,,0.000000,4.000000,4.000000,4.000000,4.000000,4.000000,4.000000,4.000000,4.000000,4.000000,4.000000,4.000000,4.000000,4.000000,4.000000,100.000000
1602005871.051064,100.000000,0.000000,4130.769043,4127.692383,4120.512695,4127.692383,4123.589844,4109.230957,4126.666504,4125.128418,4124.615234,4127.692383,4106.153809,4141.025879,4107.692383,4094.358887,920.000000,4.000000,,,,0.000000,4.000000,4.000000,4.000000,4.000000,4.000000,4.000000,4.000000,4.000000,4.000000,4.000000,4.000000,4.000000,4.000000,4.000000,100.000000
1602005871.058849,101.000000,0.000000,4135.897461,4123.589844,4121.025879,4122.563965,4124.615234,4120.000000,4126.666504,4124.615234,4120.000000,4148.205078,4114.871582,4135.384766,4110.256348,4087.692383,734.000000,4.000000,,,,0.000000,4.000000,4.000000,4.000000,4.000000,4.000000,4.000000,4.000000,4.000000,4.000000,4.000000,4.000000,4.000000,4.000000,4.000000,100.000000
1602005871.066735,102.000000,0.000000,4128.205078,4118.461426,4122.563965,4120.000000,4115.897461,4113.846191,4130.769043,4119.487305,4101.025879,4107.692383,4113.333496,4127.692383,4106.666504,4100.512695,877.000000,4.000000,,,,0.000000,4.000000,4.000000,4.000000,4.000000,4.000000,4.000000,4.000000,4.000000,4.000000,4.000000,4.000000,4.000000,4.000000,4.000000,100.000000
1602005871.074620,103.000000,0.000000,4121.025879,4120.512695,4122.051270,4120.512695,4112.820313,4107.179688,4137.436035,4118.974121,4092.820557,4071.794922,4110.256348,4128.205078,4103.077148,4109.230957,841.000000,4.000000,,,,0.000000,4.000000,4.000000,4.000000,4.000000,4.000000,4.000000,4.000000,4.000000,4.000000,4.000000,4.000000,4.000000,4.000000,4.000000,100.000000
1602005871.082506,104.000000,0.000000,4124.102539,4124.615234,4122.563965,4123.077148,4121.025879,4119.487305,4142.051270,4129.743652,4109.743652,4100.000000,4119.487305,4139.487305,4108.205078,4106.666504,920.000000,4.000000,,,,0.000000,4.000000,4.000000,4.000000,4.000000,4.000000,4.000000,4.000000,4.000000,4.000000,4.000000,4.000000,4.000000,4.000000,4.000000,100.000000
1602005871.090391,105.000000,0.000000,4125.641113,4126.666504,4129.743652,4126.666504,4125.128418,4127.179688,4143.589844,4142.051270,4135.384766,4136.410156,4125.641113,4153.846191,4113.846191,4106.666504,734.000000,4.000000,,,,0.000000,4.000000,4.000000,4.000000,4.000000,4.000000,4.000000,4.000000,4.000000,4.000000,4.000000,4.000000,4.000000,4.000000,4.000000,100.000000
1602005871.098277,106.000000,0.000000,4121.538574,4126.666504,4133.846191,4126.666504,4118.974121,4121.025879,4137.948730,4140.000000,4140.512695,4123.589844,4107.692383,4157.948730,4107.179688,4110.256348,877.000000,4.000000,,,,0.000000,4.000000,4.000000,4.000000,4.000000,4.000000,4.000000,4.000000,4.000000,4.000000,4.000000,4.000000,4.000000,4.000000,4.000000,100.000000
1602005871.106162,107.000000,0.000000,4116.410156,4117.948730,4129.230957,4116.922852,4111.282227,4112.820313,4127.179688,4128.205078,4126.153809,4086.666748,4089.743652,4145.128418,4092.820557,4109.743652,841.000000,4.000000,,,,0.000000,4.000000,4.000000,4.000000,4.000000,4.000000,4.000000,4.000000,4.000000,4.000000,4.000000,4.000000,4.000000,4.000000,4.000000,100.000000
1602005871.114048,108.000000,0.000000,4109.230957,4106.666504,4124.102539,4110.769043,4108.205078,4106.666504,4119.487305,4120.000000,4113.846191,4075.897461,4097.436035,4135.897461,4085.641113,4100.512695,920.000000,4.000000,,,,0.000000,4.000000,4.000000,4.000000,4.000000,4.000000,4.000000,4.000000,4.000000,4.000000,4.000000,4.000000,4.000000,4.000000,4.000000,100.000000
1602005871.122031,109.000000,0.000000,4105.641113,4106.153809,4116.922852,4117.436035,4114.358887,4106.153809,4118.461426,4115.384766,4109.743652,4088.718018,4102.051270,4135.897461,4086.666748,4085.641113,734.000000,4.000000,,,,0.000000,4.000000,4.000000,4.000000,4.000000,4.000000,4.000000,4.000000,4.000000,4.000000,4.000000,4.000000,4.000000,4.000000,4.000000,100.000000
1602005871.129916,110.000000,0.000000,4103.589844,4111.794922,4107.179688,4122.563965,4124.102539,4109.230957,4118.974121,4116.922852,4107.692383,4103.589844,4095.897461,4128.717773,4087.692383,4079.487061,877.000000,4.000000,,,,0.000000,4.000000,4.000000,4.000000,4.000000,4.000000,4.000000,4.000000,4.000000,4.000000,4.000000,4.000000,4.000000,4.000000,4.000000,100.000000
1602005871.137800,111.000000,0.000000,4098.974121,4110.769043,4104.615234,4119.487305,4125.128418,4109.230957,4120.000000,4123.589844,4105.128418,4107.179688,4100.512695,4117.948730,4089.743652,4080.000000,841.000000,4.000000,,,,0.000000,4.000000,4.000000,4.000000,4.000000,4.000000,4.000000,4.000000,4.000000,4.000000,4.000000,4.000000,4.000000,4.000000,4.000000,100.000000
1602005871.145684,112.000000,0.000000,4092.820557,4111.794922,4106.666504,4118.974121,4116.922852,4115.897461,4120.512695,4123.077148,4103.077148,4102.051270,4111.282227,4115.897461,4092.307617,4070.256348,920.000000,4.000000,,,,0.000000,4.000000,4.000000,4.000000,4.000000,4.000000,4.000000,4.000000,4.000000,4.000000,4.000000,4.000000,4.000000,4.000000,4.000000,100.000000
1602005871.153568,113.000000,0.000000,4095.897461,4117.948730,4106.666504,4123.077148,4112.307617,4123.077148,4125.128418,4125.641113,4102.563965,4111.794922,4107.179688,4129.230957,4096.410156,4071.281982,734.000000,4.000000,,,,0.000000,4.000000,4.000000,4.000000,4.000000,4.000000,4.000000,4.000000,4.000000,4.000000,4.000000,4.000000,4.000000,4.000000,4.000000,100.000000
1602005871.161452,114.000000,0.000000,4113.333496,4121.538574,4112.820313,4124.102539,4116.410156,4118.974121,4134.871582,4138.974121,4110.256348,4127.179688,4106.153809,4154.871582,4112.307617,4109.230957,877.000000,4.000000,,,,0.000000,4.000000,4.000000,4.000000,4.000000,4.000000,4.000000,4.000000,4.000000,4.000000,4.000000,4.000000,4.000000,4.000000,4.000000,100.000000
1602005871.169237,115.000000,0.000000,4126.666504,4129.743652,4129.743652,4124.615234,4121.025879,4124.102539,4141.538574,4146.153809,4127.692383,4134.358887,4128.205078,4172.307617,4136.922852,4141.538574,841.000000,4.000000,,,,0.000000,4.000000,4.000000,4.000000,4.000000,4.000000,4.000000,4.000000,4.000000,4.000000,4.000000,4.000000,4.000000,4.000000,4.000000,100.000000
1602005871.177123,116.000000,0.000000,4126.666504,4136.410156,4142.051270,4127.692383,4123.077148,4140.512695,4141.025879,4142.563965,4142.051270,4133.846191,4142.563965,4169.230957,4142.563965,4131.794922,920.000000,4.000000,,,,0.000000,4.000000,4.000000,4.000000,4.000000,4.000000,4.000000,4.000000,4.000000,4.000000,4.000000,4.000000,4.000000,4.000000,4.000000,100.000000
1602005871.185009,117.000000,0.000000,4122.563965,4127.179688,4133.333496,4126.666504,4123.077148,4138.974121,4133.846191,4135.384766,4136.410156,4117.948730,4125.641113,4155.897461,4122.563965,4110.256348,734.000000,4.000000,,,,0.000000,4.000000,4.000000,4.000000,4.000000,4.000000,4.000000,4.000000,4.000000,4.000000,4.000000,4.000000,4.000000,4.000000,4.000000,100.000000
1602005871.192895,118.000000,0.000000,4120.512695,4120.000000,4121.025879,4125.128418,4125.128418,4123.589844,4125.128418,4126.153809,4123.589844,4104.615234,4103.589844,4143.589844,4102.563965,4110.769043,877.000000,4.000000,,,,0.000000,4.000000,4.000000,4.000000,4.000000,4.000000,4.000000,4.000000,4.000000,4.000000,4.000000,4.000000,4.000000,4.000000,4.000000,100.000000
1602005871.200780,119.000000,0.000000,4118.974121,4125.128418,4122.051270,4131.282227,4131.282227,4121.025879,4123.077148,4122.051270,4123.077148,4111.282227,4104.102539,4132.307617,4095.897461,4110.256348,841.000000,4.000000,,,,0.000000,4.000000,4.000000,4.000000,4.000000,4.000000,4.000000,4.000000,4.000000,4.000000,4.000000,4.000000,4.000000,4.000000,4.000000,100.000000
1602005871.208666,120.000000,0.000000,4119.487305,4130.256348,4121.538574,4136.922852,4136.922852,4131.794922,4125.128418,4115.897461,4120.000000,4111.794922,4109.743652,4121.538574,4094.871826,4096.922852,920.000000,4.000000,,,,0.000000,4.000000,4.000000,4.000000,4.000000,4.000000,4.000000,4.000000,4.000000,4.000000,4.000000,4.000000,4.000000,4.000000,4.000000,100.000000
1602005871.216552,121.000000,0.000000,4121.538574,4129.743652,4117.948730,4134.871582,4135.897461,4135.384766,4122.051270,4104.615234,4109.230957,4106.666504,4105.128418,4116.922852,4097.948730,4097.436035,734.000000,4.000000,,,,0.000000,4.000000,4.000000,4.000000,4.000000,4.000000,4.000000,4.000000,4.000000,4.000000,4.000000,4.000000,4.000000,4.000000,4.000000,100.000000
1602005871.224437,122.000000,0.000000,4125.641113,4131.794922,4118.974121,4134.358887,4137.436035,4126.666504,4117.948730,4105.128418,4105.128418,4119.487305,4105.128418,4125.641113,4108.717773,4111.794922,877.000000,4.000000,,,,0.000000,4.000000,4.000000,4.000000,4.000000,4.000000,4.000000,4.000000,4.000000,4.000000,4.000000,4.000000,4.000000,4.000000,4.000000,100.000000
1602005871.232323,123.000000,0.000000,4142.051270,4146.666504,4123.077148,4143.077148,4136.410156,4117.436035,4118.461426,4116.410156,4109.230957,4128.717773,4118.461426,4135.897461,4126.153809,4128.717773,841.000000,4.000000,,,,0.000000,4.000000,4.000000,4.000000,4.000000,4.000000,4.000000,4.000000,4.000000,4.000000,4.000000,4.000000,4.000000,4.000000,4.000000,100.000000
1602005871.240105,124.000000,0.000000,4155.384766,4154.871582,4129.230957,4144.102539,4125.641113,4117.436035,4120.512695,4127.179688,4117.436035,4125.128418,4137.436035,4143.589844,4146.153809,4152.820313,920.000000,4.000000,,,,0.000000,4.000000,4.000000,4.000000,4.000000,4.000000,4.000000,4.000000,4.000000,4.000000,4.000000,4.000000,4.000000,4.000000,4.000000,100.000000
1602005871.247988,125.000000,0.000000,4148.717773,4137.948730,4136.922852,4133.846191,4120.000000,4118.974121,4127.692383,4135.384766,4129.230957,4137.436035,4143.077148,4158.461426,4152.307617,4155.384766,734.000000,4.000000,,,,0.000000,4.000000,4.000000,4.000000,4.000000,4.000000,4.000000,4.000000,4.000000,4.000000,4.000000,4.000000,4.000000,4.000000,4.000000,100.000000
1602005871.255870,126.000000,0.000000,4155.384766,4139.487305,4146.153809,4138.974121,4124.102539,4114.871582,4136.410156,4141.025879,4139.487305,4153.846191,4140.512695,4169.230957,4146.153809,4138.974121,877.000000,4.000000,,,,0.000000,4.000000,4.000000,4.000000,4.000000,4.000000,4.000000,4.000000,4.000000,4.000000,4.000000,4.000000,4.000000,4.000000,4.000000,100.000000
1602005871.263651,127.000000,0.000000,4186.153809,4168.717773,4156.410156,4155.384766,4122.563965,4110.769043,4139.487305,4142.563965,4139.487305,4144.102539,4141.538574,4164.102539,4140.512695,4146.666504,841.000000,4.000000,,,,0.000000,4.000000,4.000000,4.000000,4.000000,4.000000,4.000000,4.000000,4.000000,4.000000,4.000000,4.000000,4.000000,4.000000,4.000000,100.000000
1602005871.271437,128.000000,0.000000,4197.948730,4182.563965,4160.000000,4157.948730,4123.077148,4114.358887,4137.436035,4142.051270,4129.230957,4117.948730,4135.384766,4157.436035,4125.641113,4156.410156,920.000000,4.000000,,,,0.000000,4.000000,4.000000,4.000000,4.000000,4.000000,4.000000,4.000000,4.000000,4.000000,4.000000,4.000000,4.000000,4.000000,4.000000,100.000000
1602005871.279322,0.000000,0.000000,4188.717773,4185.128418,4153.333496,4160.000000,4133.333496,4127.692383,4140.512695,4142.051270,4127.179688,4112.307617,4117.948730,4152.820313,4098.461426,4132.307617,799.000000,4.000000,,,,0.000000,4.000000,4.000000,4.000000,4.000000,4.000000,4.000000,4.000000,4.000000,4.000000,4.000000,4.000000,4.000000,4.000000,4.000000,100.000000
1602005871.287207,1.000000,0.000000,4185.128418,4195.384766,4146.153809,4166.666504,4135.897461,4140.000000,4150.256348,4143.589844,4138.974121,4127.179688,4109.230957,4144.615234,4081.025635,4111.794922,795.000000,4.000000,,,,0.000000,4.000000,4.000000,4.000000,4.000000,4.000000,4.000000,4.000000,4.000000,4.000000,4.000000,4.000000,4.000000,4.000000,4.000000,100.000000
1602005871.295092,2.000000,0.000000,4178.461426,4188.205078,4134.871582,4160.000000,4124.615234,4140.000000,4150.256348,4141.538574,4144.102539,4111.794922,4103.589844,4133.333496,4072.307617,4101.538574,851.000000,4.000000,,,,0.000000,4.000000,4.000000,4.000000,4.000000,4.000000,4.000000,4.000000,4.000000,4.000000,4.000000,4.000000,4.000000,4.000000,4.000000,100.000000
1602005871.302977,3.000000,0.000000,4161.538574,4172.820313,4123.077148,4148.205078,4117.436035,4135.384766,4140.000000,4134.871582,4138.461426,4092.307617,4084.615479,4125.641113,4060.512939,4089.230713,866.000000,4.000000,,,,0.000000,4.000000,4.000000,4.000000,4.000000,4.000000,4.000000,4.000000,4.000000,4.000000,4.000000,4.000000,4.000000,4.000000,4.000000,100.000000
1602005871.310863,4.000000,0.000000,4154.871582,4172.307617,4119.487305,4144.102539,4121.025879,4138.461426,4134.358887,4128.717773,4140.000000,4114.871582,4075.384521,4123.077148,4055.384521,4087.179443,813.000000,4.000000,,,,0.000000,4.000000,4.000000,4.000000,4.000000,4.000000,4.000000,4.000000,4.000000,4.000000,4.000000,4.000000,4.000000,4.000000,4.000000,100.000000
1602005871.318748,5.000000,0.000000,4152.820313,4165.641113,4120.512695,4139.487305,4121.538574,4142.051270,4131.282227,4125.641113,4145.128418,4129.743652,4087.179443,4118.461426,4055.384521,4080.512939,824.000000,4.000000,,,,0.000000,4.000000,4.000000,4.000000,4.000000,4.000000,4.000000,4.000000,4.000000,4.000000,4.000000,4.000000,4.000000,4.000000,4.000000,100.000000
1602005871.326633,6.000000,0.000000,4149.230957,4157.948730,4120.000000,4136.922852,4119.487305,4136.922852,4123.077148,4123.589844,4141.025879,4112.820313,4092.820557,4114.871582,4053.846191,4071.281982,777.000000,4.000000,,,,0.000000,4.000000,4.000000,4.000000,4.000000,4.000000,4.000000,4.000000,4.000000,4.000000,4.000000,4.000000,4.000000,4.000000,4.000000,100.000000
1602005871.334419,7.000000,0.000000,4154.871582,4164.615234,4118.974121,4141.025879,4122.563965,4132.307617,4117.948730,4122.051270,4128.717773,4098.461426,4086.666748,4121.025879,4060.512939,4085.128174,688.000000,4.000000,,,,0.000000,4.000000,4.000000,4.000000,4.000000,4.000000,4.000000,4.000000,4.000000,4.000000,4.000000,4.000000,4.000000,4.000000,4.000000,100.000000
1602005871.342305,8.000000,0.000000,4167.692383,4174.871582,4127.692383,4146.666504,4125.128418,4136.922852,4124.615234,4122.051270,4115.897461,4100.512695,4094.871826,4138.974121,4073.333252,4104.102539,785.000000,4.000000,,,,0.000000,4.000000,4.000000,4.000000,4.000000,4.000000,4.000000,4.000000,4.000000,4.000000,4.000000,4.000000,4.000000,4.000000,4.000000,100.000000
1602005871.350190,9.000000,0.000000,4173.846191,4174.358887,4140.512695,4154.358887,4124.102539,4133.846191,4131.282227,4123.077148,4107.179688,4105.641113,4107.692383,4153.333496,4078.974365,4109.743652,845.000000,4.000000,,,,0.000000,4.000000,4.000000,4.000000,4.000000,4.000000,4.000000,4.000000,4.000000,4.000000,4.000000,4.000000,4.000000,4.000000,4.000000,100.000000
1602005871.358076,10.000000,0.000000,4166.666504,4171.282227,4143.589844,4156.410156,4123.077148,4127.692383,4135.384766,4122.051270,4100.000000,4105.128418,4106.666504,4152.820313,4076.410156,4110.256348,877.000000,4.000000,,,,0.000000,4.000000,4.000000,4.000000,4.000000,4.000000,4.000000,4.000000,4.000000,4.000000,4.000000,4.000000,4.000000,4.000000,4.000000,100.000000
1602005871.365962,11.000000,0.000000,4166.153809,4168.205078,4138.461426,4148.205078,4123.077148,4135.384766,4147.179688,4124.102539,4097.436035,4108.205078,4102.563965,4147.692383,4074.358887,4107.692383,841.000000,4.000000,,,,0.000000,4.000000,4.000000,4.000000,4.000000,4.000000,4.000000,4.000000,4.000000,4.000000,4.000000,4.000000,4.000000,4.000000,4.000000,100.000000
1602005871.373847,12.000000,0.000000,4179.487305,4159.487305,4137.948730,4140.000000,4120.000000,4142.051270,4155.897461,4133.846191,4105.128418,4119.487305,4105.128418,4145.641113,4075.897461,4113.333496,790.000000,4.000000,,,,0.000000,4.000000,4.000000,4.000000,4.000000,4.000000,4.000000,4.000000,4.000000,4.000000,4.000000,4.000000,4.000000,4.000000,4.000000,100.000000
1602005871.381733,13.000000,0.000000,4187.179688,4153.846191,4140.000000,4136.410156,4119.487305,4139.487305,4148.205078,4139.487305,4117.948730,4128.717773,4106.153809,4142.563965,4077.948730,4123.589844,746.000000,4.000000,,,,0.000000,4.000000,4.000000,4.000000,4.000000,4.000000,4.000000,4.000000,4.000000,4.000000,4.000000,4.000000,4.000000,4.000000,4.000000,100.000000
1602005871.389619,14.000000,0.000000,4180.000000,4158.974121,4137.948730,4140.512695,4127.692383,4138.974121,4133.846191,4133.846191,4131.794922,4130.256348,4104.615234,4135.897461,4079.487061,4117.436035,877.000000,4.000000,,,,0.000000,4.000000,4.000000,4.000000,4.000000,4.000000,4.000000,4.000000,4.000000,4.000000,4.000000,4.000000,4.000000,4.000000,4.000000,100.000000
1602005871.397504,15.000000,0.000000,4174.871582,4167.692383,4130.769043,4148.205078,4136.922852,4141.538574,4121.538574,4123.589844,4136.410156,4126.153809,4106.153809,4127.179688,4081.025635,4103.077148,841.000000,4.000000,,,,0.000000,4.000000,4.000000,4.000000,4.000000,4.000000,4.000000,4.000000,4.000000,4.000000,4.000000,4.000000,4.000000,4.000000,4.000000,100.000000
1602005871.405290,16.000000,0.000000,4181.025879,4170.256348,4122.563965,4151.794922,4138.974121,4137.948730,4108.717773,4120.512695,4132.820313,4106.153809,4106.153809,4121.025879,4080.000000,4097.436035,0.000000,4.000000,,,,0.000000,4.000000,4.000000,4.000000,4.000000,4.000000,4.000000,4.000000,4.000000,4.000000,4.000000,4.000000,4.000000,4.000000,4.000000,100.000000
1602005871.413176,17.000000,0.000000,4186.153809,4170.769043,4122.051270,4153.333496,4136.922852,4133.846191,4102.563965,4121.025879,4135.384766,4101.538574,4104.102539,4125.128418,4079.487061,4094.871826,0.000000,4.000000,,,,0.000000,4.000000,4.000000,4.000000,4.000000,4.000000,4.000000,4.000000,4.000000,4.000000,4.000000,4.000000,4.000000,4.000000,4.000000,100.000000
1602005871.421062,18.000000,0.000000,4183.589844,4173.846191,4129.743652,4156.410156,4137.948730,4133.333496,4110.256348,4123.077148,4141.538574,4138.461426,4113.333496,4136.922852,4090.769287,4100.000000,0.000000,4.000000,,,,0.000000,4.000000,4.000000,4.000000,4.000000,4.000000,4.000000,4.000000,4.000000,4.000000,4.000000,4.000000,4.000000,4.000000,4.000000,100.000000
1602005871.428947,19.000000,0.000000,4182.051270,4172.820313,4142.563965,4157.436035,4134.358887,4133.333496,4122.051270,4130.769043,4140.512695,4162.563965,4129.743652,4147.692383,4106.666504,4124.615234,0.000000,4.000000,,,,0.000000,4.000000,4.000000,4.000000,4.000000,4.000000,4.000000,4.000000,4.000000,4.000000,4.000000,4.000000,4.000000,4.000000,4.000000,100.000000
1602005871.436833,20.000000,0.000000,4192.820313,4171.794922,4153.846191,4153.846191,4125.128418,4137.948730,4135.897461,4142.563965,4141.025879,4154.358887,4131.794922,4161.025879,4110.769043,4147.179688,0.000000,4.000000,,,,0.000000,4.000000,4.000000,4.000000,4.000000,4.000000,4.000000,4.000000,4.000000,4.000000,4.000000,4.000000,4.000000,4.000000,4.000000,100.000000
1602005871.444719,21.000000,0.000000,4206.666504,4170.256348,4159.487305,4151.282227,4117.436035,4136.922852,4146.153809,4147.179688,4145.128418,4152.820313,4123.077148,4172.307617,4111.282227,4143.077148,0.000000,4.000000,,,,0.000000,4.000000,4.000000,4.000000,4.000000,4.000000,4.000000,4.000000,4.000000,4.000000,4.000000,4.000000,4.000000,4.000000,4.000000,100.000000
1602005871.452604,22.000000,0.000000,4200.512695,4158.461426,4156.410156,4145.641113,4107.692383,4120.512695,4144.102539,4141.538574,4143.589844,4154.871582,4125.641113,4175.384766,4114.871582,4140.512695,0.000000,4.000000,,,,0.000000,4.000000,4.000000,4.000000,4.000000,4.000000,4.000000,4.000000,4.000000,4.000000,4.000000,4.000000,4.000000,4.000000,4.000000,100.000000
1602005871.460490,23.000000,0.000000,4185.128418,4149.230957,4147.179688,4137.436035,4102.563965,4107.179688,4136.922852,4138.461426,4135.384766,4141.025879,4129.230957,4172.820313,4108.717773,4152.307617,0.000000,4.000000,,,,0.000000,4.000000,4.000000,4.000000,4.000000,4.000000,4.000000,4.000000,4.000000,4.000000,4.000000,4.000000,4.000000,4.000000,4.000000,100.000000
1602005871.468376,24.000000,0.000000,4179.487305,4151.282227,4138.461426,4135.384766,4112.307617,4115.384766,4135.897461,4136.922852,4127.179688,4122.563965,4117.436035,4163.589844,4092.307617,4146.153809,0.000000,4.000000,,,,0.000000,4.000000,4.000000,4.000000,4.000000,4.000000,4.000000,4.000000,4.000000,4.000000,4.000000,4.000000,4.000000,4.000000,4.000000,100.000000
1602005871.476161,25.000000,0.000000,4171.282227,4151.794922,4131.794922,4138.974121,4124.615234,4132.820313,4137.948730,4132.820313,4124.102539,4109.743652,4102.563965,4152.307617,4080.000000,4116.410156,0.000000,4.000000,,,,0.000000,4.000000,4.000000,4.000000,4.000000,4.000000,4.000000,4.000000,4.000000,4.000000,4.000000,4.000000,4.000000,4.000000,4.000000,100.000000
1602005871.484045,26.000000,0.000000,4156.410156,4151.282227,4123.077148,4140.512695,4125.641113,4134.871582,4128.717773,4126.153809,4123.589844,4103.589844,4094.358887,4140.000000,4066.153809,4094.871826,0.000000,4.000000,,,,0.000000,4.000000,4.000000,4.000000,4.000000,4.000000,4.000000,4.000000,4.000000,4.000000,4.000000,4.000000,4.000000,4.000000,4.000000,100.000000
1602005871.491930,27.000000,0.000000,4147.692383,4153.846191,4110.256348,4138.974121,4129.230957,4127.692383,4115.384766,4115.384766,4116.410156,4107.179688,4085.128174,4124.102539,4050.769287,4085.128174,0.000000,4.000000,,,,0.000000,4.000000,4.000000,4.000000,4.000000,4.000000,4.000000,4.000000,4.000000,4.000000,4.000000,4.000000,4.000000,4.000000,4.000000,100.000000
1602005871.499815,28.000000,0.000000,4147.179688,4155.384766,4105.128418,4137.436035,4137.948730,4123.077148,4114.871582,4109.230957,4108.717773,4109.743652,4078.974365,4121.025879,4046.666748,4077.435791,0.000000,4.000000,,,,0.000000,4.000000,4.000000,4.000000,4.000000,4.000000,4.000000,4.000000,4.000000,4.000000,4.000000,4.000000,4.000000,4.000000,4.000000,100.000000
1602005871.507700,29.000000,0.000000,4158.974121,4161.538574,4113.846191,4143.077148,4139.487305,4121.538574,4118.461426,4115.384766,4110.256348,4102.051270,4081.538574,4131.282227,4054.358887,4086.153809,0.000000,4.000000,,,,0.000000,4.000000,4.000000,4.000000,4.000000,4.000000,4.000000,4.000000,4.000000,4.000000,4.000000,4.000000,4.000000,4.000000,4.000000,100.000000
1602005871.515584,30.000000,0.000000,4176.922852,4171.794922,4128.717773,4151.794922,4138.974121,4124.102539,4117.436035,4120.000000,4117.948730,4108.717773,4086.153809,4139.487305,4066.666748,4111.282227,0.000000,4.000000,,,,0.000000,4.000000,4.000000,4.000000,4.000000,4.000000,4.000000,4.000000,4.000000,4.000000,4.000000,4.000000,4.000000,4.000000,4.000000,100.000000
1602005871.523469,31.000000,0.000000,4189.743652,4176.410156,4140.512695,4154.358887,4143.589844,4131.794922,4123.589844,4123.077148,4123.077148,4123.589844,4096.922852,4146.666504,4080.000000,4126.153809,0.000000,4.000000,,,,0.000000,4.000000,4.000000,4.000000,4.000000,4.000000,4.000000,4.000000,4.000000,4.000000,4.000000,4.000000,4.000000,4.000000,4.000000,100.000000
1602005871.531255,32.000000,0.000000,4195.897461,4175.384766,4145.128418,4154.871582,4140.512695,4139.487305,4137.436035,4128.205078,4117.948730,4117.436035,4112.820313,4153.333496,4088.718018,4130.256348,0.000000,4.000000,,,,0.000000,4.000000,4.000000,4.000000,4.000000,4.000000,4.000000,4.000000,4.000000,4.000000,4.000000,4.000000,4.000000,4.000000,4.000000,100.000000
1602005871.539140,33.000000,0.000000,4192.820313,4168.205078,4143.077148,4150.256348,4125.128418,4131.282227,4139.487305,4128.205078,4108.717773,4112.307617,4120.000000,4151.282227,4093.846191,4138.461426,0.000000,4.000000,,,,0.000000,4.000000,4.000000,4.000000,4.000000,4.000000,4.000000,4.000000,4.000000,4.000000,4.000000,4.000000,4.000000,4.000000,4.000000,100.000000
1602005871.547025,34.000000,0.000000,4186.153809,4157.948730,4140.000000,4141.025879,4120.000000,4121.538574,4135.384766,4126.666504,4107.179688,4119.487305,4125.641113,4155.384766,4107.692383,4147.179688,0.000000,4.000000,,,,0.000000,4.000000,4.000000,4.000000,4.000000,4.000000,4.000000,4.000000,4.000000,4.000000,4.000000,4.000000,4.000000,4.000000,4.000000,100.000000
1602005871.554911,35.000000,0.000000,4187.692383,4153.846191,4141.025879,4137.436035,4127.692383,4128.717773,4144.615234,4138.974121,4113.333496,4121.538574,4138.461426,4170.769043,4123.077148,4146.666504,0.000000,4.000000,,,,0.000000,4.000000,4.000000,4.000000,4.000000,4.000000,4.000000,4.000000,4.000000,4.000000,4.000000,4.000000,4.000000,4.000000,4.000000,100.000000
1602005871.562796,36.000000,0.000000,4186.153809,4151.794922,4142.563965,4138.461426,4130.256348,4140.000000,4156.922852,4152.307617,4122.051270,4131.794922,4142.051270,4175.384766,4125.128418,4142.051270,0.000000,4.000000,,,,0.000000,4.000000,4.000000,4.000000,4.000000,4.000000,4.000000,4.000000,4.000000,4.000000,4.000000,4.000000,4.000000,4.000000,4.000000,100.000000
1602005871.570682,37.000000,0.000000,4173.333496,4148.717773,4141.538574,4136.922852,4125.641113,4141.025879,4155.384766,4151.282227,4135.897461,4164.102539,4138.974121,4172.307617,4121.538574,4143.589844,0.000000,4.000000,,,,0.000000,4.000000,4.000000,4.000000,4.000000,4.000000,4.000000,4.000000,4.000000,4.000000,4.000000,4.000000,4.000000,4.000000,4.000000,100.000000
1602005871.578567,38.000000,0.000000,4168.717773,4150.769043,4143.077148,4136.922852,4124.615234,4132.820313,4144.615234,4143.077148,4145.641113,4180.000000,4143.077148,4169.230957,4117.948730,4144.615234,0.000000,4.000000,,,,0.000000,4.000000,4.000000,4.000000,4.000000,4.000000,4.000000,4.000000,4.000000,4.000000,4.000000,4.000000,4.000000,4.000000,4.000000,100.000000
1602005871.586453,39.000000,0.000000,4171.282227,4153.333496,4138.461426,4138.974121,4123.589844,4123.589844,4129.230957,4131.794922,4136.922852,4152.820313,4130.256348,4153.333496,4102.563965,4127.692383,0.000000,4.000000,,,,0.000000,4.000000,4.000000,4.000000,4.000000,4.000000,4.000000,4.000000,4.000000,4.000000,4.000000,4.000000,4.000000,4.000000,4.000000,100.000000
1602005871.594438,40.000000,0.000000,4167.692383,4155.897461,4126.666504,4140.512695,4121.538574,4119.487305,4118.974121,4122.051270,4129.230957,4129.743652,4107.179688,4136.922852,4084.102539,4105.641113,0.000000,4.000000,,,,0.000000,4.000000,4.000000,4.000000,4.000000,4.000000,4.000000,4.000000,4.000000,4.000000,4.000000,4.000000,4.000000,4.000000,4.000000,100.000000
1602005871.602324,41.000000,0.000000,4163.077148,4159.487305,4121.025879,4143.077148,4128.205078,4122.563965,4118.974121,4120.512695,4134.358887,4135.384766,4110.769043,4131.282227,4078.974365,4103.589844,0.000000,4.000000,,,,0.000000,4.000000,4.000000,4.000000,4.000000,4.000000,4.000000,4.000000,4.000000,4.000000,4.000000,4.000000,4.000000,4.000000,4.000000,100.000000
1602005871.610210,42.000000,0.000000,4159.487305,4157.948730,4116.410156,4143.077148,4136.922852,4120.512695,4121.025879,4121.025879,4131.282227,4132.307617,4119.487305,4126.666504,4082.051270,4112.820313,0.000000,4.000000,,,,0.000000,4.000000,4.000000,4.000000,4.000000,4.000000,4.000000,4.000000,4.000000,4.000000,4.000000,4.000000,4.000000,4.000000,4.000000,100.000000
1602005871.618095,43.000000,0.000000,4155.897461,4154.358887,4105.641113,4140.512695,4136.922852,4116.922852,4117.948730,4122.051270,4123.589844,4118.461426,4111.282227,4123.077148,4085.128174,4117.948730,0.000000,4.000000,,,,0.000000,4.000000,4.000000,4.000000,4.000000,4.000000,4.000000,4.000000,4.000000,4.000000,4.000000,4.000000,4.000000,4.000000,4.000000,100.000000
1602005871.625981,44.000000,0.000000,4153.333496,4149.743652,4105.128418,4137.436035,4133.846191,4127.692383,4121.538574,4121.538574,4126.153809,4125.641113,4112.820313,4122.051270,4086.666748,4118.974121,0.000000,4.000000,,,,0.000000,4.000000,4.000000,4.000000,4.000000,4.000000,4.000000,4.000000,4.000000,4.000000,4.000000,4.000000,4.000000,4.000000,4.000000,100.000000
1602005871.633867,45.000000,0.000000,4154.358887,4145.128418,4116.410156,4137.436035,4137.436035,4141.538574,4134.871582,4124.615234,4130.256348,4143.077148,4126.666504,4124.102539,4089.230713,4119.487305,0.000000,4.000000,,,,0.000000,4.000000,4.000000,4.000000,4.000000,4.000000,4.000000,4.000000,4.000000,4.000000,4.000000,4.000000,4.000000,4.000000,4.000000,100.000000
1602005871.641753,46.000000,0.000000,4154.358887,4140.000000,4122.051270,4139.487305,4140.000000,4144.102539,4141.025879,4131.282227,4130.769043,4148.205078,4126.153809,4130.769043,4097.948730,4121.025879,0.000000,4.000000,,,,0.000000,4.000000,4.000000,4.000000,4.000000,4.000000,4.000000,4.000000,4.000000,4.000000,4.000000,4.000000,4.000000,4.000000,4.000000,100.000000
1602005871.649638,47.000000,0.000000,4151.794922,4129.230957,4117.948730,4131.282227,4129.743652,4137.436035,4134.871582,4136.410156,4138.461426,4148.205078,4120.000000,4142.051270,4103.589844,4123.589844,0.000000,4.000000,,,,0.000000,4.000000,4.000000,4.000000,4.000000,4.000000,4.000000,4.000000,4.000000,4.000000,4.000000,4.000000,4.000000,4.000000,4.000000,100.000000
1602005871.657524,48.000000,0.000000,4153.846191,4127.692383,4118.974121,4122.051270,4121.025879,4136.410156,4139.487305,4145.641113,4150.769043,4145.641113,4131.794922,4151.794922,4109.230957,4131.282227,0.000000,4.000000,,,,0.000000,4.000000,4.000000,4.000000,4.000000,4.000000,4.000000,4.000000,4.000000,4.000000,4.000000,4.000000,4.000000,4.000000,4.000000,100.000000
1602005871.665308,49.000000,0.000000,4163.077148,4133.846191,4132.307617,4128.717773,4123.077148,4142.051270,4155.384766,4155.384766,4157.948730,4147.692383,4143.589844,4158.974121,4123.077148,4142.051270,0.000000,4.000000,,,,0.000000,4.000000,4.000000,4.000000,4.000000,4.000000,4.000000,4.000000,4.000000,4.000000,4.000000,4.000000,4.000000,4.000000,4.000000,100.000000
1602005871.673191,50.000000,0.000000,4168.205078,4131.282227,4144.102539,4137.948730,4125.128418,4143.589844,4154.871582,4155.897461,4162.051270,4163.077148,4142.051270,4163.077148,4129.230957,4143.589844,0.000000,4.000000,,,,0.000000,4.000000,4.000000,4.000000,4.000000,4.000000,4.000000,4.000000,4.000000,4.000000,4.000000,4.000000,4.000000,4.000000,4.000000,100.000000
1602005871.681075,51.000000,0.000000,4168.717773,4126.153809,4142.051270,4134.358887,4117.948730,4134.871582,4141.538574,4151.282227,4155.897461,4165.641113,4138.974121,4162.051270,4122.051270,4144.102539,0.000000,4.000000,,,,0.000000,4.000000,4.000000,4.000000,4.000000,4.000000,4.000000,4.000000,4.000000,4.000000,4.000000,4.000000,4.000000,4.000000,4.000000,100.000000
1602005871.688958,52.000000,0.000000,4172.307617,4139.487305,4138.461426,4134.358887,4120.000000,4126.153809,4139.487305,4150.256348,4144.102539,4154.871582,4139.487305,4160.512695,4122.051270,4151.794922,0.000000,4.000000,,,,0.000000,4.000000,4.000000,4.000000,4.000000,4.000000,4.000000,4.000000,4.000000,4.000000,4.000000,4.000000,4.000000,4.000000,4.000000,100.000000
1602005871.696842,53.000000,0.000000,4172.307617,4154.358887,4140.000000,4146.153809,4134.871582,4126.153809,4137.948730,4139.487305,4135.384766,4142.051270,4132.820313,4156.922852,4122.563965,4147.179688,0.000000,4.000000,,,,0.000000,4.000000,4.000000,4.000000,4.000000,4.000000,4.000000,4.000000,4.000000,4.000000,4.000000,4.000000,4.000000,4.000000,4.000000,100.000000
1602005871.704626,54.000000,0.000000,4166.666504,4154.358887,4134.871582,4153.846191,4143.589844,4129.743652,4122.563965,4121.538574,4123.589844,4123.589844,4124.102539,4148.717773,4110.769043,4127.692383,0.000000,4.000000,,,,0.000000,4.000000,4.000000,4.000000,4.000000,4.000000,4.000000,4.000000,4.000000,4.000000,4.000000,4.000000,4.000000,4.000000,4.000000,100.000000
1602005871.712509,55.000000,0.000000,4165.641113,4160.000000,4126.153809,4154.871582,4143.589844,4126.153809,4110.256348,4115.897461,4110.769043,4120.512695,4124.615234,4137.948730,4103.589844,4121.538574,0.000000,4.000000,,,,0.000000,4.000000,4.000000,4.000000,4.000000,4.000000,4.000000,4.000000,4.000000,4.000000,4.000000,4.000000,4.000000,4.000000,4.000000,100.000000
1602005871.720393,56.000000,0.000000,4167.692383,4169.230957,4124.102539,4154.358887,4150.769043,4122.051270,4112.307617,4118.461426,4110.256348,4133.846191,4127.179688,4140.512695,4105.128418,4127.692383,0.000000,4.000000,,,,0.000000,4.000000,4.000000,4.000000,4.000000,4.000000,4.000000,4.000000,4.000000,4.000000,4.000000,4.000000,4.000000,4.000000,4.000000,100.000000
1602005871.728277,57.000000,0.000000,4169.230957,4171.282227,4125.128418,4155.384766,4162.563965,4128.717773,4118.974121,4121.025879,4122.563965,4136.922852,4124.102539,4150.769043,4110.769043,4127.179688,0.000000,4.000000,,,,0.000000,4.000000,4.000000,4.000000,4.000000,4.000000,4.000000,4.000000,4.000000,4.000000,4.000000,4.000000,4.000000,4.000000,4.000000,100.000000
1602005871.736161,58.000000,0.000000,4176.410156,4175.384766,4130.256348,4161.538574,4160.512695,4138.461426,4126.666504,4125.641113,4136.410156,4136.410156,4122.563965,4155.384766,4118.974121,4127.692383,0.000000,4.000000,,,,0.000000,4.000000,4.000000,4.000000,4.000000,4.000000,4.000000,4.000000,4.000000,4.000000,4.000000,4.000000,4.000000,4.000000,4.000000,100.000000
1602005871.744045,59.000000,0.000000,4190.256348,4185.128418,4144.615234,4168.205078,4154.358887,4145.128418,4136.410156,4135.384766,4151.282227,4159.487305,4127.692383,4167.179688,4128.205078,4144.615234,0.000000,4.000000,,,,0.000000,4.000000,4.000000,4.000000,4.000000,4.000000,4.000000,4.000000,4.000000,4.000000,4.000000,4.000000,4.000000,4.000000,4.000000,100.000000
1602005871.751830,60.000000,0.000000,4201.025879,4189.230957,4154.358887,4170.256348,4153.846191,4152.820313,4148.205078,4149.743652,4159.487305,4173.333496,4136.922852,4184.615234,4136.410156,4158.974121,0.000000,4.000000,,,,0.000000,4.000000,4.000000,4.000000,4.000000,4.000000,4.000000,4.000000,4.000000,4.000000,4.000000,4.000000,4.000000,4.000000,4.000000,100.000000
1602005871.759716,61.000000,0.000000,4206.153809,4189.230957,4161.025879,4171.794922,4149.230957,4155.897461,4157.436035,4157.436035,4156.922852,4143.077148,4149.743652,4190.256348,4144.615234,4155.897461,0.000000,4.000000,,,,0.000000,4.000000,4.000000,4.000000,4.000000,4.000000,4.000000,4.000000,4.000000,4.000000,4.000000,4.000000,4.000000,4.000000,4.000000,100.000000
1602005871.767602,62.000000,0.000000,4208.205078,4186.666504,4172.820313,4170.256348,4137.436035,4147.179688,4151.282227,4153.846191,4151.794922,4124.615234,4152.820313,4186.666504,4145.641113,4153.846191,0.000000,4.000000,,,,0.000000,4.000000,4.000000,4.000000,4.000000,4.000000,4.000000,4.000000,4.000000,4.000000,4.000000,4.000000,4.000000,4.000000,4.000000,100.000000
1602005871.775487,63.000000,0.000000,4198.461426,4176.410156,4172.820313,4161.025879,4131.794922,4138.461426,4140.000000,4152.307617,4153.846191,4146.666504,4147.692383,4181.538574,4141.025879,4157.436035,0.000000,4.000000,,,,0.000000,4.000000,4.000000,4.000000,4.000000,4.000000,4.000000,4.000000,4.000000,4.000000,4.000000,4.000000,4.000000,4.000000,4.000000,100.000000
1602005871.783373,64.000000,0.000000,4185.128418,4168.205078,4161.025879,4154.871582,4135.384766,4137.436035,4137.436035,4154.358887,4157.948730,4156.410156,4145.641113,4171.282227,4141.025879,4145.128418,799.000000,4.000000,,,,0.000000,4.000000,4.000000,4.000000,4.000000,4.000000,4.000000,4.000000,4.000000,4.000000,4.000000,4.000000,4.000000,4.000000,4.000000,100.000000
1602005871.791259,65.000000,0.000000,4177.948730,4160.512695,4154.358887,4154.358887,4137.948730,4135.384766,4136.922852,4146.666504,4155.384766,4147.179688,4142.051270,4160.000000,4136.922852,4125.128418,795.000000,4.000000,,,,0.000000,4.000000,4.000000,4.000000,4.000000,4.000000,4.000000,4.000000,4.000000,4.000000,4.000000,4.000000,4.000000,4.000000,4.000000,100.000000
1602005871.799145,66.000000,0.000000,4173.333496,4155.897461,4146.666504,4151.794922,4144.102539,4134.871582,4133.333496,4138.974121,4155.897461,4162.051270,4136.922852,4155.384766,4125.641113,4118.461426,851.000000,4.000000,,,,0.000000,4.000000,4.000000,4.000000,4.000000,4.000000,4.000000,4.000000,4.000000,4.000000,4.000000,4.000000,4.000000,4.000000,4.000000,100.000000
1602005871.807030,67.000000,0.000000,4166.666504,4158.461426,4131.794922,4149.743652,4156.922852,4136.410156,4132.307617,4137.948730,4154.358887,4171.794922,4135.384766,4155.384766,4122.563965,4120.512695,866.000000,4.000000,,,,0.000000,4.000000,4.000000,4.000000,4.000000,4.000000,4.000000,4.000000,4.000000,4.000000,4.000000,4.000000,4.000000,4.000000,4.000000,100.000000
1602005871.814916,68.000000,0.000000,4158.974121,4158.974121,4121.025879,4149.743652,4161.538574,4136.410156,4126.153809,4128.717773,4138.461426,4147.179688,4130.256348,4157.948730,4124.102539,4123.589844,813.000000,4.000000,,,,0.000000,4.000000,4.000000,4.000000,4.000000,4.000000,4.000000,4.000000,4.000000,4.000000,4.000000,4.000000,4.000000,4.000000,4.000000,100.000000
1602005871.822700,69.000000,0.000000,4152.307617,4154.871582,4111.282227,4148.717773,4156.410156,4135.384766,4113.846191,4112.820313,4123.077148,4127.692383,4118.974121,4157.948730,4112.820313,4121.538574,824.000000,4.000000,,,,0.000000,4.000000,4.000000,4.000000,4.000000,4.000000,4.000000,4.000000,4.000000,4.000000,4.000000,4.000000,4.000000,4.000000,4.000000,100.000000
1602005871.830584,70.000000,0.000000,4154.358887,4156.410156,4108.717773,4150.769043,4157.436035,4138.974121,4108.205078,4108.717773,4122.051270,4129.230957,4119.487305,4160.512695,4106.666504,4115.897461,777.000000,4.000000,,,,0.000000,4.000000,4.000000,4.000000,4.000000,4.000000,4.000000,4.000000,4.000000,4.000000,4.000000,4.000000,4.000000,4.000000,4.000000,100.000000
1602005871.838468,71.000000,0.000000,4166.666504,4164.102539,4124.102539,4154.358887,4160.000000,4139.487305,4111.282227,4115.384766,4124.615234,4129.230957,4127.179688,4173.846191,4122.563965,4128.717773,688.000000,4.000000,,,,0.000000,4.000000,4.000000,4.000000,4.000000,4.000000,4.000000,4.000000,4.000000,4.000000,4.000000,4.000000,4.000000,4.000000,4.000000,100.000000
1602005871.846352,72.000000,0.000000,4175.897461,4167.692383,4146.153809,4153.333496,4154.871582,4135.897461,4118.461426,4125.641113,4128.205078,4118.461426,4134.358887,4183.589844,4135.384766,4151.282227,785.000000,4.000000,,,,0.000000,4.000000,4.000000,4.000000,4.000000,4.000000,4.000000,4.000000,4.000000,4.000000,4.000000,4.000000,4.000000,4.000000,4.000000,100.000000
1602005871.854236,73.000000,0.000000,4189.230957,4171.282227,4164.615234,4157.948730,4152.307617,4136.410156,4127.179688,4143.077148,4142.563965,4128.205078,4149.230957,4187.179688,4145.641113,4157.436035,845.000000,4.000000,,,,0.000000,4.000000,4.000000,4.000000,4.000000,4.000000,4.000000,4.000000,4.000000,4.000000,4.000000,4.000000,4.000000,4.000000,4.000000,100.000000
1602005871.862120,74.000000,0.000000,4203.589844,4175.897461,4176.922852,4169.743652,4149.230957,4132.820313,4138.461426,4157.436035,4165.641113,4162.051270,4161.025879,4196.922852,4158.461426,4161.025879,877.000000,4.000000,,,,0.000000,4.000000,4.000000,4.000000,4.000000,4.000000,4.000000,4.000000,4.000000,4.000000,4.000000,4.000000,4.000000,4.000000,4.000000,100.000000
1602005871.869906,75.000000,0.000000,4206.153809,4172.307617,4174.871582,4169.230957,4140.000000,4125.128418,4148.205078,4160.512695,4171.794922,4171.282227,4158.461426,4202.563965,4161.538574,4175.384766,841.000000,4.000000,,,,0.000000,4.000000,4.000000,4.000000,4.000000,4.000000,4.000000,4.000000,4.000000,4.000000,4.000000,4.000000,4.000000,4.000000,4.000000,100.000000
1602005871.877791,76.000000,0.000000,4201.025879,4160.512695,4163.077148,4156.410156,4132.820313,4121.538574,4147.179688,4157.436035,4158.461426,4152.307617,4146.666504,4193.846191,4155.897461,4173.333496,778.000000,4.000000,,,,0.000000,4.000000,4.000000,4.000000,4.000000,4.000000,4.000000,4.000000,4.000000,4.000000,4.000000,4.000000,4.000000,4.000000,4.000000,100.000000
1602005871.885677,77.000000,0.000000,4189.230957,4152.820313,4153.333496,4150.769043,4129.230957,4121.538574,4143.589844,4150.256348,4152.820313,4156.410156,4142.051270,4184.615234,4150.769043,4152.820313,746.000000,4.000000,,,,0.000000,4.000000,4.000000,4.000000,4.000000,4.000000,4.000000,4.000000,4.000000,4.000000,4.000000,4.000000,4.000000,4.000000,4.000000,100.000000
1602005871.893562,78.000000,0.000000,4169.230957,4152.820313,4143.589844,4153.333496,4125.128418,4125.128418,4137.948730,4137.436035,4154.358887,4163.077148,4141.538574,4177.948730,4142.051270,4138.974121,877.000000,4.000000,,,,0.000000,4.000000,4.000000,4.000000,4.000000,4.000000,4.000000,4.000000,4.000000,4.000000,4.000000,4.000000,4.000000,4.000000,4.000000,100.000000
1602005871.901448,79.000000,0.000000,4156.410156,4151.282227,4131.794922,4152.307617,4128.717773,4128.717773,4126.666504,4126.666504,4143.077148,4134.358887,4130.769043,4160.512695,4129.230957,4126.666504,841.000000,4.000000,,,,0.000000,4.000000,4.000000,4.000000,4.000000,4.000000,4.000000,4.000000,4.000000,4.000000,4.000000,4.000000,4.000000,4.000000,4.000000,100.000000
1602005871.909333,80.000000,0.000000,4157.948730,4150.256348,4129.743652,4151.794922,4136.922852,4122.051270,4116.922852,4121.025879,4125.128418,4116.410156,4120.512695,4141.538574,4121.025879,4119.487305,778.000000,4.000000,,,,0.000000,4.000000,4.000000,4.000000,4.000000,4.000000,4.000000,4.000000,4.000000,4.000000,4.000000,4.000000,4.000000,4.000000,4.000000,100.000000
1602005871.917218,81.000000,0.000000,4167.179688,4159.487305,4135.897461,4158.974121,4139.487305,4116.922852,4111.282227,4119.487305,4117.948730,4112.307617,4121.025879,4137.948730,4118.974121,4131.282227,746.000000,4.000000,,,,0.000000,4.000000,4.000000,4.000000,4.000000,4.000000,4.000000,4.000000,4.000000,4.000000,4.000000,4.000000,4.000000,4.000000,4.000000,100.000000
1602005871.925104,82.000000,0.000000,4177.948730,4171.794922,4138.461426,4166.153809,4146.666504,4125.128418,4111.282227,4120.000000,4120.512695,4092.820557,4123.077148,4145.641113,4122.051270,4143.589844,877.000000,4.000000,,,,0.000000,4.000000,4.000000,4.000000,4.000000,4.000000,4.000000,4.000000,4.000000,4.000000,4.000000,4.000000,4.000000,4.000000,4.000000,100.000000
1602005871.932990,83.000000,0.000000,4178.461426,4174.358887,4143.589844,4168.717773,4154.871582,4127.692383,4116.410156,4117.948730,4122.051270,4093.333252,4118.974121,4152.307617,4124.102539,4141.025879,841.000000,4.000000,,,,0.000000,4.000000,4.000000,4.000000,4.000000,4.000000,4.000000,4.000000,4.000000,4.000000,4.000000,4.000000,4.000000,4.000000,4.000000,100.000000
1602005871.940875,84.000000,0.000000,4171.282227,4169.743652,4150.769043,4166.153809,4150.256348,4126.153809,4122.563965,4115.897461,4112.820313,4116.922852,4120.512695,4152.307617,4122.051270,4136.410156,778.000000,4.000000,,,,0.000000,4.000000,4.000000,4.000000,4.000000,4.000000,4.000000,4.000000,4.000000,4.000000,4.000000,4.000000,4.000000,4.000000,4.000000,100.000000
1602005871.948761,85.000000,0.000000,4170.769043,4163.077148,4152.820313,4158.461426,4138.974121,4134.871582,4129.743652,4118.974121,4105.128418,4113.846191,4132.307617,4161.025879,4129.743652,4142.051270,746.000000,4.000000,,,,0.000000,4.000000,4.000000,4.000000,4.000000,4.000000,4.000000,4.000000,4.000000,4.000000,4.000000,4.000000,4.000000,4.000000,4.000000,100.000000
1602005871.956647,86.000000,0.000000,4177.948730,4157.948730,4158.974121,4152.307617,4128.205078,4142.563965,4143.589844,4129.230957,4115.897461,4109.230957,4140.000000,4172.820313,4146.666504,4148.717773,877.000000,4.000000,,,,0.000000,4.000000,4.000000,4.000000,4.000000,4.000000,4.000000,4.000000,4.000000,4.000000,4.000000,4.000000,4.000000,4.000000,4.000000,100.000000
1602005871.964532,87.000000,0.000000,4184.102539,4156.410156,4170.256348,4153.846191,4123.077148,4138.461426,4154.871582,4145.128418,4132.307617,4134.358887,4139.487305,4173.333496,4155.897461,4152.307617,841.000000,4.000000,,,,0.000000,4.000000,4.000000,4.000000,4.000000,4.000000,4.000000,4.000000,4.000000,4.000000,4.000000,4.000000,4.000000,4.000000,4.000000,100.000000
1602005871.972418,88.000000,0.000000,4182.563965,4155.897461,4168.205078,4155.384766,4130.769043,4137.948730,4155.384766,4152.820313,4138.974121,4138.461426,4142.051270,4170.256348,4155.897461,4158.974121,778.000000,4.000000,,,,0.000000,4.000000,4.000000,4.000000,4.000000,4.000000,4.000000,4.000000,4.000000,4.000000,4.000000,4.000000,4.000000,4.000000,4.000000,100.000000
1602005871.980304,89.000000,0.000000,4174.358887,4153.333496,4158.974121,4153.846191,4137.948730,4143.077148,4149.230957,4146.153809,4137.948730,4125.641113,4148.205078,4172.307617,4155.384766,4161.025879,746.000000,4.000000,,,,0.000000,4.000000,4.000000,4.000000,4.000000,4.000000,4.000000,4.000000,4.000000,4.000000,4.000000,4.000000,4.000000,4.000000,4.000000,100.000000
1602005871.988190,90.000000,0.000000,4164.102539,4147.179688,4154.358887,4149.743652,4134.871582,4136.922852,4141.025879,4137.948730,4129.743652,4136.922852,4142.563965,4167.692383,4145.641113,4155.897461,877.000000,4.000000,,,,0.000000,4.000000,4.000000,4.000000,4.000000,4.000000,4.000000,4.000000,4.000000,4.000000,4.000000,4.000000,4.000000,4.000000,4.000000,100.000000
1602005871.996075,91.000000,0.000000,4156.922852,4143.077148,4146.666504,4144.615234,4137.436035,4129.230957,4133.846191,4130.769043,4125.641113,4146.153809,4128.205078,4156.410156,4126.666504,4151.282227,841.000000,4.000000,,,,0.000000,4.000000,4.000000,4.000000,4.000000,4.000000,4.000000,4.000000,4.000000,4.000000,4.000000,4.000000,4.000000,4.000000,4.000000,100.000000
1602005872.003860,92.000000,0.000000,4154.871582,4148.205078,4140.000000,4147.692383,4148.717773,4133.333496,4124.615234,4123.589844,4132.307617,4136.410156,4122.051270,4153.846191,4120.000000,4149.743652,778.000000,4.000000,,,,0.000000,4.000000,4.000000,4.000000,4.000000,4.000000,4.000000,4.000000,4.000000,4.000000,4.000000,4.000000,4.000000,4.000000,4.000000,100.000000
1602005872.011745,93.000000,0.000000,4152.820313,4155.897461,4138.461426,4155.897461,4155.384766,4135.384766,4114.358887,4121.538574,4133.333496,4126.666504,4122.051270,4153.333496,4125.128418,4146.153809,746.000000,4.000000,,,,0.000000,4.000000,4.000000,4.000000,4.000000,4.000000,4.000000,4.000000,4.000000,4.000000,4.000000,4.000000,4.000000,4.000000,4.000000,100.000000
1602005872.019630,94.000000,0.000000,4152.307617,4153.846191,4137.436035,4156.922852,4154.358887,4129.743652,4109.230957,4115.897461,4120.000000,4110.256348,4122.051270,4141.538574,4121.025879,4138.974121,877.000000,4.000000,,,,0.000000,4.000000,4.000000,4.000000,4.000000,4.000000,4.000000,4.000000,4.000000,4.000000,4.000000,4.000000,4.000000,4.000000,4.000000,100.000000
1602005872.027514,95.000000,0.000000,4154.871582,4147.179688,4132.820313,4147.179688,4147.692383,4130.256348,4109.743652,4104.102539,4109.230957,4091.281982,4120.000000,4133.846191,4108.205078,4132.820313,841.000000,4.000000,,,,0.000000,4.000000,4.000000,4.000000,4.000000,4.000000,4.000000,4.000000,4.000000,4.000000,4.000000,4.000000,4.000000,4.000000,4.000000,100.000000
1602005872.035399,96.000000,0.000000,4153.846191,4144.615234,4128.717773,4142.563965,4141.025879,4138.461426,4114.358887,4107.179688,4110.769043,4091.281982,4113.333496,4140.512695,4104.615234,4124.615234,778.000000,4.000000,,,,0.000000,4.000000,4.000000,4.000000,4.000000,4.000000,4.000000,4.000000,4.000000,4.000000,4.000000,4.000000,4.000000,4.000000,4.000000,100.000000
1602005872.043284,97.000000,0.000000,4149.743652,4143.077148,4131.282227,4146.666504,4138.974121,4139.487305,4120.512695,4120.512695,4114.871582,4101.538574,4105.641113,4144.102539,4108.205078,4120.512695,746.000000,4.000000,,,,0.000000,4.000000,4.000000,4.000000,4.000000,4.000000,4.000000,4.000000,4.000000,4.000000,4.000000,4.000000,4.000000,4.000000,4.000000,100.000000
1602005872.051168,98.000000,0.000000,4152.820313,4141.538574,4135.897461,4144.102539,4134.871582,4136.922852,4125.128418,4122.563965,4118.461426,4108.717773,4104.102539,4137.436035,4101.538574,4123.589844,877.000000,4.000000,,,,0.000000,4.000000,4.000000,4.000000,4.000000,4.000000,4.000000,4.000000,4.000000,4.000000,4.000000,4.000000,4.000000,4.000000,4.000000,100.000000
1602005872.059153,99.000000,0.000000,4154.358887,4138.461426,4136.410156,4142.051270,4132.820313,4138.461426,4133.846191,4125.128418,4117.948730,4118.974121,4113.333496,4133.846191,4095.384521,4122.051270,841.000000,4.000000,,,,0.000000,4.000000,4.000000,4.000000,4.000000,4.000000,4.000000,4.000000,4.000000,4.000000,4.000000,4.000000,4.000000,4.000000,4.000000,100.000000
1602005872.067037,100.000000,0.000000,4152.307617,4138.461426,4138.974121,4149.743652,4137.436035,4133.846191,4142.051270,4137.948730,4116.922852,4130.256348,4121.538574,4141.025879,4104.102539,4124.102539,778.000000,4.000000,,,,0.000000,4.000000,4.000000,4.000000,4.000000,4.000000,4.000000,4.000000,4.000000,4.000000,4.000000,4.000000,4.000000,4.000000,4.000000,100.000000
1602005872.074922,101.000000,0.000000,4162.563965,4146.666504,4145.641113,4155.384766,4140.512695,4122.051270,4142.563965,4142.051270,4123.589844,4126.153809,4124.102539,4153.846191,4110.256348,4138.974121,746.000000,4.000000,,,,0.000000,4.000000,4.000000,4.000000,4.000000,4.000000,4.000000,4.000000,4.000000,4.000000,4.000000,4.000000,4.000000,4.000000,4.000000,100.000000
1602005872.082806,102.000000,0.000000,4171.282227,4155.384766,4146.153809,4153.333496,4138.461426,4119.487305,4136.410156,4133.333496,4129.743652,4115.384766,4125.641113,4156.410156,4108.205078,4147.692383,877.000000,4.000000,,,,0.000000,4.000000,4.000000,4.000000,4.000000,4.000000,4.000000,4.000000,4.000000,4.000000,4.000000,4.000000,4.000000,4.000000,4.000000,100.000000
1602005872.090691,103.000000,0.000000,4161.025879,4151.282227,4138.974121,4149.743652,4141.025879,4124.615234,4126.153809,4123.589844,4118.974121,4115.384766,4120.000000,4142.563965,4106.153809,4138.461426,841.000000,4.000000,,,,0.000000,4.000000,4.000000,4.000000,4.000000,4.000000,4.000000,4.000000,4.000000,4.000000,4.000000,4.000000,4.000000,4.000000,4.000000,100.000000
1602005872.098575,104.000000,0.000000,4150.769043,4142.563965,4135.384766,4145.641113,4147.179688,4123.589844,4114.871582,4114.871582,4106.666504,4116.410156,4110.769043,4132.820313,4104.102539,4132.307617,778.000000,4.000000,,,,0.000000,4.000000,4.000000,4.000000,4.000000,4.000000,4.000000,4.000000,4.000000,4.000000,4.000000,4.000000,4.000000,4.000000,4.000000,100.000000
1602005872.106559,105.000000,0.000000,4156.922852,4149.230957,4138.974121,4148.205078,4155.897461,4123.589844,4107.692383,4109.230957,4113.846191,4119.487305,4118.461426,4143.077148,4111.794922,4146.666504,746.000000,4.000000,,,,0.000000,4.000000,4.000000,4.000000,4.000000,4.000000,4.000000,4.000000,4.000000,4.000000,4.000000,4.000000,4.000000,4.000000,4.000000,100.000000
1602005872.114442,106.000000,0.000000,4163.077148,4154.358887,4144.615234,4151.794922,4158.974121,4125.128418,4097.948730,4104.615234,4119.487305,4126.153809,4128.717773,4156.410156,4120.000000,4154.358887,877.000000,4.000000,,,,0.000000,4.000000,4.000000,4.000000,4.000000,4.000000,4.000000,4.000000,4.000000,4.000000,4.000000,4.000000,4.000000,4.000000,4.000000,100.000000
1602005872.122325,107.000000,0.000000,4145.641113,4136.410156,4137.436035,4140.512695,4145.128418,4121.538574,4087.692383,4097.436035,4105.128418,4111.282227,4115.897461,4153.846191,4105.128418,4136.922852,841.000000,4.000000,,,,0.000000,4.000000,4.000000,4.000000,4.000000,4.000000,4.000000,4.000000,4.000000,4.000000,4.000000,4.000000,4.000000,4.000000,4.000000,100.000000
1602005872.130209,108.000000,0.000000,4128.717773,4125.641113,4127.179688,4131.282227,4135.384766,4120.000000,4092.307617,4096.922852,4095.897461,4087.179443,4110.769043,4148.717773,4097.436035,4129.743652,778.000000,4.000000,,,,0.000000,4.000000,4.000000,4.000000,4.000000,4.000000,4.000000,4.000000,4.000000,4.000000,4.000000,4.000000,4.000000,4.000000,4.000000,100.000000
1602005872.138092,109.000000,0.000000,4144.615234,4138.974121,4132.820313,4137.948730,4142.563965,4123.077148,4104.102539,4103.077148,4103.077148,4097.436035,4136.922852,4160.000000,4128.717773,4161.025879,746.000000,4.000000,,,,0.000000,4.000000,4.000000,4.000000,4.000000,4.000000,4.000000,4.000000,4.000000,4.000000,4.000000,4.000000,4.000000,4.000000,4.000000,100.000000
1602005872.145878,110.000000,0.000000,4158.974121,4143.589844,4143.077148,4144.102539,4144.615234,4128.717773,4114.871582,4113.846191,4112.307617,4129.230957,4157.436035,4171.282227,4159.487305,4193.846191,877.000000,4.000000,,,,0.000000,4.000000,4.000000,4.000000,4.000000,4.000000,4.000000,4.000000,4.000000,4.000000,4.000000,4.000000,4.000000,4.000000,4.000000,100.000000
1602005872.153763,111.000000,0.000000,4137.948730,4124.102539,4142.051270,4135.897461,4135.897461,4134.871582,4123.589844,4129.743652,4121.025879,4140.512695,4156.410156,4166.666504,4165.128418,4191.794922,841.000000,4.000000,,,,0.000000,4.000000,4.000000,4.000000,4.000000,4.000000,4.000000,4.000000,4.000000,4.000000,4.000000,4.000000,4.000000,4.000000,4.000000,100.000000
1602005872.161649,112.000000,0.000000,4112.820313,4101.538574,4139.487305,4120.512695,4134.358887,4136.922852,4133.333496,4142.051270,4131.282227,4141.025879,4153.846191,4162.563965,4169.743652,4182.563965,778.000000,4.000000,,,,0.000000,4.000000,4.000000,4.000000,4.000000,4.000000,4.000000,4.000000,4.000000,4.000000,4.000000,4.000000,4.000000,4.000000,4.000000,100.000000
1602005872.169535,113.000000,0.000000,4106.666504,4093.846191,4138.974121,4115.384766,4138.974121,4135.384766,4140.000000,4146.153809,4136.922852,4150.769043,4155.897461,4165.128418,4177.436035,4181.538574,746.000000,4.000000,,,,0.000000,4.000000,4.000000,4.000000,4.000000,4.000000,4.000000,4.000000,4.000000,4.000000,4.000000,4.000000,4.000000,4.000000,4.000000,100.000000
1602005872.177420,114.000000,0.000000,4105.641113,4095.384521,4128.717773,4118.974121,4137.436035,4139.487305,4137.948730,4148.205078,4143.589844,4160.512695,4156.410156,4161.538574,4176.410156,4178.461426,877.000000,4.000000,,,,0.000000,4.000000,4.000000,4.000000,4.000000,4.000000,4.000000,4.000000,4.000000,4.000000,4.000000,4.000000,4.000000,4.000000,4.000000,100.000000
1602005872.185306,115.000000,0.000000,4100.512695,4098.974121,4113.846191,4117.436035,4139.487305,4141.538574,4124.615234,4140.000000,4154.871582,4164.615234,4156.922852,4150.769043,4174.358887,4169.743652,841.000000,4.000000,,,,0.000000,4.000000,4.000000,4.000000,4.000000,4.000000,4.000000,4.000000,4.000000,4.000000,4.000000,4.000000,4.000000,4.000000,4.000000,100.000000
1602005872.193192,116.000000,0.000000,4088.718018,4101.538574,4104.615234,4115.897461,4152.307617,4133.846191,4111.282227,4125.641113,4157.436035,4162.051270,4155.384766,4143.077148,4174.871582,4159.487305,778.000000,4.000000,,,,0.000000,4.000000,4.000000,4.000000,4.000000,4.000000,4.000000,4.000000,4.000000,4.000000,4.000000,4.000000,4.000000,4.000000,4.000000,100.000000
1602005872.201078,117.000000,0.000000,4085.128174,4100.512695,4103.589844,4120.000000,4152.307617,4120.000000,4103.077148,4121.538574,4147.692383,4147.692383,4149.743652,4140.512695,4170.256348,4158.461426,746.000000,4.000000,,,,0.000000,4.000000,4.000000,4.000000,4.000000,4.000000,4.000000,4.000000,4.000000,4.000000,4.000000,4.000000,4.000000,4.000000,4.000000,100.000000
1602005872.208963,118.000000,0.000000,4105.641113,4107.692383,4113.846191,4124.615234,4139.487305,4106.153809,4094.358887,4117.948730,4135.384766,4138.461426,4145.641113,4140.512695,4170.769043,4173.846191,877.000000,4.000000,,,,0.000000,4.000000,4.000000,4.000000,4.000000,4.000000,4.000000,4.000000,4.000000,4.000000,4.000000,4.000000,4.000000,4.000000,4.000000,100.000000
1602005872.216745,119.000000,0.000000,4125.128418,4124.102539,4128.717773,4131.282227,4146.153809,4110.769043,4090.256348,4106.153809,4124.102539,4147.692383,4142.563965,4139.487305,4176.922852,4186.153809,841.000000,4.000000,,,,0.000000,4.000000,4.000000,4.000000,4.000000,4.000000,4.000000,4.000000,4.000000,4.000000,4.000000,4.000000,4.000000,4.000000,4.000000,100.000000
1602005872.224627,120.000000,0.000000,4121.025879,4125.128418,4133.333496,4138.974121,4156.410156,4120.000000,4090.256348,4097.436035,4103.589844,4126.666504,4140.000000,4137.436035,4171.794922,4177.948730,778.000000,4.000000,,,,0.000000,4.000000,4.000000,4.000000,4.000000,4.000000,4.000000,4.000000,4.000000,4.000000,4.000000,4.000000,4.000000,4.000000,4.000000,100.000000
1602005872.232611,121.000000,0.000000,4111.794922,4108.717773,4127.179688,4134.871582,4144.615234,4112.820313,4093.846191,4096.922852,4084.615479,4077.948730,4136.410156,4136.410156,4155.897461,4159.487305,746.000000,4.000000,,,,0.000000,4.000000,4.000000,4.000000,4.000000,4.000000,4.000000,4.000000,4.000000,4.000000,4.000000,4.000000,4.000000,4.000000,4.000000,100.000000
1602005872.240495,122.000000,0.000000,4113.333496,4102.563965,4122.563965,4125.641113,4131.794922,4112.820313,4107.179688,4106.666504,4085.128174,4077.948730,4133.333496,4136.922852,4145.641113,4151.282227,877.000000,4.000000,,,,0.000000,4.000000,4.000000,4.000000,4.000000,4.000000,4.000000,4.000000,4.000000,4.000000,4.000000,4.000000,4.000000,4.000000,4.000000,100.000000
1602005872.248379,123.000000,0.000000,4120.512695,4108.205078,4126.153809,4125.641113,4130.256348,4131.282227,4128.717773,4126.666504,4110.256348,4125.641113,4143.589844,4149.230957,4152.307617,4166.666504,841.000000,4.000000,,,,0.000000,4.000000,4.000000,4.000000,4.000000,4.000000,4.000000,4.000000,4.000000,4.000000,4.000000,4.000000,4.000000,4.000000,4.000000,100.000000
1602005872.256263,124.000000,0.000000,4125.641113,4108.205078,4137.436035,4130.769043,4130.769043,4142.051270,4146.153809,4151.282227,4145.128418,4158.974121,4165.128418,4175.897461,4169.743652,4193.846191,778.000000,4.000000,,,,0.000000,4.000000,4.000000,4.000000,4.000000,4.000000,4.000000,4.000000,4.000000,4.000000,4.000000,4.000000,4.000000,4.000000,4.000000,100.000000
1602005872.264147,125.000000,0.000000,4127.179688,4109.743652,4145.128418,4128.205078,4134.358887,4138.974121,4154.871582,4171.794922,4173.333496,4172.820313,4176.410156,4194.871582,4178.974121,4204.102539,746.000000,4.000000,,,,0.000000,4.000000,4.000000,4.000000,4.000000,4.000000,4.000000,4.000000,4.000000,4.000000,4.000000,4.000000,4.000000,4.000000,4.000000,100.000000
1602005872.272031,126.000000,0.000000,4123.589844,4115.897461,4144.615234,4124.102539,4137.436035,4143.589844,4157.948730,4178.461426,4189.743652,4189.743652,4174.871582,4189.743652,4175.897461,4197.436035,877.000000,4.000000,,,,0.000000,4.000000,4.000000,4.000000,4.000000,4.000000,4.000000,4.000000,4.000000,4.000000,4.000000,4.000000,4.000000,4.000000,4.000000,100.000000
1602005872.279817,127.000000,0.000000,4124.102539,4118.461426,4143.589844,4129.743652,4135.897461,4154.358887,4155.384766,4164.615234,4186.666504,4190.769043,4169.743652,4168.717773,4165.641113,4190.769043,841.000000,4.000000,,,,0.000000,4.000000,4.000000,4.000000,4.000000,4.000000,4.000000,4.000000,4.000000,4.000000,4.000000,4.000000,4.000000,4.000000,4.000000,100.000000
1602005872.287703,128.000000,0.000000,4120.512695,4113.846191,4138.461426,4134.358887,4144.615234,4155.384766,4145.641113,4145.641113,4164.615234,4172.307617,4152.307617,4151.794922,4148.717773,4178.461426,778.000000,4.000000,,,,0.000000,4.000000,4.000000,4.000000,4.000000,4.000000,4.000000,4.000000,4.000000,4.000000,4.000000,4.000000,4.000000,4.000000,4.000000,100.000000
1602005872.295589,0.000000,0.000000,4108.717773,4107.179688,4122.563965,4127.692383,4152.820313,4143.589844,4130.769043,4132.820313,4144.615234,4146.666504,4133.333496,4147.692383,4135.897461,4160.000000,799.000000,4.000000,,,,0.000000,4.000000,4.000000,4.000000,4.000000,4.000000,4.000000,4.000000,4.000000,4.000000,4.000000,4.000000,4.000000,4.000000,4.000000,100.000000
1602005872.303475,1.000000,0.000000,4103.589844,4105.641113,4106.666504,4119.487305,4152.307617,4136.410156,4122.563965,4122.563965,4133.333496,4128.717773,4143.077148,4149.230957,4134.871582,4158.974121,795.000000,4.000000,,,,0.000000,4.000000,4.000000,4.000000,4.000000,4.000000,4.000000,4.000000,4.000000,4.000000,4.000000,4.000000,4.000000,4.000000,4.000000,100.000000
1602005872.311361,2.000000,0.000000,4113.846191,4110.769043,4110.256348,4125.641113,4155.897461,4140.000000,4123.077148,4116.922852,4124.102539,4140.000000,4161.538574,4156.922852,4139.487305,4176.922852,851.000000,4.000000,,,,0.000000,4.000000,4.000000,4.000000,4.000000,4.000000,4.000000,4.000000,4.000000,4.000000,4.000000,4.000000,4.000000,4.000000,4.000000,100.000000
1602005872.319247,3.000000,0.000000,4128.205078,4118.461426,4127.179688,4135.384766,4161.025879,4140.000000,4117.948730,4115.384766,4119.487305,4152.820313,4159.487305,4168.205078,4140.512695,4189.230957,866.000000,4.000000,,,,0.000000,4.000000,4.000000,4.000000,4.000000,4.000000,4.000000,4.000000,4.000000,4.000000,4.000000,4.000000,4.000000,4.000000,4.000000,100.000000
1602005872.327133,4.000000,0.000000,4137.948730,4123.589844,4140.000000,4138.461426,4156.922852,4129.230957,4110.769043,4115.384766,4116.922852,4143.589844,4152.820313,4172.307617,4141.025879,4187.179688,813.000000,4.000000,,,,0.000000,4.000000,4.000000,4.000000,4.000000,4.000000,4.000000,4.000000,4.000000,4.000000,4.000000,4.000000,4.000000,4.000000,4.000000,100.000000
1602005872.335019,5.000000,0.000000,4138.461426,4121.538574,4148.205078,4139.487305,4144.615234,4121.538574,4113.846191,4116.410156,4112.307617,4134.358887,4148.717773,4165.641113,4138.461426,4182.563965,824.000000,4.000000,,,,0.000000,4.000000,4.000000,4.000000,4.000000,4.000000,4.000000,4.000000,4.000000,4.000000,4.000000,4.000000,4.000000,4.000000,4.000000,100.000000
1602005872.342905,6.000000,0.000000,4130.769043,4115.384766,4152.307617,4136.410156,4135.897461,4119.487305,4123.077148,4119.487305,4114.358887,4138.974121,4142.563965,4155.897461,4131.282227,4176.410156,777.000000,4.000000,,,,0.000000,4.000000,4.000000,4.000000,4.000000,4.000000,4.000000,4.000000,4.000000,4.000000,4.000000,4.000000,4.000000,4.000000,4.000000,100.000000
1602005872.350891,7.000000,0.000000,4127.179688,4110.769043,4148.205078,4127.692383,4132.820313,4120.000000,4131.794922,4128.717773,4124.615234,4135.384766,4138.461426,4144.102539,4128.205078,4169.230957,688.000000,4.000000,,,,0.000000,4.000000,4.000000,4.000000,4.000000,4.000000,4.000000,4.000000,4.000000,4.000000,4.000000,4.000000,4.000000,4.000000,4.000000,100.000000
1602005872.358777,8.000000,0.000000,4127.179688,4104.102539,4136.410156,4120.000000,4134.358887,4126.666504,4143.077148,4140.512695,4137.948730,4143.077148,4140.512695,4135.897461,4134.871582,4167.692383,785.000000,4.000000,,,,0.000000,4.000000,4.000000,4.000000,4.000000,4.000000,4.000000,4.000000,4.000000,4.000000,4.000000,4.000000,4.000000,4.000000,4.000000,100.000000
1602005872.366663,9.000000,0.000000,4121.025879,4093.333252,4127.179688,4119.487305,4135.897461,4139.487305,4156.922852,4145.641113,4153.333496,4171.282227,4147.179688,4137.436035,4145.128418,4169.743652,845.000000,4.000000,,,,0.000000,4.000000,4.000000,4.000000,4.000000,4.000000,4.000000,4.000000,4.000000,4.000000,4.000000,4.000000,4.000000,4.000000,4.000000,100.000000
1602005872.374549,10.000000,0.000000,4111.282227,4087.692383,4123.077148,4118.974121,4135.897461,4149.743652,4160.512695,4146.666504,4161.538574,4164.615234,4149.230957,4141.025879,4143.077148,4171.282227,877.000000,4.000000,,,,0.000000,4.000000,4.000000,4.000000,4.000000,4.000000,4.000000,4.000000,4.000000,4.000000,4.000000,4.000000,4.000000,4.000000,4.000000,100.000000
1602005872.382435,11.000000,0.000000,4106.666504,4091.281982,4122.563965,4117.948730,4143.077148,4155.384766,4152.820313,4143.589844,4153.846191,4136.922852,4143.589844,4138.461426,4138.974121,4167.692383,841.000000,4.000000,,,,0.000000,4.000000,4.000000,4.000000,4.000000,4.000000,4.000000,4.000000,4.000000,4.000000,4.000000,4.000000,4.000000,4.000000,4.000000,100.000000
1602005872.390322,12.000000,0.000000,4100.512695,4091.794922,4120.000000,4120.512695,4153.846191,4151.794922,4143.589844,4130.769043,4137.948730,4136.922852,4138.974121,4135.384766,4141.538574,4161.025879,776.000000,4.000000,,,,0.000000,4.000000,4.000000,4.000000,4.000000,4.000000,4.000000,4.000000,4.000000,4.000000,4.000000,4.000000,4.000000,4.000000,4.000000,100.000000
1602005872.398208,13.000000,0.000000,4088.205078,4084.615479,4114.871582,4117.436035,4154.358887,4134.871582,4131.282227,4117.948730,4125.641113,4137.948730,4140.512695,4133.333496,4135.897461,4153.846191,748.000000,4.000000,,,,0.000000,4.000000,4.000000,4.000000,4.000000,4.000000,4.000000,4.000000,4.000000,4.000000,4.000000,4.000000,4.000000,4.000000,4.000000,100.000000
1602005872.406094,14.000000,0.000000,4088.718018,4090.256348,4123.589844,4117.948730,4151.282227,4128.205078,4122.051270,4114.871582,4120.000000,4123.589844,4139.487305,4133.846191,4129.230957,4150.256348,877.000000,4.000000,,,,0.000000,4.000000,4.000000,4.000000,4.000000,4.000000,4.000000,4.000000,4.000000,4.000000,4.000000,4.000000,4.000000,4.000000,4.000000,100.000000
1602005872.413980,15.000000,0.000000,4107.179688,4107.179688,4141.025879,4131.282227,4155.384766,4137.436035,4127.692383,4116.922852,4115.384766,4137.436035,4140.000000,4142.563965,4135.384766,4153.333496,841.000000,4.000000,,,,0.000000,4.000000,4.000000,4.000000,4.000000,4.000000,4.000000,4.000000,4.000000,4.000000,4.000000,4.000000,4.000000,4.000000,4.000000,100.000000
1602005872.421964,16.000000,0.000000,4117.948730,4112.307617,4145.641113,4138.974121,4152.307617,4135.384766,4133.846191,4116.922852,4113.333496,4161.025879,4137.948730,4149.230957,4139.487305,4154.871582,0.000000,4.000000,,,,0.000000,4.000000,4.000000,4.000000,4.000000,4.000000,4.000000,4.000000,4.000000,4.000000,4.000000,4.000000,4.000000,4.000000,4.000000,100.000000
1602005872.429847,17.000000,0.000000,4118.461426,4107.179688,4144.102539,4132.820313,4137.948730,4124.615234,4129.743652,4121.538574,4124.102539,4151.794922,4138.461426,4152.820313,4135.897461,4161.025879,0.000000,4.000000,,,,0.000000,4.000000,4.000000,4.000000,4.000000,4.000000,4.000000,4.000000,4.000000,4.000000,4.000000,4.000000,4.000000,4.000000,4.000000,100.000000
1602005872.437731,18.000000,0.000000,4131.794922,4111.282227,4153.333496,4133.846191,4137.436035,4128.205078,4132.307617,4139.487305,4146.153809,4154.358887,4158.974121,4166.153809,4146.153809,4186.666504,0.000000,4.000000,,,,0.000000,4.000000,4.000000,4.000000,4.000000,4.000000,4.000000,4.000000,4.000000,4.000000,4.000000,4.000000,4.000000,4.000000,4.000000,100.000000
1602005872.445614,19.000000,0.000000,4141.025879,4117.436035,4157.436035,4140.000000,4143.077148,4135.897461,4141.025879,4156.410156,4166.153809,4186.153809,4176.922852,4179.487305,4162.051270,4209.230957,0.000000,4.000000,,,,0.000000,4.000000,4.000000,4.000000,4.000000,4.000000,4.000000,4.000000,4.000000,4.000000,4.000000,4.000000,4.000000,4.000000,4.000000,100.000000
1602005872.453498,20.000000,0.000000,4128.205078,4108.205078,4145.641113,4132.307617,4131.282227,4128.205078,4138.461426,4157.436035,4174.358887,4189.743652,4174.358887,4177.436035,4162.051270,4205.128418,0.000000,4.000000,,,,0.000000,4.000000,4.000000,4.000000,4.000000,4.000000,4.000000,4.000000,4.000000,4.000000,4.000000,4.000000,4.000000,4.000000,4.000000,100.000000
1602005872.461282,21.000000,0.000000,4122.051270,4102.563965,4138.974121,4125.128418,4122.563965,4122.051270,4133.846191,4154.871582,4174.358887,4167.692383,4171.282227,4169.230957,4155.897461,4196.410156,0.000000,4.000000,,,,0.000000,4.000000,4.000000,4.000000,4.000000,4.000000,4.000000,4.000000,4.000000,4.000000,4.000000,4.000000,4.000000,4.000000,4.000000,100.000000
1602005872.469166,22.000000,0.000000,4128.205078,4109.230957,4141.025879,4127.179688,4128.717773,4122.563965,4135.384766,4151.282227,4167.692383,4167.179688,4165.128418,4161.025879,4147.179688,4189.743652,0.000000,4.000000,,,,0.000000,4.000000,4.000000,4.000000,4.000000,4.000000,4.000000,4.000000,4.000000,4.000000,4.000000,4.000000,4.000000,4.000000,4.000000,100.000000
1602005872.477051,23.000000,0.000000,4121.025879,4104.615234,4135.897461,4124.102539,4125.128418,4121.538574,4135.384766,4140.000000,4149.743652,4171.282227,4144.102539,4146.666504,4130.256348,4168.717773,0.000000,4.000000,,,,0.000000,4.000000,4.000000,4.000000,4.000000,4.000000,4.000000,4.000000,4.000000,4.000000,4.000000,4.000000,4.000000,4.000000,4.000000,100.000000
1602005872.484935,24.000000,0.000000,4106.153809,4091.281982,4122.563965,4117.948730,4117.436035,4126.153809,4138.461426,4133.333496,4136.922852,4155.897461,4133.846191,4137.436035,4116.410156,4149.743652,0.000000,4.000000,,,,0.000000,4.000000,4.000000,4.000000,4.000000,4.000000,4.000000,4.000000,4.000000,4.000000,4.000000,4.000000,4.000000,4.000000,4.000000,100.000000
1602005872.492819,25.000000,0.000000,4107.179688,4096.922852,4113.333496,4119.487305,4125.641113,4137.948730,4143.077148,4137.436035,4140.512695,4147.692383,4137.948730,4132.820313,4119.487305,4150.256348,0.000000,4.000000,,,,0.000000,4.000000,4.000000,4.000000,4.000000,4.000000,4.000000,4.000000,4.000000,4.000000,4.000000,4.000000,4.000000,4.000000,4.000000,100.000000
1602005872.500703,26.000000,0.000000,4114.358887,4109.743652,4107.692383,4123.077148,4137.436035,4144.102539,4137.436035,4135.897461,4141.025879,4145.128418,4137.948730,4126.153809,4132.307617,4157.436035,0.000000,4.000000,,,,0.000000,4.000000,4.000000,4.000000,4.000000,4.000000,4.000000,4.000000,4.000000,4.000000,4.000000,4.000000,4.000000,4.000000,4.000000,100.000000
1602005872.508688,27.000000,0.000000,4115.384766,4111.794922,4102.563965,4122.563965,4141.538574,4143.589844,4123.077148,4128.205078,4138.461426,4133.846191,4144.102539,4126.153809,4136.410156,4158.974121,0.000000,4.000000,,,,0.000000,4.000000,4.000000,4.000000,4.000000,4.000000,4.000000,4.000000,4.000000,4.000000,4.000000,4.000000,4.000000,4.000000,4.000000,100.000000
1602005872.516573,28.000000,0.000000,4117.436035,4112.820313,4104.615234,4123.589844,4143.077148,4141.538574,4116.922852,4129.743652,4150.769043,4143.589844,4150.769043,4126.666504,4129.743652,4158.461426,0.000000,4.000000,,,,0.000000,4.000000,4.000000,4.000000,4.000000,4.000000,4.000000,4.000000,4.000000,4.000000,4.000000,4.000000,4.000000,4.000000,4.000000,100.000000
1602005872.524458,29.000000,0.000000,4119.487305,4111.282227,4114.871582,4122.051270,4141.538574,4136.410156,4118.461426,4137.436035,4159.487305,4167.692383,4145.641113,4122.563965,4123.589844,4160.512695,0.000000,4.000000,,,,0.000000,4.000000,4.000000,4.000000,4.000000,4.000000,4.000000,4.000000,4.000000,4.000000,4.000000,4.000000,4.000000,4.000000,4.000000,100.000000
1602005872.532342,30.000000,0.000000,4123.589844,4106.153809,4126.666504,4121.538574,4141.025879,4137.436035,4118.461426,4140.512695,4155.897461,4167.179688,4146.666504,4129.230957,4124.102539,4167.692383,0.000000,4.000000,,,,0.000000,4.000000,4.000000,4.000000,4.000000,4.000000,4.000000,4.000000,4.000000,4.000000,4.000000,4.000000,4.000000,4.000000,4.000000,100.000000
1602005872.540227,31.000000,0.000000,4125.128418,4108.717773,4132.307617,4124.102539,4144.102539,4138.974121,4124.615234,4139.487305,4155.897461,4153.333496,4152.820313,4144.102539,4126.666504,4170.256348,0.000000,4.000000,,,,0.000000,4.000000,4.000000,4.000000,4.000000,4.000000,4.000000,4.000000,4.000000,4.000000,4.000000,4.000000,4.000000,4.000000,4.000000,100.000000
1602005872.548112,32.000000,0.000000,4116.922852,4104.615234,4126.153809,4117.436035,4138.461426,4131.794922,4135.897461,4139.487305,4152.820313,4142.563965,4144.102539,4143.589844,4122.563965,4161.025879,0.000000,4.000000,,,,0.000000,4.000000,4.000000,4.000000,4.000000,4.000000,4.000000,4.000000,4.000000,4.000000,4.000000,4.000000,4.000000,4.000000,4.000000,100.000000
1602005872.555996,33.000000,0.000000,4107.179688,4094.871826,4123.589844,4106.666504,4125.641113,4130.769043,4140.512695,4139.487305,4138.974121,4137.436035,4131.282227,4136.410156,4116.922852,4152.307617,0.000000,4.000000,,,,0.000000,4.000000,4.000000,4.000000,4.000000,4.000000,4.000000,4.000000,4.000000,4.000000,4.000000,4.000000,4.000000,4.000000,4.000000,100.000000
1602005872.563781,34.000000,0.000000,4113.846191,4101.025879,4134.358887,4108.717773,4123.077148,4136.410156,4141.538574,4140.000000,4135.897461,4139.487305,4135.897461,4140.512695,4118.461426,4154.358887,0.000000,4.000000,,,,0.000000,4.000000,4.000000,4.000000,4.000000,4.000000,4.000000,4.000000,4.000000,4.000000,4.000000,4.000000,4.000000,4.000000,4.000000,100.000000
1602005872.571665,35.000000,0.000000,4128.205078,4106.666504,4143.589844,4115.897461,4127.179688,4137.948730,4141.538574,4136.922852,4141.025879,4135.897461,4146.153809,4147.692383,4125.641113,4161.025879,0.000000,4.000000,,,,0.000000,4.000000,4.000000,4.000000,4.000000,4.000000,4.000000,4.000000,4.000000,4.000000,4.000000,4.000000,4.000000,4.000000,4.000000,100.000000
1602005872.579549,36.000000,0.000000,4123.077148,4096.410156,4138.974121,4110.769043,4125.128418,4136.410156,4137.948730,4128.717773,4133.333496,4128.717773,4146.153809,4145.641113,4125.128418,4159.487305,0.000000,4.000000,,,,0.000000,4.000000,4.000000,4.000000,4.000000,4.000000,4.000000,4.000000,4.000000,4.000000,4.000000,4.000000,4.000000,4.000000,4.000000,100.000000
1602005872.587433,37.000000,0.000000,4106.666504,4088.718018,4128.717773,4102.563965,4127.179688,4132.307617,4135.384766,4123.077148,4124.102539,4138.461426,4136.410156,4136.922852,4120.000000,4152.820313,0.000000,4.000000,,,,0.000000,4.000000,4.000000,4.000000,4.000000,4.000000,4.000000,4.000000,4.000000,4.000000,4.000000,4.000000,4.000000,4.000000,4.000000,100.000000
1602005872.595317,38.000000,0.000000,4107.179688,4093.333252,4130.769043,4108.205078,4142.563965,4132.820313,4137.948730,4128.205078,4135.897461,4157.436035,4135.384766,4133.846191,4120.000000,4157.948730,0.000000,4.000000,,,,0.000000,4.000000,4.000000,4.000000,4.000000,4.000000,4.000000,4.000000,4.000000,4.000000,4.000000,4.000000,4.000000,4.000000,4.000000,100.000000
1602005872.603201,39.000000,0.000000,4114.871582,4101.025879,4134.871582,4118.974121,4152.820313,4148.717773,4139.487305,4138.461426,4155.384766,4159.487305,4150.769043,4142.051270,4126.153809,4170.769043,0.000000,4.000000,,,,0.000000,4.000000,4.000000,4.000000,4.000000,4.000000,4.000000,4.000000,4.000000,4.000000,4.000000,4.000000,4.000000,4.000000,4.000000,100.000000
1602005872.610985,40.000000,0.000000,4113.846191,4106.153809,4130.769043,4115.897461,4151.282227,4155.384766,4138.461426,4141.025879,4160.000000,4145.641113,4154.871582,4151.794922,4135.897461,4168.717773,0.000000,4.000000,,,,0.000000,4.000000,4.000000,4.000000,4.000000,4.000000,4.000000,4.000000,4.000000,4.000000,4.000000,4.000000,4.000000,4.000000,4.000000,100.000000
1602005872.618870,41.000000,0.000000,4113.333496,4107.692383,4128.717773,4109.230957,4152.307617,4140.512695,4133.333496,4142.051270,4150.769043,4126.153809,4146.666504,4156.410156,4141.025879,4158.974121,0.000000,4.000000,,,,0.000000,4.000000,4.000000,4.000000,4.000000,4.000000,4.000000,4.000000,4.000000,4.000000,4.000000,4.000000,4.000000,4.000000,4.000000,100.000000
1602005872.626754,42.000000,0.000000,4121.538574,4107.179688,4137.436035,4116.410156,4150.256348,4127.692383,4127.179688,4148.717773,4146.666504,4129.743652,4143.589844,4161.025879,4135.897461,4161.025879,0.000000,4.000000,,,,0.000000,4.000000,4.000000,4.000000,4.000000,4.000000,4.000000,4.000000,4.000000,4.000000,4.000000,4.000000,4.000000,4.000000,4.000000,100.000000
1602005872.634639,43.000000,0.000000,4123.077148,4107.179688,4143.589844,4125.128418,4141.025879,4125.641113,4123.589844,4149.743652,4147.179688,4152.307617,4140.000000,4156.410156,4128.717773,4161.025879,0.000000,4.000000,,,,0.000000,4.000000,4.000000,4.000000,4.000000,4.000000,4.000000,4.000000,4.000000,4.000000,4.000000,4.000000,4.000000,4.000000,4.000000,100.000000
1602005872.642523,44.000000,0.000000,4113.846191,4107.692383,4133.333496,4121.025879,4134.358887,4122.051270,4126.153809,4142.051270,4141.025879,4150.769043,4135.897461,4142.563965,4124.615234,4152.307617,0.000000,4.000000,,,,0.000000,4.000000,4.000000,4.000000,4.000000,4.000000,4.000000,4.000000,4.000000,4.000000,4.000000,4.000000,4.000000,4.000000,4.000000,100.000000
1602005872.650408,45.000000,0.000000,4109.230957,4102.051270,4116.922852,4112.307617,4131.282227,4121.025879,4133.333496,4137.948730,4134.358887,4133.846191,4135.897461,4135.384766,4119.487305,4144.615234,0.000000,4.000000,,,,0.000000,4.000000,4.000000,4.000000,4.000000,4.000000,4.000000,4.000000,4.000000,4.000000,4.000000,4.000000,4.000000,4.000000,4.000000,100.000000
1602005872.658292,46.000000,0.000000,4114.358887,4095.897461,4109.230957,4112.820313,4130.769043,4130.256348,4138.461426,4137.948730,4135.897461,4134.871582,4136.410156,4135.384766,4115.897461,4140.000000,0.000000,4.000000,,,,0.000000,4.000000,4.000000,4.000000,4.000000,4.000000,4.000000,4.000000,4.000000,4.000000,4.000000,4.000000,4.000000,4.000000,4.000000,100.000000
1602005872.666077,47.000000,0.000000,4120.512695,4101.025879,4115.897461,4120.512695,4136.922852,4140.000000,4140.000000,4136.922852,4136.922852,4142.051270,4135.897461,4136.922852,4124.615234,4136.410156,0.000000,4.000000,,,,0.000000,4.000000,4.000000,4.000000,4.000000,4.000000,4.000000,4.000000,4.000000,4.000000,4.000000,4.000000,4.000000,4.000000,4.000000,100.000000
1602005872.673962,48.000000,0.000000,4122.563965,4109.230957,4124.102539,4120.512695,4141.538574,4143.589844,4141.025879,4131.282227,4133.846191,4130.256348,4141.025879,4140.512695,4135.897461,4138.974121,0.000000,4.000000,,,,0.000000,4.000000,4.000000,4.000000,4.000000,4.000000,4.000000,4.000000,4.000000,4.000000,4.000000,4.000000,4.000000,4.000000,4.000000,100.000000
1602005872.681847,49.000000,0.000000,4123.077148,4105.128418,4122.563965,4112.307617,4139.487305,4141.025879,4139.487305,4127.179688,4133.846191,4113.333496,4143.589844,4140.512695,4136.410156,4142.563965,0.000000,4.000000,,,,0.000000,4.000000,4.000000,4.000000,4.000000,4.000000,4.000000,4.000000,4.000000,4.000000,4.000000,4.000000,4.000000,4.000000,4.000000,100.000000
1602005872.689731,50.000000,0.000000,4123.077148,4101.025879,4122.563965,4114.358887,4136.922852,4138.974121,4133.846191,4131.794922,4135.384766,4122.563965,4132.820313,4136.410156,4133.333496,4139.487305,0.000000,4.000000,,,,0.000000,4.000000,4.000000,4.000000,4.000000,4.000000,4.000000,4.000000,4.000000,4.000000,4.000000,4.000000,4.000000,4.000000,4.000000,100.000000
1602005872.697616,51.000000,0.000000,4123.589844,4112.820313,4126.666504,4124.102539,4133.846191,4135.384766,4126.666504,4139.487305,4136.922852,4149.743652,4125.128418,4137.948730,4134.871582,4143.077148,0.000000,4.000000,,,,0.000000,4.000000,4.000000,4.000000,4.000000,4.000000,4.000000,4.000000,4.000000,4.000000,4.000000,4.000000,4.000000,4.000000,4.000000,100.000000
1602005872.705501,52.000000,0.000000,4125.128418,4121.538574,4120.512695,4125.128418,4136.410156,4126.153809,4120.512695,4144.615234,4141.025879,4156.922852,4133.846191,4140.512695,4141.025879,4153.333496,0.000000,4.000000,,,,0.000000,4.000000,4.000000,4.000000,4.000000,4.000000,4.000000,4.000000,4.000000,4.000000,4.000000,4.000000,4.000000,4.000000,4.000000,100.000000
1602005872.713386,53.000000,0.000000,4122.563965,4117.436035,4106.666504,4122.051270,4143.589844,4126.666504,4122.051270,4147.179688,4142.051270,4148.205078,4144.102539,4138.974121,4147.179688,4154.871582,0.000000,4.000000,,,,0.000000,4.000000,4.000000,4.000000,4.000000,4.000000,4.000000,4.000000,4.000000,4.000000,4.000000,4.000000,4.000000,4.000000,4.000000,100.000000
1602005872.721170,54.000000,0.000000,4117.948730,4116.410156,4110.256348,4125.641113,4143.589844,4134.871582,4130.769043,4142.563965,4139.487305,4144.615234,4144.102539,4136.410156,4151.282227,4149.743652,0.000000,4.000000,,,,0.000000,4.000000,4.000000,4.000000,4.000000,4.000000,4.000000,4.000000,4.000000,4.000000,4.000000,4.000000,4.000000,4.000000,4.000000,100.000000
1602005872.729053,55.000000,0.000000,4126.666504,4122.563965,4129.230957,4133.333496,4144.102539,4136.410156,4135.897461,4136.410156,4139.487305,4138.974121,4151.794922,4141.025879,4153.846191,4157.948730,0.000000,4.000000,,,,0.000000,4.000000,4.000000,4.000000,4.000000,4.000000,4.000000,4.000000,4.000000,4.000000,4.000000,4.000000,4.000000,4.000000,4.000000,100.000000
1602005872.736937,56.000000,0.000000,4140.512695,4128.205078,4140.000000,4137.948730,4152.307617,4135.384766,4136.410156,4135.897461,4140.512695,4132.820313,4160.000000,4150.769043,4155.897461,4173.333496,0.000000,4.000000,,,,0.000000,4.000000,4.000000,4.000000,4.000000,4.000000,4.000000,4.000000,4.000000,4.000000,4.000000,4.000000,4.000000,4.000000,4.000000,100.000000
1602005872.744821,57.000000,0.000000,4143.077148,4128.717773,4138.974121,4138.461426,4157.436035,4141.538574,4135.897461,4129.743652,4137.436035,4137.948730,4148.717773,4153.333496,4154.358887,4167.692383,0.000000,4.000000,,,,0.000000,4.000000,4.000000,4.000000,4.000000,4.000000,4.000000,4.000000,4.000000,4.000000,4.000000,4.000000,4.000000,4.000000,4.000000,100.000000
1602005872.752705,58.000000,0.000000,4138.974121,4125.641113,4138.461426,4133.846191,4152.820313,4144.615234,4136.922852,4120.512695,4135.897461,4137.948730,4142.563965,4151.794922,4154.871582,4153.846191,0.000000,4.000000,,,,0.000000,4.000000,4.000000,4.000000,4.000000,4.000000,4.000000,4.000000,4.000000,4.000000,4.000000,4.000000,4.000000,4.000000,4.000000,100.000000
1602005872.760689,59.000000,0.000000,4137.436035,4123.077148,4138.461426,4128.717773,4143.589844,4137.436035,4138.974121,4127.692383,4141.025879,4131.282227,4151.794922,4154.871582,4157.436035,4160.000000,0.000000,4.000000,,,,0.000000,4.000000,4.000000,4.000000,4.000000,4.000000,4.000000,4.000000,4.000000,4.000000,4.000000,4.000000,4.000000,4.000000,4.000000,100.000000
1602005872.768574,60.000000,0.000000,4136.410156,4123.077148,4137.948730,4126.153809,4137.436035,4132.820313,4139.487305,4139.487305,4145.641113,4147.179688,4155.384766,4158.974121,4158.461426,4170.256348,0.000000,4.000000,,,,0.000000,4.000000,4.000000,4.000000,4.000000,4.000000,4.000000,4.000000,4.000000,4.000000,4.000000,4.000000,4.000000,4.000000,4.000000,100.000000
1602005872.776458,61.000000,0.000000,4137.436035,4117.436035,4140.000000,4124.615234,4136.410156,4135.897461,4136.410156,4143.077148,4141.025879,4163.589844,4149.743652,4160.512695,4161.538574,4163.077148,0.000000,4.000000,,,,0.000000,4.000000,4.000000,4.000000,4.000000,4.000000,4.000000,4.000000,4.000000,4.000000,4.000000,4.000000,4.000000,4.000000,4.000000,100.000000
1602005872.784343,62.000000,0.000000,4137.948730,4109.230957,4140.512695,4123.077148,4133.846191,4136.922852,4130.256348,4142.051270,4134.358887,4138.974121,4146.153809,4158.974121,4156.410156,4155.897461,0.000000,4.000000,,,,0.000000,4.000000,4.000000,4.000000,4.000000,4.000000,4.000000,4.000000,4.000000,4.000000,4.000000,4.000000,4.000000,4.000000,4.000000,100.000000
1602005872.792227,63.000000,0.000000,4129.743652,4108.717773,4133.333496,4122.563965,4130.769043,4130.256348,4122.051270,4141.538574,4135.384766,4121.025879,4143.589844,4149.743652,4141.538574,4151.282227,0.000000,4.000000,,,,0.000000,4.000000,4.000000,4.000000,4.000000,4.000000,4.000000,4.000000,4.000000,4.000000,4.000000,4.000000,4.000000,4.000000,4.000000,100.000000
1602005872.800112,64.000000,0.000000,4126.153809,4108.717773,4125.128418,4123.077148,4134.358887,4127.179688,4120.512695,4141.538574,4137.948730,4149.743652,4138.461426,4142.563965,4142.563965,4148.717773,799.000000,4.000000,,,,0.000000,4.000000,4.000000,4.000000,4.000000,4.000000,4.000000,4.000000,4.000000,4.000000,4.000000,4.000000,4.000000,4.000000,4.000000,100.000000
1602005872.807996,65.000000,0.000000,4127.692383,4106.666504,4125.128418,4122.563965,4138.461426,4126.153809,4123.589844,4140.512695,4137.948730,4161.025879,4138.461426,4140.000000,4156.410156,4147.179688,795.000000,4.000000,,,,0.000000,4.000000,4.000000,4.000000,4.000000,4.000000,4.000000,4.000000,4.000000,4.000000,4.000000,4.000000,4.000000,4.000000,4.000000,100.000000
1602005872.815782,66.000000,0.000000,4124.615234,4107.692383,4128.205078,4120.512695,4138.461426,4121.025879,4124.102539,4143.077148,4140.512695,4139.487305,4141.025879,4138.461426,4151.794922,4141.025879,851.000000,4.000000,,,,0.000000,4.000000,4.000000,4.000000,4.000000,4.000000,4.000000,4.000000,4.000000,4.000000,4.000000,4.000000,4.000000,4.000000,4.000000,100.000000
1602005872.823667,67.000000,0.000000,4123.589844,4110.769043,4127.692383,4122.051270,4141.025879,4127.692383,4129.230957,4148.205078,4144.615234,4144.102539,4135.897461,4135.897461,4140.000000,4139.487305,866.000000,4.000000,,,,0.000000,4.000000,4.000000,4.000000,4.000000,4.000000,4.000000,4.000000,4.000000,4.000000,4.000000,4.000000,4.000000,4.000000,4.000000,100.000000
1602005872.831553,68.000000,0.000000,4124.102539,4109.230957,4124.102539,4122.051270,4139.487305,4135.384766,4136.922852,4142.051270,4135.897461,4134.358887,4126.153809,4128.205078,4137.948730,4138.974121,442.000000,4.000000,,,,0.000000,4.000000,4.000000,4.000000,4.000000,4.000000,4.000000,4.000000,4.000000,4.000000,4.000000,4.000000,4.000000,4.000000,4.000000,100.000000
1602005872.839438,69.000000,0.000000,4118.974121,4104.615234,4118.974121,4116.410156,4137.436035,4127.692383,4132.820313,4127.179688,4117.436035,4096.922852,4121.025879,4117.948730,4132.307617,4126.666504,868.000000,4.000000,,,,0.000000,4.000000,4.000000,4.000000,4.000000,4.000000,4.000000,4.000000,4.000000,4.000000,4.000000,4.000000,4.000000,4.000000,4.000000,100.000000
1602005872.847323,70.000000,0.000000,4117.948730,4106.666504,4120.000000,4116.922852,4138.974121,4121.538574,4122.563965,4118.461426,4107.179688,4108.205078,4120.512695,4117.948730,4129.230957,4124.615234,777.000000,4.000000,,,,0.000000,4.000000,4.000000,4.000000,4.000000,4.000000,4.000000,4.000000,4.000000,4.000000,4.000000,4.000000,4.000000,4.000000,4.000000,100.000000
1602005872.855209,71.000000,0.000000,4124.615234,4109.230957,4129.230957,4123.589844,4133.333496,4126.153809,4119.487305,4113.846191,4104.102539,4145.641113,4128.205078,4130.769043,4141.025879,4137.948730,688.000000,4.000000,,,,0.000000,4.000000,4.000000,4.000000,4.000000,4.000000,4.000000,4.000000,4.000000,4.000000,4.000000,4.000000,4.000000,4.000000,4.000000,100.000000
1602005872.863094,72.000000,0.000000,4126.153809,4107.692383,4136.922852,4122.563965,4129.230957,4124.615234,4119.487305,4111.282227,4101.025879,4140.512695,4142.051270,4146.666504,4153.333496,4143.589844,785.000000,4.000000,,,,0.000000,4.000000,4.000000,4.000000,4.000000,4.000000,4.000000,4.000000,4.000000,4.000000,4.000000,4.000000,4.000000,4.000000,4.000000,100.000000
1602005872.870980,73.000000,0.000000,4125.128418,4109.743652,4142.051270,4118.461426,4135.897461,4121.025879,4120.512695,4121.025879,4108.205078,4126.666504,4146.153809,4155.897461,4154.871582,4149.743652,845.000000,4.000000,,,,0.000000,4.000000,4.000000,4.000000,4.000000,4.000000,4.000000,4.000000,4.000000,4.000000,4.000000,4.000000,4.000000,4.000000,4.000000,100.000000
1602005872.878964,74.000000,0.000000,4125.128418,4114.871582,4143.589844,4121.538574,4138.974121,4127.179688,4123.077148,4138.974121,4131.794922,4140.512695,4140.000000,4156.410156,4153.846191,4157.436035,877.000000,4.000000,,,,0.000000,4.000000,4.000000,4.000000,4.000000,4.000000,4.000000,4.000000,4.000000,4.000000,4.000000,4.000000,4.000000,4.000000,4.000000,100.000000
1602005872.886847,75.000000,0.000000,4124.615234,4115.897461,4136.922852,4122.563965,4136.922852,4135.897461,4123.589844,4152.820313,4152.820313,4142.563965,4136.922852,4155.897461,4152.307617,4151.794922,841.000000,4.000000,,,,0.000000,4.000000,4.000000,4.000000,4.000000,4.000000,4.000000,4.000000,4.000000,4.000000,4.000000,4.000000,4.000000,4.000000,4.000000,100.000000
1602005872.894731,76.000000,0.000000,4123.589844,4112.820313,4127.179688,4121.538574,4140.000000,4140.512695,4124.615234,4158.461426,4157.436035,4131.282227,4137.948730,4153.846191,4144.615234,4138.974121,776.000000,4.000000,,,,0.000000,4.000000,4.000000,4.000000,4.000000,4.000000,4.000000,4.000000,4.000000,4.000000,4.000000,4.000000,4.000000,4.000000,4.000000,100.000000
1602005872.902615,77.000000,0.000000,4112.820313,4107.692383,4118.974121,4121.025879,4138.974121,4137.948730,4129.230957,4152.820313,4155.384766,4141.025879,4130.256348,4140.000000,4136.410156,4125.128418,748.000000,4.000000,,,,0.000000,4.000000,4.000000,4.000000,4.000000,4.000000,4.000000,4.000000,4.000000,4.000000,4.000000,4.000000,4.000000,4.000000,4.000000,100.000000
1602005872.910499,78.000000,0.000000,4104.615234,4105.641113,4110.256348,4118.974121,4136.410156,4136.922852,4136.922852,4143.077148,4147.692383,4145.128418,4118.974121,4124.615234,4138.461426,4118.974121,877.000000,4.000000,,,,0.000000,4.000000,4.000000,4.000000,4.000000,4.000000,4.000000,4.000000,4.000000,4.000000,4.000000,4.000000,4.000000,4.000000,4.000000,100.000000
1602005872.918484,79.000000,0.000000,4114.871582,4114.358887,4110.256348,4121.025879,4140.512695,4146.666504,4143.589844,4139.487305,4133.846191,4128.205078,4125.641113,4125.128418,4148.717773,4132.820313,841.000000,4.000000,,,,0.000000,4.000000,4.000000,4.000000,4.000000,4.000000,4.000000,4.000000,4.000000,4.000000,4.000000,4.000000,4.000000,4.000000,4.000000,100.000000
1602005872.926369,80.000000,0.000000,4132.307617,4129.743652,4126.666504,4133.333496,4142.563965,4154.358887,4143.077148,4137.436035,4124.615234,4131.794922,4145.128418,4142.563965,4164.615234,4149.743652,776.000000,4.000000,,,,0.000000,4.000000,4.000000,4.000000,4.000000,4.000000,4.000000,4.000000,4.000000,4.000000,4.000000,4.000000,4.000000,4.000000,4.000000,100.000000
1602005872.934255,81.000000,0.000000,4143.077148,4140.512695,4149.230957,4147.179688,4149.230957,4148.205078,4137.948730,4135.384766,4124.102539,4157.436035,4152.820313,4162.051270,4180.000000,4162.563965,748.000000,4.000000,,,,0.000000,4.000000,4.000000,4.000000,4.000000,4.000000,4.000000,4.000000,4.000000,4.000000,4.000000,4.000000,4.000000,4.000000,4.000000,100.000000
1602005872.942140,82.000000,0.000000,4158.974121,4143.589844,4166.666504,4147.179688,4154.358887,4137.948730,4135.897461,4134.358887,4129.230957,4165.641113,4160.000000,4176.922852,4189.743652,4181.025879,877.000000,4.000000,,,,0.000000,4.000000,4.000000,4.000000,4.000000,4.000000,4.000000,4.000000,4.000000,4.000000,4.000000,4.000000,4.000000,4.000000,4.000000,100.000000
1602005872.950026,83.000000,0.000000,4175.897461,4142.051270,4175.897461,4141.538574,4146.666504,4138.461426,4134.358887,4135.897461,4137.436035,4163.077148,4172.307617,4186.153809,4200.000000,4193.846191,841.000000,4.000000,,,,0.000000,4.000000,4.000000,4.000000,4.000000,4.000000,4.000000,4.000000,4.000000,4.000000,4.000000,4.000000,4.000000,4.000000,4.000000,100.000000
1602005872.957911,84.000000,0.000000,4165.641113,4133.846191,4173.333496,4139.487305,4138.461426,4141.538574,4136.922852,4137.948730,4137.436035,4166.666504,4165.128418,4185.128418,4196.410156,4181.538574,776.000000,4.000000,,,,0.000000,4.000000,4.000000,4.000000,4.000000,4.000000,4.000000,4.000000,4.000000,4.000000,4.000000,4.000000,4.000000,4.000000,4.000000,100.000000
1602005872.965797,85.000000,0.000000,4138.974121,4120.000000,4153.333496,4131.282227,4133.846191,4137.436035,4144.102539,4139.487305,4126.666504,4156.922852,4142.051270,4169.743652,4167.692383,4153.846191,748.000000,4.000000,,,,0.000000,4.000000,4.000000,4.000000,4.000000,4.000000,4.000000,4.000000,4.000000,4.000000,4.000000,4.000000,4.000000,4.000000,4.000000,100.000000
1602005872.973682,86.000000,0.000000,4117.948730,4105.641113,4126.666504,4115.384766,4126.666504,4133.333496,4143.077148,4135.384766,4121.538574,4136.410156,4127.179688,4148.205078,4141.025879,4132.307617,877.000000,4.000000,,,,0.000000,4.000000,4.000000,4.000000,4.000000,4.000000,4.000000,4.000000,4.000000,4.000000,4.000000,4.000000,4.000000,4.000000,4.000000,100.000000
1602005872.981668,87.000000,0.000000,4098.974121,4093.846191,4116.410156,4104.615234,4122.563965,4135.897461,4134.871582,4127.179688,4124.102539,4120.512695,4124.615234,4136.410156,4134.871582,4121.025879,841.000000,4.000000,,,,0.000000,4.000000,4.000000,4.000000,4.000000,4.000000,4.000000,4.000000,4.000000,4.000000,4.000000,4.000000,4.000000,4.000000,4.000000,100.000000
1602005872.989553,88.000000,0.000000,4088.718018,4090.256348,4117.436035,4105.128418,4124.102539,4137.436035,4134.358887,4129.230957,4119.487305,4109.743652,4122.563965,4135.384766,4131.282227,4116.410156,776.000000,4.000000,,,,0.000000,4.000000,4.000000,4.000000,4.000000,4.000000,4.000000,4.000000,4.000000,4.000000,4.000000,4.000000,4.000000,4.000000,4.000000,100.000000
1602005872.997438,89.000000,0.000000,4102.051270,4100.512695,4116.410156,4113.846191,4129.230957,4136.410156,4135.384766,4132.820313,4108.717773,4111.794922,4123.589844,4137.436035,4136.922852,4124.102539,748.000000,4.000000,,,,0.000000,4.000000,4.000000,4.000000,4.000000,4.000000,4.000000,4.000000,4.000000,4.000000,4.000000,4.000000,4.000000,4.000000,4.000000,100.000000
1602005873.005324,90.000000,0.000000,4120.000000,4114.358887,4125.641113,4121.025879,4135.384766,4136.410156,4127.692383,4130.256348,4108.717773,4124.615234,4134.871582,4140.512695,4152.820313,4138.974121,877.000000,4.000000,,,,0.000000,4.000000,4.000000,4.000000,4.000000,4.000000,4.000000,4.000000,4.000000,4.000000,4.000000,4.000000,4.000000,4.000000,4.000000,100.000000
1602005873.013209,91.000000,0.000000,4125.128418,4122.051270,4138.974121,4125.641113,4136.410156,4129.230957,4120.512695,4130.769043,4118.974121,4142.051270,4142.051270,4146.666504,4155.384766,4143.589844,841.000000,4.000000,,,,0.000000,4.000000,4.000000,4.000000,4.000000,4.000000,4.000000,4.000000,4.000000,4.000000,4.000000,4.000000,4.000000,4.000000,4.000000,100.000000
1602005873.021095,92.000000,0.000000,4134.358887,4124.615234,4137.948730,4133.846191,4136.410156,4125.641113,4120.512695,4137.436035,4123.077148,4154.871582,4137.436035,4154.358887,4158.461426,4143.077148,776.000000,4.000000,,,,0.000000,4.000000,4.000000,4.000000,4.000000,4.000000,4.000000,4.000000,4.000000,4.000000,4.000000,4.000000,4.000000,4.000000,4.000000,100.000000
1602005873.028980,93.000000,0.000000,4143.589844,4124.102539,4133.846191,4133.333496,4140.512695,4134.871582,4128.205078,4139.487305,4128.205078,4157.948730,4143.077148,4153.846191,4171.282227,4149.230957,748.000000,4.000000,,,,0.000000,4.000000,4.000000,4.000000,4.000000,4.000000,4.000000,4.000000,4.000000,4.000000,4.000000,4.000000,4.000000,4.000000,4.000000,100.000000
1602005873.036866,94.000000,0.000000,4139.487305,4121.025879,4136.922852,4125.641113,4137.948730,4139.487305,4136.410156,4138.461426,4137.436035,4151.794922,4151.794922,4149.743652,4171.282227,4155.384766,877.000000,4.000000,,,,0.000000,4.000000,4.000000,4.000000,4.000000,4.000000,4.000000,4.000000,4.000000,4.000000,4.000000,4.000000,4.000000,4.000000,4.000000,100.000000
1602005873.044849,95.000000,0.000000,4138.974121,4123.077148,4141.538574,4132.307617,4135.897461,4138.461426,4140.000000,4142.051270,4136.410156,4143.077148,4147.179688,4152.307617,4166.666504,4156.410156,841.000000,4.000000,,,,0.000000,4.000000,4.000000,4.000000,4.000000,4.000000,4.000000,4.000000,4.000000,4.000000,4.000000,4.000000,4.000000,4.000000,4.000000,100.000000
1602005873.052733,96.000000,0.000000,4142.563965,4126.666504,4145.128418,4139.487305,4137.948730,4143.589844,4140.000000,4143.077148,4126.666504,4129.230957,4139.487305,4151.794922,4165.641113,4156.410156,776.000000,4.000000,,,,0.000000,4.000000,4.000000,4.000000,4.000000,4.000000,4.000000,4.000000,4.000000,4.000000,4.000000,4.000000,4.000000,4.000000,4.000000,100.000000
1602005873.060617,97.000000,0.000000,4130.256348,4118.461426,4139.487305,4125.128418,4131.282227,4133.333496,4138.974121,4132.307617,4114.871582,4106.666504,4130.769043,4136.922852,4141.538574,4141.538574,748.000000,4.000000,,,,0.000000,4.000000,4.000000,4.000000,4.000000,4.000000,4.000000,4.000000,4.000000,4.000000,4.000000,4.000000,4.000000,4.000000,4.000000,100.000000
1602005873.068501,98.000000,0.000000,4117.436035,4107.692383,4125.128418,4113.846191,4124.102539,4112.820313,4134.871582,4125.128418,4111.282227,4108.717773,4117.948730,4122.563965,4118.461426,4123.589844,877.000000,4.000000,,,,0.000000,4.000000,4.000000,4.000000,4.000000,4.000000,4.000000,4.000000,4.000000,4.000000,4.000000,4.000000,4.000000,4.000000,4.000000,100.000000
1602005873.076385,99.000000,0.000000,4121.538574,4110.256348,4119.487305,4121.538574,4126.153809,4121.538574,4133.846191,4134.358887,4120.512695,4136.922852,4116.410156,4123.589844,4130.769043,4128.205078,841.000000,4.000000,,,,0.000000,4.000000,4.000000,4.000000,4.000000,4.000000,4.000000,4.000000,4.000000,4.000000,4.000000,4.000000,4.000000,4.000000,4.000000,100.000000
1602005873.084369,100.000000,0.000000,4120.512695,4114.358887,4114.358887,4124.615234,4129.230957,4144.615234,4138.974121,4141.538574,4126.153809,4146.153809,4125.641113,4126.666504,4138.461426,4132.307617,776.000000,4.000000,,,,0.000000,4.000000,4.000000,4.000000,4.000000,4.000000,4.000000,4.000000,4.000000,4.000000,4.000000,4.000000,4.000000,4.000000,4.000000,100.000000
1602005873.092254,101.000000,0.000000,4106.666504,4106.666504,4104.102539,4112.307617,4128.717773,4146.153809,4135.897461,4134.871582,4118.974121,4126.666504,4124.102539,4120.000000,4120.512695,4121.538574,748.000000,4.000000,,,,0.000000,4.000000,4.000000,4.000000,4.000000,4.000000,4.000000,4.000000,4.000000,4.000000,4.000000,4.000000,4.000000,4.000000,4.000000,100.000000
1602005873.100139,102.000000,0.000000,4103.077148,4101.025879,4104.102539,4108.717773,4126.666504,4139.487305,4125.641113,4131.794922,4116.922852,4115.384766,4118.974121,4123.077148,4116.922852,4124.102539,877.000000,4.000000,,,,0.000000,4.000000,4.000000,4.000000,4.000000,4.000000,4.000000,4.000000,4.000000,4.000000,4.000000,4.000000,4.000000,4.000000,4.000000,100.000000
1602005873.108024,103.000000,0.000000,4118.461426,4113.846191,4118.974121,4120.000000,4124.615234,4141.025879,4123.077148,4137.436035,4125.641113,4130.256348,4128.717773,4138.974121,4134.871582,4138.974121,841.000000,4.000000,,,,0.000000,4.000000,4.000000,4.000000,4.000000,4.000000,4.000000,4.000000,4.000000,4.000000,4.000000,4.000000,4.000000,4.000000,4.000000,100.000000
1602005873.115909,104.000000,0.000000,4134.871582,4123.077148,4132.820313,4125.128418,4126.666504,4142.563965,4126.666504,4137.436035,4131.282227,4144.615234,4140.512695,4145.128418,4139.487305,4142.051270,776.000000,4.000000,,,,0.000000,4.000000,4.000000,4.000000,4.000000,4.000000,4.000000,4.000000,4.000000,4.000000,4.000000,4.000000,4.000000,4.000000,4.000000,100.000000
1602005873.123794,105.000000,0.000000,4140.512695,4113.846191,4139.487305,4119.487305,4125.128418,4137.948730,4129.230957,4135.384766,4136.410156,4133.333496,4140.000000,4141.538574,4139.487305,4143.589844,748.000000,4.000000,,,,0.000000,4.000000,4.000000,4.000000,4.000000,4.000000,4.000000,4.000000,4.000000,4.000000,4.000000,4.000000,4.000000,4.000000,4.000000,100.000000
1602005873.131679,106.000000,0.000000,4138.974121,4110.769043,4142.051270,4119.487305,4124.615234,4136.410156,4136.410156,4145.128418,4148.205078,4138.974121,4143.077148,4149.743652,4150.769043,4154.871582,877.000000,4.000000,,,,0.000000,4.000000,4.000000,4.000000,4.000000,4.000000,4.000000,4.000000,4.000000,4.000000,4.000000,4.000000,4.000000,4.000000,4.000000,100.000000
1602005873.139665,107.000000,0.000000,4141.025879,4123.077148,4143.077148,4128.205078,4131.282227,4141.025879,4144.615234,4157.436035,4162.051270,4177.948730,4157.948730,4160.512695,4161.538574,4163.077148,841.000000,4.000000,,,,0.000000,4.000000,4.000000,4.000000,4.000000,4.000000,4.000000,4.000000,4.000000,4.000000,4.000000,4.000000,4.000000,4.000000,4.000000,100.000000
1602005873.147552,108.000000,0.000000,4145.128418,4130.769043,4138.974121,4132.820313,4132.820313,4139.487305,4143.589844,4153.846191,4156.922852,4175.384766,4158.974121,4151.794922,4161.538574,4158.461426,776.000000,4.000000,,,,0.000000,4.000000,4.000000,4.000000,4.000000,4.000000,4.000000,4.000000,4.000000,4.000000,4.000000,4.000000,4.000000,4.000000,4.000000,100.000000
1602005873.155438,109.000000,0.000000,4138.461426,4126.153809,4126.666504,4128.205078,4124.615234,4125.641113,4137.436035,4141.025879,4134.358887,4138.974121,4146.153809,4138.461426,4150.769043,4146.666504,748.000000,4.000000,,,,0.000000,4.000000,4.000000,4.000000,4.000000,4.000000,4.000000,4.000000,4.000000,4.000000,4.000000,4.000000,4.000000,4.000000,4.000000,100.000000
1602005873.163324,110.000000,0.000000,4127.692383,4124.102539,4119.487305,4123.589844,4124.102539,4116.410156,4131.794922,4129.743652,4119.487305,4131.282227,4140.000000,4137.948730,4134.871582,4137.436035,877.000000,4.000000,,,,0.000000,4.000000,4.000000,4.000000,4.000000,4.000000,4.000000,4.000000,4.000000,4.000000,4.000000,4.000000,4.000000,4.000000,4.000000,100.000000
1602005873.171210,111.000000,0.000000,4125.128418,4123.077148,4123.589844,4125.128418,4126.666504,4121.538574,4128.717773,4123.589844,4112.307617,4126.666504,4129.743652,4132.307617,4123.077148,4124.615234,841.000000,4.000000,,,,0.000000,4.000000,4.000000,4.000000,4.000000,4.000000,4.000000,4.000000,4.000000,4.000000,4.000000,4.000000,4.000000,4.000000,4.000000,100.000000
1602005873.179096,112.000000,0.000000,4119.487305,4114.871582,4120.000000,4120.000000,4115.897461,4122.051270,4127.692383,4122.051270,4105.128418,4104.615234,4111.282227,4115.384766,4116.410156,4112.820313,776.000000,4.000000,,,,0.000000,4.000000,4.000000,4.000000,4.000000,4.000000,4.000000,4.000000,4.000000,4.000000,4.000000,4.000000,4.000000,4.000000,4.000000,100.000000
1602005873.186982,113.000000,0.000000,4105.641113,4105.128418,4111.282227,4108.717773,4109.230957,4115.384766,4124.102539,4122.051270,4105.128418,4102.563965,4104.102539,4108.205078,4111.794922,4114.358887,748.000000,4.000000,,,,0.000000,4.000000,4.000000,4.000000,4.000000,4.000000,4.000000,4.000000,4.000000,4.000000,4.000000,4.000000,4.000000,4.000000,4.000000,100.000000
1602005873.194869,114.000000,0.000000,4106.666504,4108.205078,4114.358887,4111.282227,4118.461426,4126.153809,4123.077148,4122.563965,4107.179688,4116.410156,4114.358887,4119.487305,4114.358887,4117.948730,877.000000,4.000000,,,,0.000000,4.000000,4.000000,4.000000,4.000000,4.000000,4.000000,4.000000,4.000000,4.000000,4.000000,4.000000,4.000000,4.000000,4.000000,100.000000
1602005873.202755,115.000000,0.000000,4122.563965,4122.051270,4120.000000,4121.538574,4124.102539,4138.974121,4127.179688,4124.615234,4110.256348,4119.487305,4129.230957,4132.820313,4124.615234,4122.051270,841.000000,4.000000,,,,0.000000,4.000000,4.000000,4.000000,4.000000,4.000000,4.000000,4.000000,4.000000,4.000000,4.000000,4.000000,4.000000,4.000000,4.000000,100.000000
1602005873.210737,116.000000,0.000000,4124.615234,4123.077148,4122.051270,4121.538574,4122.051270,4132.820313,4128.717773,4124.615234,4114.871582,4120.512695,4138.461426,4140.000000,4131.794922,4142.051270,776.000000,4.000000,,,,0.000000,4.000000,4.000000,4.000000,4.000000,4.000000,4.000000,4.000000,4.000000,4.000000,4.000000,4.000000,4.000000,4.000000,4.000000,100.000000
1602005873.218619,117.000000,0.000000,4123.589844,4116.922852,4128.717773,4117.948730,4121.538574,4130.769043,4130.769043,4126.666504,4118.461426,4127.692383,4138.974121,4147.179688,4135.897461,4156.922852,748.000000,4.000000,,,,0.000000,4.000000,4.000000,4.000000,4.000000,4.000000,4.000000,4.000000,4.000000,4.000000,4.000000,4.000000,4.000000,4.000000,4.000000,100.000000
1602005873.226604,118.000000,0.000000,4136.410156,4119.487305,4139.487305,4119.487305,4122.051270,4142.051270,4142.563965,4139.487305,4130.256348,4136.410156,4140.000000,4154.358887,4137.948730,4155.384766,877.000000,4.000000,,,,0.000000,4.000000,4.000000,4.000000,4.000000,4.000000,4.000000,4.000000,4.000000,4.000000,4.000000,4.000000,4.000000,4.000000,4.000000,100.000000
1602005873.234489,119.000000,0.000000,4142.563965,4118.461426,4143.077148,4122.051270,4118.461426,4143.589844,4149.230957,4149.230957,4144.615234,4146.666504,4144.615234,4158.974121,4140.512695,4154.871582,841.000000,4.000000,,,,0.000000,4.000000,4.000000,4.000000,4.000000,4.000000,4.000000,4.000000,4.000000,4.000000,4.000000,4.000000,4.000000,4.000000,4.000000,100.000000
1602005873.242374,120.000000,0.000000,4137.948730,4111.282227,4141.025879,4120.512695,4120.000000,4133.333496,4147.692383,4145.641113,4145.128418,4147.692383,4144.102539,4159.487305,4143.077148,4161.025879,776.000000,4.000000,,,,0.000000,4.000000,4.000000,4.000000,4.000000,4.000000,4.000000,4.000000,4.000000,4.000000,4.000000,4.000000,4.000000,4.000000,4.000000,100.000000
1602005873.250259,121.000000,0.000000,4142.051270,4115.897461,4141.538574,4121.538574,4118.974121,4127.179688,4142.051270,4138.974121,4140.512695,4144.615234,4134.871582,4154.358887,4137.948730,4160.000000,748.000000,4.000000,,,,0.000000,4.000000,4.000000,4.000000,4.000000,4.000000,4.000000,4.000000,4.000000,4.000000,4.000000,4.000000,4.000000,4.000000,4.000000,100.000000
1602005873.258144,122.000000,0.000000,4146.153809,4123.077148,4141.538574,4122.563965,4111.794922,4123.077148,4125.641113,4131.794922,4140.512695,4137.948730,4122.563965,4141.538574,4126.666504,4137.948730,877.000000,4.000000,,,,0.000000,4.000000,4.000000,4.000000,4.000000,4.000000,4.000000,4.000000,4.000000,4.000000,4.000000,4.000000,4.000000,4.000000,4.000000,100.000000
1602005873.266029,123.000000,0.000000,4139.487305,4123.589844,4135.897461,4124.102539,4114.358887,4119.487305,4111.282227,4123.589844,4130.256348,4126.153809,4121.538574,4131.282227,4122.051270,4123.077148,841.000000,4.000000,,,,0.000000,4.000000,4.000000,4.000000,4.000000,4.000000,4.000000,4.000000,4.000000,4.000000,4.000000,4.000000,4.000000,4.000000,4.000000,100.000000
1602005873.273914,124.000000,0.000000,4136.410156,4125.641113,4127.179688,4126.666504,4126.153809,4125.641113,4114.358887,4121.538574,4120.512695,4121.538574,4134.871582,4133.846191,4122.563965,4135.897461,776.000000,4.000000,,,,0.000000,4.000000,4.000000,4.000000,4.000000,4.000000,4.000000,4.000000,4.000000,4.000000,4.000000,4.000000,4.000000,4.000000,4.000000,100.000000
1602005873.281799,125.000000,0.000000,4134.358887,4126.666504,4122.051270,4124.615234,4130.256348,4135.384766,4120.512695,4125.128418,4130.256348,4137.948730,4137.948730,4133.846191,4120.512695,4139.487305,748.000000,4.000000,,,,0.000000,4.000000,4.000000,4.000000,4.000000,4.000000,4.000000,4.000000,4.000000,4.000000,4.000000,4.000000,4.000000,4.000000,4.000000,100.000000
1602005873.289582,126.000000,0.000000,4133.333496,4123.589844,4122.563965,4124.615234,4127.692383,4136.410156,4118.974121,4124.615234,4133.846191,4146.666504,4123.077148,4124.615234,4119.487305,4124.102539,877.000000,4.000000,,,,0.000000,4.000000,4.000000,4.000000,4.000000,4.000000,4.000000,4.000000,4.000000,4.000000,4.000000,4.000000,4.000000,4.000000,4.000000,100.000000
1602005873.297465,127.000000,0.000000,4134.358887,4129.743652,4120.512695,4130.769043,4130.256348,4132.820313,4117.948730,4120.000000,4122.563965,4123.077148,4117.436035,4119.487305,4121.025879,4128.717773,841.000000,4.000000,,,,0.000000,4.000000,4.000000,4.000000,4.000000,4.000000,4.000000,4.000000,4.000000,4.000000,4.000000,4.000000,4.000000,4.000000,4.000000,100.000000
1602005873.305348,128.000000,0.000000,4138.974121,4138.461426,4122.563965,4135.897461,4136.410156,4136.410156,4118.461426,4122.563965,4123.589844,4122.051270,4127.179688,4127.179688,4122.051270,4147.692383,776.000000,4.000000,,,,0.000000,4.000000,4.000000,4.000000,4.000000,4.000000,4.000000,4.000000,4.000000,4.000000,4.000000,4.000000,4.000000,4.000000,4.000000,100.000000
1602005873.313231,0.000000,0.000000,4156.410156,4141.025879,4143.077148,4139.487305,4142.563965,4139.487305,4125.128418,4134.871582,4140.512695,4158.974121,4136.922852,4145.641113,4134.358887,4162.051270,799.000000,4.000000,,,,0.000000,4.000000,4.000000,4.000000,4.000000,4.000000,4.000000,4.000000,4.000000,4.000000,4.000000,4.000000,4.000000,4.000000,4.000000,100.000000
1602005873.321215,1.000000,0.000000,4169.230957,4141.538574,4162.051270,4140.512695,4139.487305,4138.461426,4133.333496,4140.512695,4143.077148,4153.333496,4141.025879,4160.512695,4143.589844,4170.256348,795.000000,4.000000,,,,0.000000,4.000000,4.000000,4.000000,4.000000,4.000000,4.000000,4.000000,4.000000,4.000000,4.000000,4.000000,4.000000,4.000000,4.000000,100.000000
1602005873.329100,2.000000,0.000000,4152.307617,4131.282227,4150.769043,4129.743652,4125.641113,4136.410156,4129.230957,4126.153809,4129.230957,4113.333496,4133.846191,4151.794922,4128.205078,4157.948730,851.000000,4.000000,,,,0.000000,4.000000,4.000000,4.000000,4.000000,4.000000,4.000000,4.000000,4.000000,4.000000,4.000000,4.000000,4.000000,4.000000,4.000000,100.000000
1602005873.336984,3.000000,0.000000,4129.743652,4116.410156,4136.410156,4117.436035,4117.436035,4135.384766,4128.205078,4120.000000,4124.615234,4127.692383,4124.615234,4140.512695,4115.384766,4142.051270,866.000000,4.000000,,,,0.000000,4.000000,4.000000,4.000000,4.000000,4.000000,4.000000,4.000000,4.000000,4.000000,4.000000,4.000000,4.000000,4.000000,4.000000,100.000000
1602005873.344869,4.000000,0.000000,4125.128418,4111.282227,4133.846191,4120.512695,4123.589844,4138.974121,4137.436035,4127.692383,4126.666504,4155.897461,4122.563965,4146.666504,4122.051270,4143.589844,746.000000,4.000000,,,,0.000000,4.000000,4.000000,4.000000,4.000000,4.000000,4.000000,4.000000,4.000000,4.000000,4.000000,4.000000,4.000000,4.000000,4.000000,100.000000
1602005873.352753,5.000000,0.000000,4124.615234,4108.205078,4125.128418,4121.025879,4126.666504,4141.538574,4139.487305,4129.230957,4129.230957,4132.820313,4123.589844,4148.205078,4124.102539,4141.025879,833.000000,4.000000,,,,0.000000,4.000000,4.000000,4.000000,4.000000,4.000000,4.000000,4.000000,4.000000,4.000000,4.000000,4.000000,4.000000,4.000000,4.000000,100.000000
1602005873.360638,6.000000,0.000000,4129.743652,4109.743652,4124.615234,4117.948730,4121.538574,4137.948730,4136.410156,4134.358887,4146.153809,4133.333496,4129.743652,4144.615234,4124.615234,4139.487305,777.000000,4.000000,,,,0.000000,4.000000,4.000000,4.000000,4.000000,4.000000,4.000000,4.000000,4.000000,4.000000,4.000000,4.000000,4.000000,4.000000,4.000000,100.000000
1602005873.368522,7.000000,0.000000,4145.641113,4128.205078,4140.512695,4127.179688,4126.666504,4133.846191,4133.333496,4147.179688,4162.563965,4172.820313,4145.128418,4152.820313,4143.077148,4160.000000,688.000000,4.000000,,,,0.000000,4.000000,4.000000,4.000000,4.000000,4.000000,4.000000,4.000000,4.000000,4.000000,4.000000,4.000000,4.000000,4.000000,4.000000,100.000000
1602005873.376307,8.000000,0.000000,4157.436035,4148.717773,4148.205078,4140.000000,4138.461426,4136.922852,4127.179688,4147.179688,4162.051270,4182.563965,4155.897461,4160.512695,4159.487305,4177.948730,759.000000,4.000000,,,,0.000000,4.000000,4.000000,4.000000,4.000000,4.000000,4.000000,4.000000,4.000000,4.000000,4.000000,4.000000,4.000000,4.000000,4.000000,100.000000
1602005873.384191,9.000000,0.000000,4160.000000,4154.871582,4143.589844,4144.102539,4141.538574,4138.461426,4120.512695,4137.436035,4153.846191,4167.692383,4151.794922,4152.307617,4152.307617,4170.769043,845.000000,4.000000,,,,0.000000,4.000000,4.000000,4.000000,4.000000,4.000000,4.000000,4.000000,4.000000,4.000000,4.000000,4.000000,4.000000,4.000000,4.000000,100.000000
1602005873.392075,10.000000,0.000000,4157.948730,4155.384766,4141.025879,4142.051270,4138.461426,4125.128418,4113.333496,4128.717773,4137.436035,4147.692383,4137.436035,4143.589844,4137.436035,4160.000000,877.000000,4.000000,,,,0.000000,4.000000,4.000000,4.000000,4.000000,4.000000,4.000000,4.000000,4.000000,4.000000,4.000000,4.000000,4.000000,4.000000,4.000000,100.000000
1602005873.399960,11.000000,0.000000,4156.410156,4154.871582,4135.897461,4139.487305,4140.512695,4116.922852,4105.128418,4118.461426,4111.794922,4122.051270,4126.153809,4140.512695,4128.717773,4161.538574,841.000000,4.000000,,,,0.000000,4.000000,4.000000,4.000000,4.000000,4.000000,4.000000,4.000000,4.000000,4.000000,4.000000,4.000000,4.000000,4.000000,4.000000,100.000000
1602005873.407844,12.000000,0.000000,4150.769043,4152.307617,4127.692383,4141.538574,4141.025879,4129.743652,4104.615234,4111.794922,4103.589844,4126.153809,4123.589844,4132.307617,4124.615234,4154.358887,747.000000,4.000000,,,,0.000000,4.000000,4.000000,4.000000,4.000000,4.000000,4.000000,4.000000,4.000000,4.000000,4.000000,4.000000,4.000000,4.000000,4.000000,100.000000
1602005873.415728,13.000000,0.000000,4139.487305,4143.589844,4125.641113,4136.922852,4131.282227,4134.358887,4114.871582,4111.794922,4107.179688,4140.000000,4118.974121,4127.179688,4119.487305,4139.487305,708.000000,4.000000,,,,0.000000,4.000000,4.000000,4.000000,4.000000,4.000000,4.000000,4.000000,4.000000,4.000000,4.000000,4.000000,4.000000,4.000000,4.000000,100.000000
1602005873.423711,14.000000,0.000000,4140.000000,4133.333496,4133.846191,4124.102539,4120.512695,4122.563965,4130.256348,4117.436035,4102.051270,4122.563965,4121.025879,4141.025879,4120.512695,4146.153809,877.000000,4.000000,,,,0.000000,4.000000,4.000000,4.000000,4.000000,4.000000,4.000000,4.000000,4.000000,4.000000,4.000000,4.000000,4.000000,4.000000,4.000000,100.000000
1602005873.431594,15.000000,0.000000,4154.358887,4134.871582,4154.871582,4127.692383,4118.974121,4121.025879,4142.051270,4128.205078,4105.641113,4117.436035,4136.922852,4165.128418,4136.922852,4171.794922,841.000000,4.000000,,,,0.000000,4.000000,4.000000,4.000000,4.000000,4.000000,4.000000,4.000000,4.000000,4.000000,4.000000,4.000000,4.000000,4.000000,4.000000,100.000000
1602005873.439477,16.000000,0.000000,4161.538574,4142.563965,4167.179688,4140.512695,4123.077148,4127.179688,4143.077148,4137.436035,4120.000000,4144.615234,4145.128418,4168.717773,4148.717773,4176.922852,0.000000,4.000000,,,,0.000000,4.000000,4.000000,4.000000,4.000000,4.000000,4.000000,4.000000,4.000000,4.000000,4.000000,4.000000,4.000000,4.000000,4.000000,100.000000
1602005873.447360,17.000000,0.000000,4156.922852,4143.077148,4157.948730,4138.461426,4123.077148,4123.589844,4140.000000,4137.436035,4124.102539,4154.871582,4144.102539,4156.410156,4144.615234,4161.538574,0.000000,4.000000,,,,0.000000,4.000000,4.000000,4.000000,4.000000,4.000000,4.000000,4.000000,4.000000,4.000000,4.000000,4.000000,4.000000,4.000000,4.000000,100.000000
1602005873.455142,18.000000,0.000000,4147.692383,4137.436035,4138.974121,4127.692383,4120.000000,4117.436035,4133.846191,4132.820313,4119.487305,4134.871582,4138.974121,4151.282227,4139.487305,4154.358887,0.000000,4.000000,,,,0.000000,4.000000,4.000000,4.000000,4.000000,4.000000,4.000000,4.000000,4.000000,4.000000,4.000000,4.000000,4.000000,4.000000,4.000000,100.000000
1602005873.462925,19.000000,0.000000,4140.512695,4136.410156,4123.077148,4124.102539,4123.589844,4118.461426,4124.615234,4127.692383,4113.333496,4121.538574,4125.641113,4148.205078,4142.051270,4153.333496,0.000000,4.000000,,,,0.000000,4.000000,4.000000,4.000000,4.000000,4.000000,4.000000,4.000000,4.000000,4.000000,4.000000,4.000000,4.000000,4.000000,4.000000,100.000000
1602005873.470807,20.000000,0.000000,4139.487305,4137.948730,4111.282227,4125.128418,4133.846191,4128.717773,4122.051270,4125.641113,4104.615234,4123.077148,4111.794922,4134.358887,4135.897461,4141.025879,0.000000,4.000000,,,,0.000000,4.000000,4.000000,4.000000,4.000000,4.000000,4.000000,4.000000,4.000000,4.000000,4.000000,4.000000,4.000000,4.000000,4.000000,100.000000
1602005873.478690,21.000000,0.000000,4135.897461,4138.461426,4110.769043,4129.230957,4136.922852,4137.436035,4122.563965,4126.666504,4107.692383,4128.717773,4115.384766,4123.077148,4128.717773,4128.205078,0.000000,4.000000,,,,0.000000,4.000000,4.000000,4.000000,4.000000,4.000000,4.000000,4.000000,4.000000,4.000000,4.000000,4.000000,4.000000,4.000000,4.000000,100.000000
1602005873.486573,22.000000,0.000000,4140.000000,4145.641113,4128.205078,4140.000000,4136.922852,4138.974121,4120.000000,4134.358887,4123.077148,4148.205078,4138.974121,4141.025879,4142.563965,4144.615234,0.000000,4.000000,,,,0.000000,4.000000,4.000000,4.000000,4.000000,4.000000,4.000000,4.000000,4.000000,4.000000,4.000000,4.000000,4.000000,4.000000,4.000000,100.000000
