Timestamp,EEG.Counter,EEG.Interpolated,EEG.AF3,EEG.F7,EEG.F3,EEG.FC5,EEG.T7,EEG.P7,EEG.O1,EEG.O2,EEG.P8,EEG.T8,EEG.FC6,EEG.F4,EEG.F8,EEG.AF4,EEG.RawCq,EEG.Battery,MarkerIndex,MarkerType,MarkerValueInt,EEG.MarkerHardware,CQ.AF3,CQ.F7,CQ.F3,CQ.FC5,CQ.T7,CQ.P7,CQ.O1,CQ.O2,CQ.P8,CQ.T8,CQ.FC6,CQ.F4,CQ.F8,CQ.AF4,CQ.Overall
1602005883.911928,55.000000,0.000000,4143.589844,4138.974121,4140.000000,4136.922852,4138.461426,4137.948730,4123.077148,4126.666504,4128.205078,4126.666504,4125.128418,4152.307617,4105.641113,4122.563965,0.000000,4.000000,,,,0.000000,4.000000,4.000000,4.000000,4.000000,4.000000,4.000000,4.000000,4.000000,4.000000,4.000000,4.000000,4.000000,4.000000,4.000000,100.000000
1602005883.919713,56.000000,0.000000,4136.922852,4135.384766,4137.948730,4136.410156,4123.077148,4132.820313,4126.153809,4132.820313,4127.179688,4136.922852,4120.000000,4151.282227,4106.153809,4122.051270,0.000000,4.000000,,,,0.000000,4.000000,4.000000,4.000000,4.000000,4.000000,4.000000,4.000000,4.000000,4.000000,4.000000,4.000000,4.000000,4.000000,4.000000,100.000000
1602005883.927598,57.000000,0.000000,4141.025879,4136.922852,4139.487305,4138.974121,4119.487305,4137.948730,4130.769043,4135.897461,4135.897461,4135.897461,4134.358887,4158.974121,4117.948730,4125.128418,0.000000,4.000000,,,,0.000000,4.000000,4.000000,4.000000,4.000000,4.000000,4.000000,4.000000,4.000000,4.000000,4.000000,4.000000,4.000000,4.000000,4.000000,100.000000
1602005883.935484,58.000000,0.000000,4154.358887,4142.051270,4146.666504,4143.077148,4127.179688,4141.025879,4130.256348,4129.743652,4134.871582,4142.563965,4142.563965,4168.717773,4124.102539,4136.410156,0.000000,4.000000,,,,0.000000,4.000000,4.000000,4.000000,4.000000,4.000000,4.000000,4.000000,4.000000,4.000000,4.000000,4.000000,4.000000,4.000000,4.000000,100.000000
1602005883.943369,59.000000,0.000000,4156.410156,4144.102539,4149.743652,4142.563965,4134.358887,4136.410156,4127.179688,4127.692383,4135.897461,4145.641113,4138.974121,4173.333496,4130.769043,4140.000000,0.000000,4.000000,,,,0.000000,4.000000,4.000000,4.000000,4.000000,4.000000,4.000000,4.000000,4.000000,4.000000,4.000000,4.000000,4.000000,4.000000,4.000000,100.000000
1602005883.951254,60.000000,0.000000,4153.333496,4144.615234,4155.384766,4140.512695,4138.461426,4135.384766,4123.077148,4135.384766,4141.538574,4143.589844,4147.692383,4180.000000,4139.487305,4137.436035,0.000000,4.000000,,,,0.000000,4.000000,4.000000,4.000000,4.000000,4.000000,4.000000,4.000000,4.000000,4.000000,4.000000,4.000000,4.000000,4.000000,4.000000,100.000000
1602005883.959139,61.000000,0.000000,4156.922852,4142.051270,4166.666504,4140.512695,4135.384766,4137.436035,4126.666504,4137.948730,4142.051270,4155.897461,4158.461426,4189.230957,4142.563965,4148.717773,0.000000,4.000000,,,,0.000000,4.000000,4.000000,4.000000,4.000000,4.000000,4.000000,4.000000,4.000000,4.000000,4.000000,4.000000,4.000000,4.000000,4.000000,100.000000
1602005883.967024,62.000000,0.000000,4157.948730,4136.922852,4169.230957,4135.384766,4128.717773,4136.922852,4135.897461,4135.897461,4146.153809,4163.589844,4157.436035,4186.666504,4145.641113,4154.871582,0.000000,4.000000,,,,0.000000,4.000000,4.000000,4.000000,4.000000,4.000000,4.000000,4.000000,4.000000,4.000000,4.000000,4.000000,4.000000,4.000000,4.000000,100.000000
1602005883.974910,63.000000,0.000000,4149.230957,4130.256348,4155.897461,4126.666504,4122.563965,4135.897461,4136.410156,4138.461426,4151.794922,4134.358887,4150.769043,4173.846191,4141.025879,4141.538574,0.000000,4.000000,,,,0.000000,4.000000,4.000000,4.000000,4.000000,4.000000,4.000000,4.000000,4.000000,4.000000,4.000000,4.000000,4.000000,4.000000,4.000000,100.000000
1602005883.982795,64.000000,0.000000,4137.948730,4124.102539,4142.563965,4122.563965,4118.461426,4137.948730,4137.436035,4138.974121,4149.743652,4111.794922,4141.538574,4169.743652,4125.641113,4135.897461,806.000000,4.000000,,,,0.000000,4.000000,4.000000,4.000000,4.000000,4.000000,4.000000,4.000000,4.000000,4.000000,4.000000,4.000000,4.000000,4.000000,4.000000,100.000000
1602005883.990580,65.000000,0.000000,4137.948730,4124.615234,4140.512695,4127.179688,4119.487305,4146.153809,4149.230957,4137.436035,4147.692383,4127.692383,4135.897461,4172.307617,4119.487305,4134.871582,795.000000,4.000000,,,,0.000000,4.000000,4.000000,4.000000,4.000000,4.000000,4.000000,4.000000,4.000000,4.000000,4.000000,4.000000,4.000000,4.000000,4.000000,100.000000
1602005883.998466,66.000000,0.000000,4136.922852,4130.769043,4138.974121,4133.333496,4128.205078,4153.846191,4152.820313,4139.487305,4145.641113,4143.077148,4136.922852,4165.128418,4125.641113,4124.615234,851.000000,4.000000,,,,0.000000,4.000000,4.000000,4.000000,4.000000,4.000000,4.000000,4.000000,4.000000,4.000000,4.000000,4.000000,4.000000,4.000000,4.000000,100.000000
1602005884.006351,67.000000,0.000000,4127.692383,4135.384766,4130.769043,4135.384766,4138.974121,4152.307617,4141.025879,4131.794922,4134.871582,4143.077148,4136.922852,4153.846191,4122.051270,4123.077148,866.000000,4.000000,,,,0.000000,4.000000,4.000000,4.000000,4.000000,4.000000,4.000000,4.000000,4.000000,4.000000,4.000000,4.000000,4.000000,4.000000,4.000000,100.000000
1602005884.014237,68.000000,0.000000,4125.128418,4135.897461,4124.615234,4135.384766,4141.025879,4145.128418,4129.743652,4114.871582,4124.615234,4143.589844,4127.692383,4149.230957,4107.179688,4122.563965,816.000000,4.000000,,,,0.000000,4.000000,4.000000,4.000000,4.000000,4.000000,4.000000,4.000000,4.000000,4.000000,4.000000,4.000000,4.000000,4.000000,4.000000,100.000000
1602005884.022122,69.000000,0.000000,4128.205078,4136.922852,4125.641113,4135.384766,4138.974121,4141.025879,4124.615234,4111.282227,4120.512695,4134.358887,4120.000000,4146.666504,4102.051270,4109.743652,818.000000,4.000000,,,,0.000000,4.000000,4.000000,4.000000,4.000000,4.000000,4.000000,4.000000,4.000000,4.000000,4.000000,4.000000,4.000000,4.000000,4.000000,100.000000
1602005884.030008,70.000000,0.000000,4130.769043,4137.436035,4128.717773,4137.948730,4137.436035,4138.974121,4127.179688,4124.102539,4124.615234,4124.615234,4127.179688,4148.717773,4113.846191,4109.743652,790.000000,4.000000,,,,0.000000,4.000000,4.000000,4.000000,4.000000,4.000000,4.000000,4.000000,4.000000,4.000000,4.000000,4.000000,4.000000,4.000000,4.000000,100.000000
1602005884.037893,71.000000,0.000000,4133.846191,4135.384766,4126.666504,4139.487305,4132.820313,4139.487305,4136.410156,4136.922852,4142.051270,4138.974121,4140.512695,4162.051270,4124.102539,4122.051270,687.000000,4.000000,,,,0.000000,4.000000,4.000000,4.000000,4.000000,4.000000,4.000000,4.000000,4.000000,4.000000,4.000000,4.000000,4.000000,4.000000,4.000000,100.000000
1602005884.045779,72.000000,0.000000,4129.743652,4133.333496,4122.563965,4136.410156,4126.666504,4142.051270,4138.461426,4140.000000,4153.333496,4136.922852,4145.128418,4165.641113,4124.615234,4122.051270,786.000000,4.000000,,,,0.000000,4.000000,4.000000,4.000000,4.000000,4.000000,4.000000,4.000000,4.000000,4.000000,4.000000,4.000000,4.000000,4.000000,4.000000,100.000000
1602005884.053664,73.000000,0.000000,4126.666504,4135.384766,4118.974121,4134.871582,4122.563965,4140.512695,4135.897461,4138.974121,4151.794922,4118.461426,4142.051270,4152.820313,4127.179688,4126.666504,843.000000,4.000000,,,,0.000000,4.000000,4.000000,4.000000,4.000000,4.000000,4.000000,4.000000,4.000000,4.000000,4.000000,4.000000,4.000000,4.000000,4.000000,100.000000
1602005884.061449,74.000000,0.000000,4140.000000,4137.948730,4128.205078,4138.974121,4128.717773,4138.974121,4136.922852,4140.000000,4151.282227,4134.871582,4139.487305,4151.794922,4130.256348,4141.538574,866.000000,4.000000,,,,0.000000,4.000000,4.000000,4.000000,4.000000,4.000000,4.000000,4.000000,4.000000,4.000000,4.000000,4.000000,4.000000,4.000000,4.000000,100.000000
1602005884.069335,75.000000,0.000000,4155.897461,4138.974121,4151.282227,4143.589844,4135.897461,4135.897461,4139.487305,4140.512695,4152.820313,4164.102539,4138.974121,4167.692383,4127.179688,4144.615234,840.000000,4.000000,,,,0.000000,4.000000,4.000000,4.000000,4.000000,4.000000,4.000000,4.000000,4.000000,4.000000,4.000000,4.000000,4.000000,4.000000,4.000000,100.000000
1602005884.077220,76.000000,0.000000,4158.461426,4138.974121,4161.538574,4143.589844,4127.692383,4127.692383,4138.461426,4132.820313,4139.487305,4157.436035,4141.025879,4173.846191,4125.128418,4137.948730,768.000000,4.000000,,,,0.000000,4.000000,4.000000,4.000000,4.000000,4.000000,4.000000,4.000000,4.000000,4.000000,4.000000,4.000000,4.000000,4.000000,4.000000,100.000000
1602005884.085105,77.000000,0.000000,4153.333496,4135.384766,4155.384766,4139.487305,4115.897461,4119.487305,4131.282227,4119.487305,4112.820313,4132.307617,4144.102539,4167.692383,4130.769043,4138.974121,757.000000,4.000000,,,,0.000000,4.000000,4.000000,4.000000,4.000000,4.000000,4.000000,4.000000,4.000000,4.000000,4.000000,4.000000,4.000000,4.000000,4.000000,100.000000
1602005884.092990,78.000000,0.000000,4153.333496,4135.897461,4155.897461,4138.461426,4119.487305,4122.051270,4128.717773,4117.436035,4105.128418,4132.820313,4150.769043,4174.871582,4137.948730,4150.769043,866.000000,4.000000,,,,0.000000,4.000000,4.000000,4.000000,4.000000,4.000000,4.000000,4.000000,4.000000,4.000000,4.000000,4.000000,4.000000,4.000000,4.000000,100.000000
1602005884.100875,79.000000,0.000000,4162.563965,4144.615234,4160.000000,4142.563965,4126.153809,4133.846191,4137.948730,4131.794922,4118.974121,4146.666504,4156.922852,4186.153809,4144.102539,4162.051270,840.000000,4.000000,,,,0.000000,4.000000,4.000000,4.000000,4.000000,4.000000,4.000000,4.000000,4.000000,4.000000,4.000000,4.000000,4.000000,4.000000,4.000000,100.000000
1602005884.108761,80.000000,0.000000,4163.589844,4146.666504,4146.666504,4143.589844,4123.077148,4139.487305,4141.025879,4142.051270,4129.743652,4140.000000,4148.205078,4175.897461,4142.051270,4153.333496,768.000000,4.000000,,,,0.000000,4.000000,4.000000,4.000000,4.000000,4.000000,4.000000,4.000000,4.000000,4.000000,4.000000,4.000000,4.000000,4.000000,4.000000,100.000000
1602005884.116646,81.000000,0.000000,4149.230957,4139.487305,4127.692383,4135.384766,4120.512695,4138.461426,4130.769043,4140.000000,4131.794922,4124.102539,4139.487305,4156.922852,4129.230957,4135.384766,757.000000,4.000000,,,,0.000000,4.000000,4.000000,4.000000,4.000000,4.000000,4.000000,4.000000,4.000000,4.000000,4.000000,4.000000,4.000000,4.000000,4.000000,100.000000
1602005884.124531,82.000000,0.000000,4136.922852,4131.282227,4119.487305,4126.666504,4123.077148,4140.000000,4126.153809,4134.871582,4131.282227,4114.871582,4133.333496,4149.743652,4112.307617,4138.461426,866.000000,4.000000,,,,0.000000,4.000000,4.000000,4.000000,4.000000,4.000000,4.000000,4.000000,4.000000,4.000000,4.000000,4.000000,4.000000,4.000000,4.000000,100.000000
1602005884.132314,83.000000,0.000000,4129.743652,4127.692383,4119.487305,4122.563965,4124.102539,4135.384766,4127.179688,4128.205078,4132.307617,4108.717773,4123.077148,4144.102539,4104.102539,4140.512695,840.000000,4.000000,,,,0.000000,4.000000,4.000000,4.000000,4.000000,4.000000,4.000000,4.000000,4.000000,4.000000,4.000000,4.000000,4.000000,4.000000,4.000000,100.000000
1602005884.140196,84.000000,0.000000,4121.538574,4128.717773,4120.000000,4126.666504,4124.615234,4123.589844,4122.563965,4121.538574,4134.358887,4115.897461,4125.128418,4134.871582,4110.256348,4119.487305,768.000000,4.000000,,,,0.000000,4.000000,4.000000,4.000000,4.000000,4.000000,4.000000,4.000000,4.000000,4.000000,4.000000,4.000000,4.000000,4.000000,4.000000,100.000000
1602005884.148078,85.000000,0.000000,4125.128418,4134.871582,4119.487305,4135.897461,4131.282227,4123.077148,4118.461426,4120.000000,4136.410156,4141.025879,4140.512695,4137.436035,4121.538574,4115.897461,757.000000,4.000000,,,,0.000000,4.000000,4.000000,4.000000,4.000000,4.000000,4.000000,4.000000,4.000000,4.000000,4.000000,4.000000,4.000000,4.000000,4.000000,100.000000
1602005884.156059,86.000000,0.000000,4142.051270,4145.128418,4125.128418,4142.051270,4136.410156,4129.230957,4118.461426,4122.051270,4136.410156,4153.333496,4144.102539,4146.666504,4127.179688,4139.487305,866.000000,4.000000,,,,0.000000,4.000000,4.000000,4.000000,4.000000,4.000000,4.000000,4.000000,4.000000,4.000000,4.000000,4.000000,4.000000,4.000000,4.000000,100.000000
1602005884.163845,87.000000,0.000000,4144.615234,4139.487305,4132.820313,4134.871582,4128.717773,4124.615234,4125.128418,4127.179688,4135.897461,4154.358887,4140.512695,4152.307617,4128.717773,4145.128418,840.000000,4.000000,,,,0.000000,4.000000,4.000000,4.000000,4.000000,4.000000,4.000000,4.000000,4.000000,4.000000,4.000000,4.000000,4.000000,4.000000,4.000000,100.000000
1602005884.171730,88.000000,0.000000,4132.307617,4118.461426,4136.410156,4121.538574,4113.846191,4122.051270,4136.410156,4137.436035,4138.461426,4154.871582,4142.563965,4152.820313,4128.717773,4129.743652,768.000000,4.000000,,,,0.000000,4.000000,4.000000,4.000000,4.000000,4.000000,4.000000,4.000000,4.000000,4.000000,4.000000,4.000000,4.000000,4.000000,4.000000,100.000000
1602005884.179616,89.000000,0.000000,4148.205078,4128.717773,4144.615234,4127.179688,4110.769043,4125.128418,4142.563965,4143.077148,4136.410156,4129.230957,4143.077148,4153.846191,4130.256348,4135.897461,757.000000,4.000000,,,,0.000000,4.000000,4.000000,4.000000,4.000000,4.000000,4.000000,4.000000,4.000000,4.000000,4.000000,4.000000,4.000000,4.000000,4.000000,100.000000
1602005884.187501,90.000000,0.000000,4185.641113,4160.512695,4156.410156,4147.692383,4117.948730,4118.974121,4139.487305,4139.487305,4137.436035,4111.282227,4143.077148,4158.974121,4129.230957,4155.897461,866.000000,4.000000,,,,0.000000,4.000000,4.000000,4.000000,4.000000,4.000000,4.000000,4.000000,4.000000,4.000000,4.000000,4.000000,4.000000,4.000000,4.000000,100.000000
1602005884.195387,91.000000,0.000000,4193.846191,4166.666504,4155.897461,4154.871582,4121.025879,4110.769043,4135.897461,4141.538574,4145.641113,4135.384766,4143.589844,4161.538574,4118.974121,4147.179688,840.000000,4.000000,,,,0.000000,4.000000,4.000000,4.000000,4.000000,4.000000,4.000000,4.000000,4.000000,4.000000,4.000000,4.000000,4.000000,4.000000,4.000000,100.000000
1602005884.203272,92.000000,0.000000,4183.077148,4161.538574,4152.307617,4149.230957,4120.000000,4116.410156,4139.487305,4150.769043,4156.410156,4145.641113,4137.436035,4158.461426,4099.487305,4120.512695,768.000000,4.000000,,,,0.000000,4.000000,4.000000,4.000000,4.000000,4.000000,4.000000,4.000000,4.000000,4.000000,4.000000,4.000000,4.000000,4.000000,4.000000,100.000000
1602005884.211158,93.000000,0.000000,4186.666504,4168.717773,4154.358887,4148.205078,4123.589844,4133.846191,4145.128418,4148.717773,4157.948730,4127.179688,4124.102539,4151.794922,4085.128174,4113.846191,757.000000,4.000000,,,,0.000000,4.000000,4.000000,4.000000,4.000000,4.000000,4.000000,4.000000,4.000000,4.000000,4.000000,4.000000,4.000000,4.000000,4.000000,100.000000
1602005884.219043,94.000000,0.000000,4187.692383,4169.230957,4146.666504,4145.641113,4126.153809,4139.487305,4137.948730,4129.743652,4142.563965,4123.589844,4109.743652,4138.461426,4073.333252,4112.307617,866.000000,4.000000,,,,0.000000,4.000000,4.000000,4.000000,4.000000,4.000000,4.000000,4.000000,4.000000,4.000000,4.000000,4.000000,4.000000,4.000000,4.000000,100.000000
1602005884.226929,95.000000,0.000000,4174.871582,4167.179688,4130.256348,4141.538574,4126.666504,4130.256348,4123.077148,4110.256348,4122.051270,4129.230957,4102.563965,4118.461426,4056.923096,4092.820557,840.000000,4.000000,,,,0.000000,4.000000,4.000000,4.000000,4.000000,4.000000,4.000000,4.000000,4.000000,4.000000,4.000000,4.000000,4.000000,4.000000,4.000000,100.000000
1602005884.234911,96.000000,0.000000,4162.051270,4169.230957,4120.512695,4142.051270,4129.743652,4126.153809,4120.000000,4105.128418,4111.282227,4116.410156,4096.410156,4105.128418,4047.179443,4075.384521,768.000000,4.000000,,,,0.000000,4.000000,4.000000,4.000000,4.000000,4.000000,4.000000,4.000000,4.000000,4.000000,4.000000,4.000000,4.000000,4.000000,4.000000,100.000000
1602005884.242794,97.000000,0.000000,4155.897461,4166.153809,4120.000000,4145.641113,4127.179688,4126.666504,4118.974121,4107.179688,4106.153809,4088.205078,4089.743652,4106.153809,4049.230713,4069.230713,757.000000,4.000000,,,,0.000000,4.000000,4.000000,4.000000,4.000000,4.000000,4.000000,4.000000,4.000000,4.000000,4.000000,4.000000,4.000000,4.000000,4.000000,100.000000
1602005884.250676,98.000000,0.000000,4163.077148,4168.717773,4127.692383,4153.333496,4123.589844,4122.563965,4112.820313,4106.153809,4100.000000,4071.794922,4097.436035,4115.384766,4051.281982,4072.820557,866.000000,4.000000,,,,0.000000,4.000000,4.000000,4.000000,4.000000,4.000000,4.000000,4.000000,4.000000,4.000000,4.000000,4.000000,4.000000,4.000000,4.000000,100.000000
1602005884.258559,99.000000,0.000000,4170.769043,4173.846191,4138.461426,4157.436035,4124.102539,4123.077148,4113.333496,4108.205078,4105.641113,4086.666748,4111.794922,4130.769043,4053.333252,4086.153809,840.000000,4.000000,,,,0.000000,4.000000,4.000000,4.000000,4.000000,4.000000,4.000000,4.000000,4.000000,4.000000,4.000000,4.000000,4.000000,4.000000,4.000000,100.000000
1602005884.266341,100.000000,0.000000,4171.794922,4173.333496,4148.205078,4153.846191,4120.000000,4125.641113,4123.077148,4125.128418,4121.538574,4110.769043,4108.717773,4141.025879,4066.153809,4093.846191,768.000000,4.000000,,,,0.000000,4.000000,4.000000,4.000000,4.000000,4.000000,4.000000,4.000000,4.000000,4.000000,4.000000,4.000000,4.000000,4.000000,4.000000,100.000000
1602005884.274222,101.000000,0.000000,4172.307617,4171.794922,4151.794922,4153.846191,4120.000000,4122.563965,4132.820313,4138.974121,4122.051270,4108.717773,4104.615234,4134.358887,4074.871826,4091.281982,757.000000,4.000000,,,,0.000000,4.000000,4.000000,4.000000,4.000000,4.000000,4.000000,4.000000,4.000000,4.000000,4.000000,4.000000,4.000000,4.000000,4.000000,100.000000
1602005884.282008,102.000000,0.000000,4171.794922,4170.256348,4150.256348,4153.333496,4123.077148,4126.153809,4137.948730,4137.436035,4115.897461,4103.077148,4114.358887,4124.102539,4074.358887,4099.487305,866.000000,4.000000,,,,0.000000,4.000000,4.000000,4.000000,4.000000,4.000000,4.000000,4.000000,4.000000,4.000000,4.000000,4.000000,4.000000,4.000000,4.000000,100.000000
1602005884.289893,103.000000,0.000000,4175.384766,4168.205078,4151.282227,4144.615234,4123.077148,4137.436035,4145.128418,4143.077148,4131.794922,4129.743652,4125.128418,4132.307617,4086.666748,4121.025879,840.000000,4.000000,,,,0.000000,4.000000,4.000000,4.000000,4.000000,4.000000,4.000000,4.000000,4.000000,4.000000,4.000000,4.000000,4.000000,4.000000,4.000000,100.000000
1602005884.297778,104.000000,0.000000,4185.641113,4168.717773,4156.410156,4138.461426,4130.769043,4144.102539,4154.358887,4158.974121,4163.589844,4167.692383,4131.794922,4152.307617,4109.230957,4130.256348,768.000000,4.000000,,,,0.000000,4.000000,4.000000,4.000000,4.000000,4.000000,4.000000,4.000000,4.000000,4.000000,4.000000,4.000000,4.000000,4.000000,4.000000,100.000000
1602005884.305663,105.000000,0.000000,4186.666504,4166.666504,4154.358887,4138.974121,4138.461426,4145.128418,4151.282227,4161.538574,4175.384766,4170.256348,4140.512695,4160.000000,4115.384766,4124.615234,757.000000,4.000000,,,,0.000000,4.000000,4.000000,4.000000,4.000000,4.000000,4.000000,4.000000,4.000000,4.000000,4.000000,4.000000,4.000000,4.000000,4.000000,100.000000
1602005884.313548,106.000000,0.000000,4172.307617,4154.358887,4143.589844,4132.820313,4128.205078,4137.436035,4138.974121,4149.743652,4163.077148,4144.102539,4145.641113,4156.922852,4104.102539,4121.538574,866.000000,4.000000,,,,0.000000,4.000000,4.000000,4.000000,4.000000,4.000000,4.000000,4.000000,4.000000,4.000000,4.000000,4.000000,4.000000,4.000000,4.000000,100.000000
1602005884.321434,107.000000,0.000000,4156.410156,4142.563965,4133.333496,4122.051270,4122.563965,4127.179688,4135.897461,4141.025879,4149.743652,4134.358887,4133.333496,4146.666504,4091.281982,4116.922852,840.000000,4.000000,,,,0.000000,4.000000,4.000000,4.000000,4.000000,4.000000,4.000000,4.000000,4.000000,4.000000,4.000000,4.000000,4.000000,4.000000,4.000000,100.000000
1602005884.329319,108.000000,0.000000,4143.589844,4138.974121,4123.077148,4118.974121,4122.563965,4128.205078,4132.820313,4134.871582,4145.128418,4138.461426,4113.846191,4130.256348,4079.487061,4097.948730,768.000000,4.000000,,,,0.000000,4.000000,4.000000,4.000000,4.000000,4.000000,4.000000,4.000000,4.000000,4.000000,4.000000,4.000000,4.000000,4.000000,4.000000,100.000000
1602005884.337204,109.000000,0.000000,4128.205078,4130.769043,4112.820313,4120.512695,4109.743652,4132.307617,4123.077148,4122.051270,4134.871582,4129.230957,4102.051270,4113.333496,4065.128174,4077.435791,757.000000,4.000000,,,,0.000000,4.000000,4.000000,4.000000,4.000000,4.000000,4.000000,4.000000,4.000000,4.000000,4.000000,4.000000,4.000000,4.000000,4.000000,100.000000
1602005884.345089,110.000000,0.000000,4116.410156,4126.153809,4106.153809,4121.025879,4108.717773,4126.153809,4117.436035,4108.717773,4117.436035,4108.205078,4092.820557,4097.948730,4053.846191,4068.205078,866.000000,4.000000,,,,0.000000,4.000000,4.000000,4.000000,4.000000,4.000000,4.000000,4.000000,4.000000,4.000000,4.000000,4.000000,4.000000,4.000000,4.000000,100.000000
1602005884.352873,111.000000,0.000000,4113.333496,4133.846191,4104.615234,4120.512695,4124.615234,4122.051270,4112.307617,4103.589844,4104.615234,4084.615479,4083.589844,4087.179443,4047.179443,4058.974365,840.000000,4.000000,,,,0.000000,4.000000,4.000000,4.000000,4.000000,4.000000,4.000000,4.000000,4.000000,4.000000,4.000000,4.000000,4.000000,4.000000,4.000000,100.000000
1602005884.360756,112.000000,0.000000,4118.461426,4137.436035,4106.666504,4124.615234,4126.666504,4124.615234,4109.230957,4104.102539,4101.538574,4077.948730,4086.666748,4088.205078,4047.179443,4054.358887,768.000000,4.000000,,,,0.000000,4.000000,4.000000,4.000000,4.000000,4.000000,4.000000,4.000000,4.000000,4.000000,4.000000,4.000000,4.000000,4.000000,4.000000,100.000000
1602005884.368639,113.000000,0.000000,4129.743652,4140.000000,4115.897461,4134.358887,4121.538574,4121.538574,4115.384766,4112.820313,4110.256348,4095.384521,4100.000000,4104.102539,4057.948730,4070.769287,757.000000,4.000000,,,,0.000000,4.000000,4.000000,4.000000,4.000000,4.000000,4.000000,4.000000,4.000000,4.000000,4.000000,4.000000,4.000000,4.000000,4.000000,100.000000
1602005884.376523,114.000000,0.000000,4140.512695,4151.794922,4132.307617,4142.563965,4124.615234,4117.436035,4122.051270,4129.230957,4128.205078,4108.205078,4105.128418,4120.512695,4072.307617,4091.794922,866.000000,4.000000,,,,0.000000,4.000000,4.000000,4.000000,4.000000,4.000000,4.000000,4.000000,4.000000,4.000000,4.000000,4.000000,4.000000,4.000000,4.000000,100.000000
1602005884.384406,115.000000,0.000000,4147.179688,4160.000000,4141.025879,4143.589844,4125.128418,4118.974121,4122.563965,4133.846191,4134.358887,4108.205078,4107.179688,4126.666504,4076.410156,4088.718018,840.000000,4.000000,,,,0.000000,4.000000,4.000000,4.000000,4.000000,4.000000,4.000000,4.000000,4.000000,4.000000,4.000000,4.000000,4.000000,4.000000,4.000000,100.000000
1602005884.392391,116.000000,0.000000,4144.102539,4152.307617,4140.000000,4140.512695,4123.077148,4117.436035,4124.102539,4127.692383,4127.179688,4108.205078,4110.256348,4119.487305,4074.871826,4077.948730,768.000000,4.000000,,,,0.000000,4.000000,4.000000,4.000000,4.000000,4.000000,4.000000,4.000000,4.000000,4.000000,4.000000,4.000000,4.000000,4.000000,4.000000,100.000000
1602005884.400276,117.000000,0.000000,4136.410156,4144.615234,4135.897461,4137.948730,4119.487305,4107.179688,4122.563965,4122.563965,4121.538574,4102.563965,4109.743652,4109.743652,4072.820557,4083.589844,757.000000,4.000000,,,,0.000000,4.000000,4.000000,4.000000,4.000000,4.000000,4.000000,4.000000,4.000000,4.000000,4.000000,4.000000,4.000000,4.000000,4.000000,100.000000
1602005884.408161,118.000000,0.000000,4149.230957,4149.230957,4141.025879,4137.436035,4113.846191,4102.563965,4120.512695,4122.563965,4122.051270,4110.769043,4116.922852,4112.820313,4081.025635,4098.461426,866.000000,4.000000,,,,0.000000,4.000000,4.000000,4.000000,4.000000,4.000000,4.000000,4.000000,4.000000,4.000000,4.000000,4.000000,4.000000,4.000000,4.000000,100.000000
1602005884.416046,119.000000,0.000000,4175.384766,4158.974121,4150.256348,4140.512695,4116.410156,4115.384766,4129.230957,4131.282227,4128.717773,4135.384766,4130.769043,4125.641113,4105.128418,4111.794922,840.000000,4.000000,,,,0.000000,4.000000,4.000000,4.000000,4.000000,4.000000,4.000000,4.000000,4.000000,4.000000,4.000000,4.000000,4.000000,4.000000,4.000000,100.000000
1602005884.423931,120.000000,0.000000,4172.820313,4158.974121,4145.128418,4142.563965,4125.128418,4126.153809,4134.871582,4137.948730,4134.871582,4137.948730,4127.179688,4129.230957,4113.846191,4118.461426,768.000000,4.000000,,,,0.000000,4.000000,4.000000,4.000000,4.000000,4.000000,4.000000,4.000000,4.000000,4.000000,4.000000,4.000000,4.000000,4.000000,4.000000,100.000000
1602005884.431816,121.000000,0.000000,4145.128418,4147.692383,4130.256348,4135.384766,4127.692383,4120.000000,4125.128418,4130.256348,4128.205078,4114.871582,4110.256348,4118.974121,4095.897461,4109.230957,757.000000,4.000000,,,,0.000000,4.000000,4.000000,4.000000,4.000000,4.000000,4.000000,4.000000,4.000000,4.000000,4.000000,4.000000,4.000000,4.000000,4.000000,100.000000
1602005884.439701,122.000000,0.000000,4132.820313,4138.974121,4121.025879,4128.205078,4130.769043,4118.974121,4123.077148,4126.153809,4118.974121,4101.538574,4106.666504,4108.717773,4087.692383,4090.769287,866.000000,4.000000,,,,0.000000,4.000000,4.000000,4.000000,4.000000,4.000000,4.000000,4.000000,4.000000,4.000000,4.000000,4.000000,4.000000,4.000000,4.000000,100.000000
1602005884.447586,123.000000,0.000000,4129.743652,4137.948730,4111.282227,4126.666504,4136.922852,4125.641113,4131.794922,4128.717773,4123.077148,4112.307617,4111.282227,4108.717773,4087.692383,4081.025635,840.000000,4.000000,,,,0.000000,4.000000,4.000000,4.000000,4.000000,4.000000,4.000000,4.000000,4.000000,4.000000,4.000000,4.000000,4.000000,4.000000,4.000000,100.000000
1602005884.455571,124.000000,0.000000,4120.512695,4136.922852,4096.922852,4124.102539,4132.307617,4113.846191,4124.102539,4124.615234,4120.512695,4116.922852,4101.025879,4107.692383,4075.384521,4078.461426,768.000000,4.000000,,,,0.000000,4.000000,4.000000,4.000000,4.000000,4.000000,4.000000,4.000000,4.000000,4.000000,4.000000,4.000000,4.000000,4.000000,4.000000,100.000000
1602005884.463456,125.000000,0.000000,4116.922852,4134.358887,4087.692383,4121.538574,4122.051270,4103.077148,4109.230957,4118.974121,4109.230957,4102.563965,4087.179443,4102.563965,4067.692383,4072.820557,757.000000,4.000000,,,,0.000000,4.000000,4.000000,4.000000,4.000000,4.000000,4.000000,4.000000,4.000000,4.000000,4.000000,4.000000,4.000000,4.000000,4.000000,100.000000
1602005884.471341,126.000000,0.000000,4123.589844,4135.384766,4089.743652,4124.102539,4122.051270,4115.897461,4115.384766,4123.589844,4114.871582,4097.948730,4094.871826,4111.794922,4073.846191,4070.769287,866.000000,4.000000,,,,0.000000,4.000000,4.000000,4.000000,4.000000,4.000000,4.000000,4.000000,4.000000,4.000000,4.000000,4.000000,4.000000,4.000000,4.000000,100.000000
1602005884.479226,127.000000,0.000000,4131.794922,4139.487305,4100.000000,4129.743652,4126.666504,4126.666504,4125.641113,4131.794922,4129.743652,4112.307617,4116.410156,4127.692383,4081.025635,4083.589844,840.000000,4.000000,,,,0.000000,4.000000,4.000000,4.000000,4.000000,4.000000,4.000000,4.000000,4.000000,4.000000,4.000000,4.000000,4.000000,4.000000,4.000000,100.000000
1602005884.487112,128.000000,0.000000,4136.922852,4141.538574,4107.179688,4135.384766,4124.615234,4126.153809,4125.641113,4136.410156,4137.436035,4112.820313,4126.666504,4126.153809,4086.153809,4095.897461,768.000000,4.000000,,,,0.000000,4.000000,4.000000,4.000000,4.000000,4.000000,4.000000,4.000000,4.000000,4.000000,4.000000,4.000000,4.000000,4.000000,4.000000,100.000000
1602005884.494997,0.000000,0.000000,4145.641113,4149.230957,4112.820313,4138.461426,4121.025879,4132.820313,4127.179688,4137.948730,4144.615234,4098.974121,4121.538574,4126.666504,4096.410156,4100.000000,806.000000,4.000000,,,,0.000000,4.000000,4.000000,4.000000,4.000000,4.000000,4.000000,4.000000,4.000000,4.000000,4.000000,4.000000,4.000000,4.000000,4.000000,100.000000
1602005884.502882,1.000000,0.000000,4151.282227,4160.000000,4121.025879,4140.512695,4128.205078,4143.589844,4137.436035,4146.666504,4155.897461,4115.384766,4122.563965,4136.410156,4109.743652,4106.666504,795.000000,4.000000,,,,0.000000,4.000000,4.000000,4.000000,4.000000,4.000000,4.000000,4.000000,4.000000,4.000000,4.000000,4.000000,4.000000,4.000000,4.000000,100.000000
1602005884.510767,2.000000,0.000000,4146.153809,4153.846191,4126.153809,4137.436035,4134.871582,4145.641113,4146.153809,4155.897461,4160.000000,4144.615234,4127.692383,4132.307617,4112.820313,4108.717773,851.000000,4.000000,,,,0.000000,4.000000,4.000000,4.000000,4.000000,4.000000,4.000000,4.000000,4.000000,4.000000,4.000000,4.000000,4.000000,4.000000,4.000000,100.000000
1602005884.518652,3.000000,0.000000,4138.461426,4135.897461,4121.025879,4125.641113,4126.153809,4140.000000,4149.230957,4149.743652,4148.717773,4141.025879,4116.410156,4123.077148,4096.922852,4096.410156,866.000000,4.000000,,,,0.000000,4.000000,4.000000,4.000000,4.000000,4.000000,4.000000,4.000000,4.000000,4.000000,4.000000,4.000000,4.000000,4.000000,4.000000,100.000000
1602005884.526435,4.000000,0.000000,4138.461426,4129.743652,4120.512695,4116.410156,4117.948730,4135.384766,4149.743652,4145.128418,4136.410156,4124.615234,4104.615234,4130.256348,4085.128174,4088.205078,816.000000,4.000000,,,,0.000000,4.000000,4.000000,4.000000,4.000000,4.000000,4.000000,4.000000,4.000000,4.000000,4.000000,4.000000,4.000000,4.000000,4.000000,100.000000
1602005884.534318,5.000000,0.000000,4140.512695,4135.384766,4134.871582,4124.615234,4124.615234,4140.000000,4146.153809,4150.256348,4138.461426,4126.153809,4117.948730,4139.487305,4098.461426,4096.410156,818.000000,4.000000,,,,0.000000,4.000000,4.000000,4.000000,4.000000,4.000000,4.000000,4.000000,4.000000,4.000000,4.000000,4.000000,4.000000,4.000000,4.000000,100.000000
1602005884.542201,6.000000,0.000000,4138.974121,4137.436035,4143.077148,4129.743652,4125.641113,4138.974121,4140.000000,4144.615234,4137.948730,4121.025879,4126.153809,4140.000000,4103.589844,4092.820557,782.000000,4.000000,,,,0.000000,4.000000,4.000000,4.000000,4.000000,4.000000,4.000000,4.000000,4.000000,4.000000,4.000000,4.000000,4.000000,4.000000,4.000000,100.000000
1602005884.550084,7.000000,0.000000,4135.384766,4135.384766,4136.922852,4125.641113,4118.461426,4124.615234,4135.384766,4133.333496,4125.128418,4097.948730,4111.282227,4135.897461,4090.256348,4080.000000,687.000000,4.000000,,,,0.000000,4.000000,4.000000,4.000000,4.000000,4.000000,4.000000,4.000000,4.000000,4.000000,4.000000,4.000000,4.000000,4.000000,4.000000,100.000000
1602005884.557970,8.000000,0.000000,4134.871582,4137.436035,4136.410156,4132.820313,4122.051270,4119.487305,4133.846191,4136.410156,4120.512695,4090.256348,4110.256348,4129.230957,4087.179443,4084.102539,786.000000,4.000000,,,,0.000000,4.000000,4.000000,4.000000,4.000000,4.000000,4.000000,4.000000,4.000000,4.000000,4.000000,4.000000,4.000000,4.000000,4.000000,100.000000
1602005884.565855,9.000000,0.000000,4137.436035,4138.461426,4136.922852,4136.410156,4124.102539,4123.589844,4129.230957,4137.948730,4125.641113,4102.051270,4124.102539,4126.153809,4094.871826,4089.230713,843.000000,4.000000,,,,0.000000,4.000000,4.000000,4.000000,4.000000,4.000000,4.000000,4.000000,4.000000,4.000000,4.000000,4.000000,4.000000,4.000000,4.000000,100.000000
1602005884.573741,10.000000,0.000000,4135.384766,4134.871582,4123.077148,4124.615234,4117.948730,4117.436035,4122.563965,4126.153809,4122.563965,4113.333496,4121.025879,4125.128418,4090.256348,4083.076904,869.000000,4.000000,,,,0.000000,4.000000,4.000000,4.000000,4.000000,4.000000,4.000000,4.000000,4.000000,4.000000,4.000000,4.000000,4.000000,4.000000,4.000000,100.000000
1602005884.581627,11.000000,0.000000,4133.333496,4135.897461,4115.897461,4125.128418,4125.641113,4119.487305,4123.077148,4122.051270,4125.128418,4123.077148,4116.922852,4127.179688,4093.846191,4090.256348,840.000000,4.000000,,,,0.000000,4.000000,4.000000,4.000000,4.000000,4.000000,4.000000,4.000000,4.000000,4.000000,4.000000,4.000000,4.000000,4.000000,4.000000,100.000000
1602005884.589512,12.000000,0.000000,4135.897461,4142.051270,4122.051270,4138.974121,4135.897461,4135.384766,4126.666504,4128.205078,4137.948730,4128.717773,4121.025879,4133.846191,4113.333496,4106.666504,768.000000,4.000000,,,,0.000000,4.000000,4.000000,4.000000,4.000000,4.000000,4.000000,4.000000,4.000000,4.000000,4.000000,4.000000,4.000000,4.000000,4.000000,100.000000
1602005884.597398,13.000000,0.000000,4140.000000,4145.641113,4124.102539,4140.000000,4128.717773,4140.000000,4123.077148,4125.641113,4138.461426,4116.922852,4124.102539,4142.051270,4122.051270,4113.333496,757.000000,4.000000,,,,0.000000,4.000000,4.000000,4.000000,4.000000,4.000000,4.000000,4.000000,4.000000,4.000000,4.000000,4.000000,4.000000,4.000000,4.000000,100.000000
1602005884.605284,14.000000,0.000000,4150.256348,4149.743652,4132.820313,4136.410156,4123.077148,4134.358887,4123.077148,4120.512695,4135.897461,4114.358887,4127.692383,4155.897461,4120.512695,4119.487305,869.000000,4.000000,,,,0.000000,4.000000,4.000000,4.000000,4.000000,4.000000,4.000000,4.000000,4.000000,4.000000,4.000000,4.000000,4.000000,4.000000,4.000000,100.000000
1602005884.613169,15.000000,0.000000,4162.051270,4154.871582,4152.820313,4140.000000,4128.717773,4135.897461,4133.333496,4128.205078,4139.487305,4134.871582,4129.743652,4171.794922,4123.589844,4132.820313,840.000000,4.000000,,,,0.000000,4.000000,4.000000,4.000000,4.000000,4.000000,4.000000,4.000000,4.000000,4.000000,4.000000,4.000000,4.000000,4.000000,4.000000,100.000000
1602005884.621055,16.000000,0.000000,4164.615234,4152.820313,4157.948730,4140.512695,4126.666504,4136.410156,4140.000000,4138.974121,4139.487305,4137.436035,4133.333496,4175.897461,4128.205078,4137.436035,0.000000,4.000000,,,,0.000000,4.000000,4.000000,4.000000,4.000000,4.000000,4.000000,4.000000,4.000000,4.000000,4.000000,4.000000,4.000000,4.000000,4.000000,100.000000
1602005884.628941,17.000000,0.000000,4160.512695,4145.641113,4148.205078,4136.922852,4122.563965,4136.922852,4140.000000,4140.512695,4145.128418,4123.589844,4139.487305,4167.692383,4129.230957,4130.769043,0.000000,4.000000,,,,0.000000,4.000000,4.000000,4.000000,4.000000,4.000000,4.000000,4.000000,4.000000,4.000000,4.000000,4.000000,4.000000,4.000000,4.000000,100.000000
1602005884.636724,18.000000,0.000000,4157.436035,4141.025879,4136.922852,4130.769043,4132.820313,4140.512695,4141.025879,4141.025879,4154.358887,4136.410156,4141.538574,4157.948730,4129.230957,4127.179688,0.000000,4.000000,,,,0.000000,4.000000,4.000000,4.000000,4.000000,4.000000,4.000000,4.000000,4.000000,4.000000,4.000000,4.000000,4.000000,4.000000,4.000000,100.000000
1602005884.644607,19.000000,0.000000,4150.769043,4140.512695,4125.641113,4125.128418,4135.897461,4135.384766,4133.846191,4138.974121,4142.051270,4143.077148,4137.948730,4145.641113,4121.538574,4121.538574,0.000000,4.000000,,,,0.000000,4.000000,4.000000,4.000000,4.000000,4.000000,4.000000,4.000000,4.000000,4.000000,4.000000,4.000000,4.000000,4.000000,4.000000,100.000000
1602005884.652490,20.000000,0.000000,4140.512695,4139.487305,4118.461426,4125.641113,4127.179688,4128.717773,4121.025879,4127.179688,4125.128418,4116.922852,4126.153809,4127.179688,4110.769043,4102.051270,0.000000,4.000000,,,,0.000000,4.000000,4.000000,4.000000,4.000000,4.000000,4.000000,4.000000,4.000000,4.000000,4.000000,4.000000,4.000000,4.000000,4.000000,100.000000
1602005884.660373,21.000000,0.000000,4135.384766,4137.948730,4114.358887,4127.179688,4129.230957,4133.333496,4119.487305,4115.384766,4125.128418,4112.820313,4109.743652,4112.307617,4105.128418,4084.615479,0.000000,4.000000,,,,0.000000,4.000000,4.000000,4.000000,4.000000,4.000000,4.000000,4.000000,4.000000,4.000000,4.000000,4.000000,4.000000,4.000000,4.000000,100.000000
1602005884.668256,22.000000,0.000000,4135.384766,4142.051270,4111.282227,4126.666504,4133.846191,4140.512695,4121.025879,4109.230957,4117.436035,4123.589844,4102.051270,4107.692383,4096.410156,4087.179443,0.000000,4.000000,,,,0.000000,4.000000,4.000000,4.000000,4.000000,4.000000,4.000000,4.000000,4.000000,4.000000,4.000000,4.000000,4.000000,4.000000,4.000000,100.000000
1602005884.676042,23.000000,0.000000,4136.410156,4150.256348,4111.794922,4132.307617,4127.179688,4134.871582,4116.410156,4106.666504,4105.641113,4103.589844,4104.102539,4107.692383,4086.666748,4094.358887,0.000000,4.000000,,,,0.000000,4.000000,4.000000,4.000000,4.000000,4.000000,4.000000,4.000000,4.000000,4.000000,4.000000,4.000000,4.000000,4.000000,4.000000,100.000000
1602005884.683927,24.000000,0.000000,4138.974121,4151.794922,4118.974121,4138.974121,4122.563965,4126.153809,4112.307617,4107.179688,4116.410156,4093.333252,4103.589844,4107.179688,4087.179443,4094.358887,0.000000,4.000000,,,,0.000000,4.000000,4.000000,4.000000,4.000000,4.000000,4.000000,4.000000,4.000000,4.000000,4.000000,4.000000,4.000000,4.000000,4.000000,100.000000
1602005884.691812,25.000000,0.000000,4143.077148,4150.256348,4124.102539,4138.461426,4126.666504,4124.102539,4109.743652,4106.153809,4120.000000,4100.512695,4100.512695,4114.358887,4091.281982,4090.769287,0.000000,4.000000,,,,0.000000,4.000000,4.000000,4.000000,4.000000,4.000000,4.000000,4.000000,4.000000,4.000000,4.000000,4.000000,4.000000,4.000000,4.000000,100.000000
1602005884.699697,26.000000,0.000000,4138.974121,4147.179688,4123.589844,4137.948730,4124.102539,4117.948730,4108.205078,4105.641113,4103.077148,4090.769287,4101.025879,4120.512695,4089.230713,4085.641113,0.000000,4.000000,,,,0.000000,4.000000,4.000000,4.000000,4.000000,4.000000,4.000000,4.000000,4.000000,4.000000,4.000000,4.000000,4.000000,4.000000,4.000000,100.000000
1602005884.707583,27.000000,0.000000,4135.897461,4141.025879,4129.230957,4138.461426,4122.051270,4109.743652,4109.743652,4113.333496,4108.205078,4091.794922,4112.307617,4120.512695,4091.281982,4092.307617,0.000000,4.000000,,,,0.000000,4.000000,4.000000,4.000000,4.000000,4.000000,4.000000,4.000000,4.000000,4.000000,4.000000,4.000000,4.000000,4.000000,4.000000,100.000000
1602005884.715468,28.000000,0.000000,4146.153809,4144.102539,4144.102539,4137.436035,4125.128418,4107.179688,4113.333496,4121.025879,4125.641113,4118.974121,4123.077148,4125.128418,4102.051270,4103.077148,0.000000,4.000000,,,,0.000000,4.000000,4.000000,4.000000,4.000000,4.000000,4.000000,4.000000,4.000000,4.000000,4.000000,4.000000,4.000000,4.000000,4.000000,100.000000
1602005884.723353,29.000000,0.000000,4156.922852,4154.358887,4155.384766,4144.102539,4118.974121,4113.333496,4118.461426,4122.563965,4125.641113,4133.846191,4120.512695,4135.897461,4112.820313,4102.051270,0.000000,4.000000,,,,0.000000,4.000000,4.000000,4.000000,4.000000,4.000000,4.000000,4.000000,4.000000,4.000000,4.000000,4.000000,4.000000,4.000000,4.000000,100.000000
1602005884.731238,30.000000,0.000000,4157.436035,4158.974121,4157.948730,4151.282227,4123.589844,4127.692383,4125.128418,4125.128418,4130.256348,4138.461426,4126.666504,4147.692383,4123.077148,4113.333496,0.000000,4.000000,,,,0.000000,4.000000,4.000000,4.000000,4.000000,4.000000,4.000000,4.000000,4.000000,4.000000,4.000000,4.000000,4.000000,4.000000,4.000000,100.000000
1602005884.739123,31.000000,0.000000,4154.871582,4156.410156,4152.307617,4145.128418,4135.897461,4136.922852,4125.641113,4126.666504,4139.487305,4137.436035,4138.461426,4151.794922,4125.128418,4130.256348,0.000000,4.000000,,,,0.000000,4.000000,4.000000,4.000000,4.000000,4.000000,4.000000,4.000000,4.000000,4.000000,4.000000,4.000000,4.000000,4.000000,4.000000,100.000000
1602005884.746907,32.000000,0.000000,4151.282227,4150.769043,4137.948730,4135.384766,4132.820313,4129.743652,4122.051270,4124.615234,4128.717773,4117.948730,4129.743652,4138.461426,4117.436035,4116.922852,0.000000,4.000000,,,,0.000000,4.000000,4.000000,4.000000,4.000000,4.000000,4.000000,4.000000,4.000000,4.000000,4.000000,4.000000,4.000000,4.000000,4.000000,100.000000
1602005884.754790,33.000000,0.000000,4137.948730,4147.179688,4123.077148,4133.846191,4127.692383,4123.077148,4123.077148,4126.153809,4115.897461,4110.769043,4118.974121,4124.615234,4109.743652,4094.358887,0.000000,4.000000,,,,0.000000,4.000000,4.000000,4.000000,4.000000,4.000000,4.000000,4.000000,4.000000,4.000000,4.000000,4.000000,4.000000,4.000000,4.000000,100.000000
1602005884.762673,34.000000,0.000000,4125.128418,4149.743652,4117.948730,4137.436035,4137.948730,4129.743652,4124.102539,4127.179688,4121.025879,4124.615234,4121.538574,4129.743652,4107.179688,4096.922852,0.000000,4.000000,,,,0.000000,4.000000,4.000000,4.000000,4.000000,4.000000,4.000000,4.000000,4.000000,4.000000,4.000000,4.000000,4.000000,4.000000,4.000000,100.000000
1602005884.770557,35.000000,0.000000,4128.205078,4153.333496,4120.512695,4139.487305,4137.948730,4131.794922,4124.615234,4125.641113,4126.666504,4122.051270,4120.512695,4139.487305,4111.794922,4107.692383,0.000000,4.000000,,,,0.000000,4.000000,4.000000,4.000000,4.000000,4.000000,4.000000,4.000000,4.000000,4.000000,4.000000,4.000000,4.000000,4.000000,4.000000,100.000000
1602005884.778440,36.000000,0.000000,4136.410156,4154.871582,4127.692383,4138.461426,4125.128418,4125.128418,4126.666504,4125.128418,4118.974121,4116.410156,4118.974121,4137.948730,4118.974121,4106.666504,0.000000,4.000000,,,,0.000000,4.000000,4.000000,4.000000,4.000000,4.000000,4.000000,4.000000,4.000000,4.000000,4.000000,4.000000,4.000000,4.000000,4.000000,100.000000
1602005884.786425,37.000000,0.000000,4141.025879,4154.871582,4137.948730,4140.512695,4122.563965,4121.538574,4126.153809,4120.512695,4107.692383,4126.666504,4123.589844,4135.384766,4117.948730,4106.666504,0.000000,4.000000,,,,0.000000,4.000000,4.000000,4.000000,4.000000,4.000000,4.000000,4.000000,4.000000,4.000000,4.000000,4.000000,4.000000,4.000000,4.000000,100.000000
1602005884.794311,38.000000,0.000000,4146.666504,4155.897461,4142.563965,4148.205078,4122.563965,4127.692383,4127.179688,4116.410156,4107.692383,4122.563965,4127.179688,4134.871582,4116.410156,4113.333496,0.000000,4.000000,,,,0.000000,4.000000,4.000000,4.000000,4.000000,4.000000,4.000000,4.000000,4.000000,4.000000,4.000000,4.000000,4.000000,4.000000,4.000000,100.000000
1602005884.802196,39.000000,0.000000,4156.410156,4164.615234,4143.077148,4154.358887,4122.051270,4137.436035,4135.384766,4121.538574,4124.102539,4115.384766,4132.820313,4141.025879,4129.743652,4126.666504,0.000000,4.000000,,,,0.000000,4.000000,4.000000,4.000000,4.000000,4.000000,4.000000,4.000000,4.000000,4.000000,4.000000,4.000000,4.000000,4.000000,4.000000,100.000000
1602005884.810082,40.000000,0.000000,4161.538574,4169.743652,4144.102539,4153.846191,4127.692383,4136.410156,4140.000000,4132.820313,4136.922852,4137.948730,4140.512695,4145.128418,4142.051270,4131.282227,0.000000,4.000000,,,,0.000000,4.000000,4.000000,4.000000,4.000000,4.000000,4.000000,4.000000,4.000000,4.000000,4.000000,4.000000,4.000000,4.000000,4.000000,100.000000
1602005884.817967,41.000000,0.000000,4155.897461,4160.000000,4141.025879,4148.205078,4125.128418,4127.179688,4132.820313,4136.922852,4135.897461,4164.102539,4135.897461,4133.846191,4133.333496,4122.563965,0.000000,4.000000,,,,0.000000,4.000000,4.000000,4.000000,4.000000,4.000000,4.000000,4.000000,4.000000,4.000000,4.000000,4.000000,4.000000,4.000000,4.000000,100.000000
1602005884.825853,42.000000,0.000000,4151.282227,4152.820313,4136.410156,4141.025879,4126.153809,4122.563965,4126.666504,4137.436035,4136.410156,4154.871582,4126.153809,4127.692383,4125.641113,4123.077148,0.000000,4.000000,,,,0.000000,4.000000,4.000000,4.000000,4.000000,4.000000,4.000000,4.000000,4.000000,4.000000,4.000000,4.000000,4.000000,4.000000,4.000000,100.000000
1602005884.833738,43.000000,0.000000,4154.358887,4152.820313,4133.846191,4138.974121,4132.820313,4123.077148,4124.615234,4139.487305,4142.051270,4122.563965,4124.102539,4134.871582,4123.077148,4126.153809,0.000000,4.000000,,,,0.000000,4.000000,4.000000,4.000000,4.000000,4.000000,4.000000,4.000000,4.000000,4.000000,4.000000,4.000000,4.000000,4.000000,4.000000,100.000000
1602005884.841624,44.000000,0.000000,4153.333496,4151.282227,4134.358887,4137.436035,4131.282227,4122.051270,4120.000000,4138.461426,4140.000000,4112.307617,4125.128418,4130.256348,4112.307617,4111.794922,0.000000,4.000000,,,,0.000000,4.000000,4.000000,4.000000,4.000000,4.000000,4.000000,4.000000,4.000000,4.000000,4.000000,4.000000,4.000000,4.000000,4.000000,100.000000
1602005884.849509,45.000000,0.000000,4151.794922,4152.820313,4140.512695,4141.025879,4131.282227,4121.538574,4119.487305,4132.307617,4135.384766,4123.589844,4127.179688,4123.077148,4112.820313,4109.230957,0.000000,4.000000,,,,0.000000,4.000000,4.000000,4.000000,4.000000,4.000000,4.000000,4.000000,4.000000,4.000000,4.000000,4.000000,4.000000,4.000000,4.000000,100.000000
1602005884.857495,46.000000,0.000000,4157.436035,4161.025879,4146.153809,4150.769043,4137.948730,4124.102539,4121.538574,4124.615234,4135.384766,4124.615234,4125.128418,4127.692383,4119.487305,4124.615234,0.000000,4.000000,,,,0.000000,4.000000,4.000000,4.000000,4.000000,4.000000,4.000000,4.000000,4.000000,4.000000,4.000000,4.000000,4.000000,4.000000,4.000000,100.000000
1602005884.865380,47.000000,0.000000,4152.820313,4158.974121,4143.077148,4148.205078,4130.769043,4125.641113,4122.051270,4116.410156,4126.666504,4121.025879,4112.820313,4124.102539,4101.025879,4111.794922,0.000000,4.000000,,,,0.000000,4.000000,4.000000,4.000000,4.000000,4.000000,4.000000,4.000000,4.000000,4.000000,4.000000,4.000000,4.000000,4.000000,4.000000,100.000000
1602005884.873266,48.000000,0.000000,4141.538574,4152.307617,4137.436035,4136.922852,4118.974121,4127.179688,4126.666504,4106.153809,4109.743652,4129.743652,4110.769043,4121.538574,4089.230713,4092.307617,0.000000,4.000000,,,,0.000000,4.000000,4.000000,4.000000,4.000000,4.000000,4.000000,4.000000,4.000000,4.000000,4.000000,4.000000,4.000000,4.000000,4.000000,100.000000
1602005884.881152,49.000000,0.000000,4146.666504,4154.358887,4139.487305,4141.538574,4122.051270,4128.205078,4136.410156,4108.205078,4106.666504,4134.358887,4129.230957,4135.897461,4121.538574,4116.922852,0.000000,4.000000,,,,0.000000,4.000000,4.000000,4.000000,4.000000,4.000000,4.000000,4.000000,4.000000,4.000000,4.000000,4.000000,4.000000,4.000000,4.000000,100.000000
1602005884.889037,50.000000,0.000000,4145.641113,4146.153809,4138.461426,4142.051270,4125.641113,4130.256348,4137.948730,4118.461426,4110.256348,4122.051270,4146.153809,4145.641113,4152.820313,4149.743652,0.000000,4.000000,,,,0.000000,4.000000,4.000000,4.000000,4.000000,4.000000,4.000000,4.000000,4.000000,4.000000,4.000000,4.000000,4.000000,4.000000,4.000000,100.000000
1602005884.896923,51.000000,0.000000,4124.102539,4127.179688,4131.794922,4125.641113,4125.128418,4131.282227,4134.871582,4122.051270,4110.769043,4111.794922,4151.282227,4148.205078,4157.436035,4155.897461,0.000000,4.000000,,,,0.000000,4.000000,4.000000,4.000000,4.000000,4.000000,4.000000,4.000000,4.000000,4.000000,4.000000,4.000000,4.000000,4.000000,4.000000,100.000000
1602005884.904809,52.000000,0.000000,4103.589844,4112.307617,4127.179688,4116.922852,4124.615234,4126.153809,4137.948730,4127.692383,4118.461426,4119.487305,4155.384766,4152.307617,4161.025879,4152.820313,0.000000,4.000000,,,,0.000000,4.000000,4.000000,4.000000,4.000000,4.000000,4.000000,4.000000,4.000000,4.000000,4.000000,4.000000,4.000000,4.000000,4.000000,100.000000
1602005884.912695,53.000000,0.000000,4093.846191,4109.230957,4124.615234,4121.025879,4124.102539,4118.974121,4135.897461,4138.974121,4125.641113,4132.307617,4152.307617,4147.692383,4164.102539,4144.615234,0.000000,4.000000,,,,0.000000,4.000000,4.000000,4.000000,4.000000,4.000000,4.000000,4.000000,4.000000,4.000000,4.000000,4.000000,4.000000,4.000000,4.000000,100.000000
1602005884.920580,54.000000,0.000000,4097.436035,4115.384766,4129.230957,4123.077148,4123.077148,4122.563965,4126.666504,4142.051270,4128.205078,4146.666504,4143.589844,4138.461426,4161.025879,4138.461426,0.000000,4.000000,,,,0.000000,4.000000,4.000000,4.000000,4.000000,4.000000,4.000000,4.000000,4.000000,4.000000,4.000000,4.000000,4.000000,4.000000,4.000000,100.000000
1602005884.928466,55.000000,0.000000,4104.102539,4121.538574,4132.307617,4121.538574,4118.461426,4122.563965,4120.512695,4133.846191,4135.384766,4156.922852,4137.948730,4138.461426,4157.948730,4144.102539,0.000000,4.000000,,,,0.000000,4.000000,4.000000,4.000000,4.000000,4.000000,4.000000,4.000000,4.000000,4.000000,4.000000,4.000000,4.000000,4.000000,4.000000,100.000000
1602005884.936251,56.000000,0.000000,4095.897461,4118.461426,4123.077148,4120.512695,4114.871582,4104.615234,4114.871582,4127.179688,4136.410156,4147.179688,4135.897461,4138.461426,4158.974121,4140.000000,0.000000,4.000000,,,,0.000000,4.000000,4.000000,4.000000,4.000000,4.000000,4.000000,4.000000,4.000000,4.000000,4.000000,4.000000,4.000000,4.000000,4.000000,100.000000
1602005884.944136,57.000000,0.000000,4092.307617,4117.948730,4123.589844,4121.538574,4120.000000,4097.948730,4109.230957,4128.205078,4128.717773,4139.487305,4145.128418,4137.948730,4167.179688,4137.436035,0.000000,4.000000,,,,0.000000,4.000000,4.000000,4.000000,4.000000,4.000000,4.000000,4.000000,4.000000,4.000000,4.000000,4.000000,4.000000,4.000000,4.000000,100.000000
1602005884.952021,58.000000,0.000000,4105.641113,4124.615234,4137.436035,4125.641113,4126.666504,4111.282227,4105.128418,4123.589844,4127.692383,4150.769043,4155.897461,4147.179688,4174.871582,4151.282227,0.000000,4.000000,,,,0.000000,4.000000,4.000000,4.000000,4.000000,4.000000,4.000000,4.000000,4.000000,4.000000,4.000000,4.000000,4.000000,4.000000,4.000000,100.000000
1602005884.959906,59.000000,0.000000,4105.128418,4120.512695,4137.436035,4125.128418,4125.641113,4120.000000,4105.128418,4107.179688,4120.512695,4143.589844,4154.358887,4155.897461,4170.256348,4154.358887,0.000000,4.000000,,,,0.000000,4.000000,4.000000,4.000000,4.000000,4.000000,4.000000,4.000000,4.000000,4.000000,4.000000,4.000000,4.000000,4.000000,4.000000,100.000000
1602005884.967791,60.000000,0.000000,4091.281982,4111.794922,4130.256348,4119.487305,4122.563965,4117.436035,4111.282227,4098.461426,4104.102539,4109.743652,4150.769043,4153.846191,4165.128418,4145.641113,0.000000,4.000000,,,,0.000000,4.000000,4.000000,4.000000,4.000000,4.000000,4.000000,4.000000,4.000000,4.000000,4.000000,4.000000,4.000000,4.000000,4.000000,100.000000
1602005884.975676,61.000000,0.000000,4088.718018,4107.179688,4136.410156,4115.384766,4124.615234,4117.948730,4122.563965,4102.563965,4098.461426,4108.717773,4153.846191,4144.615234,4168.717773,4148.205078,0.000000,4.000000,,,,0.000000,4.000000,4.000000,4.000000,4.000000,4.000000,4.000000,4.000000,4.000000,4.000000,4.000000,4.000000,4.000000,4.000000,4.000000,100.000000
1602005884.983561,62.000000,0.000000,4092.820557,4105.128418,4135.384766,4112.820313,4124.615234,4122.051270,4134.871582,4104.102539,4102.563965,4132.820313,4154.358887,4137.436035,4167.692383,4156.410156,0.000000,4.000000,,,,0.000000,4.000000,4.000000,4.000000,4.000000,4.000000,4.000000,4.000000,4.000000,4.000000,4.000000,4.000000,4.000000,4.000000,4.000000,100.000000
1602005884.991446,63.000000,0.000000,4100.512695,4110.769043,4128.717773,4115.384766,4121.025879,4121.538574,4137.948730,4111.282227,4112.307617,4137.436035,4153.846191,4142.563965,4164.615234,4156.410156,0.000000,4.000000,,,,0.000000,4.000000,4.000000,4.000000,4.000000,4.000000,4.000000,4.000000,4.000000,4.000000,4.000000,4.000000,4.000000,4.000000,4.000000,100.000000
1602005884.999331,64.000000,0.000000,4110.769043,4121.538574,4135.384766,4122.563965,4121.538574,4117.948730,4128.717773,4129.743652,4130.256348,4142.563965,4152.820313,4153.846191,4166.666504,4155.384766,806.000000,4.000000,,,,0.000000,4.000000,4.000000,4.000000,4.000000,4.000000,4.000000,4.000000,4.000000,4.000000,4.000000,4.000000,4.000000,4.000000,4.000000,100.000000
1602005885.007116,65.000000,0.000000,4114.358887,4123.589844,4141.025879,4123.589844,4123.077148,4112.307617,4118.461426,4140.000000,4144.615234,4150.769043,4142.051270,4157.436035,4168.205078,4156.410156,795.000000,4.000000,,,,0.000000,4.000000,4.000000,4.000000,4.000000,4.000000,4.000000,4.000000,4.000000,4.000000,4.000000,4.000000,4.000000,4.000000,4.000000,100.000000
1602005885.015000,66.000000,0.000000,4112.307617,4118.974121,4136.410156,4120.000000,4119.487305,4109.230957,4118.461426,4138.974121,4155.897461,4146.666504,4133.846191,4153.333496,4165.128418,4156.922852,851.000000,4.000000,,,,0.000000,4.000000,4.000000,4.000000,4.000000,4.000000,4.000000,4.000000,4.000000,4.000000,4.000000,4.000000,4.000000,4.000000,4.000000,100.000000
1602005885.022885,67.000000,0.000000,4109.230957,4119.487305,4135.384766,4120.000000,4121.025879,4113.846191,4122.051270,4140.512695,4166.153809,4152.307617,4145.128418,4155.384766,4164.102539,4157.436035,866.000000,4.000000,,,,0.000000,4.000000,4.000000,4.000000,4.000000,4.000000,4.000000,4.000000,4.000000,4.000000,4.000000,4.000000,4.000000,4.000000,4.000000,100.000000
1602005885.030770,68.000000,0.000000,4110.256348,4122.051270,4139.487305,4123.077148,4124.615234,4122.051270,4123.589844,4141.538574,4161.538574,4159.487305,4157.948730,4156.922852,4168.205078,4157.948730,816.000000,4.000000,,,,0.000000,4.000000,4.000000,4.000000,4.000000,4.000000,4.000000,4.000000,4.000000,4.000000,4.000000,4.000000,4.000000,4.000000,4.000000,100.000000
1602005885.038655,69.000000,0.000000,4113.333496,4121.025879,4139.487305,4123.077148,4123.077148,4124.102539,4124.615234,4135.384766,4143.589844,4138.974121,4156.922852,4148.205078,4165.641113,4156.410156,818.000000,4.000000,,,,0.000000,4.000000,4.000000,4.000000,4.000000,4.000000,4.000000,4.000000,4.000000,4.000000,4.000000,4.000000,4.000000,4.000000,4.000000,100.000000
1602005885.046539,70.000000,0.000000,4109.230957,4121.025879,4138.974121,4125.641113,4127.179688,4120.512695,4123.077148,4126.153809,4131.282227,4125.641113,4149.230957,4142.563965,4156.410156,4152.307617,778.000000,4.000000,,,,0.000000,4.000000,4.000000,4.000000,4.000000,4.000000,4.000000,4.000000,4.000000,4.000000,4.000000,4.000000,4.000000,4.000000,4.000000,100.000000
1602005885.054424,71.000000,0.000000,4109.230957,4122.563965,4140.512695,4129.743652,4135.384766,4118.461426,4120.512695,4126.666504,4131.794922,4147.692383,4143.077148,4148.717773,4155.384766,4153.846191,687.000000,4.000000,,,,0.000000,4.000000,4.000000,4.000000,4.000000,4.000000,4.000000,4.000000,4.000000,4.000000,4.000000,4.000000,4.000000,4.000000,4.000000,100.000000
1602005885.062309,72.000000,0.000000,4120.512695,4124.615234,4140.512695,4130.256348,4136.922852,4119.487305,4121.538574,4135.897461,4136.922852,4157.436035,4146.153809,4153.846191,4163.077148,4158.974121,786.000000,4.000000,,,,0.000000,4.000000,4.000000,4.000000,4.000000,4.000000,4.000000,4.000000,4.000000,4.000000,4.000000,4.000000,4.000000,4.000000,4.000000,100.000000
1602005885.070093,73.000000,0.000000,4122.051270,4123.077148,4140.512695,4128.205078,4134.871582,4127.179688,4129.743652,4138.461426,4141.538574,4142.563965,4156.410156,4154.358887,4169.743652,4157.436035,843.000000,4.000000,,,,0.000000,4.000000,4.000000,4.000000,4.000000,4.000000,4.000000,4.000000,4.000000,4.000000,4.000000,4.000000,4.000000,4.000000,4.000000,100.000000
1602005885.077977,74.000000,0.000000,4110.769043,4122.051270,4137.948730,4127.692383,4136.410156,4128.205078,4137.948730,4136.410156,4145.128418,4134.871582,4154.871582,4156.410156,4173.333496,4157.436035,869.000000,4.000000,,,,0.000000,4.000000,4.000000,4.000000,4.000000,4.000000,4.000000,4.000000,4.000000,4.000000,4.000000,4.000000,4.000000,4.000000,4.000000,100.000000
1602005885.085860,75.000000,0.000000,4107.692383,4123.077148,4129.230957,4126.666504,4136.410156,4120.000000,4137.948730,4134.871582,4141.538574,4132.820313,4146.666504,4156.922852,4172.820313,4164.615234,840.000000,4.000000,,,,0.000000,4.000000,4.000000,4.000000,4.000000,4.000000,4.000000,4.000000,4.000000,4.000000,4.000000,4.000000,4.000000,4.000000,4.000000,100.000000
1602005885.093744,76.000000,0.000000,4112.307617,4121.538574,4121.025879,4122.563965,4136.410156,4126.666504,4138.461426,4131.794922,4137.948730,4139.487305,4154.871582,4153.333496,4172.307617,4169.743652,768.000000,4.000000,,,,0.000000,4.000000,4.000000,4.000000,4.000000,4.000000,4.000000,4.000000,4.000000,4.000000,4.000000,4.000000,4.000000,4.000000,4.000000,100.000000
1602005885.101628,77.000000,0.000000,4113.846191,4123.589844,4124.615234,4122.563965,4137.948730,4137.436035,4140.512695,4123.589844,4139.487305,4156.922852,4158.974121,4150.769043,4173.846191,4166.666504,757.000000,4.000000,,,,0.000000,4.000000,4.000000,4.000000,4.000000,4.000000,4.000000,4.000000,4.000000,4.000000,4.000000,4.000000,4.000000,4.000000,4.000000,100.000000
1602005885.109512,78.000000,0.000000,4108.205078,4124.102539,4122.051270,4124.102539,4130.256348,4127.692383,4132.307617,4113.333496,4129.743652,4150.256348,4141.538574,4137.948730,4165.641113,4153.333496,869.000000,4.000000,,,,0.000000,4.000000,4.000000,4.000000,4.000000,4.000000,4.000000,4.000000,4.000000,4.000000,4.000000,4.000000,4.000000,4.000000,4.000000,100.000000
1602005885.117495,79.000000,0.000000,4097.436035,4115.897461,4109.743652,4120.512695,4125.128418,4117.948730,4122.563965,4113.846191,4117.436035,4130.769043,4132.820313,4123.589844,4150.769043,4137.948730,840.000000,4.000000,,,,0.000000,4.000000,4.000000,4.000000,4.000000,4.000000,4.000000,4.000000,4.000000,4.000000,4.000000,4.000000,4.000000,4.000000,4.000000,100.000000
1602005885.125379,80.000000,0.000000,4091.794922,4106.666504,4109.743652,4112.820313,4130.256348,4123.077148,4122.563965,4124.102539,4125.128418,4132.307617,4138.974121,4128.205078,4142.563965,4132.820313,768.000000,4.000000,,,,0.000000,4.000000,4.000000,4.000000,4.000000,4.000000,4.000000,4.000000,4.000000,4.000000,4.000000,4.000000,4.000000,4.000000,4.000000,100.000000
1602005885.133262,81.000000,0.000000,4092.307617,4103.589844,4120.512695,4107.692383,4129.230957,4122.563965,4121.538574,4125.128418,4129.230957,4127.692383,4133.846191,4137.948730,4140.000000,4135.897461,757.000000,4.000000,,,,0.000000,4.000000,4.000000,4.000000,4.000000,4.000000,4.000000,4.000000,4.000000,4.000000,4.000000,4.000000,4.000000,4.000000,4.000000,100.000000
1602005885.141146,82.000000,0.000000,4096.922852,4106.153809,4131.794922,4110.769043,4124.102539,4118.461426,4117.436035,4121.538574,4120.000000,4112.307617,4124.102539,4143.077148,4137.436035,4140.000000,869.000000,4.000000,,,,0.000000,4.000000,4.000000,4.000000,4.000000,4.000000,4.000000,4.000000,4.000000,4.000000,4.000000,4.000000,4.000000,4.000000,4.000000,100.000000
1602005885.149029,83.000000,0.000000,4100.000000,4106.153809,4137.948730,4112.307617,4126.153809,4121.025879,4116.410156,4130.769043,4125.128418,4127.179688,4128.717773,4149.230957,4136.410156,4138.974121,840.000000,4.000000,,,,0.000000,4.000000,4.000000,4.000000,4.000000,4.000000,4.000000,4.000000,4.000000,4.000000,4.000000,4.000000,4.000000,4.000000,4.000000,100.000000
1602005885.157014,84.000000,0.000000,4101.025879,4104.102539,4140.000000,4108.717773,4129.230957,4121.025879,4119.487305,4139.487305,4139.487305,4155.384766,4137.948730,4154.871582,4142.563965,4138.974121,768.000000,4.000000,,,,0.000000,4.000000,4.000000,4.000000,4.000000,4.000000,4.000000,4.000000,4.000000,4.000000,4.000000,4.000000,4.000000,4.000000,4.000000,100.000000
1602005885.164899,85.000000,0.000000,4108.205078,4107.179688,4142.051270,4114.871582,4128.205078,4120.512695,4124.102539,4136.410156,4142.051270,4164.615234,4142.563965,4155.897461,4155.384766,4150.256348,757.000000,4.000000,,,,0.000000,4.000000,4.000000,4.000000,4.000000,4.000000,4.000000,4.000000,4.000000,4.000000,4.000000,4.000000,4.000000,4.000000,4.000000,100.000000
1602005885.172784,86.000000,0.000000,4110.769043,4113.846191,4143.589844,4122.051270,4129.230957,4125.128418,4128.205078,4128.205078,4136.410156,4162.563965,4140.000000,4150.769043,4155.384766,4156.922852,869.000000,4.000000,,,,0.000000,4.000000,4.000000,4.000000,4.000000,4.000000,4.000000,4.000000,4.000000,4.000000,4.000000,4.000000,4.000000,4.000000,4.000000,100.000000
1602005885.180669,87.000000,0.000000,4099.487305,4110.256348,4137.948730,4113.333496,4123.077148,4121.025879,4128.717773,4116.922852,4126.153809,4138.974121,4133.333496,4145.128418,4142.051270,4145.128418,840.000000,4.000000,,,,0.000000,4.000000,4.000000,4.000000,4.000000,4.000000,4.000000,4.000000,4.000000,4.000000,4.000000,4.000000,4.000000,4.000000,4.000000,100.000000
1602005885.188554,88.000000,0.000000,4097.436035,4107.179688,4134.358887,4109.230957,4110.769043,4113.846191,4126.153809,4110.256348,4117.948730,4101.538574,4133.846191,4149.743652,4142.563965,4136.410156,768.000000,4.000000,,,,0.000000,4.000000,4.000000,4.000000,4.000000,4.000000,4.000000,4.000000,4.000000,4.000000,4.000000,4.000000,4.000000,4.000000,4.000000,100.000000
1602005885.196439,89.000000,0.000000,4110.256348,4117.948730,4143.077148,4121.538574,4112.820313,4122.051270,4125.641113,4115.897461,4119.487305,4105.128418,4141.538574,4156.410156,4149.230957,4140.512695,757.000000,4.000000,,,,0.000000,4.000000,4.000000,4.000000,4.000000,4.000000,4.000000,4.000000,4.000000,4.000000,4.000000,4.000000,4.000000,4.000000,4.000000,100.000000
1602005885.204324,90.000000,0.000000,4105.641113,4120.000000,4138.974121,4122.051270,4116.922852,4123.077148,4124.615234,4122.563965,4126.153809,4129.743652,4136.922852,4147.179688,4141.538574,4134.871582,869.000000,4.000000,,,,0.000000,4.000000,4.000000,4.000000,4.000000,4.000000,4.000000,4.000000,4.000000,4.000000,4.000000,4.000000,4.000000,4.000000,4.000000,100.000000
1602005885.212209,91.000000,0.000000,4084.615479,4103.077148,4116.922852,4106.666504,4111.282227,4105.641113,4118.974121,4121.538574,4126.666504,4132.307617,4121.538574,4133.333496,4132.820313,4123.077148,840.000000,4.000000,,,,0.000000,4.000000,4.000000,4.000000,4.000000,4.000000,4.000000,4.000000,4.000000,4.000000,4.000000,4.000000,4.000000,4.000000,4.000000,100.000000
1602005885.220191,92.000000,0.000000,4078.461426,4095.384521,4106.153809,4105.128418,4116.410156,4105.641113,4115.384766,4126.666504,4129.230957,4134.871582,4117.436035,4126.153809,4132.307617,4117.948730,768.000000,4.000000,,,,0.000000,4.000000,4.000000,4.000000,4.000000,4.000000,4.000000,4.000000,4.000000,4.000000,4.000000,4.000000,4.000000,4.000000,4.000000,100.000000
1602005885.228073,93.000000,0.000000,4095.384521,4110.256348,4114.358887,4117.436035,4137.436035,4127.179688,4118.461426,4138.974121,4138.974121,4156.410156,4128.205078,4123.589844,4139.487305,4122.563965,757.000000,4.000000,,,,0.000000,4.000000,4.000000,4.000000,4.000000,4.000000,4.000000,4.000000,4.000000,4.000000,4.000000,4.000000,4.000000,4.000000,4.000000,100.000000
1602005885.236055,94.000000,0.000000,4109.743652,4123.077148,4123.077148,4126.153809,4146.666504,4133.333496,4120.512695,4137.436035,4143.589844,4164.615234,4138.461426,4129.743652,4151.282227,4134.871582,869.000000,4.000000,,,,0.000000,4.000000,4.000000,4.000000,4.000000,4.000000,4.000000,4.000000,4.000000,4.000000,4.000000,4.000000,4.000000,4.000000,4.000000,100.000000
1602005885.243938,95.000000,0.000000,4102.563965,4116.410156,4121.025879,4122.051270,4137.436035,4123.589844,4112.820313,4124.102539,4137.436035,4138.974121,4137.948730,4134.871582,4155.384766,4142.051270,840.000000,4.000000,,,,0.000000,4.000000,4.000000,4.000000,4.000000,4.000000,4.000000,4.000000,4.000000,4.000000,4.000000,4.000000,4.000000,4.000000,4.000000,100.000000
1602005885.251821,96.000000,0.000000,4091.794922,4105.641113,4118.974121,4114.871582,4129.230957,4121.025879,4113.846191,4121.538574,4135.384766,4121.025879,4136.410156,4141.025879,4150.769043,4138.461426,768.000000,4.000000,,,,0.000000,4.000000,4.000000,4.000000,4.000000,4.000000,4.000000,4.000000,4.000000,4.000000,4.000000,4.000000,4.000000,4.000000,4.000000,100.000000
1602005885.259704,97.000000,0.000000,4091.281982,4106.153809,4122.051270,4113.333496,4127.179688,4127.179688,4131.794922,4127.179688,4136.410156,4124.102539,4138.974121,4151.282227,4151.794922,4134.871582,757.000000,4.000000,,,,0.000000,4.000000,4.000000,4.000000,4.000000,4.000000,4.000000,4.000000,4.000000,4.000000,4.000000,4.000000,4.000000,4.000000,4.000000,100.000000
1602005885.267689,98.000000,0.000000,4096.410156,4106.666504,4121.025879,4111.282227,4122.051270,4127.179688,4143.077148,4125.128418,4126.153809,4122.563965,4139.487305,4153.333496,4154.358887,4136.922852,869.000000,4.000000,,,,0.000000,4.000000,4.000000,4.000000,4.000000,4.000000,4.000000,4.000000,4.000000,4.000000,4.000000,4.000000,4.000000,4.000000,4.000000,100.000000
1602005885.275574,99.000000,0.000000,4102.051270,4105.641113,4119.487305,4111.282227,4115.384766,4122.051270,4142.563965,4126.153809,4124.615234,4129.230957,4142.563965,4150.256348,4156.410156,4139.487305,840.000000,4.000000,,,,0.000000,4.000000,4.000000,4.000000,4.000000,4.000000,4.000000,4.000000,4.000000,4.000000,4.000000,4.000000,4.000000,4.000000,4.000000,100.000000
1602005885.283459,100.000000,0.000000,4113.333496,4115.384766,4127.179688,4118.461426,4115.897461,4121.538574,4140.000000,4135.384766,4136.410156,4150.256348,4149.743652,4159.487305,4159.487305,4141.538574,768.000000,4.000000,,,,0.000000,4.000000,4.000000,4.000000,4.000000,4.000000,4.000000,4.000000,4.000000,4.000000,4.000000,4.000000,4.000000,4.000000,4.000000,100.000000
1602005885.291345,101.000000,0.000000,4124.615234,4125.641113,4138.461426,4126.666504,4120.512695,4117.948730,4128.205078,4132.820313,4135.897461,4149.743652,4147.692383,4169.230957,4159.487305,4143.077148,757.000000,4.000000,,,,0.000000,4.000000,4.000000,4.000000,4.000000,4.000000,4.000000,4.000000,4.000000,4.000000,4.000000,4.000000,4.000000,4.000000,4.000000,100.000000
1602005885.299230,102.000000,0.000000,4121.538574,4123.589844,4138.461426,4128.205078,4121.538574,4105.641113,4109.230957,4122.051270,4122.051270,4128.205078,4133.846191,4161.025879,4154.871582,4141.538574,869.000000,4.000000,,,,0.000000,4.000000,4.000000,4.000000,4.000000,4.000000,4.000000,4.000000,4.000000,4.000000,4.000000,4.000000,4.000000,4.000000,4.000000,100.000000
1602005885.307115,103.000000,0.000000,4110.256348,4118.974121,4129.743652,4126.666504,4122.051270,4100.512695,4102.051270,4121.025879,4114.871582,4121.538574,4128.717773,4152.820313,4148.717773,4135.897461,840.000000,4.000000,,,,0.000000,4.000000,4.000000,4.000000,4.000000,4.000000,4.000000,4.000000,4.000000,4.000000,4.000000,4.000000,4.000000,4.000000,4.000000,100.000000
1602005885.315000,104.000000,0.000000,4105.128418,4114.358887,4123.589844,4125.641113,4122.563965,4103.589844,4107.179688,4123.589844,4118.461426,4118.461426,4135.384766,4150.769043,4145.641113,4125.128418,768.000000,4.000000,,,,0.000000,4.000000,4.000000,4.000000,4.000000,4.000000,4.000000,4.000000,4.000000,4.000000,4.000000,4.000000,4.000000,4.000000,4.000000,100.000000
1602005885.322886,105.000000,0.000000,4107.692383,4109.230957,4124.615234,4122.051270,4127.179688,4107.179688,4114.871582,4123.077148,4120.512695,4118.461426,4146.153809,4149.230957,4150.256348,4124.102539,757.000000,4.000000,,,,0.000000,4.000000,4.000000,4.000000,4.000000,4.000000,4.000000,4.000000,4.000000,4.000000,4.000000,4.000000,4.000000,4.000000,4.000000,100.000000
1602005885.330771,106.000000,0.000000,4108.205078,4107.692383,4123.589844,4118.974121,4133.846191,4114.871582,4128.717773,4132.820313,4121.538574,4134.871582,4151.794922,4148.717773,4155.384766,4136.922852,869.000000,4.000000,,,,0.000000,4.000000,4.000000,4.000000,4.000000,4.000000,4.000000,4.000000,4.000000,4.000000,4.000000,4.000000,4.000000,4.000000,4.000000,100.000000
1602005885.338554,107.000000,0.000000,4110.769043,4108.205078,4121.538574,4119.487305,4131.794922,4123.077148,4139.487305,4145.128418,4129.743652,4148.717773,4144.102539,4152.820313,4155.384766,4137.436035,840.000000,4.000000,,,,0.000000,4.000000,4.000000,4.000000,4.000000,4.000000,4.000000,4.000000,4.000000,4.000000,4.000000,4.000000,4.000000,4.000000,4.000000,100.000000
1602005885.346438,108.000000,0.000000,4117.948730,4108.205078,4128.205078,4121.538574,4125.128418,4125.128418,4132.820313,4145.128418,4137.436035,4140.512695,4138.461426,4153.333496,4154.358887,4132.820313,768.000000,4.000000,,,,0.000000,4.000000,4.000000,4.000000,4.000000,4.000000,4.000000,4.000000,4.000000,4.000000,4.000000,4.000000,4.000000,4.000000,4.000000,100.000000
1602005885.354321,109.000000,0.000000,4122.563965,4107.692383,4132.820313,4121.025879,4123.077148,4125.641113,4121.025879,4140.000000,4136.922852,4126.153809,4146.666504,4146.153809,4154.871582,4137.436035,757.000000,4.000000,,,,0.000000,4.000000,4.000000,4.000000,4.000000,4.000000,4.000000,4.000000,4.000000,4.000000,4.000000,4.000000,4.000000,4.000000,4.000000,100.000000
1602005885.362204,110.000000,0.000000,4122.563965,4105.128418,4130.256348,4120.000000,4121.538574,4127.179688,4126.666504,4136.922852,4136.922852,4135.897461,4147.692383,4145.641113,4154.358887,4138.461426,869.000000,4.000000,,,,0.000000,4.000000,4.000000,4.000000,4.000000,4.000000,4.000000,4.000000,4.000000,4.000000,4.000000,4.000000,4.000000,4.000000,4.000000,100.000000
1602005885.370087,111.000000,0.000000,4121.025879,4105.128418,4134.358887,4121.025879,4113.333496,4121.025879,4139.487305,4133.846191,4142.563965,4159.487305,4139.487305,4154.358887,4156.410156,4135.897461,840.000000,4.000000,,,,0.000000,4.000000,4.000000,4.000000,4.000000,4.000000,4.000000,4.000000,4.000000,4.000000,4.000000,4.000000,4.000000,4.000000,4.000000,100.000000
1602005885.377873,112.000000,0.000000,4121.538574,4107.179688,4141.025879,4122.051270,4103.589844,4109.743652,4135.384766,4127.692383,4143.077148,4162.051270,4144.102539,4157.948730,4157.436035,4135.384766,768.000000,4.000000,,,,0.000000,4.000000,4.000000,4.000000,4.000000,4.000000,4.000000,4.000000,4.000000,4.000000,4.000000,4.000000,4.000000,4.000000,4.000000,100.000000
1602005885.385757,113.000000,0.000000,4122.051270,4109.743652,4133.846191,4124.102539,4106.153809,4105.128418,4127.179688,4124.102539,4138.461426,4136.922852,4154.871582,4151.282227,4153.846191,4127.692383,757.000000,4.000000,,,,0.000000,4.000000,4.000000,4.000000,4.000000,4.000000,4.000000,4.000000,4.000000,4.000000,4.000000,4.000000,4.000000,4.000000,4.000000,100.000000
1602005885.393642,114.000000,0.000000,4120.512695,4113.846191,4123.077148,4126.666504,4120.000000,4103.077148,4126.153809,4129.230957,4135.897461,4121.025879,4151.794922,4149.743652,4153.333496,4121.025879,869.000000,4.000000,,,,0.000000,4.000000,4.000000,4.000000,4.000000,4.000000,4.000000,4.000000,4.000000,4.000000,4.000000,4.000000,4.000000,4.000000,4.000000,100.000000
1602005885.401527,115.000000,0.000000,4115.384766,4114.871582,4117.948730,4127.179688,4127.179688,4097.948730,4120.000000,4137.436035,4132.307617,4130.256348,4139.487305,4154.871582,4154.871582,4131.794922,840.000000,4.000000,,,,0.000000,4.000000,4.000000,4.000000,4.000000,4.000000,4.000000,4.000000,4.000000,4.000000,4.000000,4.000000,4.000000,4.000000,4.000000,100.000000
1602005885.409412,116.000000,0.000000,4109.743652,4114.358887,4115.897461,4128.205078,4130.256348,4089.230713,4106.666504,4132.307617,4117.948730,4132.820313,4131.794922,4151.794922,4143.077148,4136.922852,768.000000,4.000000,,,,0.000000,4.000000,4.000000,4.000000,4.000000,4.000000,4.000000,4.000000,4.000000,4.000000,4.000000,4.000000,4.000000,4.000000,4.000000,100.000000
1602005885.417297,117.000000,0.000000,4115.384766,4120.000000,4125.128418,4132.820313,4137.948730,4088.718018,4098.974121,4118.974121,4103.589844,4124.102539,4134.358887,4150.769043,4136.922852,4133.333496,757.000000,4.000000,,,,0.000000,4.000000,4.000000,4.000000,4.000000,4.000000,4.000000,4.000000,4.000000,4.000000,4.000000,4.000000,4.000000,4.000000,4.000000,100.000000
1602005885.425182,118.000000,0.000000,4130.256348,4127.692383,4142.051270,4140.000000,4143.077148,4106.153809,4104.102539,4125.641113,4110.769043,4133.333496,4142.051270,4163.077148,4150.769043,4144.102539,869.000000,4.000000,,,,0.000000,4.000000,4.000000,4.000000,4.000000,4.000000,4.000000,4.000000,4.000000,4.000000,4.000000,4.000000,4.000000,4.000000,4.000000,100.000000
1602005885.433067,119.000000,0.000000,4136.922852,4125.128418,4148.205078,4135.384766,4145.128418,4123.077148,4114.871582,4136.922852,4123.077148,4146.153809,4146.153809,4173.333496,4159.487305,4158.461426,840.000000,4.000000,,,,0.000000,4.000000,4.000000,4.000000,4.000000,4.000000,4.000000,4.000000,4.000000,4.000000,4.000000,4.000000,4.000000,4.000000,4.000000,100.000000
1602005885.441053,120.000000,0.000000,4136.922852,4120.512695,4143.077148,4123.077148,4142.051270,4127.692383,4127.692383,4135.897461,4123.589844,4134.358887,4150.256348,4174.358887,4156.922852,4153.333496,768.000000,4.000000,,,,0.000000,4.000000,4.000000,4.000000,4.000000,4.000000,4.000000,4.000000,4.000000,4.000000,4.000000,4.000000,4.000000,4.000000,4.000000,100.000000
1602005885.448939,121.000000,0.000000,4136.922852,4122.563965,4142.051270,4123.077148,4127.692383,4134.871582,4139.487305,4134.871582,4123.589844,4123.589844,4156.922852,4171.282227,4159.487305,4142.051270,757.000000,4.000000,,,,0.000000,4.000000,4.000000,4.000000,4.000000,4.000000,4.000000,4.000000,4.000000,4.000000,4.000000,4.000000,4.000000,4.000000,4.000000,100.000000
1602005885.456824,122.000000,0.000000,4130.256348,4123.589844,4141.538574,4128.717773,4118.461426,4141.025879,4144.102539,4133.333496,4123.077148,4115.897461,4151.282227,4163.589844,4160.000000,4141.538574,869.000000,4.000000,,,,0.000000,4.000000,4.000000,4.000000,4.000000,4.000000,4.000000,4.000000,4.000000,4.000000,4.000000,4.000000,4.000000,4.000000,4.000000,100.000000
1602005885.464710,123.000000,0.000000,4120.512695,4115.384766,4137.948730,4123.077148,4121.538574,4129.230957,4138.974121,4125.128418,4120.000000,4107.692383,4135.897461,4149.230957,4147.692383,4139.487305,840.000000,4.000000,,,,0.000000,4.000000,4.000000,4.000000,4.000000,4.000000,4.000000,4.000000,4.000000,4.000000,4.000000,4.000000,4.000000,4.000000,4.000000,100.000000
1602005885.472596,124.000000,0.000000,4122.051270,4113.846191,4132.307617,4123.077148,4123.589844,4121.538574,4130.256348,4121.538574,4121.025879,4125.128418,4135.897461,4142.051270,4137.948730,4134.871582,768.000000,4.000000,,,,0.000000,4.000000,4.000000,4.000000,4.000000,4.000000,4.000000,4.000000,4.000000,4.000000,4.000000,4.000000,4.000000,4.000000,4.000000,100.000000
1602005885.480481,125.000000,0.000000,4126.666504,4122.051270,4126.666504,4135.897461,4121.538574,4127.692383,4119.487305,4124.102539,4125.128418,4144.615234,4137.436035,4142.563965,4137.948730,4133.846191,757.000000,4.000000,,,,0.000000,4.000000,4.000000,4.000000,4.000000,4.000000,4.000000,4.000000,4.000000,4.000000,4.000000,4.000000,4.000000,4.000000,4.000000,100.000000
1602005885.488367,126.000000,0.000000,4122.051270,4121.538574,4127.692383,4138.974121,4119.487305,4117.948730,4104.615234,4122.563965,4125.641113,4142.563965,4124.102539,4137.948730,4138.461426,4127.692383,869.000000,4.000000,,,,0.000000,4.000000,4.000000,4.000000,4.000000,4.000000,4.000000,4.000000,4.000000,4.000000,4.000000,4.000000,4.000000,4.000000,4.000000,100.000000
1602005885.496253,127.000000,0.000000,4126.666504,4123.589844,4135.384766,4135.897461,4120.512695,4104.615234,4090.769287,4120.000000,4125.641113,4135.897461,4123.077148,4137.948730,4145.641113,4128.205078,840.000000,4.000000,,,,0.000000,4.000000,4.000000,4.000000,4.000000,4.000000,4.000000,4.000000,4.000000,4.000000,4.000000,4.000000,4.000000,4.000000,4.000000,100.000000
1602005885.504139,128.000000,0.000000,4146.666504,4135.384766,4143.589844,4141.025879,4124.102539,4102.563965,4084.615479,4121.538574,4130.256348,4134.871582,4145.128418,4150.256348,4158.974121,4148.205078,768.000000,4.000000,,,,0.000000,4.000000,4.000000,4.000000,4.000000,4.000000,4.000000,4.000000,4.000000,4.000000,4.000000,4.000000,4.000000,4.000000,4.000000,100.000000
1602005885.512024,0.000000,0.000000,4156.410156,4136.922852,4148.717773,4143.077148,4125.128418,4105.641113,4092.307617,4129.743652,4136.922852,4131.282227,4153.846191,4160.512695,4164.615234,4160.000000,806.000000,4.000000,,,,0.000000,4.000000,4.000000,4.000000,4.000000,4.000000,4.000000,4.000000,4.000000,4.000000,4.000000,4.000000,4.000000,4.000000,4.000000,100.000000
1602005885.519810,1.000000,0.000000,4138.974121,4121.025879,4142.051270,4132.307617,4121.538574,4113.846191,4110.256348,4137.948730,4132.307617,4125.128418,4145.128418,4150.256348,4157.948730,4143.589844,795.000000,4.000000,,,,0.000000,4.000000,4.000000,4.000000,4.000000,4.000000,4.000000,4.000000,4.000000,4.000000,4.000000,4.000000,4.000000,4.000000,4.000000,100.000000
1602005885.527695,2.000000,0.000000,4121.025879,4108.205078,4125.641113,4122.051270,4126.666504,4120.000000,4128.717773,4137.948730,4121.025879,4123.589844,4137.948730,4134.871582,4148.717773,4122.563965,851.000000,4.000000,,,,0.000000,4.000000,4.000000,4.000000,4.000000,4.000000,4.000000,4.000000,4.000000,4.000000,4.000000,4.000000,4.000000,4.000000,4.000000,100.000000
1602005885.535580,3.000000,0.000000,4122.051270,4111.282227,4124.102539,4123.077148,4139.487305,4129.743652,4147.692383,4139.487305,4126.153809,4135.384766,4133.333496,4136.410156,4145.641113,4123.589844,866.000000,4.000000,,,,0.000000,4.000000,4.000000,4.000000,4.000000,4.000000,4.000000,4.000000,4.000000,4.000000,4.000000,4.000000,4.000000,4.000000,4.000000,100.000000
1602005885.543465,4.000000,0.000000,4123.589844,4120.000000,4130.256348,4124.615234,4143.077148,4140.000000,4155.897461,4144.102539,4140.512695,4147.179688,4133.333496,4143.589844,4150.256348,4133.846191,816.000000,4.000000,,,,0.000000,4.000000,4.000000,4.000000,4.000000,4.000000,4.000000,4.000000,4.000000,4.000000,4.000000,4.000000,4.000000,4.000000,4.000000,100.000000
1602005885.551350,5.000000,0.000000,4118.461426,4121.538574,4124.102539,4121.538574,4135.384766,4132.820313,4146.153809,4138.461426,4141.538574,4138.974121,4140.512695,4143.077148,4156.922852,4138.461426,818.000000,4.000000,,,,0.000000,4.000000,4.000000,4.000000,4.000000,4.000000,4.000000,4.000000,4.000000,4.000000,4.000000,4.000000,4.000000,4.000000,4.000000,100.000000
1602005885.559236,6.000000,0.000000,4118.974121,4116.410156,4115.897461,4120.000000,4127.179688,4119.487305,4129.743652,4125.641113,4130.769043,4122.051270,4140.000000,4138.974121,4152.820313,4137.948730,778.000000,4.000000,,,,0.000000,4.000000,4.000000,4.000000,4.000000,4.000000,4.000000,4.000000,4.000000,4.000000,4.000000,4.000000,4.000000,4.000000,4.000000,100.000000
1602005885.567121,7.000000,0.000000,4119.487305,4115.897461,4118.974121,4120.512695,4123.589844,4122.563965,4121.538574,4116.410156,4121.025879,4122.051270,4127.692383,4131.282227,4141.025879,4132.307617,687.000000,4.000000,,,,0.000000,4.000000,4.000000,4.000000,4.000000,4.000000,4.000000,4.000000,4.000000,4.000000,4.000000,4.000000,4.000000,4.000000,4.000000,100.000000
1602005885.575006,8.000000,0.000000,4111.794922,4114.871582,4121.025879,4118.974121,4125.641113,4130.769043,4115.897461,4112.307617,4115.384766,4126.666504,4121.538574,4124.102539,4138.974121,4122.563965,786.000000,4.000000,,,,0.000000,4.000000,4.000000,4.000000,4.000000,4.000000,4.000000,4.000000,4.000000,4.000000,4.000000,4.000000,4.000000,4.000000,4.000000,100.000000
1602005885.582891,9.000000,0.000000,4105.641113,4108.717773,4112.820313,4117.948730,4124.615234,4127.692383,4110.769043,4112.307617,4110.256348,4112.307617,4125.128418,4127.692383,4139.487305,4119.487305,843.000000,4.000000,,,,0.000000,4.000000,4.000000,4.000000,4.000000,4.000000,4.000000,4.000000,4.000000,4.000000,4.000000,4.000000,4.000000,4.000000,4.000000,100.000000
1602005885.590675,10.000000,0.000000,4108.205078,4110.256348,4108.717773,4118.974121,4123.589844,4123.589844,4110.769043,4115.384766,4110.256348,4102.051270,4129.230957,4140.512695,4135.897461,4127.692383,870.000000,4.000000,,,,0.000000,4.000000,4.000000,4.000000,4.000000,4.000000,4.000000,4.000000,4.000000,4.000000,4.000000,4.000000,4.000000,4.000000,4.000000,100.000000
1602005885.598559,11.000000,0.000000,4120.000000,4119.487305,4125.128418,4121.538574,4129.230957,4123.077148,4115.384766,4123.589844,4118.461426,4124.615234,4141.025879,4157.436035,4140.512695,4142.051270,840.000000,4.000000,,,,0.000000,4.000000,4.000000,4.000000,4.000000,4.000000,4.000000,4.000000,4.000000,4.000000,4.000000,4.000000,4.000000,4.000000,4.000000,100.000000
1602005885.606443,12.000000,0.000000,4130.769043,4125.641113,4142.563965,4125.128418,4137.948730,4121.538574,4123.077148,4141.025879,4134.871582,4148.717773,4154.871582,4172.307617,4155.384766,4155.384766,768.000000,4.000000,,,,0.000000,4.000000,4.000000,4.000000,4.000000,4.000000,4.000000,4.000000,4.000000,4.000000,4.000000,4.000000,4.000000,4.000000,4.000000,100.000000
1602005885.614327,13.000000,0.000000,4128.205078,4123.589844,4143.077148,4127.692383,4136.922852,4114.871582,4130.256348,4155.384766,4149.743652,4142.051270,4153.846191,4173.333496,4162.051270,4157.948730,757.000000,4.000000,,,,0.000000,4.000000,4.000000,4.000000,4.000000,4.000000,4.000000,4.000000,4.000000,4.000000,4.000000,4.000000,4.000000,4.000000,4.000000,100.000000
1602005885.622210,14.000000,0.000000,4128.205078,4118.974121,4144.102539,4124.102539,4127.179688,4111.794922,4138.461426,4156.410156,4148.205078,4133.846191,4141.538574,4166.666504,4152.307617,4152.307617,870.000000,4.000000,,,,0.000000,4.000000,4.000000,4.000000,4.000000,4.000000,4.000000,4.000000,4.000000,4.000000,4.000000,4.000000,4.000000,4.000000,4.000000,100.000000
1602005885.630094,15.000000,0.000000,4136.922852,4116.922852,4154.358887,4120.000000,4125.128418,4127.179688,4150.769043,4150.769043,4140.000000,4148.205078,4130.769043,4168.717773,4143.589844,4152.307617,840.000000,4.000000,,,,0.000000,4.000000,4.000000,4.000000,4.000000,4.000000,4.000000,4.000000,4.000000,4.000000,4.000000,4.000000,4.000000,4.000000,4.000000,100.000000
1602005885.637880,16.000000,0.000000,4142.563965,4121.538574,4157.948730,4128.205078,4134.358887,4144.615234,4158.461426,4146.153809,4139.487305,4151.282227,4131.794922,4169.743652,4147.179688,4155.897461,0.000000,4.000000,,,,0.000000,4.000000,4.000000,4.000000,4.000000,4.000000,4.000000,4.000000,4.000000,4.000000,4.000000,4.000000,4.000000,4.000000,4.000000,100.000000
1602005885.645765,17.000000,0.000000,4143.077148,4127.179688,4143.589844,4138.461426,4137.436035,4145.128418,4154.358887,4137.436035,4139.487305,4130.256348,4138.974121,4158.974121,4149.230957,4150.256348,0.000000,4.000000,,,,0.000000,4.000000,4.000000,4.000000,4.000000,4.000000,4.000000,4.000000,4.000000,4.000000,4.000000,4.000000,4.000000,4.000000,4.000000,100.000000
1602005885.653651,18.000000,0.000000,4136.922852,4124.102539,4122.563965,4134.871582,4127.179688,4140.512695,4143.589844,4126.666504,4129.743652,4117.436035,4138.461426,4146.153809,4141.538574,4137.436035,0.000000,4.000000,,,,0.000000,4.000000,4.000000,4.000000,4.000000,4.000000,4.000000,4.000000,4.000000,4.000000,4.000000,4.000000,4.000000,4.000000,4.000000,100.000000
1602005885.661536,19.000000,0.000000,4127.692383,4123.589844,4110.769043,4126.153809,4125.641113,4144.102539,4136.922852,4122.563965,4123.589844,4123.077148,4135.897461,4140.512695,4132.820313,4133.846191,0.000000,4.000000,,,,0.000000,4.000000,4.000000,4.000000,4.000000,4.000000,4.000000,4.000000,4.000000,4.000000,4.000000,4.000000,4.000000,4.000000,4.000000,100.000000
1602005885.669421,20.000000,0.000000,4124.615234,4123.589844,4108.717773,4125.128418,4137.948730,4148.717773,4137.436035,4126.153809,4128.205078,4122.563965,4135.897461,4136.922852,4128.717773,4131.282227,0.000000,4.000000,,,,0.000000,4.000000,4.000000,4.000000,4.000000,4.000000,4.000000,4.000000,4.000000,4.000000,4.000000,4.000000,4.000000,4.000000,4.000000,100.000000
1602005885.677307,21.000000,0.000000,4115.897461,4112.307617,4107.692383,4122.563965,4140.512695,4139.487305,4132.307617,4121.538574,4122.563965,4116.922852,4122.563965,4123.077148,4112.307617,4113.333496,0.000000,4.000000,,,,0.000000,4.000000,4.000000,4.000000,4.000000,4.000000,4.000000,4.000000,4.000000,4.000000,4.000000,4.000000,4.000000,4.000000,4.000000,100.000000
1602005885.685192,22.000000,0.000000,4104.615234,4108.205078,4112.820313,4123.077148,4130.769043,4125.641113,4117.948730,4113.333496,4106.153809,4125.641113,4104.102539,4116.410156,4097.948730,4097.948730,0.000000,4.000000,,,,0.000000,4.000000,4.000000,4.000000,4.000000,4.000000,4.000000,4.000000,4.000000,4.000000,4.000000,4.000000,4.000000,4.000000,4.000000,100.000000
1602005885.693078,23.000000,0.000000,4116.410156,4119.487305,4127.179688,4135.384766,4126.153809,4120.512695,4111.794922,4120.512695,4102.051270,4124.102539,4109.230957,4129.743652,4107.179688,4112.820313,0.000000,4.000000,,,,0.000000,4.000000,4.000000,4.000000,4.000000,4.000000,4.000000,4.000000,4.000000,4.000000,4.000000,4.000000,4.000000,4.000000,4.000000,100.000000
1602005885.700963,24.000000,0.000000,4134.358887,4124.615234,4139.487305,4140.000000,4124.615234,4120.000000,4124.615234,4142.051270,4118.974121,4113.333496,4128.717773,4144.102539,4123.589844,4133.846191,0.000000,4.000000,,,,0.000000,4.000000,4.000000,4.000000,4.000000,4.000000,4.000000,4.000000,4.000000,4.000000,4.000000,4.000000,4.000000,4.000000,4.000000,100.000000
1602005885.708946,25.000000,0.000000,4143.077148,4123.589844,4143.589844,4137.436035,4120.000000,4121.025879,4144.615234,4156.922852,4138.974121,4136.922852,4138.461426,4151.794922,4134.358887,4139.487305,0.000000,4.000000,,,,0.000000,4.000000,4.000000,4.000000,4.000000,4.000000,4.000000,4.000000,4.000000,4.000000,4.000000,4.000000,4.000000,4.000000,4.000000,100.000000
1602005885.716829,26.000000,0.000000,4151.794922,4128.717773,4142.563965,4138.974121,4116.922852,4121.538574,4157.436035,4156.922852,4144.102539,4162.051270,4138.461426,4157.948730,4141.025879,4147.692383,0.000000,4.000000,,,,0.000000,4.000000,4.000000,4.000000,4.000000,4.000000,4.000000,4.000000,4.000000,4.000000,4.000000,4.000000,4.000000,4.000000,4.000000,100.000000
1602005885.724712,27.000000,0.000000,4150.769043,4129.743652,4140.512695,4138.461426,4117.948730,4126.153809,4160.000000,4153.846191,4140.512695,4133.333496,4139.487305,4158.461426,4142.563965,4160.512695,0.000000,4.000000,,,,0.000000,4.000000,4.000000,4.000000,4.000000,4.000000,4.000000,4.000000,4.000000,4.000000,4.000000,4.000000,4.000000,4.000000,4.000000,100.000000
1602005885.732595,28.000000,0.000000,4140.512695,4124.615234,4138.974121,4135.384766,4126.153809,4141.025879,4159.487305,4152.820313,4137.436035,4117.436035,4143.589844,4162.051270,4139.487305,4161.025879,0.000000,4.000000,,,,0.000000,4.000000,4.000000,4.000000,4.000000,4.000000,4.000000,4.000000,4.000000,4.000000,4.000000,4.000000,4.000000,4.000000,4.000000,100.000000
1602005885.740479,29.000000,0.000000,4141.025879,4125.128418,4138.974121,4137.436035,4140.000000,4156.410156,4154.358887,4143.077148,4131.794922,4149.230957,4142.563965,4169.230957,4141.025879,4154.358887,0.000000,4.000000,,,,0.000000,4.000000,4.000000,4.000000,4.000000,4.000000,4.000000,4.000000,4.000000,4.000000,4.000000,4.000000,4.000000,4.000000,4.000000,100.000000
1602005885.748260,30.000000,0.000000,4135.897461,4125.641113,4141.538574,4134.358887,4150.256348,4153.333496,4138.461426,4126.666504,4123.589844,4155.384766,4139.487305,4160.000000,4141.538574,4150.769043,0.000000,4.000000,,,,0.000000,4.000000,4.000000,4.000000,4.000000,4.000000,4.000000,4.000000,4.000000,4.000000,4.000000,4.000000,4.000000,4.000000,4.000000,100.000000
1602005885.756142,31.000000,0.000000,4122.563965,4120.000000,4136.922852,4125.128418,4155.897461,4143.077148,4119.487305,4119.487305,4117.948730,4130.769043,4135.384766,4141.538574,4132.307617,4137.436035,0.000000,4.000000,,,,0.000000,4.000000,4.000000,4.000000,4.000000,4.000000,4.000000,4.000000,4.000000,4.000000,4.000000,4.000000,4.000000,4.000000,4.000000,100.000000
1602005885.763924,32.000000,0.000000,4116.410156,4114.871582,4120.000000,4121.538574,4154.871582,4143.077148,4110.769043,4113.846191,4114.358887,4118.461426,4126.153809,4130.769043,4119.487305,4117.436035,0.000000,4.000000,,,,0.000000,4.000000,4.000000,4.000000,4.000000,4.000000,4.000000,4.000000,4.000000,4.000000,4.000000,4.000000,4.000000,4.000000,4.000000,100.000000
1602005885.771806,33.000000,0.000000,4110.256348,4107.179688,4103.589844,4121.025879,4144.102539,4134.871582,4111.794922,4108.717773,4107.179688,4116.922852,4112.820313,4122.563965,4106.666504,4111.794922,0.000000,4.000000,,,,0.000000,4.000000,4.000000,4.000000,4.000000,4.000000,4.000000,4.000000,4.000000,4.000000,4.000000,4.000000,4.000000,4.000000,4.000000,100.000000
1602005885.779789,34.000000,0.000000,4102.563965,4101.538574,4103.077148,4116.922852,4133.846191,4119.487305,4118.974121,4114.871582,4106.153809,4117.948730,4105.128418,4126.153809,4102.563965,4115.384766,0.000000,4.000000,,,,0.000000,4.000000,4.000000,4.000000,4.000000,4.000000,4.000000,4.000000,4.000000,4.000000,4.000000,4.000000,4.000000,4.000000,4.000000,100.000000
1602005885.787672,35.000000,0.000000,4112.820313,4110.769043,4113.333496,4120.512695,4130.769043,4117.948730,4129.743652,4132.307617,4124.615234,4116.922852,4114.358887,4147.179688,4115.384766,4127.692383,0.000000,4.000000,,,,0.000000,4.000000,4.000000,4.000000,4.000000,4.000000,4.000000,4.000000,4.000000,4.000000,4.000000,4.000000,4.000000,4.000000,4.000000,100.000000
1602005885.795555,36.000000,0.000000,4139.487305,4131.282227,4131.282227,4134.358887,4131.282227,4123.077148,4134.358887,4151.282227,4154.358887,4131.282227,4140.512695,4168.205078,4144.102539,4160.512695,0.000000,4.000000,,,,0.000000,4.000000,4.000000,4.000000,4.000000,4.000000,4.000000,4.000000,4.000000,4.000000,4.000000,4.000000,4.000000,4.000000,4.000000,100.000000
1602005885.803438,37.000000,0.000000,4160.000000,4143.077148,4153.333496,4142.051270,4136.922852,4124.615234,4140.000000,4168.717773,4173.846191,4177.436035,4166.153809,4181.025879,4170.769043,4193.846191,0.000000,4.000000,,,,0.000000,4.000000,4.000000,4.000000,4.000000,4.000000,4.000000,4.000000,4.000000,4.000000,4.000000,4.000000,4.000000,4.000000,4.000000,100.000000
1602005885.811423,38.000000,0.000000,4161.025879,4143.077148,4158.974121,4141.025879,4141.538574,4131.282227,4151.794922,4178.974121,4178.974121,4205.128418,4175.384766,4183.589844,4178.974121,4193.333496,0.000000,4.000000,,,,0.000000,4.000000,4.000000,4.000000,4.000000,4.000000,4.000000,4.000000,4.000000,4.000000,4.000000,4.000000,4.000000,4.000000,4.000000,100.000000
1602005885.819309,39.000000,0.000000,4154.358887,4138.974121,4149.743652,4136.410156,4138.461426,4139.487305,4152.820313,4171.794922,4170.256348,4179.487305,4166.153809,4171.282227,4172.307617,4167.179688,0.000000,4.000000,,,,0.000000,4.000000,4.000000,4.000000,4.000000,4.000000,4.000000,4.000000,4.000000,4.000000,4.000000,4.000000,4.000000,4.000000,4.000000,100.000000
1602005885.827194,40.000000,0.000000,4150.256348,4130.256348,4140.512695,4126.666504,4138.974121,4143.077148,4142.563965,4153.846191,4151.282227,4148.717773,4147.692383,4157.948730,4154.871582,4149.230957,0.000000,4.000000,,,,0.000000,4.000000,4.000000,4.000000,4.000000,4.000000,4.000000,4.000000,4.000000,4.000000,4.000000,4.000000,4.000000,4.000000,4.000000,100.000000
1602005885.835080,41.000000,0.000000,4136.922852,4116.922852,4131.282227,4114.358887,4137.948730,4144.615234,4138.461426,4136.922852,4128.717773,4126.153809,4132.307617,4150.256348,4130.256348,4144.615234,0.000000,4.000000,,,,0.000000,4.000000,4.000000,4.000000,4.000000,4.000000,4.000000,4.000000,4.000000,4.000000,4.000000,4.000000,4.000000,4.000000,4.000000,100.000000
1602005885.842965,42.000000,0.000000,4122.051270,4106.153809,4121.025879,4105.641113,4125.128418,4134.871582,4138.461426,4124.102539,4114.358887,4102.051270,4125.128418,4142.051270,4117.436035,4142.563965,0.000000,4.000000,,,,0.000000,4.000000,4.000000,4.000000,4.000000,4.000000,4.000000,4.000000,4.000000,4.000000,4.000000,4.000000,4.000000,4.000000,4.000000,100.000000
1602005885.850851,43.000000,0.000000,4121.025879,4104.615234,4122.563965,4110.256348,4118.461426,4127.692383,4137.436035,4120.512695,4111.282227,4107.179688,4118.461426,4135.897461,4118.974121,4133.333496,0.000000,4.000000,,,,0.000000,4.000000,4.000000,4.000000,4.000000,4.000000,4.000000,4.000000,4.000000,4.000000,4.000000,4.000000,4.000000,4.000000,4.000000,100.000000
1602005885.858736,44.000000,0.000000,4121.538574,4107.692383,4131.282227,4120.000000,4125.128418,4132.820313,4137.436035,4122.051270,4108.717773,4126.666504,4112.820313,4134.871582,4113.333496,4119.487305,0.000000,4.000000,,,,0.000000,4.000000,4.000000,4.000000,4.000000,4.000000,4.000000,4.000000,4.000000,4.000000,4.000000,4.000000,4.000000,4.000000,4.000000,100.000000
1602005885.866622,45.000000,0.000000,4116.922852,4106.153809,4133.846191,4122.563965,4123.077148,4131.282227,4131.794922,4121.538574,4104.102539,4118.461426,4113.333496,4133.333496,4107.179688,4121.538574,0.000000,4.000000,,,,0.000000,4.000000,4.000000,4.000000,4.000000,4.000000,4.000000,4.000000,4.000000,4.000000,4.000000,4.000000,4.000000,4.000000,4.000000,100.000000
1602005885.874507,46.000000,0.000000,4124.102539,4108.717773,4138.974121,4125.128418,4120.000000,4118.461426,4128.205078,4122.563965,4107.692383,4109.743652,4117.948730,4144.102539,4114.358887,4134.871582,0.000000,4.000000,,,,0.000000,4.000000,4.000000,4.000000,4.000000,4.000000,4.000000,4.000000,4.000000,4.000000,4.000000,4.000000,4.000000,4.000000,4.000000,100.000000
1602005885.882492,47.000000,0.000000,4144.102539,4129.743652,4153.846191,4140.512695,4126.153809,4111.282227,4133.846191,4134.358887,4120.512695,4129.743652,4133.846191,4163.589844,4128.717773,4145.641113,0.000000,4.000000,,,,0.000000,4.000000,4.000000,4.000000,4.000000,4.000000,4.000000,4.000000,4.000000,4.000000,4.000000,4.000000,4.000000,4.000000,4.000000,100.000000
1602005885.890378,48.000000,0.000000,4156.410156,4145.641113,4162.563965,4149.743652,4125.128418,4111.282227,4138.461426,4145.641113,4128.717773,4135.384766,4147.179688,4171.282227,4142.563965,4159.487305,0.000000,4.000000,,,,0.000000,4.000000,4.000000,4.000000,4.000000,4.000000,4.000000,4.000000,4.000000,4.000000,4.000000,4.000000,4.000000,4.000000,4.000000,100.000000
1602005885.898263,49.000000,0.000000,4158.461426,4143.077148,4157.948730,4144.102539,4125.128418,4114.358887,4145.128418,4151.794922,4137.948730,4128.205078,4151.794922,4176.922852,4153.333496,4172.820313,0.000000,4.000000,,,,0.000000,4.000000,4.000000,4.000000,4.000000,4.000000,4.000000,4.000000,4.000000,4.000000,4.000000,4.000000,4.000000,4.000000,4.000000,100.000000
1602005885.906149,50.000000,0.000000,4161.538574,4142.563965,4156.410156,4143.077148,4139.487305,4129.230957,4154.871582,4160.000000,4156.922852,4161.025879,4167.179688,4186.153809,4164.102539,4177.948730,0.000000,4.000000,,,,0.000000,4.000000,4.000000,4.000000,4.000000,4.000000,4.000000,4.000000,4.000000,4.000000,4.000000,4.000000,4.000000,4.000000,4.000000,100.000000
1602005885.914034,51.000000,0.000000,4152.307617,4133.333496,4152.820313,4136.922852,4140.000000,4142.563965,4157.436035,4161.538574,4163.077148,4197.948730,4172.820313,4180.512695,4165.641113,4173.333496,0.000000,4.000000,,,,0.000000,4.000000,4.000000,4.000000,4.000000,4.000000,4.000000,4.000000,4.000000,4.000000,4.000000,4.000000,4.000000,4.000000,4.000000,100.000000
1602005885.921920,52.000000,0.000000,4131.282227,4109.743652,4138.461426,4120.512695,4121.025879,4142.563965,4160.512695,4153.333496,4153.846191,4187.692383,4147.179688,4161.538574,4150.769043,4155.897461,0.000000,4.000000,,,,0.000000,4.000000,4.000000,4.000000,4.000000,4.000000,4.000000,4.000000,4.000000,4.000000,4.000000,4.000000,4.000000,4.000000,4.000000,100.000000
1602005885.929805,53.000000,0.000000,4126.666504,4101.025879,4129.743652,4114.358887,4120.512695,4146.153809,4171.282227,4151.794922,4151.282227,4158.461426,4128.717773,4151.794922,4134.871582,4141.538574,0.000000,4.000000,,,,0.000000,4.000000,4.000000,4.000000,4.000000,4.000000,4.000000,4.000000,4.000000,4.000000,4.000000,4.000000,4.000000,4.000000,4.000000,100.000000
1602005885.937691,54.000000,0.000000,4129.743652,4107.179688,4128.717773,4118.461426,4135.384766,4162.051270,4175.897461,4162.563965,4158.461426,4137.948730,4143.589844,4155.897461,4134.358887,4145.128418,0.000000,4.000000,,,,0.000000,4.000000,4.000000,4.000000,4.000000,4.000000,4.000000,4.000000,4.000000,4.000000,4.000000,4.000000,4.000000,4.000000,4.000000,100.000000
1602005885.945576,55.000000,0.000000,4123.077148,4108.717773,4123.077148,4118.974121,4138.974121,4168.717773,4171.794922,4168.205078,4162.051270,4134.358887,4154.871582,4162.563965,4140.000000,4149.230957,0.000000,4.000000,,,,0.000000,4.000000,4.000000,4.000000,4.000000,4.000000,4.000000,4.000000,4.000000,4.000000,4.000000,4.000000,4.000000,4.000000,4.000000,100.000000
1602005885.953560,56.000000,0.000000,4125.641113,4114.358887,4123.589844,4120.000000,4142.051270,4159.487305,4166.153809,4163.077148,4159.487305,4149.743652,4153.846191,4168.205078,4140.000000,4151.282227,0.000000,4.000000,,,,0.000000,4.000000,4.000000,4.000000,4.000000,4.000000,4.000000,4.000000,4.000000,4.000000,4.000000,4.000000,4.000000,4.000000,4.000000,100.000000
1602005885.961444,57.000000,0.000000,4132.307617,4123.589844,4133.333496,4124.102539,4145.641113,4148.205078,4152.307617,4153.333496,4151.282227,4150.769043,4149.743652,4166.153809,4137.436035,4157.436035,0.000000,4.000000,,,,0.000000,4.000000,4.000000,4.000000,4.000000,4.000000,4.000000,4.000000,4.000000,4.000000,4.000000,4.000000,4.000000,4.000000,4.000000,100.000000
1602005885.969328,58.000000,0.000000,4130.769043,4123.589844,4134.358887,4124.615234,4142.563965,4133.333496,4130.769043,4142.051270,4141.025879,4147.179688,4137.436035,4155.897461,4136.410156,4148.717773,0.000000,4.000000,,,,0.000000,4.000000,4.000000,4.000000,4.000000,4.000000,4.000000,4.000000,4.000000,4.000000,4.000000,4.000000,4.000000,4.000000,4.000000,100.000000
1602005885.977212,59.000000,0.000000,4135.384766,4128.717773,4137.948730,4130.769043,4146.153809,4118.974121,4114.871582,4131.794922,4137.436035,4160.512695,4136.410156,4151.282227,4138.461426,4134.871582,0.000000,4.000000,,,,0.000000,4.000000,4.000000,4.000000,4.000000,4.000000,4.000000,4.000000,4.000000,4.000000,4.000000,4.000000,4.000000,4.000000,4.000000,100.000000
1602005885.985096,60.000000,0.000000,4141.025879,4140.000000,4151.282227,4141.025879,4151.282227,4116.922852,4108.717773,4124.615234,4138.461426,4164.615234,4144.615234,4157.436035,4141.538574,4141.025879,0.000000,4.000000,,,,0.000000,4.000000,4.000000,4.000000,4.000000,4.000000,4.000000,4.000000,4.000000,4.000000,4.000000,4.000000,4.000000,4.000000,4.000000,100.000000
1602005885.992980,61.000000,0.000000,4139.487305,4140.000000,4156.410156,4141.538574,4142.563965,4118.461426,4107.179688,4122.051270,4136.922852,4158.974121,4142.051270,4160.512695,4142.563965,4150.256348,0.000000,4.000000,,,,0.000000,4.000000,4.000000,4.000000,4.000000,4.000000,4.000000,4.000000,4.000000,4.000000,4.000000,4.000000,4.000000,4.000000,4.000000,100.000000
1602005886.000965,62.000000,0.000000,4144.102539,4134.358887,4150.769043,4136.922852,4135.897461,4121.025879,4115.897461,4126.666504,4135.384766,4154.358887,4139.487305,4158.974121,4142.563965,4152.820313,0.000000,4.000000,,,,0.000000,4.000000,4.000000,4.000000,4.000000,4.000000,4.000000,4.000000,4.000000,4.000000,4.000000,4.000000,4.000000,4.000000,4.000000,100.000000
1602005886.008851,63.000000,0.000000,4147.179688,4128.717773,4150.769043,4135.384766,4132.307617,4120.512695,4135.897461,4134.871582,4133.846191,4135.384766,4146.153809,4163.077148,4141.538574,4156.922852,0.000000,4.000000,,,,0.000000,4.000000,4.000000,4.000000,4.000000,4.000000,4.000000,4.000000,4.000000,4.000000,4.000000,4.000000,4.000000,4.000000,4.000000,100.000000
1602005886.016736,64.000000,0.000000,4142.563965,4122.051270,4161.538574,4136.922852,4120.000000,4118.974121,4154.871582,4144.102539,4129.743652,4127.179688,4151.282227,4168.717773,4138.461426,4158.974121,764.000000,4.000000,,,,0.000000,4.000000,4.000000,4.000000,4.000000,4.000000,4.000000,4.000000,4.000000,4.000000,4.000000,4.000000,4.000000,4.000000,4.000000,100.000000
1602005886.024622,65.000000,0.000000,4143.589844,4121.538574,4167.692383,4134.358887,4118.974121,4130.256348,4167.692383,4153.333496,4122.051270,4146.666504,4151.794922,4170.769043,4137.948730,4154.871582,759.000000,4.000000,,,,0.000000,4.000000,4.000000,4.000000,4.000000,4.000000,4.000000,4.000000,4.000000,4.000000,4.000000,4.000000,4.000000,4.000000,4.000000,100.000000
1602005886.032507,66.000000,0.000000,4141.538574,4120.512695,4159.487305,4126.153809,4124.102539,4142.051270,4173.333496,4156.922852,4119.487305,4146.153809,4153.846191,4169.230957,4139.487305,4154.871582,851.000000,4.000000,,,,0.000000,4.000000,4.000000,4.000000,4.000000,4.000000,4.000000,4.000000,4.000000,4.000000,4.000000,4.000000,4.000000,4.000000,4.000000,100.000000
1602005886.040393,67.000000,0.000000,4133.846191,4116.410156,4151.794922,4123.589844,4120.000000,4138.461426,4169.230957,4154.358887,4125.128418,4137.948730,4155.897461,4167.179688,4144.615234,4163.077148,866.000000,4.000000,,,,0.000000,4.000000,4.000000,4.000000,4.000000,4.000000,4.000000,4.000000,4.000000,4.000000,4.000000,4.000000,4.000000,4.000000,4.000000,100.000000
1602005886.048278,68.000000,0.000000,4137.436035,4126.153809,4152.820313,4132.820313,4126.666504,4134.871582,4160.512695,4147.692383,4126.666504,4155.897461,4155.384766,4168.717773,4152.307617,4168.205078,816.000000,4.000000,,,,0.000000,4.000000,4.000000,4.000000,4.000000,4.000000,4.000000,4.000000,4.000000,4.000000,4.000000,4.000000,4.000000,4.000000,4.000000,100.000000
1602005886.056164,69.000000,0.000000,4148.717773,4137.436035,4146.153809,4137.948730,4139.487305,4131.794922,4153.333496,4140.512695,4124.102539,4159.487305,4153.846191,4171.282227,4156.922852,4161.538574,818.000000,4.000000,,,,0.000000,4.000000,4.000000,4.000000,4.000000,4.000000,4.000000,4.000000,4.000000,4.000000,4.000000,4.000000,4.000000,4.000000,4.000000,100.000000
1602005886.064049,70.000000,0.000000,4154.871582,4139.487305,4136.922852,4137.948730,4138.974121,4125.128418,4144.102539,4137.436035,4123.589844,4138.461426,4152.307617,4173.333496,4154.871582,4152.307617,778.000000,4.000000,,,,0.000000,4.000000,4.000000,4.000000,4.000000,4.000000,4.000000,4.000000,4.000000,4.000000,4.000000,4.000000,4.000000,4.000000,4.000000,100.000000
1602005886.072032,71.000000,0.000000,4152.820313,4147.692383,4142.051270,4143.589844,4138.974121,4127.692383,4137.436035,4139.487305,4122.563965,4131.794922,4151.282227,4169.230957,4153.333496,4158.974121,648.000000,4.000000,,,,0.000000,4.000000,4.000000,4.000000,4.000000,4.000000,4.000000,4.000000,4.000000,4.000000,4.000000,4.000000,4.000000,4.000000,4.000000,100.000000
1602005886.079916,72.000000,0.000000,4144.102539,4155.897461,4146.153809,4145.641113,4144.102539,4137.948730,4142.051270,4139.487305,4128.205078,4149.743652,4152.820313,4158.461426,4156.922852,4168.205078,786.000000,4.000000,,,,0.000000,4.000000,4.000000,4.000000,4.000000,4.000000,4.000000,4.000000,4.000000,4.000000,4.000000,4.000000,4.000000,4.000000,4.000000,100.000000
1602005886.087799,73.000000,0.000000,4136.922852,4148.717773,4140.512695,4140.000000,4142.563965,4139.487305,4144.615234,4138.461426,4138.461426,4160.000000,4149.230957,4151.282227,4152.820313,4160.000000,843.000000,4.000000,,,,0.000000,4.000000,4.000000,4.000000,4.000000,4.000000,4.000000,4.000000,4.000000,4.000000,4.000000,4.000000,4.000000,4.000000,4.000000,100.000000
1602005886.095682,74.000000,0.000000,4138.461426,4140.512695,4139.487305,4137.436035,4142.563965,4134.871582,4137.948730,4138.461426,4142.051270,4143.589844,4143.077148,4153.846191,4141.025879,4149.230957,817.000000,4.000000,,,,0.000000,4.000000,4.000000,4.000000,4.000000,4.000000,4.000000,4.000000,4.000000,4.000000,4.000000,4.000000,4.000000,4.000000,4.000000,100.000000
1602005886.103566,75.000000,0.000000,4135.897461,4141.538574,4139.487305,4140.512695,4143.077148,4132.307617,4134.358887,4136.922852,4135.384766,4130.256348,4141.538574,4155.384766,4136.922852,4145.128418,840.000000,4.000000,,,,0.000000,4.000000,4.000000,4.000000,4.000000,4.000000,4.000000,4.000000,4.000000,4.000000,4.000000,4.000000,4.000000,4.000000,4.000000,100.000000
1602005886.111550,76.000000,0.000000,4127.692383,4140.000000,4128.717773,4135.897461,4138.461426,4134.871582,4137.948730,4136.410156,4129.230957,4138.461426,4141.025879,4147.179688,4140.512695,4139.487305,768.000000,4.000000,,,,0.000000,4.000000,4.000000,4.000000,4.000000,4.000000,4.000000,4.000000,4.000000,4.000000,4.000000,4.000000,4.000000,4.000000,4.000000,100.000000
1602005886.119434,77.000000,0.000000,4117.948730,4131.282227,4119.487305,4125.128418,4138.974121,4140.000000,4142.563965,4138.461426,4126.153809,4148.717773,4134.871582,4141.025879,4138.974121,4126.153809,757.000000,4.000000,,,,0.000000,4.000000,4.000000,4.000000,4.000000,4.000000,4.000000,4.000000,4.000000,4.000000,4.000000,4.000000,4.000000,4.000000,4.000000,100.000000
1602005886.127319,78.000000,0.000000,4111.282227,4123.077148,4121.025879,4119.487305,4134.871582,4136.410156,4147.692383,4140.512695,4123.589844,4142.051270,4132.307617,4142.563965,4131.794922,4113.333496,817.000000,4.000000,,,,0.000000,4.000000,4.000000,4.000000,4.000000,4.000000,4.000000,4.000000,4.000000,4.000000,4.000000,4.000000,4.000000,4.000000,4.000000,100.000000
1602005886.135203,79.000000,0.000000,4113.846191,4116.922852,4120.512695,4118.974121,4123.077148,4124.102539,4151.282227,4141.538574,4114.871582,4122.051270,4130.769043,4145.128418,4130.769043,4109.743652,840.000000,4.000000,,,,0.000000,4.000000,4.000000,4.000000,4.000000,4.000000,4.000000,4.000000,4.000000,4.000000,4.000000,4.000000,4.000000,4.000000,4.000000,100.000000
1602005886.143088,80.000000,0.000000,4120.512695,4121.025879,4121.025879,4118.974121,4126.153809,4123.077148,4153.846191,4144.102539,4105.641113,4104.102539,4124.615234,4147.179688,4134.871582,4120.512695,768.000000,4.000000,,,,0.000000,4.000000,4.000000,4.000000,4.000000,4.000000,4.000000,4.000000,4.000000,4.000000,4.000000,4.000000,4.000000,4.000000,4.000000,100.000000
1602005886.150972,81.000000,0.000000,4123.077148,4132.820313,4132.307617,4127.179688,4140.512695,4136.410156,4153.846191,4146.153809,4112.307617,4107.179688,4128.205078,4157.436035,4140.000000,4135.897461,757.000000,4.000000,,,,0.000000,4.000000,4.000000,4.000000,4.000000,4.000000,4.000000,4.000000,4.000000,4.000000,4.000000,4.000000,4.000000,4.000000,4.000000,100.000000
1602005886.158857,82.000000,0.000000,4125.128418,4134.871582,4137.948730,4135.384766,4140.512695,4138.974121,4143.589844,4142.563965,4123.589844,4127.692383,4138.974121,4167.692383,4140.512695,4137.948730,817.000000,4.000000,,,,0.000000,4.000000,4.000000,4.000000,4.000000,4.000000,4.000000,4.000000,4.000000,4.000000,4.000000,4.000000,4.000000,4.000000,4.000000,100.000000
1602005886.166841,83.000000,0.000000,4126.153809,4129.230957,4127.692383,4128.205078,4134.358887,4128.717773,4133.846191,4140.512695,4126.666504,4137.948730,4144.102539,4167.692383,4140.000000,4138.974121,840.000000,4.000000,,,,0.000000,4.000000,4.000000,4.000000,4.000000,4.000000,4.000000,4.000000,4.000000,4.000000,4.000000,4.000000,4.000000,4.000000,4.000000,100.000000
1602005886.174725,84.000000,0.000000,4122.563965,4131.794922,4122.563965,4122.563965,4135.384766,4125.641113,4136.410156,4144.102539,4130.256348,4136.922852,4145.641113,4168.717773,4143.077148,4142.051270,768.000000,4.000000,,,,0.000000,4.000000,4.000000,4.000000,4.000000,4.000000,4.000000,4.000000,4.000000,4.000000,4.000000,4.000000,4.000000,4.000000,4.000000,100.000000
1602005886.182610,85.000000,0.000000,4121.025879,4132.820313,4122.563965,4127.179688,4136.410156,4127.179688,4135.384766,4136.410156,4131.282227,4136.922852,4137.436035,4165.641113,4137.436035,4131.794922,757.000000,4.000000,,,,0.000000,4.000000,4.000000,4.000000,4.000000,4.000000,4.000000,4.000000,4.000000,4.000000,4.000000,4.000000,4.000000,4.000000,4.000000,100.000000
1602005886.190494,86.000000,0.000000,4121.538574,4122.051270,4114.871582,4123.077148,4134.871582,4123.077148,4125.641113,4117.948730,4117.436035,4127.692383,4121.025879,4153.846191,4125.128418,4110.256348,817.000000,4.000000,,,,0.000000,4.000000,4.000000,4.000000,4.000000,4.000000,4.000000,4.000000,4.000000,4.000000,4.000000,4.000000,4.000000,4.000000,4.000000,100.000000
1602005886.198378,87.000000,0.000000,4119.487305,4125.641113,4113.846191,4124.102539,4137.948730,4121.025879,4129.230957,4120.000000,4112.307617,4115.384766,4116.410156,4155.897461,4128.205078,4110.769043,840.000000,4.000000,,,,0.000000,4.000000,4.000000,4.000000,4.000000,4.000000,4.000000,4.000000,4.000000,4.000000,4.000000,4.000000,4.000000,4.000000,4.000000,100.000000
1602005886.206262,88.000000,0.000000,4126.153809,4142.051270,4124.102539,4137.436035,4142.051270,4123.077148,4140.000000,4138.461426,4123.077148,4114.871582,4130.769043,4172.820313,4143.077148,4132.820313,768.000000,4.000000,,,,0.000000,4.000000,4.000000,4.000000,4.000000,4.000000,4.000000,4.000000,4.000000,4.000000,4.000000,4.000000,4.000000,4.000000,4.000000,100.000000
1602005886.214147,89.000000,0.000000,4132.820313,4136.922852,4128.205078,4133.846191,4141.025879,4124.615234,4140.000000,4142.051270,4123.077148,4124.615234,4140.000000,4174.358887,4141.538574,4135.384766,757.000000,4.000000,,,,0.000000,4.000000,4.000000,4.000000,4.000000,4.000000,4.000000,4.000000,4.000000,4.000000,4.000000,4.000000,4.000000,4.000000,4.000000,100.000000
1602005886.221929,90.000000,0.000000,4134.358887,4126.666504,4131.282227,4126.666504,4136.922852,4127.179688,4137.948730,4137.948730,4118.461426,4140.512695,4137.436035,4165.128418,4132.820313,4130.256348,817.000000,4.000000,,,,0.000000,4.000000,4.000000,4.000000,4.000000,4.000000,4.000000,4.000000,4.000000,4.000000,4.000000,4.000000,4.000000,4.000000,4.000000,100.000000
1602005886.229811,91.000000,0.000000,4134.358887,4129.743652,4139.487305,4134.358887,4134.871582,4125.641113,4138.974121,4144.102539,4121.538574,4142.563965,4140.000000,4169.230957,4137.436035,4136.922852,840.000000,4.000000,,,,0.000000,4.000000,4.000000,4.000000,4.000000,4.000000,4.000000,4.000000,4.000000,4.000000,4.000000,4.000000,4.000000,4.000000,4.000000,100.000000
1602005886.237595,92.000000,0.000000,4129.743652,4130.256348,4135.897461,4133.333496,4135.897461,4125.128418,4138.974121,4144.102539,4119.487305,4129.230957,4142.563965,4171.282227,4137.948730,4135.384766,768.000000,4.000000,,,,0.000000,4.000000,4.000000,4.000000,4.000000,4.000000,4.000000,4.000000,4.000000,4.000000,4.000000,4.000000,4.000000,4.000000,4.000000,100.000000
1602005886.245480,93.000000,0.000000,4124.615234,4121.538574,4126.153809,4121.538574,4138.461426,4137.436035,4143.077148,4139.487305,4111.794922,4117.948730,4131.794922,4161.025879,4129.230957,4123.077148,757.000000,4.000000,,,,0.000000,4.000000,4.000000,4.000000,4.000000,4.000000,4.000000,4.000000,4.000000,4.000000,4.000000,4.000000,4.000000,4.000000,4.000000,100.000000
1602005886.253365,94.000000,0.000000,4119.487305,4119.487305,4123.077148,4119.487305,4131.794922,4138.461426,4144.102539,4139.487305,4113.333496,4110.769043,4120.512695,4152.307617,4124.102539,4117.948730,817.000000,4.000000,,,,0.000000,4.000000,4.000000,4.000000,4.000000,4.000000,4.000000,4.000000,4.000000,4.000000,4.000000,4.000000,4.000000,4.000000,4.000000,100.000000
1602005886.261250,95.000000,0.000000,4116.922852,4120.000000,4121.025879,4122.051270,4121.538574,4121.025879,4138.461426,4136.410156,4120.000000,4108.205078,4118.461426,4149.230957,4125.128418,4120.512695,840.000000,4.000000,,,,0.000000,4.000000,4.000000,4.000000,4.000000,4.000000,4.000000,4.000000,4.000000,4.000000,4.000000,4.000000,4.000000,4.000000,4.000000,100.000000
1602005886.269134,96.000000,0.000000,4118.974121,4120.512695,4120.512695,4118.974121,4127.179688,4118.461426,4137.436035,4135.384766,4127.692383,4126.153809,4118.461426,4150.769043,4132.820313,4121.538574,768.000000,4.000000,,,,0.000000,4.000000,4.000000,4.000000,4.000000,4.000000,4.000000,4.000000,4.000000,4.000000,4.000000,4.000000,4.000000,4.000000,4.000000,100.000000
1602005886.277019,97.000000,0.000000,4123.077148,4133.333496,4123.077148,4126.666504,4142.051270,4130.256348,4140.512695,4135.384766,4127.692383,4141.538574,4125.128418,4155.897461,4141.025879,4125.641113,757.000000,4.000000,,,,0.000000,4.000000,4.000000,4.000000,4.000000,4.000000,4.000000,4.000000,4.000000,4.000000,4.000000,4.000000,4.000000,4.000000,4.000000,100.000000
1602005886.284904,98.000000,0.000000,4121.538574,4138.974121,4124.615234,4136.922852,4142.051270,4128.205078,4136.922852,4127.692383,4114.871582,4126.153809,4133.846191,4151.794922,4142.051270,4126.153809,817.000000,4.000000,,,,0.000000,4.000000,4.000000,4.000000,4.000000,4.000000,4.000000,4.000000,4.000000,4.000000,4.000000,4.000000,4.000000,4.000000,4.000000,100.000000
1602005886.292789,99.000000,0.000000,4117.948730,4128.205078,4124.102539,4134.358887,4129.230957,4120.512695,4129.743652,4121.538574,4104.615234,4113.846191,4127.179688,4138.461426,4133.846191,4120.000000,840.000000,4.000000,,,,0.000000,4.000000,4.000000,4.000000,4.000000,4.000000,4.000000,4.000000,4.000000,4.000000,4.000000,4.000000,4.000000,4.000000,4.000000,100.000000
1602005886.300573,100.000000,0.000000,4121.538574,4127.692383,4125.641113,4132.820313,4127.179688,4121.538574,4129.743652,4124.615234,4107.692383,4124.102539,4120.000000,4137.436035,4135.897461,4118.461426,768.000000,4.000000,,,,0.000000,4.000000,4.000000,4.000000,4.000000,4.000000,4.000000,4.000000,4.000000,4.000000,4.000000,4.000000,4.000000,4.000000,4.000000,100.000000
1602005886.308458,101.000000,0.000000,4122.563965,4134.871582,4126.153809,4136.922852,4134.871582,4125.641113,4137.436035,4127.179688,4110.769043,4125.128418,4132.820313,4148.717773,4147.692383,4123.077148,757.000000,4.000000,,,,0.000000,4.000000,4.000000,4.000000,4.000000,4.000000,4.000000,4.000000,4.000000,4.000000,4.000000,4.000000,4.000000,4.000000,4.000000,100.000000
1602005886.316343,102.000000,0.000000,4120.000000,4129.230957,4124.102539,4133.846191,4137.436035,4133.333496,4140.512695,4127.692383,4109.743652,4121.538574,4141.538574,4154.871582,4150.256348,4124.102539,817.000000,4.000000,,,,0.000000,4.000000,4.000000,4.000000,4.000000,4.000000,4.000000,4.000000,4.000000,4.000000,4.000000,4.000000,4.000000,4.000000,4.000000,100.000000
1602005886.324228,103.000000,0.000000,4118.974121,4127.179688,4124.615234,4128.717773,4132.820313,4135.897461,4136.410156,4133.846191,4115.384766,4132.307617,4138.461426,4154.358887,4143.589844,4120.000000,840.000000,4.000000,,,,0.000000,4.000000,4.000000,4.000000,4.000000,4.000000,4.000000,4.000000,4.000000,4.000000,4.000000,4.000000,4.000000,4.000000,4.000000,100.000000
1602005886.332112,104.000000,0.000000,4125.641113,4137.436035,4131.282227,4133.846191,4133.846191,4124.102539,4135.897461,4137.948730,4125.128418,4145.128418,4133.333496,4152.307617,4141.538574,4127.179688,768.000000,4.000000,,,,0.000000,4.000000,4.000000,4.000000,4.000000,4.000000,4.000000,4.000000,4.000000,4.000000,4.000000,4.000000,4.000000,4.000000,4.000000,100.000000
1602005886.339997,105.000000,0.000000,4135.384766,4138.461426,4137.948730,4138.974121,4140.000000,4116.410156,4138.974121,4137.948730,4125.641113,4141.538574,4126.666504,4148.205078,4140.512695,4144.102539,757.000000,4.000000,,,,0.000000,4.000000,4.000000,4.000000,4.000000,4.000000,4.000000,4.000000,4.000000,4.000000,4.000000,4.000000,4.000000,4.000000,4.000000,100.000000
1602005886.347882,106.000000,0.000000,4136.410156,4134.358887,4134.871582,4138.461426,4140.000000,4120.000000,4137.436035,4138.461426,4113.846191,4125.641113,4120.512695,4141.025879,4135.897461,4141.025879,817.000000,4.000000,,,,0.000000,4.000000,4.000000,4.000000,4.000000,4.000000,4.000000,4.000000,4.000000,4.000000,4.000000,4.000000,4.000000,4.000000,4.000000,100.000000
1602005886.355767,107.000000,0.000000,4136.410156,4138.461426,4130.256348,4139.487305,4139.487305,4124.102539,4133.333496,4137.948730,4108.205078,4106.666504,4121.538574,4135.897461,4135.897461,4120.512695,840.000000,4.000000,,,,0.000000,4.000000,4.000000,4.000000,4.000000,4.000000,4.000000,4.000000,4.000000,4.000000,4.000000,4.000000,4.000000,4.000000,4.000000,100.000000
1602005886.363552,108.000000,0.000000,4137.436035,4139.487305,4135.897461,4138.974121,4139.487305,4129.743652,4131.794922,4137.436035,4112.820313,4102.051270,4127.692383,4140.000000,4134.871582,4121.025879,768.000000,4.000000,,,,0.000000,4.000000,4.000000,4.000000,4.000000,4.000000,4.000000,4.000000,4.000000,4.000000,4.000000,4.000000,4.000000,4.000000,4.000000,100.000000
1602005886.371437,109.000000,0.000000,4133.333496,4132.307617,4140.512695,4135.384766,4137.436035,4140.000000,4136.922852,4139.487305,4111.282227,4117.948730,4119.487305,4144.615234,4126.153809,4132.307617,757.000000,4.000000,,,,0.000000,4.000000,4.000000,4.000000,4.000000,4.000000,4.000000,4.000000,4.000000,4.000000,4.000000,4.000000,4.000000,4.000000,4.000000,100.000000
1602005886.379322,110.000000,0.000000,4123.589844,4124.102539,4131.282227,4128.205078,4134.871582,4141.025879,4139.487305,4135.897461,4106.153809,4125.641113,4104.615234,4140.000000,4121.025879,4118.461426,817.000000,4.000000,,,,0.000000,4.000000,4.000000,4.000000,4.000000,4.000000,4.000000,4.000000,4.000000,4.000000,4.000000,4.000000,4.000000,4.000000,4.000000,100.000000
1602005886.387208,111.000000,0.000000,4118.461426,4122.563965,4122.051270,4125.641113,4136.410156,4135.384766,4137.948730,4125.641113,4105.641113,4118.974121,4110.256348,4136.410156,4127.692383,4106.153809,840.000000,4.000000,,,,0.000000,4.000000,4.000000,4.000000,4.000000,4.000000,4.000000,4.000000,4.000000,4.000000,4.000000,4.000000,4.000000,4.000000,4.000000,100.000000
1602005886.395093,112.000000,0.000000,4122.051270,4132.307617,4126.153809,4133.846191,4139.487305,4136.410156,4137.948730,4126.153809,4117.436035,4128.717773,4130.256348,4142.563965,4140.000000,4121.025879,768.000000,4.000000,,,,0.000000,4.000000,4.000000,4.000000,4.000000,4.000000,4.000000,4.000000,4.000000,4.000000,4.000000,4.000000,4.000000,4.000000,4.000000,100.000000
1602005886.402978,113.000000,0.000000,4125.641113,4138.461426,4127.692383,4138.461426,4138.974121,4136.410156,4135.897461,4131.282227,4124.615234,4140.512695,4128.717773,4142.051270,4136.922852,4132.820313,757.000000,4.000000,,,,0.000000,4.000000,4.000000,4.000000,4.000000,4.000000,4.000000,4.000000,4.000000,4.000000,4.000000,4.000000,4.000000,4.000000,4.000000,100.000000
1602005886.410863,114.000000,0.000000,4120.512695,4134.358887,4120.000000,4134.358887,4138.461426,4122.051270,4128.717773,4126.153809,4111.282227,4125.641113,4113.333496,4132.820313,4124.102539,4125.641113,817.000000,4.000000,,,,0.000000,4.000000,4.000000,4.000000,4.000000,4.000000,4.000000,4.000000,4.000000,4.000000,4.000000,4.000000,4.000000,4.000000,4.000000,100.000000
1602005886.418748,115.000000,0.000000,4119.487305,4134.871582,4119.487305,4135.897461,4141.025879,4110.769043,4124.102539,4121.538574,4100.512695,4109.743652,4115.384766,4134.358887,4129.230957,4124.102539,840.000000,4.000000,,,,0.000000,4.000000,4.000000,4.000000,4.000000,4.000000,4.000000,4.000000,4.000000,4.000000,4.000000,4.000000,4.000000,4.000000,4.000000,100.000000
1602005886.426634,116.000000,0.000000,4128.205078,4142.563965,4129.230957,4143.077148,4141.025879,4113.333496,4121.538574,4124.102539,4106.153809,4115.384766,4126.666504,4145.128418,4142.051270,4130.769043,768.000000,4.000000,,,,0.000000,4.000000,4.000000,4.000000,4.000000,4.000000,4.000000,4.000000,4.000000,4.000000,4.000000,4.000000,4.000000,4.000000,4.000000,100.000000
