Timestamp,EEG.Counter,EEG.Interpolated,EEG.AF3,EEG.F7,EEG.F3,EEG.FC5,EEG.T7,EEG.P7,EEG.O1,EEG.O2,EEG.P8,EEG.T8,EEG.FC6,EEG.F4,EEG.F8,EEG.AF4,EEG.RawCq,EEG.Battery,MarkerIndex,MarkerType,MarkerValueInt,EEG.MarkerHardware,CQ.AF3,CQ.F7,CQ.F3,CQ.FC5,CQ.T7,CQ.P7,CQ.O1,CQ.O2,CQ.P8,CQ.T8,CQ.FC6,CQ.F4,CQ.F8,CQ.AF4,CQ.Overall
1602005910.398679,62.000000,0.000000,4155.384766,4177.436035,4124.615234,4154.871582,4132.820313,4136.410156,4130.769043,4116.410156,4111.794922,4122.051270,4103.589844,4112.820313,4097.436035,4089.743652,0.000000,4.000000,,,,0.000000,4.000000,4.000000,4.000000,4.000000,4.000000,4.000000,4.000000,4.000000,4.000000,4.000000,4.000000,4.000000,4.000000,4.000000,100.000000
1602005910.406661,63.000000,0.000000,4163.077148,4178.974121,4128.205078,4153.846191,4134.871582,4133.333496,4136.410156,4128.205078,4132.820313,4130.769043,4113.333496,4122.051270,4106.153809,4106.666504,0.000000,4.000000,,,,0.000000,4.000000,4.000000,4.000000,4.000000,4.000000,4.000000,4.000000,4.000000,4.000000,4.000000,4.000000,4.000000,4.000000,4.000000,100.000000
1602005910.414544,64.000000,0.000000,4163.077148,4175.384766,4131.282227,4152.307617,4125.128418,4135.897461,4136.410156,4138.974121,4143.589844,4143.077148,4125.641113,4121.538574,4109.743652,4113.333496,800.000000,4.000000,,,,0.000000,4.000000,4.000000,4.000000,4.000000,4.000000,4.000000,4.000000,4.000000,4.000000,4.000000,4.000000,4.000000,4.000000,4.000000,100.000000
1602005910.422427,65.000000,0.000000,4149.743652,4165.641113,4124.615234,4143.077148,4124.102539,4142.051270,4142.563965,4142.563965,4142.563965,4154.871582,4125.641113,4125.128418,4109.230957,4106.153809,793.000000,4.000000,,,,0.000000,4.000000,4.000000,4.000000,4.000000,4.000000,4.000000,4.000000,4.000000,4.000000,4.000000,4.000000,4.000000,4.000000,4.000000,100.000000
1602005910.430309,66.000000,0.000000,4138.974121,4154.358887,4124.615234,4133.846191,4130.769043,4139.487305,4154.358887,4147.692383,4142.563965,4151.282227,4120.512695,4136.410156,4109.230957,4100.000000,856.000000,4.000000,,,,0.000000,4.000000,4.000000,4.000000,4.000000,4.000000,4.000000,4.000000,4.000000,4.000000,4.000000,4.000000,4.000000,4.000000,4.000000,100.000000
1602005910.438192,67.000000,0.000000,4140.512695,4153.846191,4136.922852,4136.410156,4136.410156,4138.461426,4157.436035,4153.333496,4144.615234,4122.051270,4124.102539,4143.077148,4110.769043,4099.487305,870.000000,4.000000,,,,0.000000,4.000000,4.000000,4.000000,4.000000,4.000000,4.000000,4.000000,4.000000,4.000000,4.000000,4.000000,4.000000,4.000000,4.000000,100.000000
1602005910.445976,68.000000,0.000000,4137.948730,4157.436035,4138.461426,4136.922852,4138.461426,4144.102539,4155.384766,4146.666504,4138.461426,4099.487305,4124.615234,4139.487305,4109.230957,4095.897461,814.000000,4.000000,,,,0.000000,4.000000,4.000000,4.000000,4.000000,4.000000,4.000000,4.000000,4.000000,4.000000,4.000000,4.000000,4.000000,4.000000,4.000000,100.000000
1602005910.453861,69.000000,0.000000,4133.333496,4150.256348,4123.589844,4131.282227,4126.666504,4134.871582,4150.256348,4135.384766,4122.563965,4109.230957,4105.641113,4127.692383,4099.487305,4083.076904,827.000000,4.000000,,,,0.000000,4.000000,4.000000,4.000000,4.000000,4.000000,4.000000,4.000000,4.000000,4.000000,4.000000,4.000000,4.000000,4.000000,4.000000,100.000000
1602005910.461745,70.000000,0.000000,4144.102539,4148.717773,4118.461426,4135.897461,4121.025879,4121.025879,4142.051270,4136.410156,4116.410156,4124.615234,4092.820557,4125.641113,4089.743652,4074.871826,769.000000,4.000000,,,,0.000000,4.000000,4.000000,4.000000,4.000000,4.000000,4.000000,4.000000,4.000000,4.000000,4.000000,4.000000,4.000000,4.000000,4.000000,100.000000
1602005910.469630,71.000000,0.000000,4157.948730,4164.615234,4133.333496,4144.615234,4135.897461,4123.077148,4133.333496,4137.948730,4125.641113,4123.077148,4105.128418,4131.282227,4090.769287,4085.128174,690.000000,4.000000,,,,0.000000,4.000000,4.000000,4.000000,4.000000,4.000000,4.000000,4.000000,4.000000,4.000000,4.000000,4.000000,4.000000,4.000000,4.000000,100.000000
1602005910.477514,72.000000,0.000000,4154.358887,4171.794922,4140.000000,4144.102539,4137.436035,4126.666504,4123.077148,4126.153809,4128.205078,4122.563965,4113.846191,4126.153809,4092.307617,4094.358887,787.000000,4.000000,,,,0.000000,4.000000,4.000000,4.000000,4.000000,4.000000,4.000000,4.000000,4.000000,4.000000,4.000000,4.000000,4.000000,4.000000,4.000000,100.000000
1602005910.485399,73.000000,0.000000,4152.820313,4167.692383,4137.948730,4145.641113,4126.666504,4121.025879,4114.871582,4119.487305,4119.487305,4126.153809,4105.641113,4119.487305,4088.718018,4091.281982,848.000000,4.000000,,,,0.000000,4.000000,4.000000,4.000000,4.000000,4.000000,4.000000,4.000000,4.000000,4.000000,4.000000,4.000000,4.000000,4.000000,4.000000,100.000000
1602005910.493283,74.000000,0.000000,4167.692383,4172.820313,4148.205078,4152.307617,4132.307617,4125.128418,4118.461426,4126.153809,4120.512695,4109.743652,4104.615234,4125.128418,4094.871826,4093.333252,876.000000,4.000000,,,,0.000000,4.000000,4.000000,4.000000,4.000000,4.000000,4.000000,4.000000,4.000000,4.000000,4.000000,4.000000,4.000000,4.000000,4.000000,100.000000
1602005910.501168,75.000000,0.000000,4170.769043,4181.025879,4153.846191,4156.410156,4143.077148,4137.948730,4124.102539,4128.717773,4123.589844,4089.743652,4108.205078,4128.205078,4104.615234,4096.410156,842.000000,4.000000,,,,0.000000,4.000000,4.000000,4.000000,4.000000,4.000000,4.000000,4.000000,4.000000,4.000000,4.000000,4.000000,4.000000,4.000000,4.000000,100.000000
1602005910.509052,76.000000,0.000000,4155.384766,4172.820313,4140.512695,4150.769043,4135.384766,4133.846191,4120.512695,4119.487305,4108.717773,4087.692383,4102.051270,4122.051270,4096.922852,4087.179443,771.000000,4.000000,,,,0.000000,4.000000,4.000000,4.000000,4.000000,4.000000,4.000000,4.000000,4.000000,4.000000,4.000000,4.000000,4.000000,4.000000,4.000000,100.000000
1602005910.516837,77.000000,0.000000,4150.769043,4164.102539,4132.820313,4144.102539,4123.589844,4120.512695,4120.000000,4114.358887,4092.307617,4091.281982,4094.358887,4121.025879,4087.692383,4086.153809,758.000000,4.000000,,,,0.000000,4.000000,4.000000,4.000000,4.000000,4.000000,4.000000,4.000000,4.000000,4.000000,4.000000,4.000000,4.000000,4.000000,4.000000,100.000000
1602005910.524721,78.000000,0.000000,4159.487305,4168.717773,4137.436035,4147.692383,4121.025879,4121.025879,4125.641113,4117.948730,4091.794922,4092.820557,4091.281982,4125.641113,4092.820557,4093.333252,876.000000,4.000000,,,,0.000000,4.000000,4.000000,4.000000,4.000000,4.000000,4.000000,4.000000,4.000000,4.000000,4.000000,4.000000,4.000000,4.000000,4.000000,100.000000
1602005910.532606,79.000000,0.000000,4160.000000,4170.769043,4136.410156,4150.769043,4122.051270,4127.179688,4126.666504,4120.512695,4093.333252,4090.769287,4089.743652,4120.000000,4094.871826,4085.128174,842.000000,4.000000,,,,0.000000,4.000000,4.000000,4.000000,4.000000,4.000000,4.000000,4.000000,4.000000,4.000000,4.000000,4.000000,4.000000,4.000000,4.000000,100.000000
1602005910.540490,80.000000,0.000000,4154.871582,4165.128418,4133.333496,4147.179688,4125.641113,4123.589844,4122.051270,4120.512695,4089.743652,4086.153809,4090.256348,4109.230957,4088.718018,4072.307617,771.000000,4.000000,,,,0.000000,4.000000,4.000000,4.000000,4.000000,4.000000,4.000000,4.000000,4.000000,4.000000,4.000000,4.000000,4.000000,4.000000,4.000000,100.000000
1602005910.548375,81.000000,0.000000,4155.897461,4164.615234,4136.922852,4147.179688,4130.769043,4123.077148,4121.025879,4121.025879,4089.743652,4078.461426,4093.333252,4112.820313,4088.205078,4075.384521,758.000000,4.000000,,,,0.000000,4.000000,4.000000,4.000000,4.000000,4.000000,4.000000,4.000000,4.000000,4.000000,4.000000,4.000000,4.000000,4.000000,4.000000,100.000000
1602005910.556259,82.000000,0.000000,4157.436035,4167.692383,4137.436035,4153.846191,4136.922852,4122.563965,4122.563965,4122.563965,4095.384521,4075.897461,4098.461426,4122.563965,4091.794922,4087.179443,876.000000,4.000000,,,,0.000000,4.000000,4.000000,4.000000,4.000000,4.000000,4.000000,4.000000,4.000000,4.000000,4.000000,4.000000,4.000000,4.000000,4.000000,100.000000
1602005910.564144,83.000000,0.000000,4154.871582,4165.128418,4131.794922,4149.743652,4138.974121,4120.000000,4123.077148,4121.025879,4098.974121,4093.333252,4095.897461,4123.589844,4092.820557,4094.358887,842.000000,4.000000,,,,0.000000,4.000000,4.000000,4.000000,4.000000,4.000000,4.000000,4.000000,4.000000,4.000000,4.000000,4.000000,4.000000,4.000000,4.000000,100.000000
1602005910.572028,84.000000,0.000000,4152.820313,4163.077148,4123.589844,4139.487305,4136.410156,4131.794922,4123.077148,4113.333496,4097.436035,4113.846191,4089.230713,4122.563965,4090.256348,4090.256348,771.000000,4.000000,,,,0.000000,4.000000,4.000000,4.000000,4.000000,4.000000,4.000000,4.000000,4.000000,4.000000,4.000000,4.000000,4.000000,4.000000,4.000000,100.000000
1602005910.579913,85.000000,0.000000,4151.794922,4167.179688,4118.461426,4138.461426,4134.358887,4133.333496,4121.025879,4105.641113,4095.897461,4109.230957,4094.871826,4121.538574,4087.179443,4084.102539,758.000000,4.000000,,,,0.000000,4.000000,4.000000,4.000000,4.000000,4.000000,4.000000,4.000000,4.000000,4.000000,4.000000,4.000000,4.000000,4.000000,4.000000,100.000000
1602005910.587798,86.000000,0.000000,4153.333496,4170.769043,4124.102539,4148.205078,4135.384766,4120.000000,4118.974121,4113.846191,4109.230957,4108.717773,4105.641113,4123.077148,4094.358887,4097.436035,876.000000,4.000000,,,,0.000000,4.000000,4.000000,4.000000,4.000000,4.000000,4.000000,4.000000,4.000000,4.000000,4.000000,4.000000,4.000000,4.000000,4.000000,100.000000
1602005910.595682,87.000000,0.000000,4157.948730,4174.358887,4133.333496,4157.948730,4133.333496,4127.692383,4120.000000,4125.641113,4126.666504,4123.077148,4109.230957,4127.692383,4110.256348,4108.717773,842.000000,4.000000,,,,0.000000,4.000000,4.000000,4.000000,4.000000,4.000000,4.000000,4.000000,4.000000,4.000000,4.000000,4.000000,4.000000,4.000000,4.000000,100.000000
1602005910.603567,88.000000,0.000000,4156.922852,4172.307617,4128.717773,4151.282227,4131.794922,4143.589844,4120.000000,4118.974121,4124.615234,4118.461426,4103.589844,4121.025879,4108.717773,4085.641113,771.000000,4.000000,,,,0.000000,4.000000,4.000000,4.000000,4.000000,4.000000,4.000000,4.000000,4.000000,4.000000,4.000000,4.000000,4.000000,4.000000,4.000000,100.000000
1602005910.611452,89.000000,0.000000,4149.230957,4166.666504,4119.487305,4142.563965,4135.897461,4144.102539,4120.000000,4112.820313,4122.051270,4104.102539,4101.025879,4108.205078,4094.871826,4068.718018,758.000000,4.000000,,,,0.000000,4.000000,4.000000,4.000000,4.000000,4.000000,4.000000,4.000000,4.000000,4.000000,4.000000,4.000000,4.000000,4.000000,4.000000,100.000000
1602005910.619337,90.000000,0.000000,4149.230957,4167.692383,4126.666504,4146.666504,4141.025879,4149.743652,4123.589844,4128.717773,4136.922852,4114.358887,4107.692383,4116.410156,4100.000000,4086.666748,876.000000,4.000000,,,,0.000000,4.000000,4.000000,4.000000,4.000000,4.000000,4.000000,4.000000,4.000000,4.000000,4.000000,4.000000,4.000000,4.000000,4.000000,100.000000
1602005910.627221,91.000000,0.000000,4156.410156,4167.179688,4135.897461,4147.179688,4142.563965,4156.922852,4124.102539,4138.461426,4143.077148,4129.230957,4108.205078,4126.153809,4112.307617,4093.846191,842.000000,4.000000,,,,0.000000,4.000000,4.000000,4.000000,4.000000,4.000000,4.000000,4.000000,4.000000,4.000000,4.000000,4.000000,4.000000,4.000000,4.000000,100.000000
1602005910.635106,92.000000,0.000000,4153.846191,4154.871582,4127.179688,4137.436035,4138.461426,4140.512695,4120.000000,4124.615234,4126.153809,4126.153809,4103.077148,4114.871582,4105.128418,4082.564209,771.000000,4.000000,,,,0.000000,4.000000,4.000000,4.000000,4.000000,4.000000,4.000000,4.000000,4.000000,4.000000,4.000000,4.000000,4.000000,4.000000,4.000000,100.000000
1602005910.642991,93.000000,0.000000,4147.179688,4147.692383,4124.615234,4132.820313,4129.743652,4129.230957,4120.000000,4119.487305,4117.436035,4126.153809,4112.820313,4108.717773,4097.436035,4087.692383,758.000000,4.000000,,,,0.000000,4.000000,4.000000,4.000000,4.000000,4.000000,4.000000,4.000000,4.000000,4.000000,4.000000,4.000000,4.000000,4.000000,4.000000,100.000000
1602005910.650876,94.000000,0.000000,4150.769043,4151.794922,4136.410156,4136.410156,4123.589844,4135.384766,4124.102539,4131.282227,4125.641113,4130.769043,4120.512695,4122.051270,4106.153809,4096.922852,876.000000,4.000000,,,,0.000000,4.000000,4.000000,4.000000,4.000000,4.000000,4.000000,4.000000,4.000000,4.000000,4.000000,4.000000,4.000000,4.000000,4.000000,100.000000
1602005910.658860,95.000000,0.000000,4157.436035,4156.410156,4142.051270,4137.436035,4127.692383,4138.974121,4128.717773,4132.820313,4126.666504,4114.358887,4106.666504,4133.846191,4109.743652,4094.871826,842.000000,4.000000,,,,0.000000,4.000000,4.000000,4.000000,4.000000,4.000000,4.000000,4.000000,4.000000,4.000000,4.000000,4.000000,4.000000,4.000000,4.000000,100.000000
1602005910.666744,96.000000,0.000000,4160.512695,4160.512695,4144.615234,4141.538574,4136.410156,4138.461426,4131.282227,4128.717773,4124.102539,4094.358887,4110.256348,4137.436035,4109.230957,4096.922852,771.000000,4.000000,,,,0.000000,4.000000,4.000000,4.000000,4.000000,4.000000,4.000000,4.000000,4.000000,4.000000,4.000000,4.000000,4.000000,4.000000,4.000000,100.000000
1602005910.674628,97.000000,0.000000,4166.666504,4167.692383,4151.282227,4149.743652,4138.461426,4133.333496,4130.769043,4129.743652,4128.717773,4106.666504,4130.769043,4138.461426,4119.487305,4106.666504,758.000000,4.000000,,,,0.000000,4.000000,4.000000,4.000000,4.000000,4.000000,4.000000,4.000000,4.000000,4.000000,4.000000,4.000000,4.000000,4.000000,4.000000,100.000000
1602005910.682513,98.000000,0.000000,4180.000000,4179.487305,4161.025879,4157.948730,4130.769043,4124.615234,4125.641113,4126.153809,4127.179688,4126.153809,4128.717773,4145.128418,4125.641113,4118.974121,876.000000,4.000000,,,,0.000000,4.000000,4.000000,4.000000,4.000000,4.000000,4.000000,4.000000,4.000000,4.000000,4.000000,4.000000,4.000000,4.000000,4.000000,100.000000
1602005910.690397,99.000000,0.000000,4191.282227,4182.563965,4169.230957,4159.487305,4129.230957,4120.000000,4118.461426,4120.000000,4113.333496,4125.641113,4116.922852,4154.871582,4119.487305,4129.230957,842.000000,4.000000,,,,0.000000,4.000000,4.000000,4.000000,4.000000,4.000000,4.000000,4.000000,4.000000,4.000000,4.000000,4.000000,4.000000,4.000000,4.000000,100.000000
1602005910.698281,100.000000,0.000000,4189.230957,4173.846191,4167.692383,4155.897461,4134.871582,4122.563965,4115.897461,4116.410156,4104.102539,4121.538574,4122.563965,4155.897461,4120.000000,4127.692383,771.000000,4.000000,,,,0.000000,4.000000,4.000000,4.000000,4.000000,4.000000,4.000000,4.000000,4.000000,4.000000,4.000000,4.000000,4.000000,4.000000,4.000000,100.000000
1602005910.706165,101.000000,0.000000,4186.153809,4176.410156,4163.077148,4159.487305,4137.948730,4132.307617,4117.436035,4114.358887,4105.641113,4118.974121,4125.128418,4157.436035,4127.179688,4127.179688,758.000000,4.000000,,,,0.000000,4.000000,4.000000,4.000000,4.000000,4.000000,4.000000,4.000000,4.000000,4.000000,4.000000,4.000000,4.000000,4.000000,4.000000,100.000000
1602005910.714050,102.000000,0.000000,4188.717773,4182.051270,4168.717773,4160.512695,4137.948730,4138.461426,4118.974121,4117.948730,4105.128418,4121.025879,4121.025879,4169.743652,4130.256348,4137.436035,876.000000,4.000000,,,,0.000000,4.000000,4.000000,4.000000,4.000000,4.000000,4.000000,4.000000,4.000000,4.000000,4.000000,4.000000,4.000000,4.000000,4.000000,100.000000
1602005910.722032,103.000000,0.000000,4189.230957,4172.307617,4174.358887,4155.384766,4132.820313,4128.205078,4119.487305,4125.128418,4100.512695,4117.948730,4129.743652,4174.358887,4131.282227,4141.025879,842.000000,4.000000,,,,0.000000,4.000000,4.000000,4.000000,4.000000,4.000000,4.000000,4.000000,4.000000,4.000000,4.000000,4.000000,4.000000,4.000000,4.000000,100.000000
1602005910.729915,104.000000,0.000000,4192.307617,4168.205078,4173.333496,4157.948730,4124.615234,4118.461426,4120.512695,4126.666504,4107.692383,4101.025879,4135.897461,4167.692383,4134.358887,4135.897461,771.000000,4.000000,,,,0.000000,4.000000,4.000000,4.000000,4.000000,4.000000,4.000000,4.000000,4.000000,4.000000,4.000000,4.000000,4.000000,4.000000,4.000000,100.000000
1602005910.737798,105.000000,0.000000,4201.538574,4176.410156,4173.846191,4163.077148,4123.589844,4123.589844,4124.102539,4126.153809,4120.000000,4102.051270,4132.307617,4166.153809,4136.410156,4135.897461,758.000000,4.000000,,,,0.000000,4.000000,4.000000,4.000000,4.000000,4.000000,4.000000,4.000000,4.000000,4.000000,4.000000,4.000000,4.000000,4.000000,4.000000,100.000000
1602005910.745681,106.000000,0.000000,4200.000000,4173.333496,4173.846191,4156.922852,4125.641113,4125.128418,4129.230957,4129.230957,4123.077148,4131.282227,4132.820313,4168.717773,4138.461426,4141.538574,876.000000,4.000000,,,,0.000000,4.000000,4.000000,4.000000,4.000000,4.000000,4.000000,4.000000,4.000000,4.000000,4.000000,4.000000,4.000000,4.000000,4.000000,100.000000
1602005910.753564,107.000000,0.000000,4190.256348,4167.179688,4171.794922,4150.769043,4126.153809,4127.179688,4136.410156,4134.358887,4129.230957,4156.922852,4139.487305,4165.641113,4142.051270,4149.743652,842.000000,4.000000,,,,0.000000,4.000000,4.000000,4.000000,4.000000,4.000000,4.000000,4.000000,4.000000,4.000000,4.000000,4.000000,4.000000,4.000000,4.000000,100.000000
1602005910.761345,108.000000,0.000000,4183.589844,4168.717773,4166.153809,4154.871582,4133.846191,4136.922852,4138.461426,4140.512695,4138.461426,4153.333496,4141.538574,4160.512695,4141.538574,4147.179688,771.000000,4.000000,,,,0.000000,4.000000,4.000000,4.000000,4.000000,4.000000,4.000000,4.000000,4.000000,4.000000,4.000000,4.000000,4.000000,4.000000,4.000000,100.000000
1602005910.769227,109.000000,0.000000,4175.384766,4168.205078,4156.410156,4155.384766,4140.512695,4138.974121,4130.256348,4134.358887,4136.410156,4136.410156,4138.461426,4156.410156,4136.922852,4127.692383,758.000000,4.000000,,,,0.000000,4.000000,4.000000,4.000000,4.000000,4.000000,4.000000,4.000000,4.000000,4.000000,4.000000,4.000000,4.000000,4.000000,4.000000,100.000000
1602005910.777210,110.000000,0.000000,4170.769043,4169.230957,4153.333496,4155.384766,4137.436035,4134.358887,4122.563965,4125.641113,4133.333496,4127.692383,4134.871582,4153.333496,4134.871582,4125.641113,876.000000,4.000000,,,,0.000000,4.000000,4.000000,4.000000,4.000000,4.000000,4.000000,4.000000,4.000000,4.000000,4.000000,4.000000,4.000000,4.000000,4.000000,100.000000
1602005910.785093,111.000000,0.000000,4173.333496,4171.794922,4156.410156,4157.948730,4136.922852,4138.461426,4122.563965,4128.717773,4137.948730,4137.436035,4136.410156,4153.333496,4139.487305,4140.512695,842.000000,4.000000,,,,0.000000,4.000000,4.000000,4.000000,4.000000,4.000000,4.000000,4.000000,4.000000,4.000000,4.000000,4.000000,4.000000,4.000000,4.000000,100.000000
1602005910.792976,112.000000,0.000000,4173.333496,4169.743652,4155.897461,4156.410156,4139.487305,4141.538574,4124.615234,4132.307617,4139.487305,4146.666504,4141.538574,4154.871582,4140.000000,4133.333496,771.000000,4.000000,,,,0.000000,4.000000,4.000000,4.000000,4.000000,4.000000,4.000000,4.000000,4.000000,4.000000,4.000000,4.000000,4.000000,4.000000,4.000000,100.000000
1602005910.800859,113.000000,0.000000,4170.256348,4168.717773,4154.871582,4153.846191,4137.948730,4137.948730,4130.256348,4129.743652,4136.410156,4127.692383,4136.410156,4155.384766,4131.794922,4117.436035,758.000000,4.000000,,,,0.000000,4.000000,4.000000,4.000000,4.000000,4.000000,4.000000,4.000000,4.000000,4.000000,4.000000,4.000000,4.000000,4.000000,4.000000,100.000000
1602005910.808742,114.000000,0.000000,4166.666504,4167.179688,4154.871582,4153.333496,4134.358887,4135.897461,4137.436035,4133.846191,4136.922852,4111.794922,4133.333496,4156.410156,4125.641113,4122.051270,876.000000,4.000000,,,,0.000000,4.000000,4.000000,4.000000,4.000000,4.000000,4.000000,4.000000,4.000000,4.000000,4.000000,4.000000,4.000000,4.000000,4.000000,100.000000
1602005910.816726,115.000000,0.000000,4166.666504,4159.487305,4153.846191,4151.794922,4134.871582,4135.384766,4138.461426,4143.077148,4140.000000,4130.769043,4140.000000,4158.461426,4126.153809,4125.641113,842.000000,4.000000,,,,0.000000,4.000000,4.000000,4.000000,4.000000,4.000000,4.000000,4.000000,4.000000,4.000000,4.000000,4.000000,4.000000,4.000000,4.000000,100.000000
1602005910.824609,116.000000,0.000000,4170.256348,4156.922852,4156.410156,4150.769043,4136.922852,4137.948730,4137.436035,4137.948730,4136.410156,4143.077148,4134.358887,4154.871582,4127.692383,4121.538574,771.000000,4.000000,,,,0.000000,4.000000,4.000000,4.000000,4.000000,4.000000,4.000000,4.000000,4.000000,4.000000,4.000000,4.000000,4.000000,4.000000,4.000000,100.000000
1602005910.832492,117.000000,0.000000,4171.282227,4158.974121,4154.358887,4151.794922,4133.846191,4135.897461,4135.384766,4125.128418,4125.641113,4130.256348,4122.051270,4144.615234,4124.102539,4120.512695,758.000000,4.000000,,,,0.000000,4.000000,4.000000,4.000000,4.000000,4.000000,4.000000,4.000000,4.000000,4.000000,4.000000,4.000000,4.000000,4.000000,4.000000,100.000000
1602005910.840375,118.000000,0.000000,4167.692383,4155.897461,4142.051270,4151.794922,4125.128418,4126.153809,4125.128418,4117.948730,4120.512695,4122.563965,4122.051270,4135.897461,4115.897461,4114.358887,876.000000,4.000000,,,,0.000000,4.000000,4.000000,4.000000,4.000000,4.000000,4.000000,4.000000,4.000000,4.000000,4.000000,4.000000,4.000000,4.000000,4.000000,100.000000
1602005910.848259,119.000000,0.000000,4166.153809,4156.922852,4138.461426,4151.794922,4122.563965,4124.615234,4118.974121,4117.436035,4118.974121,4125.128418,4125.641113,4136.922852,4116.410156,4103.077148,842.000000,4.000000,,,,0.000000,4.000000,4.000000,4.000000,4.000000,4.000000,4.000000,4.000000,4.000000,4.000000,4.000000,4.000000,4.000000,4.000000,4.000000,100.000000
1602005910.856142,120.000000,0.000000,4161.538574,4167.179688,4141.538574,4153.846191,4129.230957,4129.230957,4118.461426,4116.922852,4121.538574,4128.717773,4121.538574,4143.589844,4123.077148,4103.077148,771.000000,4.000000,,,,0.000000,4.000000,4.000000,4.000000,4.000000,4.000000,4.000000,4.000000,4.000000,4.000000,4.000000,4.000000,4.000000,4.000000,4.000000,100.000000
1602005910.863927,121.000000,0.000000,4150.256348,4169.230957,4131.282227,4151.282227,4134.871582,4127.692383,4112.820313,4118.974121,4135.384766,4140.000000,4126.666504,4141.538574,4124.615234,4107.692383,758.000000,4.000000,,,,0.000000,4.000000,4.000000,4.000000,4.000000,4.000000,4.000000,4.000000,4.000000,4.000000,4.000000,4.000000,4.000000,4.000000,4.000000,100.000000
1602005910.871811,122.000000,0.000000,4144.102539,4166.153809,4118.461426,4149.743652,4136.410156,4127.179688,4111.282227,4128.717773,4145.128418,4144.102539,4142.563965,4140.512695,4130.769043,4105.128418,876.000000,4.000000,,,,0.000000,4.000000,4.000000,4.000000,4.000000,4.000000,4.000000,4.000000,4.000000,4.000000,4.000000,4.000000,4.000000,4.000000,4.000000,100.000000
1602005910.879696,123.000000,0.000000,4149.743652,4166.666504,4122.563965,4153.846191,4138.461426,4136.410156,4122.051270,4135.897461,4142.051270,4133.846191,4141.025879,4151.282227,4137.948730,4114.358887,842.000000,4.000000,,,,0.000000,4.000000,4.000000,4.000000,4.000000,4.000000,4.000000,4.000000,4.000000,4.000000,4.000000,4.000000,4.000000,4.000000,4.000000,100.000000
1602005910.887580,124.000000,0.000000,4154.358887,4163.077148,4129.743652,4151.282227,4136.922852,4140.512695,4132.307617,4136.922852,4134.358887,4129.230957,4125.641113,4154.358887,4129.230957,4120.000000,771.000000,4.000000,,,,0.000000,4.000000,4.000000,4.000000,4.000000,4.000000,4.000000,4.000000,4.000000,4.000000,4.000000,4.000000,4.000000,4.000000,4.000000,100.000000
1602005910.895465,125.000000,0.000000,4148.205078,4154.871582,4127.179688,4141.025879,4135.384766,4137.436035,4136.922852,4136.410156,4126.666504,4131.794922,4127.692383,4142.563965,4117.436035,4106.153809,758.000000,4.000000,,,,0.000000,4.000000,4.000000,4.000000,4.000000,4.000000,4.000000,4.000000,4.000000,4.000000,4.000000,4.000000,4.000000,4.000000,4.000000,100.000000
1602005910.903349,126.000000,0.000000,4137.948730,4152.307617,4123.589844,4137.948730,4137.948730,4138.974121,4142.051270,4132.820313,4124.615234,4134.871582,4141.025879,4136.922852,4124.102539,4108.205078,876.000000,4.000000,,,,0.000000,4.000000,4.000000,4.000000,4.000000,4.000000,4.000000,4.000000,4.000000,4.000000,4.000000,4.000000,4.000000,4.000000,4.000000,100.000000
1602005910.911234,127.000000,0.000000,4134.871582,4151.794922,4122.051270,4140.512695,4140.000000,4141.538574,4144.102539,4127.692383,4128.717773,4140.000000,4142.563965,4140.000000,4131.794922,4124.102539,842.000000,4.000000,,,,0.000000,4.000000,4.000000,4.000000,4.000000,4.000000,4.000000,4.000000,4.000000,4.000000,4.000000,4.000000,4.000000,4.000000,4.000000,100.000000
1602005910.919118,128.000000,0.000000,4139.487305,4150.256348,4123.077148,4139.487305,4138.974121,4141.025879,4140.000000,4124.102539,4127.179688,4136.922852,4137.436035,4144.102539,4128.205078,4118.461426,771.000000,4.000000,,,,0.000000,4.000000,4.000000,4.000000,4.000000,4.000000,4.000000,4.000000,4.000000,4.000000,4.000000,4.000000,4.000000,4.000000,4.000000,100.000000
1602005910.927003,0.000000,0.000000,4142.563965,4152.820313,4129.743652,4139.487305,4137.948730,4139.487305,4135.384766,4122.563965,4124.102539,4128.717773,4138.974121,4151.794922,4126.666504,4106.153809,800.000000,4.000000,,,,0.000000,4.000000,4.000000,4.000000,4.000000,4.000000,4.000000,4.000000,4.000000,4.000000,4.000000,4.000000,4.000000,4.000000,4.000000,100.000000
1602005910.934987,1.000000,0.000000,4141.025879,4155.384766,4132.820313,4141.538574,4136.410156,4137.436035,4134.358887,4118.974121,4127.179688,4123.077148,4137.436035,4155.384766,4127.692383,4106.666504,793.000000,4.000000,,,,0.000000,4.000000,4.000000,4.000000,4.000000,4.000000,4.000000,4.000000,4.000000,4.000000,4.000000,4.000000,4.000000,4.000000,4.000000,100.000000
1602005910.942872,2.000000,0.000000,4140.000000,4154.358887,4128.205078,4139.487305,4134.871582,4136.922852,4135.897461,4122.563965,4131.282227,4118.974121,4124.615234,4151.794922,4123.589844,4108.717773,856.000000,4.000000,,,,0.000000,4.000000,4.000000,4.000000,4.000000,4.000000,4.000000,4.000000,4.000000,4.000000,4.000000,4.000000,4.000000,4.000000,4.000000,100.000000
1602005910.950757,3.000000,0.000000,4141.025879,4152.820313,4125.128418,4140.512695,4135.897461,4139.487305,4136.410156,4134.358887,4137.948730,4121.025879,4123.077148,4148.717773,4120.000000,4118.461426,870.000000,4.000000,,,,0.000000,4.000000,4.000000,4.000000,4.000000,4.000000,4.000000,4.000000,4.000000,4.000000,4.000000,4.000000,4.000000,4.000000,4.000000,100.000000
1602005910.958642,4.000000,0.000000,4138.461426,4148.205078,4126.153809,4140.000000,4137.948730,4145.641113,4136.410156,4141.025879,4139.487305,4134.358887,4137.948730,4145.641113,4124.102539,4126.666504,814.000000,4.000000,,,,0.000000,4.000000,4.000000,4.000000,4.000000,4.000000,4.000000,4.000000,4.000000,4.000000,4.000000,4.000000,4.000000,4.000000,4.000000,100.000000
1602005910.966526,5.000000,0.000000,4131.794922,4139.487305,4121.025879,4133.846191,4138.461426,4152.307617,4138.974121,4142.051270,4137.436035,4144.615234,4144.102539,4140.000000,4127.179688,4120.512695,827.000000,4.000000,,,,0.000000,4.000000,4.000000,4.000000,4.000000,4.000000,4.000000,4.000000,4.000000,4.000000,4.000000,4.000000,4.000000,4.000000,4.000000,100.000000
1602005910.974411,6.000000,0.000000,4122.563965,4137.436035,4115.897461,4133.333496,4136.922852,4153.846191,4143.077148,4139.487305,4140.000000,4140.512695,4139.487305,4137.436035,4127.692383,4121.025879,769.000000,4.000000,,,,0.000000,4.000000,4.000000,4.000000,4.000000,4.000000,4.000000,4.000000,4.000000,4.000000,4.000000,4.000000,4.000000,4.000000,4.000000,100.000000
1602005910.982296,7.000000,0.000000,4111.282227,4134.871582,4118.974121,4133.333496,4136.410156,4154.358887,4141.025879,4131.282227,4133.846191,4134.871582,4139.487305,4134.871582,4126.666504,4118.974121,690.000000,4.000000,,,,0.000000,4.000000,4.000000,4.000000,4.000000,4.000000,4.000000,4.000000,4.000000,4.000000,4.000000,4.000000,4.000000,4.000000,4.000000,100.000000
1602005910.990181,8.000000,0.000000,4110.769043,4123.077148,4121.538574,4125.641113,4133.333496,4154.358887,4135.897461,4121.025879,4120.512695,4131.794922,4136.922852,4134.358887,4122.563965,4107.692383,787.000000,4.000000,,,,0.000000,4.000000,4.000000,4.000000,4.000000,4.000000,4.000000,4.000000,4.000000,4.000000,4.000000,4.000000,4.000000,4.000000,4.000000,100.000000
1602005910.998065,9.000000,0.000000,4118.974121,4123.589844,4124.102539,4126.666504,4127.692383,4148.717773,4139.487305,4120.512695,4118.974121,4142.051270,4135.384766,4145.128418,4128.205078,4110.769043,846.000000,4.000000,,,,0.000000,4.000000,4.000000,4.000000,4.000000,4.000000,4.000000,4.000000,4.000000,4.000000,4.000000,4.000000,4.000000,4.000000,4.000000,100.000000
1602005911.005950,10.000000,0.000000,4123.077148,4136.410156,4129.743652,4137.436035,4122.563965,4138.461426,4144.102539,4126.153809,4123.077148,4150.256348,4139.487305,4156.410156,4137.436035,4126.153809,876.000000,4.000000,,,,0.000000,4.000000,4.000000,4.000000,4.000000,4.000000,4.000000,4.000000,4.000000,4.000000,4.000000,4.000000,4.000000,4.000000,4.000000,100.000000
1602005911.013734,11.000000,0.000000,4120.512695,4138.461426,4136.922852,4136.922852,4121.538574,4134.871582,4141.538574,4133.846191,4128.205078,4133.846191,4142.051270,4155.897461,4137.948730,4137.436035,842.000000,4.000000,,,,0.000000,4.000000,4.000000,4.000000,4.000000,4.000000,4.000000,4.000000,4.000000,4.000000,4.000000,4.000000,4.000000,4.000000,4.000000,100.000000
1602005911.021619,12.000000,0.000000,4122.051270,4137.436035,4136.410156,4133.846191,4127.179688,4138.974121,4138.461426,4140.000000,4139.487305,4128.717773,4148.717773,4155.384766,4142.563965,4144.102539,771.000000,4.000000,,,,0.000000,4.000000,4.000000,4.000000,4.000000,4.000000,4.000000,4.000000,4.000000,4.000000,4.000000,4.000000,4.000000,4.000000,4.000000,100.000000
1602005911.029503,13.000000,0.000000,4128.205078,4141.538574,4127.179688,4137.948730,4136.922852,4141.025879,4138.974121,4138.461426,4144.615234,4145.641113,4157.436035,4156.410156,4149.743652,4142.563965,756.000000,4.000000,,,,0.000000,4.000000,4.000000,4.000000,4.000000,4.000000,4.000000,4.000000,4.000000,4.000000,4.000000,4.000000,4.000000,4.000000,4.000000,100.000000
1602005911.037387,14.000000,0.000000,4122.563965,4137.436035,4121.025879,4135.897461,4141.538574,4141.025879,4137.948730,4135.384766,4136.410156,4140.512695,4151.282227,4140.512695,4142.563965,4130.256348,876.000000,4.000000,,,,0.000000,4.000000,4.000000,4.000000,4.000000,4.000000,4.000000,4.000000,4.000000,4.000000,4.000000,4.000000,4.000000,4.000000,4.000000,100.000000
1602005911.045271,15.000000,0.000000,4112.307617,4127.179688,4123.077148,4127.692383,4139.487305,4143.589844,4137.436035,4134.358887,4129.743652,4129.743652,4130.256348,4120.512695,4128.205078,4117.436035,842.000000,4.000000,,,,0.000000,4.000000,4.000000,4.000000,4.000000,4.000000,4.000000,4.000000,4.000000,4.000000,4.000000,4.000000,4.000000,4.000000,4.000000,100.000000
1602005911.053156,16.000000,0.000000,4113.846191,4124.102539,4123.077148,4124.102539,4135.384766,4146.153809,4135.897461,4128.205078,4125.128418,4140.000000,4115.897461,4122.051270,4114.358887,4107.179688,0.000000,4.000000,,,,0.000000,4.000000,4.000000,4.000000,4.000000,4.000000,4.000000,4.000000,4.000000,4.000000,4.000000,4.000000,4.000000,4.000000,4.000000,100.000000
1602005911.061040,17.000000,0.000000,4127.692383,4121.538574,4121.538574,4122.051270,4130.256348,4137.948730,4129.743652,4120.000000,4120.512695,4135.897461,4123.589844,4134.358887,4105.641113,4101.538574,0.000000,4.000000,,,,0.000000,4.000000,4.000000,4.000000,4.000000,4.000000,4.000000,4.000000,4.000000,4.000000,4.000000,4.000000,4.000000,4.000000,4.000000,100.000000
1602005911.068924,18.000000,0.000000,4138.974121,4120.512695,4128.205078,4123.077148,4122.563965,4124.615234,4123.589844,4118.461426,4116.922852,4118.974121,4137.948730,4145.641113,4113.333496,4110.256348,0.000000,4.000000,,,,0.000000,4.000000,4.000000,4.000000,4.000000,4.000000,4.000000,4.000000,4.000000,4.000000,4.000000,4.000000,4.000000,4.000000,4.000000,100.000000
1602005911.076906,19.000000,0.000000,4148.717773,4131.282227,4141.025879,4130.769043,4114.358887,4118.461426,4123.589844,4122.563965,4115.384766,4119.487305,4138.974121,4154.871582,4128.205078,4128.717773,0.000000,4.000000,,,,0.000000,4.000000,4.000000,4.000000,4.000000,4.000000,4.000000,4.000000,4.000000,4.000000,4.000000,4.000000,4.000000,4.000000,4.000000,100.000000
1602005911.084787,20.000000,0.000000,4160.512695,4143.589844,4151.282227,4140.000000,4114.358887,4121.538574,4127.692383,4126.666504,4123.589844,4127.179688,4137.436035,4160.000000,4136.922852,4137.948730,0.000000,4.000000,,,,0.000000,4.000000,4.000000,4.000000,4.000000,4.000000,4.000000,4.000000,4.000000,4.000000,4.000000,4.000000,4.000000,4.000000,4.000000,100.000000
1602005911.092769,21.000000,0.000000,4158.461426,4143.589844,4148.205078,4141.025879,4127.692383,4125.641113,4127.692383,4126.666504,4130.769043,4131.282227,4142.051270,4151.282227,4140.512695,4132.307617,0.000000,4.000000,,,,0.000000,4.000000,4.000000,4.000000,4.000000,4.000000,4.000000,4.000000,4.000000,4.000000,4.000000,4.000000,4.000000,4.000000,4.000000,100.000000
1602005911.100651,22.000000,0.000000,4145.128418,4140.000000,4133.333496,4136.410156,4138.461426,4128.205078,4130.256348,4124.102539,4128.205078,4146.153809,4146.666504,4131.282227,4141.025879,4123.077148,0.000000,4.000000,,,,0.000000,4.000000,4.000000,4.000000,4.000000,4.000000,4.000000,4.000000,4.000000,4.000000,4.000000,4.000000,4.000000,4.000000,4.000000,100.000000
1602005911.108632,23.000000,0.000000,4139.487305,4145.641113,4120.512695,4136.410156,4141.025879,4133.333496,4136.922852,4122.051270,4127.179688,4167.179688,4142.563965,4121.025879,4143.077148,4115.897461,0.000000,4.000000,,,,0.000000,4.000000,4.000000,4.000000,4.000000,4.000000,4.000000,4.000000,4.000000,4.000000,4.000000,4.000000,4.000000,4.000000,4.000000,100.000000
1602005911.116514,24.000000,0.000000,4144.102539,4152.820313,4120.000000,4138.461426,4142.051270,4138.974121,4135.384766,4120.000000,4126.666504,4167.692383,4131.794922,4123.077148,4141.538574,4110.256348,0.000000,4.000000,,,,0.000000,4.000000,4.000000,4.000000,4.000000,4.000000,4.000000,4.000000,4.000000,4.000000,4.000000,4.000000,4.000000,4.000000,4.000000,100.000000
1602005911.124498,25.000000,0.000000,4145.128418,4152.820313,4118.974121,4138.974121,4143.077148,4142.563965,4130.256348,4118.461426,4123.077148,4151.282227,4125.128418,4118.461426,4128.205078,4114.358887,0.000000,4.000000,,,,0.000000,4.000000,4.000000,4.000000,4.000000,4.000000,4.000000,4.000000,4.000000,4.000000,4.000000,4.000000,4.000000,4.000000,4.000000,100.000000
1602005911.132382,26.000000,0.000000,4141.538574,4149.743652,4110.256348,4139.487305,4141.538574,4144.615234,4133.333496,4124.102539,4125.128418,4147.179688,4129.230957,4110.769043,4121.538574,4123.589844,0.000000,4.000000,,,,0.000000,4.000000,4.000000,4.000000,4.000000,4.000000,4.000000,4.000000,4.000000,4.000000,4.000000,4.000000,4.000000,4.000000,4.000000,100.000000
1602005911.140266,27.000000,0.000000,4137.948730,4149.230957,4106.666504,4140.000000,4134.871582,4143.589844,4137.436035,4136.922852,4138.461426,4163.077148,4132.820313,4118.974121,4130.769043,4122.051270,0.000000,4.000000,,,,0.000000,4.000000,4.000000,4.000000,4.000000,4.000000,4.000000,4.000000,4.000000,4.000000,4.000000,4.000000,4.000000,4.000000,4.000000,100.000000
1602005911.148151,28.000000,0.000000,4137.948730,4151.794922,4110.769043,4140.000000,4126.153809,4140.512695,4135.897461,4150.256348,4150.769043,4161.025879,4134.871582,4133.333496,4137.948730,4122.563965,0.000000,4.000000,,,,0.000000,4.000000,4.000000,4.000000,4.000000,4.000000,4.000000,4.000000,4.000000,4.000000,4.000000,4.000000,4.000000,4.000000,4.000000,100.000000
1602005911.156035,29.000000,0.000000,4145.128418,4154.871582,4117.948730,4141.025879,4123.077148,4138.974121,4139.487305,4156.922852,4149.743652,4136.922852,4146.666504,4139.487305,4145.128418,4133.333496,0.000000,4.000000,,,,0.000000,4.000000,4.000000,4.000000,4.000000,4.000000,4.000000,4.000000,4.000000,4.000000,4.000000,4.000000,4.000000,4.000000,4.000000,100.000000
1602005911.163919,30.000000,0.000000,4152.820313,4156.922852,4128.205078,4144.102539,4124.102539,4140.000000,4148.205078,4153.333496,4140.512695,4137.948730,4155.897461,4143.589844,4154.358887,4136.410156,0.000000,4.000000,,,,0.000000,4.000000,4.000000,4.000000,4.000000,4.000000,4.000000,4.000000,4.000000,4.000000,4.000000,4.000000,4.000000,4.000000,4.000000,100.000000
1602005911.171804,31.000000,0.000000,4155.384766,4150.256348,4133.846191,4141.025879,4124.102539,4136.922852,4145.641113,4139.487305,4133.333496,4147.692383,4148.717773,4146.153809,4147.692383,4128.205078,0.000000,4.000000,,,,0.000000,4.000000,4.000000,4.000000,4.000000,4.000000,4.000000,4.000000,4.000000,4.000000,4.000000,4.000000,4.000000,4.000000,4.000000,100.000000
1602005911.179688,32.000000,0.000000,4152.307617,4138.461426,4127.692383,4135.384766,4124.615234,4129.230957,4132.307617,4125.128418,4123.589844,4125.128418,4136.410156,4136.410156,4129.743652,4123.077148,0.000000,4.000000,,,,0.000000,4.000000,4.000000,4.000000,4.000000,4.000000,4.000000,4.000000,4.000000,4.000000,4.000000,4.000000,4.000000,4.000000,4.000000,100.000000
1602005911.187671,33.000000,0.000000,4145.128418,4134.358887,4122.051270,4131.794922,4129.230957,4124.102539,4123.077148,4118.974121,4114.871582,4106.153809,4126.666504,4123.589844,4121.025879,4123.077148,0.000000,4.000000,,,,0.000000,4.000000,4.000000,4.000000,4.000000,4.000000,4.000000,4.000000,4.000000,4.000000,4.000000,4.000000,4.000000,4.000000,4.000000,100.000000
1602005911.195553,34.000000,0.000000,4137.948730,4137.436035,4118.974121,4128.205078,4135.384766,4126.153809,4124.615234,4116.410156,4116.410156,4133.333496,4122.563965,4127.179688,4124.102539,4120.000000,0.000000,4.000000,,,,0.000000,4.000000,4.000000,4.000000,4.000000,4.000000,4.000000,4.000000,4.000000,4.000000,4.000000,4.000000,4.000000,4.000000,4.000000,100.000000
1602005911.203436,35.000000,0.000000,4135.384766,4138.974121,4113.846191,4130.256348,4138.461426,4129.230957,4125.641113,4116.922852,4122.563965,4156.922852,4131.794922,4137.948730,4132.820313,4118.974121,0.000000,4.000000,,,,0.000000,4.000000,4.000000,4.000000,4.000000,4.000000,4.000000,4.000000,4.000000,4.000000,4.000000,4.000000,4.000000,4.000000,4.000000,100.000000
1602005911.211319,36.000000,0.000000,4137.948730,4141.025879,4120.000000,4137.948730,4138.974121,4130.769043,4124.615234,4120.000000,4122.563965,4144.615234,4136.410156,4137.436035,4140.000000,4122.563965,0.000000,4.000000,,,,0.000000,4.000000,4.000000,4.000000,4.000000,4.000000,4.000000,4.000000,4.000000,4.000000,4.000000,4.000000,4.000000,4.000000,4.000000,100.000000
1602005911.219202,37.000000,0.000000,4142.051270,4146.666504,4136.410156,4139.487305,4140.512695,4137.436035,4126.153809,4124.102539,4126.666504,4133.846191,4128.717773,4142.563965,4137.436035,4129.743652,0.000000,4.000000,,,,0.000000,4.000000,4.000000,4.000000,4.000000,4.000000,4.000000,4.000000,4.000000,4.000000,4.000000,4.000000,4.000000,4.000000,4.000000,100.000000
1602005911.227184,38.000000,0.000000,4148.717773,4146.666504,4141.538574,4134.358887,4141.025879,4137.948730,4128.717773,4130.256348,4135.384766,4137.948730,4131.794922,4153.846191,4134.871582,4141.538574,0.000000,4.000000,,,,0.000000,4.000000,4.000000,4.000000,4.000000,4.000000,4.000000,4.000000,4.000000,4.000000,4.000000,4.000000,4.000000,4.000000,4.000000,100.000000
1602005911.235066,39.000000,0.000000,4153.333496,4140.000000,4143.077148,4130.256348,4133.846191,4128.717773,4130.256348,4142.051270,4133.333496,4140.000000,4142.563965,4155.897461,4137.948730,4152.820313,0.000000,4.000000,,,,0.000000,4.000000,4.000000,4.000000,4.000000,4.000000,4.000000,4.000000,4.000000,4.000000,4.000000,4.000000,4.000000,4.000000,4.000000,100.000000
1602005911.242949,40.000000,0.000000,4153.846191,4136.922852,4151.794922,4125.128418,4125.641113,4131.282227,4138.461426,4151.794922,4128.205078,4135.384766,4144.102539,4160.000000,4138.461426,4153.846191,0.000000,4.000000,,,,0.000000,4.000000,4.000000,4.000000,4.000000,4.000000,4.000000,4.000000,4.000000,4.000000,4.000000,4.000000,4.000000,4.000000,4.000000,100.000000
1602005911.250831,41.000000,0.000000,4157.436035,4136.410156,4157.948730,4122.563965,4123.589844,4149.230957,4153.333496,4156.922852,4140.000000,4143.589844,4144.615234,4170.769043,4138.974121,4153.333496,0.000000,4.000000,,,,0.000000,4.000000,4.000000,4.000000,4.000000,4.000000,4.000000,4.000000,4.000000,4.000000,4.000000,4.000000,4.000000,4.000000,4.000000,100.000000
1602005911.258613,42.000000,0.000000,4156.410156,4128.717773,4155.897461,4121.025879,4124.615234,4158.461426,4160.512695,4155.897461,4155.384766,4154.358887,4145.641113,4169.230957,4141.025879,4155.897461,0.000000,4.000000,,,,0.000000,4.000000,4.000000,4.000000,4.000000,4.000000,4.000000,4.000000,4.000000,4.000000,4.000000,4.000000,4.000000,4.000000,4.000000,100.000000
1602005911.266494,43.000000,0.000000,4144.615234,4114.358887,4143.589844,4110.256348,4123.077148,4148.205078,4153.333496,4144.615234,4150.256348,4145.641113,4136.410156,4160.512695,4134.358887,4145.128418,0.000000,4.000000,,,,0.000000,4.000000,4.000000,4.000000,4.000000,4.000000,4.000000,4.000000,4.000000,4.000000,4.000000,4.000000,4.000000,4.000000,4.000000,100.000000
1602005911.274275,44.000000,0.000000,4135.384766,4107.179688,4127.179688,4105.641113,4118.974121,4140.512695,4144.615234,4131.794922,4137.436035,4137.948730,4126.666504,4151.794922,4120.000000,4125.128418,0.000000,4.000000,,,,0.000000,4.000000,4.000000,4.000000,4.000000,4.000000,4.000000,4.000000,4.000000,4.000000,4.000000,4.000000,4.000000,4.000000,4.000000,100.000000
1602005911.282058,45.000000,0.000000,4133.333496,4114.871582,4120.512695,4116.410156,4122.051270,4141.025879,4145.641113,4133.846191,4134.358887,4133.846191,4120.512695,4140.000000,4117.436035,4118.461426,0.000000,4.000000,,,,0.000000,4.000000,4.000000,4.000000,4.000000,4.000000,4.000000,4.000000,4.000000,4.000000,4.000000,4.000000,4.000000,4.000000,4.000000,100.000000
1602005911.289941,46.000000,0.000000,4128.717773,4128.717773,4118.461426,4125.641113,4131.794922,4135.384766,4138.461426,4133.333496,4136.410156,4117.436035,4123.589844,4134.358887,4130.256348,4122.051270,0.000000,4.000000,,,,0.000000,4.000000,4.000000,4.000000,4.000000,4.000000,4.000000,4.000000,4.000000,4.000000,4.000000,4.000000,4.000000,4.000000,4.000000,100.000000
1602005911.297824,47.000000,0.000000,4130.256348,4138.974121,4108.205078,4129.230957,4136.410156,4124.102539,4122.563965,4126.666504,4138.974121,4112.307617,4135.897461,4134.871582,4136.922852,4124.102539,0.000000,4.000000,,,,0.000000,4.000000,4.000000,4.000000,4.000000,4.000000,4.000000,4.000000,4.000000,4.000000,4.000000,4.000000,4.000000,4.000000,4.000000,100.000000
1602005911.305707,48.000000,0.000000,4142.563965,4145.641113,4106.666504,4135.384766,4137.436035,4122.051270,4116.410156,4129.230957,4139.487305,4140.512695,4138.974121,4135.897461,4136.922852,4129.743652,0.000000,4.000000,,,,0.000000,4.000000,4.000000,4.000000,4.000000,4.000000,4.000000,4.000000,4.000000,4.000000,4.000000,4.000000,4.000000,4.000000,4.000000,100.000000
1602005911.313589,49.000000,0.000000,4153.333496,4152.820313,4123.077148,4140.000000,4138.974121,4124.102539,4118.974121,4138.974121,4135.897461,4158.461426,4136.922852,4141.025879,4140.512695,4135.897461,0.000000,4.000000,,,,0.000000,4.000000,4.000000,4.000000,4.000000,4.000000,4.000000,4.000000,4.000000,4.000000,4.000000,4.000000,4.000000,4.000000,4.000000,100.000000
1602005911.321373,50.000000,0.000000,4163.077148,4164.102539,4139.487305,4140.512695,4138.974121,4115.384766,4121.025879,4148.205078,4136.922852,4147.179688,4144.615234,4154.358887,4144.102539,4136.410156,0.000000,4.000000,,,,0.000000,4.000000,4.000000,4.000000,4.000000,4.000000,4.000000,4.000000,4.000000,4.000000,4.000000,4.000000,4.000000,4.000000,4.000000,100.000000
1602005911.329257,51.000000,0.000000,4174.871582,4169.230957,4144.615234,4144.102539,4139.487305,4115.384766,4131.794922,4156.410156,4142.051270,4148.717773,4150.256348,4165.641113,4144.615234,4140.000000,0.000000,4.000000,,,,0.000000,4.000000,4.000000,4.000000,4.000000,4.000000,4.000000,4.000000,4.000000,4.000000,4.000000,4.000000,4.000000,4.000000,4.000000,100.000000
1602005911.337140,52.000000,0.000000,4170.769043,4159.487305,4142.563965,4141.538574,4135.897461,4127.692383,4144.102539,4151.282227,4130.256348,4146.666504,4140.512695,4164.615234,4142.563965,4137.948730,0.000000,4.000000,,,,0.000000,4.000000,4.000000,4.000000,4.000000,4.000000,4.000000,4.000000,4.000000,4.000000,4.000000,4.000000,4.000000,4.000000,4.000000,100.000000
1602005911.345024,53.000000,0.000000,4155.897461,4143.589844,4138.461426,4128.205078,4124.615234,4128.205078,4143.077148,4131.794922,4101.025879,4118.974121,4128.717773,4159.487305,4134.871582,4130.769043,0.000000,4.000000,,,,0.000000,4.000000,4.000000,4.000000,4.000000,4.000000,4.000000,4.000000,4.000000,4.000000,4.000000,4.000000,4.000000,4.000000,4.000000,100.000000
1602005911.352907,54.000000,0.000000,4149.743652,4136.922852,4137.948730,4123.589844,4120.512695,4123.077148,4139.487305,4122.563965,4085.128174,4102.051270,4122.051270,4161.538574,4129.230957,4132.307617,0.000000,4.000000,,,,0.000000,4.000000,4.000000,4.000000,4.000000,4.000000,4.000000,4.000000,4.000000,4.000000,4.000000,4.000000,4.000000,4.000000,4.000000,100.000000
1602005911.360791,55.000000,0.000000,4156.410156,4138.461426,4145.128418,4133.333496,4126.666504,4126.153809,4136.922852,4122.563965,4088.205078,4105.128418,4122.051270,4167.692383,4132.307617,4136.922852,0.000000,4.000000,,,,0.000000,4.000000,4.000000,4.000000,4.000000,4.000000,4.000000,4.000000,4.000000,4.000000,4.000000,4.000000,4.000000,4.000000,4.000000,100.000000
1602005911.368674,56.000000,0.000000,4163.589844,4137.436035,4156.410156,4138.974121,4126.153809,4125.641113,4125.641113,4122.563965,4092.307617,4110.769043,4128.717773,4173.846191,4135.897461,4141.538574,0.000000,4.000000,,,,0.000000,4.000000,4.000000,4.000000,4.000000,4.000000,4.000000,4.000000,4.000000,4.000000,4.000000,4.000000,4.000000,4.000000,4.000000,100.000000
1602005911.376459,57.000000,0.000000,4170.769043,4139.487305,4167.179688,4137.948730,4121.025879,4120.000000,4118.974121,4129.230957,4103.589844,4124.102539,4135.384766,4184.102539,4143.077148,4151.794922,0.000000,4.000000,,,,0.000000,4.000000,4.000000,4.000000,4.000000,4.000000,4.000000,4.000000,4.000000,4.000000,4.000000,4.000000,4.000000,4.000000,4.000000,100.000000
1602005911.384343,58.000000,0.000000,4181.538574,4148.205078,4176.410156,4140.000000,4123.077148,4121.025879,4128.205078,4137.948730,4129.743652,4147.179688,4146.666504,4191.282227,4154.871582,4158.461426,0.000000,4.000000,,,,0.000000,4.000000,4.000000,4.000000,4.000000,4.000000,4.000000,4.000000,4.000000,4.000000,4.000000,4.000000,4.000000,4.000000,4.000000,100.000000
1602005911.392228,59.000000,0.000000,4184.615234,4153.846191,4178.974121,4142.051270,4129.230957,4125.641113,4137.436035,4146.666504,4146.153809,4154.358887,4158.461426,4184.615234,4157.436035,4162.051270,0.000000,4.000000,,,,0.000000,4.000000,4.000000,4.000000,4.000000,4.000000,4.000000,4.000000,4.000000,4.000000,4.000000,4.000000,4.000000,4.000000,4.000000,100.000000
1602005911.400112,60.000000,0.000000,4178.461426,4151.794922,4175.384766,4138.974121,4134.358887,4131.794922,4140.000000,4154.871582,4145.641113,4153.846191,4151.794922,4176.922852,4152.307617,4166.153809,0.000000,4.000000,,,,0.000000,4.000000,4.000000,4.000000,4.000000,4.000000,4.000000,4.000000,4.000000,4.000000,4.000000,4.000000,4.000000,4.000000,4.000000,100.000000
1602005911.407997,61.000000,0.000000,4173.333496,4149.230957,4172.820313,4137.948730,4136.922852,4136.922852,4144.615234,4157.948730,4150.256348,4157.436035,4143.589844,4175.897461,4153.846191,4159.487305,0.000000,4.000000,,,,0.000000,4.000000,4.000000,4.000000,4.000000,4.000000,4.000000,4.000000,4.000000,4.000000,4.000000,4.000000,4.000000,4.000000,4.000000,100.000000
1602005911.415881,62.000000,0.000000,4172.820313,4146.153809,4166.153809,4138.461426,4133.846191,4135.897461,4146.153809,4155.384766,4160.000000,4152.307617,4153.333496,4172.307617,4154.358887,4151.794922,0.000000,4.000000,,,,0.000000,4.000000,4.000000,4.000000,4.000000,4.000000,4.000000,4.000000,4.000000,4.000000,4.000000,4.000000,4.000000,4.000000,4.000000,100.000000
1602005911.423766,63.000000,0.000000,4171.794922,4142.051270,4157.436035,4136.410156,4131.282227,4134.871582,4141.538574,4154.358887,4159.487305,4157.948730,4157.436035,4167.692383,4150.769043,4154.358887,0.000000,4.000000,,,,0.000000,4.000000,4.000000,4.000000,4.000000,4.000000,4.000000,4.000000,4.000000,4.000000,4.000000,4.000000,4.000000,4.000000,4.000000,100.000000
1602005911.431650,64.000000,0.000000,4169.230957,4140.000000,4155.384766,4134.871582,4133.333496,4138.461426,4140.000000,4155.384766,4155.897461,4170.769043,4148.205078,4168.717773,4159.487305,4155.384766,758.000000,4.000000,,,,0.000000,4.000000,4.000000,4.000000,4.000000,4.000000,4.000000,4.000000,4.000000,4.000000,4.000000,4.000000,4.000000,4.000000,4.000000,100.000000
1602005911.439535,65.000000,0.000000,4169.743652,4138.974121,4153.846191,4136.410156,4135.384766,4139.487305,4140.512695,4150.769043,4152.820313,4156.922852,4148.717773,4167.179688,4166.666504,4153.846191,793.000000,4.000000,,,,0.000000,4.000000,4.000000,4.000000,4.000000,4.000000,4.000000,4.000000,4.000000,4.000000,4.000000,4.000000,4.000000,4.000000,4.000000,100.000000
1602005911.447319,66.000000,0.000000,4169.743652,4144.102539,4151.282227,4138.461426,4137.948730,4140.000000,4139.487305,4140.512695,4140.000000,4138.974121,4147.179688,4158.461426,4158.974121,4152.820313,856.000000,4.000000,,,,0.000000,4.000000,4.000000,4.000000,4.000000,4.000000,4.000000,4.000000,4.000000,4.000000,4.000000,4.000000,4.000000,4.000000,4.000000,100.000000
1602005911.455203,67.000000,0.000000,4161.538574,4147.692383,4148.717773,4139.487305,4142.563965,4140.512695,4135.384766,4129.743652,4121.538574,4140.512695,4132.820313,4151.282227,4150.256348,4143.589844,870.000000,4.000000,,,,0.000000,4.000000,4.000000,4.000000,4.000000,4.000000,4.000000,4.000000,4.000000,4.000000,4.000000,4.000000,4.000000,4.000000,4.000000,100.000000
1602005911.463086,68.000000,0.000000,4149.743652,4139.487305,4140.000000,4137.436035,4140.512695,4131.282227,4125.641113,4121.538574,4109.743652,4122.563965,4125.128418,4148.205078,4144.102539,4125.128418,814.000000,4.000000,,,,0.000000,4.000000,4.000000,4.000000,4.000000,4.000000,4.000000,4.000000,4.000000,4.000000,4.000000,4.000000,4.000000,4.000000,4.000000,100.000000
1602005911.470970,69.000000,0.000000,4149.230957,4140.512695,4140.512695,4134.871582,4133.333496,4117.436035,4118.461426,4119.487305,4112.307617,4108.205078,4134.358887,4148.205078,4138.974121,4123.077148,827.000000,4.000000,,,,0.000000,4.000000,4.000000,4.000000,4.000000,4.000000,4.000000,4.000000,4.000000,4.000000,4.000000,4.000000,4.000000,4.000000,4.000000,100.000000
1602005911.478854,70.000000,0.000000,4157.948730,4155.897461,4154.358887,4139.487305,4139.487305,4119.487305,4121.538574,4129.230957,4130.769043,4140.512695,4143.077148,4154.871582,4142.051270,4138.974121,769.000000,4.000000,,,,0.000000,4.000000,4.000000,4.000000,4.000000,4.000000,4.000000,4.000000,4.000000,4.000000,4.000000,4.000000,4.000000,4.000000,4.000000,100.000000
1602005911.486738,71.000000,0.000000,4156.410156,4156.922852,4153.333496,4141.538574,4144.102539,4127.692383,4122.563965,4135.384766,4141.538574,4157.436035,4134.358887,4152.307617,4146.666504,4135.897461,689.000000,4.000000,,,,0.000000,4.000000,4.000000,4.000000,4.000000,4.000000,4.000000,4.000000,4.000000,4.000000,4.000000,4.000000,4.000000,4.000000,4.000000,100.000000
1602005911.494622,72.000000,0.000000,4151.282227,4141.538574,4143.077148,4134.358887,4129.743652,4124.102539,4118.974121,4128.205078,4136.922852,4146.153809,4123.589844,4138.461426,4141.025879,4115.897461,787.000000,4.000000,,,,0.000000,4.000000,4.000000,4.000000,4.000000,4.000000,4.000000,4.000000,4.000000,4.000000,4.000000,4.000000,4.000000,4.000000,4.000000,100.000000
1602005911.502505,73.000000,0.000000,4156.410156,4142.051270,4153.333496,4134.358887,4124.102539,4127.179688,4122.051270,4125.128418,4136.922852,4147.692383,4123.077148,4140.000000,4140.000000,4121.538574,846.000000,4.000000,,,,0.000000,4.000000,4.000000,4.000000,4.000000,4.000000,4.000000,4.000000,4.000000,4.000000,4.000000,4.000000,4.000000,4.000000,4.000000,100.000000
1602005911.510290,74.000000,0.000000,4160.000000,4151.282227,4166.153809,4140.000000,4136.410156,4140.512695,4127.179688,4130.256348,4138.461426,4135.897461,4128.717773,4151.794922,4142.563965,4142.051270,876.000000,4.000000,,,,0.000000,4.000000,4.000000,4.000000,4.000000,4.000000,4.000000,4.000000,4.000000,4.000000,4.000000,4.000000,4.000000,4.000000,4.000000,100.000000
1602005911.518174,75.000000,0.000000,4150.256348,4143.077148,4160.000000,4133.333496,4138.974121,4141.538574,4124.615234,4128.717773,4129.743652,4112.307617,4128.717773,4149.230957,4137.436035,4132.820313,841.000000,4.000000,,,,0.000000,4.000000,4.000000,4.000000,4.000000,4.000000,4.000000,4.000000,4.000000,4.000000,4.000000,4.000000,4.000000,4.000000,4.000000,100.000000
1602005911.526059,76.000000,0.000000,4142.051270,4131.282227,4151.282227,4120.512695,4132.307617,4133.846191,4120.512695,4123.077148,4126.153809,4115.897461,4125.128418,4145.128418,4133.333496,4118.461426,771.000000,4.000000,,,,0.000000,4.000000,4.000000,4.000000,4.000000,4.000000,4.000000,4.000000,4.000000,4.000000,4.000000,4.000000,4.000000,4.000000,4.000000,100.000000
1602005911.533943,77.000000,0.000000,4149.230957,4133.846191,4152.307617,4121.025879,4134.358887,4134.358887,4122.563965,4123.077148,4128.717773,4131.282227,4129.230957,4157.948730,4135.897461,4130.256348,756.000000,4.000000,,,,0.000000,4.000000,4.000000,4.000000,4.000000,4.000000,4.000000,4.000000,4.000000,4.000000,4.000000,4.000000,4.000000,4.000000,4.000000,100.000000
1602005911.541828,78.000000,0.000000,4157.436035,4140.000000,4155.384766,4131.282227,4137.948730,4139.487305,4126.153809,4124.102539,4129.743652,4145.641113,4135.897461,4169.743652,4138.974121,4146.153809,876.000000,4.000000,,,,0.000000,4.000000,4.000000,4.000000,4.000000,4.000000,4.000000,4.000000,4.000000,4.000000,4.000000,4.000000,4.000000,4.000000,4.000000,100.000000
1602005911.549712,79.000000,0.000000,4158.461426,4138.974121,4152.307617,4130.769043,4138.974121,4133.846191,4125.641113,4125.128418,4125.128418,4151.282227,4139.487305,4164.102539,4138.974121,4145.128418,841.000000,4.000000,,,,0.000000,4.000000,4.000000,4.000000,4.000000,4.000000,4.000000,4.000000,4.000000,4.000000,4.000000,4.000000,4.000000,4.000000,4.000000,100.000000
1602005911.557597,80.000000,0.000000,4155.384766,4137.436035,4144.102539,4123.589844,4140.000000,4121.538574,4124.615234,4124.102539,4112.820313,4140.000000,4130.256348,4155.897461,4138.974121,4140.512695,771.000000,4.000000,,,,0.000000,4.000000,4.000000,4.000000,4.000000,4.000000,4.000000,4.000000,4.000000,4.000000,4.000000,4.000000,4.000000,4.000000,4.000000,100.000000
1602005911.565481,81.000000,0.000000,4147.179688,4137.436035,4138.974121,4122.563965,4136.922852,4115.897461,4124.102539,4125.128418,4111.282227,4141.538574,4117.436035,4154.358887,4138.461426,4145.128418,756.000000,4.000000,,,,0.000000,4.000000,4.000000,4.000000,4.000000,4.000000,4.000000,4.000000,4.000000,4.000000,4.000000,4.000000,4.000000,4.000000,4.000000,100.000000
1602005911.573366,82.000000,0.000000,4145.128418,4137.436035,4140.000000,4127.692383,4135.897461,4122.051270,4125.641113,4131.282227,4123.589844,4148.205078,4126.666504,4153.846191,4137.436035,4152.820313,876.000000,4.000000,,,,0.000000,4.000000,4.000000,4.000000,4.000000,4.000000,4.000000,4.000000,4.000000,4.000000,4.000000,4.000000,4.000000,4.000000,4.000000,100.000000
1602005911.581149,83.000000,0.000000,4154.358887,4139.487305,4138.974121,4128.717773,4140.000000,4128.717773,4129.743652,4138.461426,4125.641113,4127.179688,4144.102539,4151.794922,4142.563965,4155.384766,841.000000,4.000000,,,,0.000000,4.000000,4.000000,4.000000,4.000000,4.000000,4.000000,4.000000,4.000000,4.000000,4.000000,4.000000,4.000000,4.000000,4.000000,100.000000
1602005911.589032,84.000000,0.000000,4152.307617,4139.487305,4131.282227,4124.102539,4142.051270,4125.128418,4128.717773,4135.897461,4125.641113,4120.000000,4142.563965,4152.307617,4150.256348,4150.769043,771.000000,4.000000,,,,0.000000,4.000000,4.000000,4.000000,4.000000,4.000000,4.000000,4.000000,4.000000,4.000000,4.000000,4.000000,4.000000,4.000000,4.000000,100.000000
1602005911.596915,85.000000,0.000000,4144.615234,4137.436035,4131.794922,4123.077148,4141.538574,4122.563965,4123.589844,4128.205078,4136.410156,4149.230957,4143.077148,4156.922852,4154.358887,4153.333496,756.000000,4.000000,,,,0.000000,4.000000,4.000000,4.000000,4.000000,4.000000,4.000000,4.000000,4.000000,4.000000,4.000000,4.000000,4.000000,4.000000,4.000000,100.000000
1602005911.604797,86.000000,0.000000,4152.307617,4138.461426,4136.922852,4127.179688,4140.512695,4122.051270,4118.461426,4119.487305,4134.358887,4157.436035,4152.820313,4155.897461,4152.307617,4159.487305,876.000000,4.000000,,,,0.000000,4.000000,4.000000,4.000000,4.000000,4.000000,4.000000,4.000000,4.000000,4.000000,4.000000,4.000000,4.000000,4.000000,4.000000,100.000000
1602005911.612680,87.000000,0.000000,4153.846191,4141.538574,4131.794922,4129.743652,4140.512695,4117.948730,4112.307617,4109.230957,4123.589844,4141.025879,4144.102539,4147.179688,4145.641113,4145.641113,841.000000,4.000000,,,,0.000000,4.000000,4.000000,4.000000,4.000000,4.000000,4.000000,4.000000,4.000000,4.000000,4.000000,4.000000,4.000000,4.000000,4.000000,100.000000
1602005911.620665,88.000000,0.000000,4133.846191,4139.487305,4123.077148,4123.589844,4135.897461,4115.897461,4107.179688,4103.589844,4123.077148,4136.922852,4123.589844,4132.820313,4138.974121,4123.077148,771.000000,4.000000,,,,0.000000,4.000000,4.000000,4.000000,4.000000,4.000000,4.000000,4.000000,4.000000,4.000000,4.000000,4.000000,4.000000,4.000000,4.000000,100.000000
1602005911.628549,89.000000,0.000000,4118.974121,4133.333496,4120.512695,4118.461426,4124.615234,4119.487305,4110.769043,4104.615234,4122.051270,4138.461426,4122.051270,4125.128418,4135.897461,4118.974121,756.000000,4.000000,,,,0.000000,4.000000,4.000000,4.000000,4.000000,4.000000,4.000000,4.000000,4.000000,4.000000,4.000000,4.000000,4.000000,4.000000,4.000000,100.000000
1602005911.636434,90.000000,0.000000,4123.589844,4131.794922,4121.025879,4121.538574,4125.128418,4124.102539,4118.974121,4112.307617,4121.538574,4141.025879,4134.871582,4131.282227,4137.436035,4125.128418,876.000000,4.000000,,,,0.000000,4.000000,4.000000,4.000000,4.000000,4.000000,4.000000,4.000000,4.000000,4.000000,4.000000,4.000000,4.000000,4.000000,4.000000,100.000000
1602005911.644318,91.000000,0.000000,4128.717773,4135.897461,4125.128418,4124.102539,4137.948730,4127.692383,4122.563965,4121.538574,4128.205078,4133.333496,4139.487305,4133.846191,4136.410156,4121.538574,841.000000,4.000000,,,,0.000000,4.000000,4.000000,4.000000,4.000000,4.000000,4.000000,4.000000,4.000000,4.000000,4.000000,4.000000,4.000000,4.000000,4.000000,100.000000
1602005911.652203,92.000000,0.000000,4125.128418,4134.358887,4135.897461,4123.589844,4138.461426,4126.153809,4124.102539,4124.102539,4129.230957,4116.922852,4136.410156,4124.615234,4133.333496,4118.974121,771.000000,4.000000,,,,0.000000,4.000000,4.000000,4.000000,4.000000,4.000000,4.000000,4.000000,4.000000,4.000000,4.000000,4.000000,4.000000,4.000000,4.000000,100.000000
1602005911.660087,93.000000,0.000000,4128.717773,4126.666504,4138.461426,4121.538574,4130.769043,4118.461426,4120.512695,4123.589844,4126.666504,4126.666504,4133.846191,4121.025879,4134.871582,4123.589844,756.000000,4.000000,,,,0.000000,4.000000,4.000000,4.000000,4.000000,4.000000,4.000000,4.000000,4.000000,4.000000,4.000000,4.000000,4.000000,4.000000,4.000000,100.000000
1602005911.667972,94.000000,0.000000,4134.871582,4122.563965,4136.410156,4120.512695,4130.256348,4115.384766,4112.307617,4124.615234,4129.230957,4148.717773,4129.230957,4127.692383,4136.410156,4125.641113,876.000000,4.000000,,,,0.000000,4.000000,4.000000,4.000000,4.000000,4.000000,4.000000,4.000000,4.000000,4.000000,4.000000,4.000000,4.000000,4.000000,4.000000,100.000000
1602005911.675856,95.000000,0.000000,4128.205078,4123.589844,4138.461426,4121.538574,4125.641113,4112.820313,4111.282227,4117.948730,4127.179688,4139.487305,4123.077148,4130.256348,4132.307617,4123.589844,841.000000,4.000000,,,,0.000000,4.000000,4.000000,4.000000,4.000000,4.000000,4.000000,4.000000,4.000000,4.000000,4.000000,4.000000,4.000000,4.000000,4.000000,100.000000
1602005911.683741,96.000000,0.000000,4123.589844,4128.717773,4138.974121,4120.000000,4119.487305,4106.666504,4111.282227,4107.179688,4120.512695,4129.230957,4129.230957,4131.794922,4130.256348,4124.102539,771.000000,4.000000,,,,0.000000,4.000000,4.000000,4.000000,4.000000,4.000000,4.000000,4.000000,4.000000,4.000000,4.000000,4.000000,4.000000,4.000000,4.000000,100.000000
1602005911.691525,97.000000,0.000000,4138.974121,4142.051270,4145.128418,4127.179688,4126.153809,4111.794922,4109.743652,4106.666504,4123.077148,4147.692383,4141.025879,4138.461426,4139.487305,4134.358887,756.000000,4.000000,,,,0.000000,4.000000,4.000000,4.000000,4.000000,4.000000,4.000000,4.000000,4.000000,4.000000,4.000000,4.000000,4.000000,4.000000,4.000000,100.000000
1602005911.699410,98.000000,0.000000,4149.230957,4151.282227,4157.436035,4141.538574,4130.769043,4123.077148,4112.820313,4108.717773,4130.256348,4149.230957,4140.000000,4144.102539,4146.666504,4142.051270,876.000000,4.000000,,,,0.000000,4.000000,4.000000,4.000000,4.000000,4.000000,4.000000,4.000000,4.000000,4.000000,4.000000,4.000000,4.000000,4.000000,4.000000,100.000000
1602005911.707294,99.000000,0.000000,4142.563965,4145.641113,4154.358887,4137.948730,4125.641113,4127.179688,4120.000000,4107.179688,4134.871582,4136.922852,4138.461426,4144.102539,4143.589844,4136.410156,841.000000,4.000000,,,,0.000000,4.000000,4.000000,4.000000,4.000000,4.000000,4.000000,4.000000,4.000000,4.000000,4.000000,4.000000,4.000000,4.000000,4.000000,100.000000
1602005911.715179,100.000000,0.000000,4136.922852,4133.333496,4140.000000,4122.051270,4121.538574,4131.794922,4123.589844,4108.717773,4137.948730,4138.974121,4138.974121,4141.538574,4138.974121,4134.871582,771.000000,4.000000,,,,0.000000,4.000000,4.000000,4.000000,4.000000,4.000000,4.000000,4.000000,4.000000,4.000000,4.000000,4.000000,4.000000,4.000000,4.000000,100.000000
1602005911.723063,101.000000,0.000000,4131.794922,4125.641113,4133.846191,4118.974121,4128.717773,4137.436035,4125.641113,4114.358887,4140.000000,4129.230957,4132.820313,4135.897461,4132.820313,4137.948730,756.000000,4.000000,,,,0.000000,4.000000,4.000000,4.000000,4.000000,4.000000,4.000000,4.000000,4.000000,4.000000,4.000000,4.000000,4.000000,4.000000,4.000000,100.000000
1602005911.730948,102.000000,0.000000,4123.077148,4122.563965,4129.230957,4123.589844,4131.794922,4132.820313,4128.717773,4120.000000,4140.000000,4114.871582,4124.102539,4130.769043,4123.589844,4130.769043,876.000000,4.000000,,,,0.000000,4.000000,4.000000,4.000000,4.000000,4.000000,4.000000,4.000000,4.000000,4.000000,4.000000,4.000000,4.000000,4.000000,4.000000,100.000000
1602005911.738832,103.000000,0.000000,4120.000000,4120.000000,4118.974121,4120.000000,4126.153809,4126.153809,4132.820313,4126.666504,4141.025879,4134.871582,4120.512695,4130.769043,4120.512695,4127.179688,841.000000,4.000000,,,,0.000000,4.000000,4.000000,4.000000,4.000000,4.000000,4.000000,4.000000,4.000000,4.000000,4.000000,4.000000,4.000000,4.000000,4.000000,100.000000
1602005911.746717,104.000000,0.000000,4126.666504,4126.153809,4125.128418,4121.025879,4129.743652,4125.641113,4138.461426,4137.948730,4145.128418,4162.563965,4125.128418,4140.000000,4129.743652,4141.538574,771.000000,4.000000,,,,0.000000,4.000000,4.000000,4.000000,4.000000,4.000000,4.000000,4.000000,4.000000,4.000000,4.000000,4.000000,4.000000,4.000000,4.000000,100.000000
1602005911.754601,105.000000,0.000000,4142.051270,4138.974121,4146.153809,4132.820313,4140.512695,4125.128418,4137.436035,4145.128418,4146.153809,4153.846191,4142.051270,4152.307617,4144.102539,4155.897461,756.000000,4.000000,,,,0.000000,4.000000,4.000000,4.000000,4.000000,4.000000,4.000000,4.000000,4.000000,4.000000,4.000000,4.000000,4.000000,4.000000,4.000000,100.000000
1602005911.762383,106.000000,0.000000,4155.384766,4142.563965,4155.897461,4139.487305,4141.025879,4123.077148,4128.205078,4143.589844,4142.051270,4150.256348,4156.410156,4157.436035,4153.846191,4156.410156,876.000000,4.000000,,,,0.000000,4.000000,4.000000,4.000000,4.000000,4.000000,4.000000,4.000000,4.000000,4.000000,4.000000,4.000000,4.000000,4.000000,4.000000,100.000000
1602005911.770265,107.000000,0.000000,4151.794922,4137.948730,4152.307617,4137.436035,4136.922852,4122.563965,4124.102539,4139.487305,4139.487305,4164.102539,4150.256348,4158.461426,4157.948730,4154.871582,841.000000,4.000000,,,,0.000000,4.000000,4.000000,4.000000,4.000000,4.000000,4.000000,4.000000,4.000000,4.000000,4.000000,4.000000,4.000000,4.000000,4.000000,100.000000
1602005911.778246,108.000000,0.000000,4138.461426,4137.948730,4150.256348,4134.871582,4137.436035,4124.102539,4124.615234,4132.820313,4126.153809,4137.436035,4142.051270,4161.025879,4155.897461,4158.461426,771.000000,4.000000,,,,0.000000,4.000000,4.000000,4.000000,4.000000,4.000000,4.000000,4.000000,4.000000,4.000000,4.000000,4.000000,4.000000,4.000000,4.000000,100.000000
1602005911.786128,109.000000,0.000000,4136.922852,4139.487305,4148.717773,4136.922852,4136.922852,4125.128418,4123.589844,4118.974121,4104.102539,4099.487305,4141.025879,4162.051270,4148.717773,4158.974121,756.000000,4.000000,,,,0.000000,4.000000,4.000000,4.000000,4.000000,4.000000,4.000000,4.000000,4.000000,4.000000,4.000000,4.000000,4.000000,4.000000,4.000000,100.000000
1602005911.794009,110.000000,0.000000,4141.538574,4135.897461,4141.538574,4135.384766,4133.846191,4123.077148,4119.487305,4107.179688,4096.410156,4119.487305,4133.846191,4158.974121,4138.461426,4155.384766,876.000000,4.000000,,,,0.000000,4.000000,4.000000,4.000000,4.000000,4.000000,4.000000,4.000000,4.000000,4.000000,4.000000,4.000000,4.000000,4.000000,4.000000,100.000000
1602005911.801791,111.000000,0.000000,4136.922852,4133.333496,4134.871582,4129.743652,4134.358887,4121.025879,4113.333496,4103.589844,4104.615234,4155.897461,4124.615234,4151.282227,4135.897461,4149.230957,841.000000,4.000000,,,,0.000000,4.000000,4.000000,4.000000,4.000000,4.000000,4.000000,4.000000,4.000000,4.000000,4.000000,4.000000,4.000000,4.000000,4.000000,100.000000
1602005911.809672,112.000000,0.000000,4134.871582,4135.384766,4135.384766,4128.717773,4136.410156,4123.077148,4110.256348,4104.615234,4120.512695,4150.769043,4126.666504,4144.102539,4138.461426,4142.051270,771.000000,4.000000,,,,0.000000,4.000000,4.000000,4.000000,4.000000,4.000000,4.000000,4.000000,4.000000,4.000000,4.000000,4.000000,4.000000,4.000000,4.000000,100.000000
1602005911.817454,113.000000,0.000000,4136.410156,4135.384766,4131.282227,4130.256348,4137.948730,4126.666504,4114.358887,4107.692383,4137.436035,4140.000000,4129.743652,4137.436035,4133.333496,4137.948730,756.000000,4.000000,,,,0.000000,4.000000,4.000000,4.000000,4.000000,4.000000,4.000000,4.000000,4.000000,4.000000,4.000000,4.000000,4.000000,4.000000,4.000000,100.000000
1602005911.825335,114.000000,0.000000,4131.282227,4135.384766,4121.538574,4130.256348,4138.974121,4130.769043,4120.512695,4119.487305,4142.563965,4138.461426,4122.051270,4128.205078,4130.769043,4136.922852,876.000000,4.000000,,,,0.000000,4.000000,4.000000,4.000000,4.000000,4.000000,4.000000,4.000000,4.000000,4.000000,4.000000,4.000000,4.000000,4.000000,4.000000,100.000000
1602005911.833117,115.000000,0.000000,4130.769043,4135.897461,4124.615234,4132.307617,4135.384766,4129.230957,4122.563965,4134.358887,4140.512695,4131.794922,4121.025879,4128.205078,4134.871582,4134.358887,841.000000,4.000000,,,,0.000000,4.000000,4.000000,4.000000,4.000000,4.000000,4.000000,4.000000,4.000000,4.000000,4.000000,4.000000,4.000000,4.000000,4.000000,100.000000
1602005911.840999,116.000000,0.000000,4145.128418,4137.948730,4141.025879,4137.436035,4133.846191,4125.128418,4124.102539,4143.589844,4151.282227,4153.846191,4134.871582,4146.666504,4137.436035,4137.948730,771.000000,4.000000,,,,0.000000,4.000000,4.000000,4.000000,4.000000,4.000000,4.000000,4.000000,4.000000,4.000000,4.000000,4.000000,4.000000,4.000000,4.000000,100.000000
1602005911.848881,117.000000,0.000000,4154.871582,4146.153809,4152.820313,4140.000000,4138.461426,4123.077148,4124.615234,4145.128418,4162.563965,4178.461426,4145.641113,4159.487305,4137.948730,4147.179688,756.000000,4.000000,,,,0.000000,4.000000,4.000000,4.000000,4.000000,4.000000,4.000000,4.000000,4.000000,4.000000,4.000000,4.000000,4.000000,4.000000,4.000000,100.000000
1602005911.856663,118.000000,0.000000,4152.307617,4151.794922,4154.358887,4140.000000,4133.333496,4118.461426,4122.563965,4141.025879,4152.820313,4155.384766,4142.051270,4159.487305,4138.974121,4153.846191,876.000000,4.000000,,,,0.000000,4.000000,4.000000,4.000000,4.000000,4.000000,4.000000,4.000000,4.000000,4.000000,4.000000,4.000000,4.000000,4.000000,4.000000,100.000000
1602005911.864545,119.000000,0.000000,4155.384766,4152.307617,4155.897461,4141.025879,4125.641113,4118.461426,4123.077148,4134.871582,4137.436035,4125.128418,4141.538574,4165.641113,4139.487305,4158.461426,841.000000,4.000000,,,,0.000000,4.000000,4.000000,4.000000,4.000000,4.000000,4.000000,4.000000,4.000000,4.000000,4.000000,4.000000,4.000000,4.000000,4.000000,100.000000
1602005911.872428,120.000000,0.000000,4159.487305,4151.794922,4155.897461,4141.538574,4131.794922,4123.077148,4125.128418,4126.666504,4124.102539,4127.179688,4138.974121,4165.641113,4139.487305,4155.384766,771.000000,4.000000,,,,0.000000,4.000000,4.000000,4.000000,4.000000,4.000000,4.000000,4.000000,4.000000,4.000000,4.000000,4.000000,4.000000,4.000000,4.000000,100.000000
1602005911.880409,121.000000,0.000000,4147.179688,4144.615234,4145.641113,4140.512695,4136.922852,4123.077148,4124.615234,4114.358887,4106.153809,4127.179688,4122.563965,4154.358887,4137.436035,4148.205078,756.000000,4.000000,,,,0.000000,4.000000,4.000000,4.000000,4.000000,4.000000,4.000000,4.000000,4.000000,4.000000,4.000000,4.000000,4.000000,4.000000,4.000000,100.000000
1602005911.888291,122.000000,0.000000,4138.461426,4137.948730,4137.948730,4137.436035,4133.846191,4129.743652,4125.641113,4105.641113,4101.538574,4123.077148,4122.563965,4155.384766,4136.922852,4153.333496,876.000000,4.000000,,,,0.000000,4.000000,4.000000,4.000000,4.000000,4.000000,4.000000,4.000000,4.000000,4.000000,4.000000,4.000000,4.000000,4.000000,4.000000,100.000000
1602005911.896272,123.000000,0.000000,4146.153809,4145.128418,4147.692383,4137.436035,4137.436035,4146.153809,4128.717773,4107.692383,4117.948730,4145.641113,4147.179688,4170.769043,4149.230957,4172.307617,841.000000,4.000000,,,,0.000000,4.000000,4.000000,4.000000,4.000000,4.000000,4.000000,4.000000,4.000000,4.000000,4.000000,4.000000,4.000000,4.000000,4.000000,100.000000
1602005911.904255,124.000000,0.000000,4148.205078,4148.717773,4154.358887,4140.000000,4137.436035,4142.051270,4123.589844,4106.153809,4124.615234,4159.487305,4155.897461,4173.333496,4160.000000,4170.256348,771.000000,4.000000,,,,0.000000,4.000000,4.000000,4.000000,4.000000,4.000000,4.000000,4.000000,4.000000,4.000000,4.000000,4.000000,4.000000,4.000000,4.000000,100.000000
1602005911.912139,125.000000,0.000000,4136.922852,4137.436035,4142.051270,4134.871582,4128.205078,4121.025879,4114.871582,4097.436035,4123.589844,4146.666504,4142.563965,4160.000000,4149.743652,4152.820313,756.000000,4.000000,,,,0.000000,4.000000,4.000000,4.000000,4.000000,4.000000,4.000000,4.000000,4.000000,4.000000,4.000000,4.000000,4.000000,4.000000,4.000000,100.000000
1602005911.920023,126.000000,0.000000,4136.410156,4137.436035,4135.384766,4130.769043,4129.743652,4117.436035,4115.897461,4103.077148,4137.436035,4139.487305,4138.974121,4152.307617,4140.000000,4159.487305,876.000000,4.000000,,,,0.000000,4.000000,4.000000,4.000000,4.000000,4.000000,4.000000,4.000000,4.000000,4.000000,4.000000,4.000000,4.000000,4.000000,4.000000,100.000000
1602005911.927907,127.000000,0.000000,4139.487305,4144.615234,4141.025879,4135.897461,4132.307617,4125.128418,4121.538574,4120.000000,4147.179688,4134.871582,4143.589844,4156.410156,4145.641113,4170.256348,841.000000,4.000000,,,,0.000000,4.000000,4.000000,4.000000,4.000000,4.000000,4.000000,4.000000,4.000000,4.000000,4.000000,4.000000,4.000000,4.000000,4.000000,100.000000
1602005911.935791,128.000000,0.000000,4127.179688,4140.512695,4138.461426,4139.487305,4130.769043,4124.615234,4120.512695,4125.641113,4142.051270,4125.641113,4133.333496,4154.871582,4142.051270,4156.410156,771.000000,4.000000,,,,0.000000,4.000000,4.000000,4.000000,4.000000,4.000000,4.000000,4.000000,4.000000,4.000000,4.000000,4.000000,4.000000,4.000000,4.000000,100.000000
1602005911.943674,0.000000,0.000000,4125.128418,4138.974121,4132.307617,4132.820313,4133.333496,4120.512695,4118.461426,4121.538574,4136.410156,4131.794922,4119.487305,4150.256348,4126.153809,4144.615234,789.000000,4.000000,,,,0.000000,4.000000,4.000000,4.000000,4.000000,4.000000,4.000000,4.000000,4.000000,4.000000,4.000000,4.000000,4.000000,4.000000,4.000000,100.000000
1602005911.951558,1.000000,0.000000,4135.384766,4137.948730,4136.410156,4125.128418,4130.256348,4122.051270,4120.000000,4119.487305,4126.153809,4141.025879,4120.512695,4161.025879,4124.102539,4153.333496,793.000000,4.000000,,,,0.000000,4.000000,4.000000,4.000000,4.000000,4.000000,4.000000,4.000000,4.000000,4.000000,4.000000,4.000000,4.000000,4.000000,4.000000,100.000000
1602005911.959343,2.000000,0.000000,4130.769043,4126.153809,4140.512695,4123.077148,4122.563965,4126.666504,4121.025879,4119.487305,4110.256348,4130.769043,4124.102539,4168.205078,4125.128418,4156.410156,856.000000,4.000000,,,,0.000000,4.000000,4.000000,4.000000,4.000000,4.000000,4.000000,4.000000,4.000000,4.000000,4.000000,4.000000,4.000000,4.000000,4.000000,100.000000
1602005911.967227,3.000000,0.000000,4119.487305,4119.487305,4141.538574,4122.051270,4123.589844,4125.128418,4124.102539,4121.025879,4103.589844,4123.589844,4121.025879,4159.487305,4121.025879,4145.641113,870.000000,4.000000,,,,0.000000,4.000000,4.000000,4.000000,4.000000,4.000000,4.000000,4.000000,4.000000,4.000000,4.000000,4.000000,4.000000,4.000000,4.000000,100.000000
1602005911.975111,4.000000,0.000000,4123.077148,4123.077148,4137.436035,4122.563965,4126.153809,4123.077148,4123.077148,4122.051270,4107.179688,4121.538574,4126.666504,4152.307617,4120.000000,4137.948730,814.000000,4.000000,,,,0.000000,4.000000,4.000000,4.000000,4.000000,4.000000,4.000000,4.000000,4.000000,4.000000,4.000000,4.000000,4.000000,4.000000,4.000000,100.000000
1602005911.982995,5.000000,0.000000,4126.666504,4125.641113,4126.666504,4123.077148,4126.153809,4129.743652,4122.051270,4125.128418,4122.051270,4123.589844,4137.948730,4148.717773,4122.563965,4132.820313,827.000000,4.000000,,,,0.000000,4.000000,4.000000,4.000000,4.000000,4.000000,4.000000,4.000000,4.000000,4.000000,4.000000,4.000000,4.000000,4.000000,4.000000,100.000000
1602005911.990880,6.000000,0.000000,4122.051270,4130.256348,4126.153809,4123.077148,4129.230957,4137.948730,4130.769043,4134.871582,4145.128418,4145.641113,4138.974121,4141.025879,4128.205078,4134.358887,814.000000,4.000000,,,,0.000000,4.000000,4.000000,4.000000,4.000000,4.000000,4.000000,4.000000,4.000000,4.000000,4.000000,4.000000,4.000000,4.000000,4.000000,100.000000
1602005911.998764,7.000000,0.000000,4124.102539,4138.974121,4136.410156,4125.641113,4129.230957,4135.384766,4134.358887,4141.025879,4157.436035,4163.589844,4137.436035,4138.974121,4138.461426,4146.153809,688.000000,4.000000,,,,0.000000,4.000000,4.000000,4.000000,4.000000,4.000000,4.000000,4.000000,4.000000,4.000000,4.000000,4.000000,4.000000,4.000000,4.000000,100.000000
1602005912.006648,8.000000,0.000000,4130.769043,4137.436035,4136.922852,4132.307617,4124.102539,4125.641113,4124.615234,4136.922852,4153.846191,4154.358887,4139.487305,4145.641113,4136.410156,4147.692383,787.000000,4.000000,,,,0.000000,4.000000,4.000000,4.000000,4.000000,4.000000,4.000000,4.000000,4.000000,4.000000,4.000000,4.000000,4.000000,4.000000,4.000000,100.000000
1602005912.014532,9.000000,0.000000,4141.538574,4137.436035,4140.000000,4136.410156,4119.487305,4120.512695,4125.128418,4138.974121,4153.333496,4155.384766,4140.000000,4156.922852,4131.794922,4146.666504,843.000000,4.000000,,,,0.000000,4.000000,4.000000,4.000000,4.000000,4.000000,4.000000,4.000000,4.000000,4.000000,4.000000,4.000000,4.000000,4.000000,4.000000,100.000000
1602005912.022517,10.000000,0.000000,4160.000000,4150.769043,4155.897461,4140.512695,4122.563965,4122.051270,4134.358887,4148.205078,4160.000000,4172.820313,4144.102539,4173.846191,4149.230957,4166.666504,876.000000,4.000000,,,,0.000000,4.000000,4.000000,4.000000,4.000000,4.000000,4.000000,4.000000,4.000000,4.000000,4.000000,4.000000,4.000000,4.000000,4.000000,100.000000
1602005912.030402,11.000000,0.000000,4156.922852,4149.230957,4156.410156,4140.000000,4128.205078,4127.692383,4128.717773,4145.128418,4153.333496,4159.487305,4141.538574,4173.333496,4145.128418,4165.641113,841.000000,4.000000,,,,0.000000,4.000000,4.000000,4.000000,4.000000,4.000000,4.000000,4.000000,4.000000,4.000000,4.000000,4.000000,4.000000,4.000000,4.000000,100.000000
1602005912.038286,12.000000,0.000000,4125.641113,4128.717773,4135.384766,4127.179688,4125.641113,4125.641113,4119.487305,4132.820313,4136.410156,4130.769043,4122.563965,4150.769043,4107.179688,4126.153809,771.000000,4.000000,,,,0.000000,4.000000,4.000000,4.000000,4.000000,4.000000,4.000000,4.000000,4.000000,4.000000,4.000000,4.000000,4.000000,4.000000,4.000000,100.000000
1602005912.046171,13.000000,0.000000,4111.282227,4121.538574,4120.512695,4120.000000,4122.563965,4117.948730,4118.461426,4124.615234,4133.333496,4138.974121,4118.461426,4135.384766,4103.077148,4122.051270,756.000000,4.000000,,,,0.000000,4.000000,4.000000,4.000000,4.000000,4.000000,4.000000,4.000000,4.000000,4.000000,4.000000,4.000000,4.000000,4.000000,4.000000,100.000000
1602005912.054056,14.000000,0.000000,4118.461426,4121.025879,4118.461426,4121.538574,4124.102539,4122.051270,4118.974121,4123.077148,4138.974121,4168.205078,4140.512695,4135.897461,4139.487305,4154.358887,876.000000,4.000000,,,,0.000000,4.000000,4.000000,4.000000,4.000000,4.000000,4.000000,4.000000,4.000000,4.000000,4.000000,4.000000,4.000000,4.000000,4.000000,100.000000
1602005912.061941,15.000000,0.000000,4116.410156,4111.282227,4122.051270,4116.922852,4124.615234,4135.384766,4123.077148,4129.230957,4136.922852,4170.256348,4156.410156,4146.666504,4165.641113,4171.282227,841.000000,4.000000,,,,0.000000,4.000000,4.000000,4.000000,4.000000,4.000000,4.000000,4.000000,4.000000,4.000000,4.000000,4.000000,4.000000,4.000000,4.000000,100.000000
1602005912.069825,16.000000,0.000000,4107.179688,4103.589844,4126.153809,4110.256348,4124.615234,4145.641113,4136.410156,4138.974121,4135.897461,4156.410156,4164.102539,4161.538574,4181.538574,4187.692383,0.000000,4.000000,,,,0.000000,4.000000,4.000000,4.000000,4.000000,4.000000,4.000000,4.000000,4.000000,4.000000,4.000000,4.000000,4.000000,4.000000,4.000000,100.000000
1602005912.077710,17.000000,0.000000,4097.436035,4096.410156,4125.641113,4106.666504,4125.128418,4152.820313,4150.769043,4141.025879,4142.051270,4150.256348,4165.641113,4168.717773,4197.436035,4197.436035,0.000000,4.000000,,,,0.000000,4.000000,4.000000,4.000000,4.000000,4.000000,4.000000,4.000000,4.000000,4.000000,4.000000,4.000000,4.000000,4.000000,4.000000,100.000000
1602005912.085595,18.000000,0.000000,4086.666748,4085.641113,4126.666504,4104.102539,4123.589844,4150.769043,4156.410156,4137.948730,4137.436035,4141.538574,4162.051270,4167.692383,4195.384766,4188.205078,0.000000,4.000000,,,,0.000000,4.000000,4.000000,4.000000,4.000000,4.000000,4.000000,4.000000,4.000000,4.000000,4.000000,4.000000,4.000000,4.000000,4.000000,100.000000
1602005912.093480,19.000000,0.000000,4094.871826,4093.333252,4136.410156,4112.820313,4123.077148,4142.051270,4154.358887,4137.948730,4126.666504,4142.563965,4168.205078,4170.769043,4194.358887,4195.384766,0.000000,4.000000,,,,0.000000,4.000000,4.000000,4.000000,4.000000,4.000000,4.000000,4.000000,4.000000,4.000000,4.000000,4.000000,4.000000,4.000000,4.000000,100.000000
1602005912.101263,20.000000,0.000000,4110.256348,4104.615234,4146.153809,4120.512695,4122.051270,4139.487305,4146.666504,4140.000000,4130.256348,4167.179688,4170.256348,4176.922852,4204.615234,4210.256348,0.000000,4.000000,,,,0.000000,4.000000,4.000000,4.000000,4.000000,4.000000,4.000000,4.000000,4.000000,4.000000,4.000000,4.000000,4.000000,4.000000,4.000000,100.000000
1602005912.109146,21.000000,0.000000,4106.153809,4093.333252,4145.128418,4110.769043,4119.487305,4139.487305,4141.025879,4142.051270,4148.205078,4180.000000,4157.436035,4172.307617,4201.538574,4195.897461,0.000000,4.000000,,,,0.000000,4.000000,4.000000,4.000000,4.000000,4.000000,4.000000,4.000000,4.000000,4.000000,4.000000,4.000000,4.000000,4.000000,4.000000,100.000000
1602005912.117030,22.000000,0.000000,4096.922852,4084.615479,4134.358887,4104.102539,4122.563965,4134.871582,4140.000000,4144.615234,4152.820313,4167.692383,4155.384766,4158.974121,4189.230957,4178.461426,0.000000,4.000000,,,,0.000000,4.000000,4.000000,4.000000,4.000000,4.000000,4.000000,4.000000,4.000000,4.000000,4.000000,4.000000,4.000000,4.000000,4.000000,100.000000
1602005912.124913,23.000000,0.000000,4093.333252,4089.743652,4123.589844,4110.256348,4125.128418,4136.410156,4137.436035,4143.589844,4140.512695,4167.692383,4160.512695,4154.871582,4185.641113,4182.051270,0.000000,4.000000,,,,0.000000,4.000000,4.000000,4.000000,4.000000,4.000000,4.000000,4.000000,4.000000,4.000000,4.000000,4.000000,4.000000,4.000000,4.000000,100.000000
1602005912.132796,24.000000,0.000000,4089.230713,4090.769287,4119.487305,4110.769043,4124.102539,4138.974121,4135.897461,4131.794922,4126.153809,4156.922852,4154.358887,4152.820313,4182.051270,4177.948730,0.000000,4.000000,,,,0.000000,4.000000,4.000000,4.000000,4.000000,4.000000,4.000000,4.000000,4.000000,4.000000,4.000000,4.000000,4.000000,4.000000,4.000000,100.000000
1602005912.140680,25.000000,0.000000,4088.205078,4087.179443,4121.025879,4105.641113,4125.641113,4136.410156,4145.128418,4121.538574,4112.307617,4112.820313,4147.692383,4141.025879,4166.666504,4157.948730,0.000000,4.000000,,,,0.000000,4.000000,4.000000,4.000000,4.000000,4.000000,4.000000,4.000000,4.000000,4.000000,4.000000,4.000000,4.000000,4.000000,4.000000,100.000000
1602005912.148664,26.000000,0.000000,4087.692383,4087.692383,4121.538574,4105.641113,4127.179688,4135.897461,4155.897461,4127.179688,4109.743652,4102.051270,4144.615234,4130.256348,4156.410156,4148.205078,0.000000,4.000000,,,,0.000000,4.000000,4.000000,4.000000,4.000000,4.000000,4.000000,4.000000,4.000000,4.000000,4.000000,4.000000,4.000000,4.000000,4.000000,100.000000
1602005912.156549,27.000000,0.000000,4090.769287,4094.871826,4123.077148,4112.820313,4127.179688,4139.487305,4160.512695,4140.000000,4123.589844,4145.128418,4143.589844,4134.358887,4166.666504,4158.974121,0.000000,4.000000,,,,0.000000,4.000000,4.000000,4.000000,4.000000,4.000000,4.000000,4.000000,4.000000,4.000000,4.000000,4.000000,4.000000,4.000000,4.000000,100.000000
1602005912.164434,28.000000,0.000000,4104.615234,4105.641113,4134.871582,4122.051270,4128.205078,4143.077148,4158.461426,4149.743652,4143.077148,4175.384766,4152.307617,4147.179688,4181.538574,4168.205078,0.000000,4.000000,,,,0.000000,4.000000,4.000000,4.000000,4.000000,4.000000,4.000000,4.000000,4.000000,4.000000,4.000000,4.000000,4.000000,4.000000,4.000000,100.000000
1602005912.172319,29.000000,0.000000,4114.358887,4111.282227,4152.307617,4125.128418,4128.717773,4140.000000,4145.641113,4153.333496,4151.282227,4171.794922,4158.461426,4161.538574,4184.615234,4175.384766,0.000000,4.000000,,,,0.000000,4.000000,4.000000,4.000000,4.000000,4.000000,4.000000,4.000000,4.000000,4.000000,4.000000,4.000000,4.000000,4.000000,4.000000,100.000000
1602005912.180203,30.000000,0.000000,4113.333496,4112.307617,4163.077148,4126.153809,4130.256348,4136.410156,4135.384766,4148.205078,4146.666504,4169.230957,4155.384766,4172.820313,4185.641113,4188.717773,0.000000,4.000000,,,,0.000000,4.000000,4.000000,4.000000,4.000000,4.000000,4.000000,4.000000,4.000000,4.000000,4.000000,4.000000,4.000000,4.000000,4.000000,100.000000
1602005912.188088,31.000000,0.000000,4107.692383,4111.282227,4154.358887,4128.205078,4128.717773,4141.025879,4135.897461,4129.743652,4135.384766,4155.897461,4151.794922,4169.743652,4183.077148,4178.974121,0.000000,4.000000,,,,0.000000,4.000000,4.000000,4.000000,4.000000,4.000000,4.000000,4.000000,4.000000,4.000000,4.000000,4.000000,4.000000,4.000000,4.000000,100.000000
1602005912.195973,32.000000,0.000000,4091.281982,4101.538574,4130.256348,4118.974121,4122.563965,4144.615234,4134.358887,4118.974121,4131.794922,4129.743652,4150.769043,4155.384766,4173.333496,4153.333496,0.000000,4.000000,,,,0.000000,4.000000,4.000000,4.000000,4.000000,4.000000,4.000000,4.000000,4.000000,4.000000,4.000000,4.000000,4.000000,4.000000,4.000000,100.000000
1602005912.203857,33.000000,0.000000,4074.358887,4089.230713,4111.282227,4107.179688,4124.615234,4142.563965,4133.846191,4130.769043,4145.128418,4136.410156,4154.871582,4142.563965,4171.282227,4152.307617,0.000000,4.000000,,,,0.000000,4.000000,4.000000,4.000000,4.000000,4.000000,4.000000,4.000000,4.000000,4.000000,4.000000,4.000000,4.000000,4.000000,4.000000,100.000000
1602005912.211742,34.000000,0.000000,4072.820557,4084.102539,4103.589844,4105.128418,4127.692383,4141.025879,4137.948730,4140.512695,4152.307617,4157.436035,4147.692383,4134.358887,4169.230957,4152.307617,0.000000,4.000000,,,,0.000000,4.000000,4.000000,4.000000,4.000000,4.000000,4.000000,4.000000,4.000000,4.000000,4.000000,4.000000,4.000000,4.000000,4.000000,100.000000
1602005912.219724,35.000000,0.000000,4075.384521,4083.589844,4103.077148,4104.102539,4124.615234,4138.974121,4139.487305,4143.077148,4157.948730,4153.333496,4136.922852,4131.282227,4159.487305,4132.820313,0.000000,4.000000,,,,0.000000,4.000000,4.000000,4.000000,4.000000,4.000000,4.000000,4.000000,4.000000,4.000000,4.000000,4.000000,4.000000,4.000000,4.000000,100.000000
1602005912.227605,36.000000,0.000000,4079.487061,4089.230713,4111.794922,4107.692383,4129.230957,4143.077148,4145.641113,4153.333496,4171.794922,4157.436035,4146.666504,4142.051270,4162.051270,4139.487305,0.000000,4.000000,,,,0.000000,4.000000,4.000000,4.000000,4.000000,4.000000,4.000000,4.000000,4.000000,4.000000,4.000000,4.000000,4.000000,4.000000,4.000000,100.000000
1602005912.235487,37.000000,0.000000,4089.743652,4100.512695,4122.563965,4118.461426,4138.974121,4152.307617,4152.820313,4163.589844,4171.282227,4176.410156,4157.948730,4163.589844,4174.871582,4168.717773,0.000000,4.000000,,,,0.000000,4.000000,4.000000,4.000000,4.000000,4.000000,4.000000,4.000000,4.000000,4.000000,4.000000,4.000000,4.000000,4.000000,4.000000,100.000000
1602005912.243271,38.000000,0.000000,4102.051270,4107.179688,4128.717773,4122.563965,4137.436035,4149.230957,4152.820313,4160.000000,4157.436035,4161.538574,4152.307617,4173.846191,4173.846191,4176.410156,0.000000,4.000000,,,,0.000000,4.000000,4.000000,4.000000,4.000000,4.000000,4.000000,4.000000,4.000000,4.000000,4.000000,4.000000,4.000000,4.000000,4.000000,100.000000
1602005912.251154,39.000000,0.000000,4108.205078,4106.666504,4135.384766,4121.538574,4133.333496,4140.000000,4153.333496,4156.922852,4149.230957,4131.794922,4149.743652,4172.820313,4167.692383,4164.102539,0.000000,4.000000,,,,0.000000,4.000000,4.000000,4.000000,4.000000,4.000000,4.000000,4.000000,4.000000,4.000000,4.000000,4.000000,4.000000,4.000000,4.000000,100.000000
1602005912.259038,40.000000,0.000000,4103.077148,4106.666504,4138.461426,4124.102539,4137.948730,4140.512695,4149.743652,4156.410156,4140.512695,4131.794922,4152.307617,4171.282227,4168.717773,4153.846191,0.000000,4.000000,,,,0.000000,4.000000,4.000000,4.000000,4.000000,4.000000,4.000000,4.000000,4.000000,4.000000,4.000000,4.000000,4.000000,4.000000,4.000000,100.000000
1602005912.266921,41.000000,0.000000,4098.461426,4109.743652,4135.897461,4124.102539,4140.512695,4138.461426,4137.436035,4143.077148,4121.025879,4140.000000,4142.563965,4164.615234,4169.743652,4153.333496,0.000000,4.000000,,,,0.000000,4.000000,4.000000,4.000000,4.000000,4.000000,4.000000,4.000000,4.000000,4.000000,4.000000,4.000000,4.000000,4.000000,4.000000,100.000000
1602005912.274805,42.000000,0.000000,4104.102539,4115.384766,4135.897461,4129.230957,4138.974121,4132.820313,4131.282227,4131.794922,4108.205078,4134.358887,4132.307617,4151.282227,4167.692383,4154.358887,0.000000,4.000000,,,,0.000000,4.000000,4.000000,4.000000,4.000000,4.000000,4.000000,4.000000,4.000000,4.000000,4.000000,4.000000,4.000000,4.000000,4.000000,100.000000
1602005912.282688,43.000000,0.000000,4109.743652,4122.051270,4133.846191,4137.436035,4141.025879,4134.871582,4135.384766,4133.846191,4110.256348,4130.256348,4144.615234,4148.205078,4166.666504,4155.384766,0.000000,4.000000,,,,0.000000,4.000000,4.000000,4.000000,4.000000,4.000000,4.000000,4.000000,4.000000,4.000000,4.000000,4.000000,4.000000,4.000000,4.000000,100.000000
1602005912.290572,44.000000,0.000000,4109.743652,4120.000000,4126.666504,4131.794922,4145.641113,4136.410156,4136.922852,4137.436035,4115.897461,4136.922852,4155.897461,4161.538574,4173.846191,4163.077148,0.000000,4.000000,,,,0.000000,4.000000,4.000000,4.000000,4.000000,4.000000,4.000000,4.000000,4.000000,4.000000,4.000000,4.000000,4.000000,4.000000,4.000000,100.000000
1602005912.298357,45.000000,0.000000,4104.615234,4108.717773,4123.077148,4124.102539,4141.025879,4125.641113,4135.384766,4135.897461,4119.487305,4142.051270,4153.846191,4172.820313,4182.563965,4165.641113,0.000000,4.000000,,,,0.000000,4.000000,4.000000,4.000000,4.000000,4.000000,4.000000,4.000000,4.000000,4.000000,4.000000,4.000000,4.000000,4.000000,4.000000,100.000000
1602005912.306241,46.000000,0.000000,4093.333252,4097.948730,4121.538574,4121.538574,4127.692383,4114.358887,4137.436035,4141.538574,4120.512695,4142.051270,4160.512695,4173.333496,4184.615234,4155.384766,0.000000,4.000000,,,,0.000000,4.000000,4.000000,4.000000,4.000000,4.000000,4.000000,4.000000,4.000000,4.000000,4.000000,4.000000,4.000000,4.000000,4.000000,100.000000
1602005912.314126,47.000000,0.000000,4091.281982,4093.846191,4119.487305,4114.871582,4125.128418,4123.077148,4146.153809,4151.282227,4128.717773,4148.717773,4168.717773,4166.153809,4182.051270,4149.743652,0.000000,4.000000,,,,0.000000,4.000000,4.000000,4.000000,4.000000,4.000000,4.000000,4.000000,4.000000,4.000000,4.000000,4.000000,4.000000,4.000000,4.000000,100.000000
1602005912.322010,48.000000,0.000000,4101.538574,4100.000000,4122.563965,4113.846191,4134.871582,4146.666504,4156.410156,4154.358887,4145.128418,4174.358887,4162.051270,4156.922852,4182.563965,4152.820313,0.000000,4.000000,,,,0.000000,4.000000,4.000000,4.000000,4.000000,4.000000,4.000000,4.000000,4.000000,4.000000,4.000000,4.000000,4.000000,4.000000,4.000000,100.000000
1602005912.329895,49.000000,0.000000,4107.179688,4108.717773,4125.128418,4123.589844,4145.641113,4157.436035,4157.948730,4156.922852,4155.897461,4190.256348,4154.871582,4152.307617,4185.641113,4150.769043,0.000000,4.000000,,,,0.000000,4.000000,4.000000,4.000000,4.000000,4.000000,4.000000,4.000000,4.000000,4.000000,4.000000,4.000000,4.000000,4.000000,4.000000,100.000000
1602005912.337779,50.000000,0.000000,4103.077148,4108.205078,4122.563965,4126.153809,4151.794922,4154.358887,4154.358887,4157.948730,4155.384766,4174.358887,4156.410156,4151.794922,4180.000000,4140.512695,0.000000,4.000000,,,,0.000000,4.000000,4.000000,4.000000,4.000000,4.000000,4.000000,4.000000,4.000000,4.000000,4.000000,4.000000,4.000000,4.000000,4.000000,100.000000
1602005912.345664,51.000000,0.000000,4096.410156,4106.666504,4124.102539,4122.051270,4152.820313,4154.871582,4153.333496,4157.948730,4156.410156,4164.102539,4155.384766,4152.820313,4175.897461,4141.025879,0.000000,4.000000,,,,0.000000,4.000000,4.000000,4.000000,4.000000,4.000000,4.000000,4.000000,4.000000,4.000000,4.000000,4.000000,4.000000,4.000000,4.000000,100.000000
1602005912.353548,52.000000,0.000000,4104.615234,4116.410156,4131.794922,4128.205078,4150.256348,4154.358887,4154.358887,4160.512695,4161.538574,4172.307617,4154.871582,4163.077148,4182.051270,4156.922852,0.000000,4.000000,,,,0.000000,4.000000,4.000000,4.000000,4.000000,4.000000,4.000000,4.000000,4.000000,4.000000,4.000000,4.000000,4.000000,4.000000,4.000000,100.000000
1602005912.361433,53.000000,0.000000,4123.589844,4125.128418,4141.538574,4137.436035,4149.743652,4141.538574,4154.358887,4164.615234,4157.436035,4158.974121,4163.077148,4179.487305,4188.205078,4173.333496,0.000000,4.000000,,,,0.000000,4.000000,4.000000,4.000000,4.000000,4.000000,4.000000,4.000000,4.000000,4.000000,4.000000,4.000000,4.000000,4.000000,4.000000,100.000000
1602005912.369217,54.000000,0.000000,4127.692383,4124.102539,4152.820313,4138.974121,4151.282227,4127.692383,4148.205078,4167.179688,4158.461426,4150.769043,4175.384766,4188.205078,4193.846191,4180.000000,0.000000,4.000000,,,,0.000000,4.000000,4.000000,4.000000,4.000000,4.000000,4.000000,4.000000,4.000000,4.000000,4.000000,4.000000,4.000000,4.000000,4.000000,100.000000
1602005912.377102,55.000000,0.000000,4121.025879,4123.077148,4153.846191,4137.436035,4145.641113,4127.692383,4144.102539,4169.743652,4174.358887,4178.974121,4183.077148,4188.205078,4204.102539,4177.436035,0.000000,4.000000,,,,0.000000,4.000000,4.000000,4.000000,4.000000,4.000000,4.000000,4.000000,4.000000,4.000000,4.000000,4.000000,4.000000,4.000000,4.000000,100.000000
1602005912.384987,56.000000,0.000000,4121.538574,4124.615234,4143.077148,4136.410156,4140.512695,4133.846191,4149.230957,4170.769043,4177.436035,4193.846191,4176.410156,4180.000000,4203.589844,4172.820313,0.000000,4.000000,,,,0.000000,4.000000,4.000000,4.000000,4.000000,4.000000,4.000000,4.000000,4.000000,4.000000,4.000000,4.000000,4.000000,4.000000,4.000000,100.000000
1602005912.392872,57.000000,0.000000,4118.974121,4123.077148,4133.333496,4135.384766,4143.589844,4137.436035,4153.333496,4165.641113,4162.563965,4175.384766,4165.128418,4159.487305,4186.666504,4167.179688,0.000000,4.000000,,,,0.000000,4.000000,4.000000,4.000000,4.000000,4.000000,4.000000,4.000000,4.000000,4.000000,4.000000,4.000000,4.000000,4.000000,4.000000,100.000000
1602005912.400756,58.000000,0.000000,4102.563965,4114.871582,4126.153809,4130.769043,4147.179688,4138.974121,4149.743652,4158.974121,4156.410156,4171.794922,4154.871582,4141.025879,4175.384766,4153.846191,0.000000,4.000000,,,,0.000000,4.000000,4.000000,4.000000,4.000000,4.000000,4.000000,4.000000,4.000000,4.000000,4.000000,4.000000,4.000000,4.000000,4.000000,100.000000
1602005912.408641,59.000000,0.000000,4089.230713,4106.666504,4120.000000,4125.641113,4143.589844,4138.974121,4145.128418,4151.282227,4152.307617,4176.922852,4148.205078,4135.384766,4171.282227,4140.512695,0.000000,4.000000,,,,0.000000,4.000000,4.000000,4.000000,4.000000,4.000000,4.000000,4.000000,4.000000,4.000000,4.000000,4.000000,4.000000,4.000000,4.000000,100.000000
1602005912.416526,60.000000,0.000000,4089.743652,4106.153809,4119.487305,4121.538574,4138.974121,4138.974121,4143.589844,4141.538574,4138.461426,4156.410156,4149.230957,4134.871582,4166.666504,4145.128418,0.000000,4.000000,,,,0.000000,4.000000,4.000000,4.000000,4.000000,4.000000,4.000000,4.000000,4.000000,4.000000,4.000000,4.000000,4.000000,4.000000,4.000000,100.000000
1602005912.424411,61.000000,0.000000,4097.948730,4106.666504,4121.538574,4118.974121,4138.461426,4138.461426,4141.025879,4138.974121,4134.358887,4133.846191,4153.333496,4137.436035,4167.179688,4156.410156,0.000000,4.000000,,,,0.000000,4.000000,4.000000,4.000000,4.000000,4.000000,4.000000,4.000000,4.000000,4.000000,4.000000,4.000000,4.000000,4.000000,4.000000,100.000000
1602005912.432295,62.000000,0.000000,4104.615234,4104.102539,4125.128418,4120.000000,4139.487305,4131.794922,4138.974121,4145.641113,4140.512695,4131.794922,4153.333496,4146.153809,4168.205078,4153.333496,0.000000,4.000000,,,,0.000000,4.000000,4.000000,4.000000,4.000000,4.000000,4.000000,4.000000,4.000000,4.000000,4.000000,4.000000,4.000000,4.000000,4.000000,100.000000
1602005912.440280,63.000000,0.000000,4114.871582,4112.820313,4136.410156,4126.153809,4138.461426,4124.615234,4137.436035,4152.307617,4146.153809,4148.205078,4154.358887,4155.384766,4168.717773,4152.307617,0.000000,4.000000,,,,0.000000,4.000000,4.000000,4.000000,4.000000,4.000000,4.000000,4.000000,4.000000,4.000000,4.000000,4.000000,4.000000,4.000000,4.000000,100.000000
1602005912.448164,64.000000,0.000000,4127.179688,4125.641113,4144.615234,4133.333496,4137.436035,4129.230957,4136.410156,4153.846191,4151.794922,4164.102539,4157.948730,4156.922852,4177.948730,4164.102539,796.000000,4.000000,,,,0.000000,4.000000,4.000000,4.000000,4.000000,4.000000,4.000000,4.000000,4.000000,4.000000,4.000000,4.000000,4.000000,4.000000,4.000000,100.000000
1602005912.456049,65.000000,0.000000,4125.641113,4126.666504,4145.128418,4136.410156,4143.589844,4132.307617,4136.410156,4154.871582,4156.410156,4163.589844,4159.487305,4153.846191,4182.563965,4170.256348,793.000000,4.000000,,,,0.000000,4.000000,4.000000,4.000000,4.000000,4.000000,4.000000,4.000000,4.000000,4.000000,4.000000,4.000000,4.000000,4.000000,4.000000,100.000000
1602005912.463933,66.000000,0.000000,4114.871582,4122.051270,4144.102539,4133.846191,4148.717773,4131.282227,4133.846191,4155.384766,4151.282227,4156.922852,4157.948730,4154.871582,4173.846191,4161.025879,856.000000,4.000000,,,,0.000000,4.000000,4.000000,4.000000,4.000000,4.000000,4.000000,4.000000,4.000000,4.000000,4.000000,4.000000,4.000000,4.000000,4.000000,100.000000
1602005912.471818,67.000000,0.000000,4111.794922,4120.512695,4140.000000,4127.692383,4143.077148,4136.922852,4133.846191,4152.307617,4143.589844,4158.974121,4153.333496,4151.282227,4165.128418,4152.307617,870.000000,4.000000,,,,0.000000,4.000000,4.000000,4.000000,4.000000,4.000000,4.000000,4.000000,4.000000,4.000000,4.000000,4.000000,4.000000,4.000000,4.000000,100.000000
1602005912.479702,68.000000,0.000000,4113.333496,4121.538574,4136.410156,4122.051270,4138.974121,4140.512695,4137.948730,4150.769043,4140.000000,4155.384766,4150.769043,4143.077148,4169.230957,4149.743652,814.000000,4.000000,,,,0.000000,4.000000,4.000000,4.000000,4.000000,4.000000,4.000000,4.000000,4.000000,4.000000,4.000000,4.000000,4.000000,4.000000,4.000000,100.000000
1602005912.487587,69.000000,0.000000,4107.179688,4122.051270,4132.820313,4125.128418,4141.538574,4136.922852,4142.051270,4150.769043,4135.384766,4141.538574,4152.820313,4139.487305,4171.282227,4141.025879,827.000000,4.000000,,,,0.000000,4.000000,4.000000,4.000000,4.000000,4.000000,4.000000,4.000000,4.000000,4.000000,4.000000,4.000000,4.000000,4.000000,4.000000,100.000000
1602005912.495471,70.000000,0.000000,4105.641113,4122.051270,4126.666504,4128.717773,4140.512695,4141.025879,4146.153809,4151.794922,4138.461426,4144.102539,4150.769043,4134.358887,4165.128418,4137.436035,789.000000,4.000000,,,,0.000000,4.000000,4.000000,4.000000,4.000000,4.000000,4.000000,4.000000,4.000000,4.000000,4.000000,4.000000,4.000000,4.000000,4.000000,100.000000
1602005912.503356,71.000000,0.000000,4107.692383,4113.333496,4123.589844,4125.641113,4135.384766,4144.102539,4150.769043,4152.307617,4148.205078,4160.000000,4141.538574,4127.692383,4156.410156,4143.077148,688.000000,4.000000,,,,0.000000,4.000000,4.000000,4.000000,4.000000,4.000000,4.000000,4.000000,4.000000,4.000000,4.000000,4.000000,4.000000,4.000000,4.000000,100.000000
1602005912.511139,72.000000,0.000000,4103.077148,4104.615234,4126.153809,4121.538574,4134.871582,4137.436035,4151.282227,4152.820313,4152.820313,4163.589844,4135.384766,4129.230957,4152.307617,4141.025879,787.000000,4.000000,,,,0.000000,4.000000,4.000000,4.000000,4.000000,4.000000,4.000000,4.000000,4.000000,4.000000,4.000000,4.000000,4.000000,4.000000,4.000000,100.000000
1602005912.519022,73.000000,0.000000,4109.230957,4111.794922,4126.666504,4123.589844,4134.358887,4137.436035,4151.794922,4156.922852,4153.846191,4160.000000,4142.051270,4132.820313,4155.384766,4138.974121,843.000000,4.000000,,,,0.000000,4.000000,4.000000,4.000000,4.000000,4.000000,4.000000,4.000000,4.000000,4.000000,4.000000,4.000000,4.000000,4.000000,4.000000,100.000000
1602005912.526904,74.000000,0.000000,4123.589844,4118.461426,4125.641113,4124.102539,4132.307617,4143.077148,4153.333496,4156.922852,4159.487305,4153.846191,4150.256348,4131.282227,4157.436035,4144.102539,876.000000,4.000000,,,,0.000000,4.000000,4.000000,4.000000,4.000000,4.000000,4.000000,4.000000,4.000000,4.000000,4.000000,4.000000,4.000000,4.000000,4.000000,100.000000
1602005912.534787,75.000000,0.000000,4114.871582,4110.769043,4125.128418,4122.563965,4135.897461,4139.487305,4147.692383,4151.282227,4155.384766,4137.436035,4145.128418,4133.846191,4155.384766,4142.051270,841.000000,4.000000,,,,0.000000,4.000000,4.000000,4.000000,4.000000,4.000000,4.000000,4.000000,4.000000,4.000000,4.000000,4.000000,4.000000,4.000000,4.000000,100.000000
1602005912.542670,76.000000,0.000000,4105.641113,4109.743652,4121.538574,4124.102539,4141.025879,4132.820313,4144.102539,4148.717773,4141.025879,4133.846191,4135.897461,4137.948730,4153.333496,4134.871582,771.000000,4.000000,,,,0.000000,4.000000,4.000000,4.000000,4.000000,4.000000,4.000000,4.000000,4.000000,4.000000,4.000000,4.000000,4.000000,4.000000,4.000000,100.000000
1602005912.550453,77.000000,0.000000,4120.512695,4122.051270,4123.589844,4129.230957,4142.563965,4137.436035,4153.333496,4152.307617,4142.563965,4152.820313,4141.538574,4138.461426,4157.436035,4142.563965,756.000000,4.000000,,,,0.000000,4.000000,4.000000,4.000000,4.000000,4.000000,4.000000,4.000000,4.000000,4.000000,4.000000,4.000000,4.000000,4.000000,4.000000,100.000000
1602005912.558335,78.000000,0.000000,4129.743652,4126.666504,4133.846191,4134.358887,4142.563965,4146.153809,4156.922852,4156.410156,4154.871582,4158.974121,4151.794922,4140.000000,4162.563965,4156.922852,876.000000,4.000000,,,,0.000000,4.000000,4.000000,4.000000,4.000000,4.000000,4.000000,4.000000,4.000000,4.000000,4.000000,4.000000,4.000000,4.000000,4.000000,100.000000
1602005912.566217,79.000000,0.000000,4122.563965,4121.025879,4138.461426,4135.897461,4142.563965,4140.000000,4144.102539,4155.897461,4152.307617,4154.358887,4147.179688,4142.051270,4158.461426,4150.769043,841.000000,4.000000,,,,0.000000,4.000000,4.000000,4.000000,4.000000,4.000000,4.000000,4.000000,4.000000,4.000000,4.000000,4.000000,4.000000,4.000000,4.000000,100.000000
1602005912.574100,80.000000,0.000000,4121.025879,4122.051270,4135.384766,4136.922852,4140.512695,4130.256348,4134.358887,4152.820313,4141.538574,4155.897461,4138.461426,4143.589844,4153.333496,4138.461426,771.000000,4.000000,,,,0.000000,4.000000,4.000000,4.000000,4.000000,4.000000,4.000000,4.000000,4.000000,4.000000,4.000000,4.000000,4.000000,4.000000,4.000000,100.000000
1602005912.582081,81.000000,0.000000,4126.666504,4121.538574,4142.563965,4135.384766,4139.487305,4138.461426,4137.948730,4153.846191,4142.563965,4147.179688,4143.589844,4152.307617,4157.436035,4151.282227,756.000000,4.000000,,,,0.000000,4.000000,4.000000,4.000000,4.000000,4.000000,4.000000,4.000000,4.000000,4.000000,4.000000,4.000000,4.000000,4.000000,4.000000,100.000000
1602005912.589963,82.000000,0.000000,4125.641113,4111.282227,4153.333496,4127.179688,4135.384766,4143.077148,4141.538574,4152.307617,4143.077148,4135.897461,4154.358887,4166.153809,4159.487305,4161.538574,876.000000,4.000000,,,,0.000000,4.000000,4.000000,4.000000,4.000000,4.000000,4.000000,4.000000,4.000000,4.000000,4.000000,4.000000,4.000000,4.000000,4.000000,100.000000
1602005912.597947,83.000000,0.000000,4115.384766,4103.077148,4151.794922,4119.487305,4125.641113,4123.589844,4140.512695,4141.538574,4132.820313,4141.538574,4150.769043,4166.666504,4147.692383,4142.563965,841.000000,4.000000,,,,0.000000,4.000000,4.000000,4.000000,4.000000,4.000000,4.000000,4.000000,4.000000,4.000000,4.000000,4.000000,4.000000,4.000000,4.000000,100.000000
1602005912.605832,84.000000,0.000000,4109.743652,4106.666504,4150.769043,4123.077148,4116.922852,4112.820313,4140.000000,4134.871582,4121.025879,4140.000000,4140.512695,4157.948730,4136.922852,4128.717773,771.000000,4.000000,,,,0.000000,4.000000,4.000000,4.000000,4.000000,4.000000,4.000000,4.000000,4.000000,4.000000,4.000000,4.000000,4.000000,4.000000,4.000000,100.000000
1602005912.613716,85.000000,0.000000,4119.487305,4110.256348,4150.769043,4130.256348,4118.974121,4121.025879,4142.051270,4138.461426,4120.512695,4133.333496,4137.948730,4155.897461,4137.436035,4139.487305,756.000000,4.000000,,,,0.000000,4.000000,4.000000,4.000000,4.000000,4.000000,4.000000,4.000000,4.000000,4.000000,4.000000,4.000000,4.000000,4.000000,4.000000,100.000000
1602005912.621601,86.000000,0.000000,4123.077148,4108.205078,4146.153809,4129.230957,4130.256348,4121.025879,4141.025879,4138.461426,4130.769043,4136.922852,4137.948730,4158.461426,4136.922852,4147.692383,876.000000,4.000000,,,,0.000000,4.000000,4.000000,4.000000,4.000000,4.000000,4.000000,4.000000,4.000000,4.000000,4.000000,4.000000,4.000000,4.000000,4.000000,100.000000
1602005912.629485,87.000000,0.000000,4118.974121,4115.897461,4146.666504,4128.205078,4137.436035,4116.410156,4140.000000,4138.461426,4138.461426,4136.922852,4137.948730,4161.538574,4142.563965,4148.205078,841.000000,4.000000,,,,0.000000,4.000000,4.000000,4.000000,4.000000,4.000000,4.000000,4.000000,4.000000,4.000000,4.000000,4.000000,4.000000,4.000000,4.000000,100.000000
1602005912.637370,88.000000,0.000000,4127.179688,4133.333496,4152.820313,4137.436035,4137.948730,4123.589844,4137.948730,4145.641113,4147.179688,4145.128418,4152.820313,4166.153809,4160.000000,4160.000000,771.000000,4.000000,,,,0.000000,4.000000,4.000000,4.000000,4.000000,4.000000,4.000000,4.000000,4.000000,4.000000,4.000000,4.000000,4.000000,4.000000,4.000000,100.000000
1602005912.645254,89.000000,0.000000,4139.487305,4143.077148,4150.769043,4150.256348,4138.974121,4129.743652,4135.384766,4154.358887,4166.153809,4170.256348,4169.743652,4169.230957,4173.846191,4172.820313,756.000000,4.000000,,,,0.000000,4.000000,4.000000,4.000000,4.000000,4.000000,4.000000,4.000000,4.000000,4.000000,4.000000,4.000000,4.000000,4.000000,4.000000,100.000000
1602005912.653139,90.000000,0.000000,4147.179688,4143.589844,4150.256348,4155.384766,4142.051270,4126.666504,4135.384766,4159.487305,4170.769043,4183.077148,4175.384766,4172.820313,4180.000000,4175.384766,876.000000,4.000000,,,,0.000000,4.000000,4.000000,4.000000,4.000000,4.000000,4.000000,4.000000,4.000000,4.000000,4.000000,4.000000,4.000000,4.000000,4.000000,100.000000
1602005912.661023,91.000000,0.000000,4154.358887,4143.077148,4158.974121,4151.282227,4136.922852,4127.692383,4137.436035,4153.333496,4153.846191,4168.205078,4172.820313,4177.436035,4176.410156,4175.384766,841.000000,4.000000,,,,0.000000,4.000000,4.000000,4.000000,4.000000,4.000000,4.000000,4.000000,4.000000,4.000000,4.000000,4.000000,4.000000,4.000000,4.000000,100.000000
1602005912.669007,92.000000,0.000000,4148.205078,4136.410156,4158.974121,4143.589844,4126.666504,4124.102539,4136.922852,4138.974121,4137.948730,4142.051270,4152.820313,4164.615234,4159.487305,4167.179688,771.000000,4.000000,,,,0.000000,4.000000,4.000000,4.000000,4.000000,4.000000,4.000000,4.000000,4.000000,4.000000,4.000000,4.000000,4.000000,4.000000,4.000000,100.000000
1602005912.676891,93.000000,0.000000,4132.307617,4123.589844,4148.205078,4136.410156,4120.000000,4115.384766,4136.922852,4132.820313,4133.333496,4129.230957,4139.487305,4148.717773,4146.666504,4153.846191,756.000000,4.000000,,,,0.000000,4.000000,4.000000,4.000000,4.000000,4.000000,4.000000,4.000000,4.000000,4.000000,4.000000,4.000000,4.000000,4.000000,4.000000,100.000000
1602005912.684774,94.000000,0.000000,4120.000000,4117.948730,4134.358887,4128.717773,4122.051270,4113.333496,4136.922852,4134.358887,4129.743652,4140.000000,4145.641113,4150.769043,4143.077148,4148.205078,876.000000,4.000000,,,,0.000000,4.000000,4.000000,4.000000,4.000000,4.000000,4.000000,4.000000,4.000000,4.000000,4.000000,4.000000,4.000000,4.000000,4.000000,100.000000
1602005912.692658,95.000000,0.000000,4111.282227,4118.461426,4122.051270,4122.051270,4130.769043,4118.974121,4135.897461,4134.871582,4131.794922,4152.307617,4143.589844,4151.794922,4141.538574,4147.179688,841.000000,4.000000,,,,0.000000,4.000000,4.000000,4.000000,4.000000,4.000000,4.000000,4.000000,4.000000,4.000000,4.000000,4.000000,4.000000,4.000000,4.000000,100.000000
1602005912.700542,96.000000,0.000000,4108.717773,4120.000000,4116.410156,4123.589844,4137.436035,4131.794922,4137.436035,4138.461426,4143.589844,4151.794922,4137.948730,4141.538574,4147.179688,4146.666504,771.000000,4.000000,,,,0.000000,4.000000,4.000000,4.000000,4.000000,4.000000,4.000000,4.000000,4.000000,4.000000,4.000000,4.000000,4.000000,4.000000,4.000000,100.000000
1602005912.708426,97.000000,0.000000,4116.410156,4126.666504,4116.922852,4130.769043,4138.974121,4135.384766,4141.025879,4143.589844,4153.333496,4152.307617,4151.794922,4136.410156,4155.384766,4146.153809,756.000000,4.000000,,,,0.000000,4.000000,4.000000,4.000000,4.000000,4.000000,4.000000,4.000000,4.000000,4.000000,4.000000,4.000000,4.000000,4.000000,4.000000,100.000000
1602005912.716310,98.000000,0.000000,4129.743652,4136.410156,4127.692383,4135.384766,4144.102539,4124.615234,4137.436035,4143.589844,4154.871582,4154.871582,4166.666504,4146.153809,4159.487305,4152.307617,876.000000,4.000000,,,,0.000000,4.000000,4.000000,4.000000,4.000000,4.000000,4.000000,4.000000,4.000000,4.000000,4.000000,4.000000,4.000000,4.000000,4.000000,100.000000
1602005912.724293,99.000000,0.000000,4138.974121,4144.102539,4145.128418,4143.077148,4150.769043,4123.589844,4133.333496,4140.512695,4152.307617,4154.358887,4166.153809,4160.512695,4165.641113,4170.256348,841.000000,4.000000,,,,0.000000,4.000000,4.000000,4.000000,4.000000,4.000000,4.000000,4.000000,4.000000,4.000000,4.000000,4.000000,4.000000,4.000000,4.000000,100.000000
1602005912.732176,100.000000,0.000000,4145.128418,4152.307617,4155.897461,4152.820313,4154.358887,4136.922852,4134.358887,4137.436035,4151.794922,4162.051270,4167.692383,4167.179688,4176.922852,4186.153809,771.000000,4.000000,,,,0.000000,4.000000,4.000000,4.000000,4.000000,4.000000,4.000000,4.000000,4.000000,4.000000,4.000000,4.000000,4.000000,4.000000,4.000000,100.000000
1602005912.740059,101.000000,0.000000,4151.794922,4158.974121,4157.948730,4155.897461,4152.820313,4141.538574,4134.871582,4142.051270,4151.282227,4171.282227,4172.820313,4169.230957,4184.102539,4184.615234,756.000000,4.000000,,,,0.000000,4.000000,4.000000,4.000000,4.000000,4.000000,4.000000,4.000000,4.000000,4.000000,4.000000,4.000000,4.000000,4.000000,4.000000,100.000000
1602005912.747942,102.000000,0.000000,4152.307617,4155.384766,4156.410156,4151.794922,4145.128418,4131.794922,4133.333496,4150.256348,4152.820313,4168.717773,4168.717773,4169.230957,4180.512695,4174.871582,876.000000,4.000000,,,,0.000000,4.000000,4.000000,4.000000,4.000000,4.000000,4.000000,4.000000,4.000000,4.000000,4.000000,4.000000,4.000000,4.000000,4.000000,100.000000
1602005912.755825,103.000000,0.000000,4141.025879,4143.077148,4146.153809,4143.077148,4136.922852,4127.692383,4135.897461,4146.666504,4154.871582,4163.589844,4155.897461,4160.000000,4164.102539,4164.615234,841.000000,4.000000,,,,0.000000,4.000000,4.000000,4.000000,4.000000,4.000000,4.000000,4.000000,4.000000,4.000000,4.000000,4.000000,4.000000,4.000000,4.000000,100.000000
1602005912.763708,104.000000,0.000000,4131.282227,4133.846191,4135.897461,4135.897461,4135.897461,4130.256348,4136.410156,4137.436035,4143.077148,4150.256348,4147.179688,4151.282227,4149.230957,4155.384766,771.000000,4.000000,,,,0.000000,4.000000,4.000000,4.000000,4.000000,4.000000,4.000000,4.000000,4.000000,4.000000,4.000000,4.000000,4.000000,4.000000,4.000000,100.000000
1602005912.771492,105.000000,0.000000,4141.538574,4136.410156,4146.153809,4137.436035,4140.512695,4137.948730,4135.384766,4142.051270,4136.922852,4128.717773,4153.846191,4159.487305,4155.384766,4162.051270,756.000000,4.000000,,,,0.000000,4.000000,4.000000,4.000000,4.000000,4.000000,4.000000,4.000000,4.000000,4.000000,4.000000,4.000000,4.000000,4.000000,4.000000,100.000000
1602005912.779376,106.000000,0.000000,4158.974121,4146.153809,4166.153809,4142.051270,4141.538574,4144.615234,4143.589844,4154.871582,4153.333496,4137.948730,4165.641113,4175.897461,4172.307617,4183.589844,876.000000,4.000000,,,,0.000000,4.000000,4.000000,4.000000,4.000000,4.000000,4.000000,4.000000,4.000000,4.000000,4.000000,4.000000,4.000000,4.000000,4.000000,100.000000
1602005912.787259,107.000000,0.000000,4155.897461,4141.025879,4167.692383,4138.974121,4138.461426,4138.461426,4152.820313,4152.307617,4159.487305,4160.512695,4171.794922,4173.846191,4173.846191,4188.205078,841.000000,4.000000,,,,0.000000,4.000000,4.000000,4.000000,4.000000,4.000000,4.000000,4.000000,4.000000,4.000000,4.000000,4.000000,4.000000,4.000000,4.000000,100.000000
1602005912.795143,108.000000,0.000000,4138.974121,4128.205078,4155.384766,4135.897461,4134.358887,4124.615234,4152.307617,4138.461426,4142.051270,4150.769043,4168.205078,4159.487305,4157.436035,4167.692383,771.000000,4.000000,,,,0.000000,4.000000,4.000000,4.000000,4.000000,4.000000,4.000000,4.000000,4.000000,4.000000,4.000000,4.000000,4.000000,4.000000,4.000000,100.000000
1602005912.803027,109.000000,0.000000,4137.948730,4131.794922,4152.307617,4138.974121,4134.871582,4126.153809,4149.743652,4133.333496,4131.282227,4143.589844,4158.974121,4155.384766,4150.256348,4152.307617,756.000000,4.000000,,,,0.000000,4.000000,4.000000,4.000000,4.000000,4.000000,4.000000,4.000000,4.000000,4.000000,4.000000,4.000000,4.000000,4.000000,4.000000,100.000000
1602005912.810911,110.000000,0.000000,4144.615234,4138.461426,4148.717773,4140.000000,4135.384766,4135.384766,4147.692383,4134.871582,4138.461426,4159.487305,4155.384766,4153.333496,4153.846191,4157.436035,876.000000,4.000000,,,,0.000000,4.000000,4.000000,4.000000,4.000000,4.000000,4.000000,4.000000,4.000000,4.000000,4.000000,4.000000,4.000000,4.000000,4.000000,100.000000
1602005912.818795,111.000000,0.000000,4137.948730,4133.333496,4136.922852,4136.922852,4131.794922,4130.256348,4144.102539,4136.410156,4146.666504,4158.461426,4154.871582,4143.589844,4151.282227,4160.000000,841.000000,4.000000,,,,0.000000,4.000000,4.000000,4.000000,4.000000,4.000000,4.000000,4.000000,4.000000,4.000000,4.000000,4.000000,4.000000,4.000000,4.000000,100.000000
1602005912.826678,112.000000,0.000000,4135.384766,4135.384766,4134.871582,4138.461426,4133.846191,4128.205078,4141.025879,4143.589844,4152.820313,4149.230957,4158.974121,4142.563965,4151.794922,4152.820313,771.000000,4.000000,,,,0.000000,4.000000,4.000000,4.000000,4.000000,4.000000,4.000000,4.000000,4.000000,4.000000,4.000000,4.000000,4.000000,4.000000,4.000000,100.000000
1602005912.834463,113.000000,0.000000,4140.000000,4142.563965,4135.384766,4141.538574,4140.512695,4141.025879,4136.922852,4152.307617,4154.871582,4153.846191,4157.948730,4147.692383,4156.410156,4151.794922,756.000000,4.000000,,,,0.000000,4.000000,4.000000,4.000000,4.000000,4.000000,4.000000,4.000000,4.000000,4.000000,4.000000,4.000000,4.000000,4.000000,4.000000,100.000000
1602005912.842347,114.000000,0.000000,4131.794922,4132.820313,4126.153809,4137.948730,4142.051270,4143.077148,4133.846191,4152.307617,4152.820313,4151.794922,4144.615234,4139.487305,4149.743652,4151.282227,876.000000,4.000000,,,,0.000000,4.000000,4.000000,4.000000,4.000000,4.000000,4.000000,4.000000,4.000000,4.000000,4.000000,4.000000,4.000000,4.000000,4.000000,100.000000
1602005912.850231,115.000000,0.000000,4123.589844,4124.102539,4126.153809,4135.384766,4138.974121,4140.000000,4138.461426,4149.743652,4150.256348,4143.077148,4140.512695,4132.307617,4140.000000,4152.820313,841.000000,4.000000,,,,0.000000,4.000000,4.000000,4.000000,4.000000,4.000000,4.000000,4.000000,4.000000,4.000000,4.000000,4.000000,4.000000,4.000000,4.000000,100.000000
1602005912.858115,116.000000,0.000000,4128.717773,4126.666504,4137.436035,4134.358887,4132.307617,4145.641113,4141.025879,4144.615234,4145.128418,4138.461426,4149.743652,4144.102539,4136.922852,4157.436035,771.000000,4.000000,,,,0.000000,4.000000,4.000000,4.000000,4.000000,4.000000,4.000000,4.000000,4.000000,4.000000,4.000000,4.000000,4.000000,4.000000,4.000000,100.000000
1602005912.866000,117.000000,0.000000,4136.410156,4126.666504,4144.615234,4132.307617,4126.666504,4141.025879,4138.461426,4139.487305,4142.051270,4135.897461,4155.384766,4154.871582,4138.974121,4156.410156,756.000000,4.000000,,,,0.000000,4.000000,4.000000,4.000000,4.000000,4.000000,4.000000,4.000000,4.000000,4.000000,4.000000,4.000000,4.000000,4.000000,4.000000,100.000000
1602005912.873884,118.000000,0.000000,4145.128418,4132.820313,4157.436035,4144.102539,4126.666504,4127.179688,4142.051270,4142.563965,4140.000000,4143.077148,4155.384766,4158.974121,4147.692383,4162.051270,876.000000,4.000000,,,,0.000000,4.000000,4.000000,4.000000,4.000000,4.000000,4.000000,4.000000,4.000000,4.000000,4.000000,4.000000,4.000000,4.000000,4.000000,100.000000
1602005912.881768,119.000000,0.000000,4147.179688,4140.512695,4160.512695,4151.282227,4126.666504,4114.358887,4144.102539,4138.461426,4128.205078,4151.794922,4157.948730,4156.410156,4155.384766,4167.692383,841.000000,4.000000,,,,0.000000,4.000000,4.000000,4.000000,4.000000,4.000000,4.000000,4.000000,4.000000,4.000000,4.000000,4.000000,4.000000,4.000000,4.000000,100.000000
1602005912.889653,120.000000,0.000000,4138.461426,4137.436035,4143.589844,4140.512695,4114.871582,4108.717773,4137.948730,4125.641113,4118.974121,4153.333496,4155.897461,4149.230957,4153.333496,4159.487305,771.000000,4.000000,,,,0.000000,4.000000,4.000000,4.000000,4.000000,4.000000,4.000000,4.000000,4.000000,4.000000,4.000000,4.000000,4.000000,4.000000,4.000000,100.000000
1602005912.897537,121.000000,0.000000,4136.410156,4135.897461,4141.025879,4140.512695,4113.333496,4114.871582,4135.897461,4131.282227,4123.077148,4145.641113,4152.820313,4150.256348,4151.794922,4152.820313,756.000000,4.000000,,,,0.000000,4.000000,4.000000,4.000000,4.000000,4.000000,4.000000,4.000000,4.000000,4.000000,4.000000,4.000000,4.000000,4.000000,4.000000,100.000000
1602005912.905320,122.000000,0.000000,4144.102539,4142.563965,4152.307617,4149.743652,4131.282227,4122.051270,4138.461426,4138.974121,4128.205078,4132.307617,4157.948730,4158.974121,4156.922852,4156.410156,876.000000,4.000000,,,,0.000000,4.000000,4.000000,4.000000,4.000000,4.000000,4.000000,4.000000,4.000000,4.000000,4.000000,4.000000,4.000000,4.000000,4.000000,100.000000
1602005912.913202,123.000000,0.000000,4137.948730,4142.563965,4146.666504,4143.077148,4144.102539,4122.563965,4132.307617,4126.666504,4124.615234,4130.769043,4161.538574,4156.410156,4156.410156,4157.948730,841.000000,4.000000,,,,0.000000,4.000000,4.000000,4.000000,4.000000,4.000000,4.000000,4.000000,4.000000,4.000000,4.000000,4.000000,4.000000,4.000000,4.000000,100.000000
