Timestamp,EEG.Counter,EEG.Interpolated,EEG.AF3,EEG.F7,EEG.F3,EEG.FC5,EEG.T7,EEG.P7,EEG.O1,EEG.O2,EEG.P8,EEG.T8,EEG.FC6,EEG.F4,EEG.F8,EEG.AF4,EEG.RawCq,EEG.Battery,MarkerIndex,MarkerType,MarkerValueInt,EEG.MarkerHardware,CQ.AF3,CQ.F7,CQ.F3,CQ.FC5,CQ.T7,CQ.P7,CQ.O1,CQ.O2,CQ.P8,CQ.T8,CQ.FC6,CQ.F4,CQ.F8,CQ.AF4,CQ.Overall
1602005919.579144,66.000000,0.000000,4148.717773,4140.000000,4140.000000,4136.410156,4123.589844,4131.282227,4137.948730,4137.948730,4132.820313,4138.461426,4138.461426,4171.794922,4154.358887,4141.538574,853.000000,4.000000,,,,0.000000,4.000000,4.000000,4.000000,4.000000,4.000000,4.000000,4.000000,4.000000,4.000000,4.000000,4.000000,4.000000,4.000000,4.000000,100.000000
1602005919.586928,67.000000,0.000000,4146.666504,4139.487305,4138.974121,4135.384766,4123.589844,4129.743652,4137.436035,4138.461426,4134.358887,4141.025879,4146.153809,4166.666504,4156.410156,4150.769043,870.000000,4.000000,,,,0.000000,4.000000,4.000000,4.000000,4.000000,4.000000,4.000000,4.000000,4.000000,4.000000,4.000000,4.000000,4.000000,4.000000,4.000000,100.000000
1602005919.594812,68.000000,0.000000,4151.794922,4140.512695,4151.794922,4136.922852,4129.230957,4140.000000,4140.512695,4138.461426,4135.897461,4133.333496,4155.384766,4181.538574,4156.922852,4162.563965,814.000000,4.000000,,,,0.000000,4.000000,4.000000,4.000000,4.000000,4.000000,4.000000,4.000000,4.000000,4.000000,4.000000,4.000000,4.000000,4.000000,4.000000,100.000000
1602005919.602696,69.000000,0.000000,4150.256348,4140.000000,4154.871582,4138.461426,4140.000000,4144.615234,4137.436035,4140.512695,4143.589844,4136.922852,4153.846191,4188.205078,4157.948730,4150.769043,829.000000,4.000000,,,,0.000000,4.000000,4.000000,4.000000,4.000000,4.000000,4.000000,4.000000,4.000000,4.000000,4.000000,4.000000,4.000000,4.000000,4.000000,100.000000
1602005919.610581,70.000000,0.000000,4137.436035,4140.000000,4142.563965,4135.384766,4140.512695,4130.769043,4129.230957,4137.948730,4143.589844,4136.922852,4149.230957,4170.769043,4151.794922,4137.436035,737.000000,4.000000,,,,0.000000,4.000000,4.000000,4.000000,4.000000,4.000000,4.000000,4.000000,4.000000,4.000000,4.000000,4.000000,4.000000,4.000000,4.000000,100.000000
1602005919.618465,71.000000,0.000000,4127.692383,4137.948730,4136.922852,4133.846191,4134.871582,4127.179688,4122.563965,4130.769043,4131.794922,4120.000000,4143.589844,4156.410156,4142.051270,4144.102539,688.000000,4.000000,,,,0.000000,4.000000,4.000000,4.000000,4.000000,4.000000,4.000000,4.000000,4.000000,4.000000,4.000000,4.000000,4.000000,4.000000,4.000000,100.000000
1602005919.626349,72.000000,0.000000,4132.820313,4137.948730,4141.025879,4136.922852,4138.974121,4141.025879,4127.179688,4131.794922,4133.846191,4123.077148,4139.487305,4158.461426,4146.153809,4153.846191,791.000000,4.000000,,,,0.000000,4.000000,4.000000,4.000000,4.000000,4.000000,4.000000,4.000000,4.000000,4.000000,4.000000,4.000000,4.000000,4.000000,4.000000,100.000000
1602005919.634234,73.000000,0.000000,4138.974121,4141.538574,4133.846191,4138.461426,4142.563965,4143.589844,4133.846191,4136.922852,4138.461426,4144.615234,4138.974121,4157.948730,4146.153809,4145.128418,839.000000,4.000000,,,,0.000000,4.000000,4.000000,4.000000,4.000000,4.000000,4.000000,4.000000,4.000000,4.000000,4.000000,4.000000,4.000000,4.000000,4.000000,100.000000
1602005919.642118,74.000000,0.000000,4137.436035,4141.538574,4123.589844,4136.410156,4137.948730,4134.358887,4132.820313,4136.410156,4126.153809,4143.589844,4138.461426,4151.794922,4137.436035,4131.794922,871.000000,4.000000,,,,0.000000,4.000000,4.000000,4.000000,4.000000,4.000000,4.000000,4.000000,4.000000,4.000000,4.000000,4.000000,4.000000,4.000000,4.000000,100.000000
1602005919.650002,75.000000,0.000000,4136.922852,4142.563965,4131.282227,4136.410156,4137.436035,4133.846191,4133.846191,4136.410156,4118.461426,4128.205078,4138.461426,4152.820313,4142.051270,4137.948730,841.000000,4.000000,,,,0.000000,4.000000,4.000000,4.000000,4.000000,4.000000,4.000000,4.000000,4.000000,4.000000,4.000000,4.000000,4.000000,4.000000,4.000000,100.000000
1602005919.657786,76.000000,0.000000,4141.538574,4146.666504,4145.128418,4138.461426,4140.512695,4138.974121,4140.000000,4140.000000,4125.641113,4137.436035,4140.512695,4162.051270,4151.282227,4153.333496,773.000000,4.000000,,,,0.000000,4.000000,4.000000,4.000000,4.000000,4.000000,4.000000,4.000000,4.000000,4.000000,4.000000,4.000000,4.000000,4.000000,4.000000,100.000000
1602005919.665670,77.000000,0.000000,4146.153809,4148.717773,4146.666504,4141.538574,4135.897461,4137.948730,4138.974121,4140.000000,4126.666504,4142.051270,4143.589844,4170.769043,4153.846191,4160.512695,749.000000,4.000000,,,,0.000000,4.000000,4.000000,4.000000,4.000000,4.000000,4.000000,4.000000,4.000000,4.000000,4.000000,4.000000,4.000000,4.000000,4.000000,100.000000
1602005919.673554,78.000000,0.000000,4144.102539,4144.615234,4140.000000,4138.461426,4126.153809,4138.974121,4137.436035,4136.922852,4125.641113,4109.743652,4144.615234,4168.717773,4152.307617,4151.794922,871.000000,4.000000,,,,0.000000,4.000000,4.000000,4.000000,4.000000,4.000000,4.000000,4.000000,4.000000,4.000000,4.000000,4.000000,4.000000,4.000000,4.000000,100.000000
1602005919.681438,79.000000,0.000000,4134.358887,4131.794922,4136.410156,4126.666504,4119.487305,4132.820313,4137.436035,4136.922852,4131.282227,4096.410156,4142.051270,4157.436035,4144.102539,4137.436035,841.000000,4.000000,,,,0.000000,4.000000,4.000000,4.000000,4.000000,4.000000,4.000000,4.000000,4.000000,4.000000,4.000000,4.000000,4.000000,4.000000,4.000000,100.000000
1602005919.689322,80.000000,0.000000,4131.282227,4124.102539,4136.410156,4120.512695,4118.974121,4121.538574,4131.794922,4138.461426,4136.410156,4136.410156,4141.025879,4152.820313,4136.922852,4143.589844,773.000000,4.000000,,,,0.000000,4.000000,4.000000,4.000000,4.000000,4.000000,4.000000,4.000000,4.000000,4.000000,4.000000,4.000000,4.000000,4.000000,4.000000,100.000000
1602005919.697206,81.000000,0.000000,4137.436035,4131.282227,4137.436035,4124.615234,4127.692383,4124.615234,4127.179688,4138.974121,4145.128418,4165.641113,4144.102539,4155.384766,4141.538574,4155.897461,749.000000,4.000000,,,,0.000000,4.000000,4.000000,4.000000,4.000000,4.000000,4.000000,4.000000,4.000000,4.000000,4.000000,4.000000,4.000000,4.000000,4.000000,100.000000
1602005919.705090,82.000000,0.000000,4137.436035,4131.794922,4130.256348,4124.615234,4134.871582,4137.436035,4126.666504,4140.000000,4149.743652,4146.153809,4141.538574,4153.333496,4143.589844,4146.153809,871.000000,4.000000,,,,0.000000,4.000000,4.000000,4.000000,4.000000,4.000000,4.000000,4.000000,4.000000,4.000000,4.000000,4.000000,4.000000,4.000000,4.000000,100.000000
1602005919.712974,83.000000,0.000000,4136.410156,4123.077148,4124.615234,4121.025879,4133.333496,4146.666504,4127.692383,4136.410156,4140.000000,4127.179688,4136.410156,4151.794922,4135.897461,4134.358887,841.000000,4.000000,,,,0.000000,4.000000,4.000000,4.000000,4.000000,4.000000,4.000000,4.000000,4.000000,4.000000,4.000000,4.000000,4.000000,4.000000,4.000000,100.000000
1602005919.720956,84.000000,0.000000,4134.358887,4125.128418,4127.179688,4125.641113,4135.897461,4153.846191,4129.743652,4128.205078,4122.563965,4123.077148,4132.820313,4150.256348,4128.205078,4136.922852,773.000000,4.000000,,,,0.000000,4.000000,4.000000,4.000000,4.000000,4.000000,4.000000,4.000000,4.000000,4.000000,4.000000,4.000000,4.000000,4.000000,4.000000,100.000000
1602005919.728838,85.000000,0.000000,4123.077148,4127.179688,4125.641113,4127.179688,4137.948730,4156.922852,4130.256348,4121.538574,4107.179688,4110.769043,4126.666504,4142.563965,4122.051270,4131.282227,749.000000,4.000000,,,,0.000000,4.000000,4.000000,4.000000,4.000000,4.000000,4.000000,4.000000,4.000000,4.000000,4.000000,4.000000,4.000000,4.000000,4.000000,100.000000
1602005919.736819,86.000000,0.000000,4120.512695,4120.512695,4120.000000,4121.025879,4129.230957,4146.666504,4130.769043,4120.512695,4100.512695,4098.974121,4126.153809,4136.922852,4122.563965,4126.666504,871.000000,4.000000,,,,0.000000,4.000000,4.000000,4.000000,4.000000,4.000000,4.000000,4.000000,4.000000,4.000000,4.000000,4.000000,4.000000,4.000000,4.000000,100.000000
1602005919.744701,87.000000,0.000000,4135.384766,4128.205078,4125.641113,4126.666504,4131.794922,4140.000000,4131.282227,4122.563965,4108.205078,4106.666504,4138.461426,4144.102539,4134.358887,4141.025879,841.000000,4.000000,,,,0.000000,4.000000,4.000000,4.000000,4.000000,4.000000,4.000000,4.000000,4.000000,4.000000,4.000000,4.000000,4.000000,4.000000,4.000000,100.000000
1602005919.752683,88.000000,0.000000,4143.589844,4142.563965,4136.410156,4137.948730,4145.128418,4136.922852,4128.205078,4121.538574,4120.000000,4136.922852,4144.102539,4151.794922,4143.077148,4153.333496,773.000000,4.000000,,,,0.000000,4.000000,4.000000,4.000000,4.000000,4.000000,4.000000,4.000000,4.000000,4.000000,4.000000,4.000000,4.000000,4.000000,4.000000,100.000000
1602005919.760565,89.000000,0.000000,4147.179688,4142.563965,4140.000000,4138.461426,4141.025879,4122.563965,4121.025879,4124.102539,4123.077148,4155.384766,4137.436035,4151.794922,4141.025879,4152.307617,749.000000,4.000000,,,,0.000000,4.000000,4.000000,4.000000,4.000000,4.000000,4.000000,4.000000,4.000000,4.000000,4.000000,4.000000,4.000000,4.000000,4.000000,100.000000
1602005919.768447,90.000000,0.000000,4155.897461,4138.974121,4141.025879,4136.922852,4132.820313,4113.333496,4118.461426,4135.384766,4127.179688,4143.589844,4134.871582,4153.846191,4139.487305,4150.769043,871.000000,4.000000,,,,0.000000,4.000000,4.000000,4.000000,4.000000,4.000000,4.000000,4.000000,4.000000,4.000000,4.000000,4.000000,4.000000,4.000000,4.000000,100.000000
1602005919.776329,91.000000,0.000000,4153.333496,4139.487305,4143.589844,4139.487305,4136.410156,4118.461426,4126.153809,4142.051270,4135.897461,4133.333496,4143.589844,4153.333496,4143.077148,4155.384766,841.000000,4.000000,,,,0.000000,4.000000,4.000000,4.000000,4.000000,4.000000,4.000000,4.000000,4.000000,4.000000,4.000000,4.000000,4.000000,4.000000,4.000000,100.000000
1602005919.784111,92.000000,0.000000,4144.102539,4135.384766,4142.051270,4135.384766,4134.358887,4124.102539,4137.948730,4143.077148,4142.051270,4141.025879,4144.615234,4144.102539,4140.000000,4152.307617,773.000000,4.000000,,,,0.000000,4.000000,4.000000,4.000000,4.000000,4.000000,4.000000,4.000000,4.000000,4.000000,4.000000,4.000000,4.000000,4.000000,4.000000,100.000000
1602005919.791993,93.000000,0.000000,4140.512695,4127.179688,4135.384766,4126.153809,4128.717773,4131.282227,4148.717773,4146.666504,4141.025879,4146.153809,4137.948730,4137.948730,4136.410156,4143.589844,749.000000,4.000000,,,,0.000000,4.000000,4.000000,4.000000,4.000000,4.000000,4.000000,4.000000,4.000000,4.000000,4.000000,4.000000,4.000000,4.000000,4.000000,100.000000
1602005919.799875,94.000000,0.000000,4134.358887,4121.538574,4126.666504,4123.077148,4127.179688,4143.589844,4154.358887,4140.512695,4129.230957,4134.871582,4136.410156,4141.538574,4134.358887,4138.974121,871.000000,4.000000,,,,0.000000,4.000000,4.000000,4.000000,4.000000,4.000000,4.000000,4.000000,4.000000,4.000000,4.000000,4.000000,4.000000,4.000000,4.000000,100.000000
1602005919.807856,95.000000,0.000000,4124.102539,4121.538574,4116.922852,4124.102539,4122.563965,4145.128418,4150.256348,4122.563965,4113.846191,4114.358887,4134.358887,4134.871582,4126.153809,4133.333496,841.000000,4.000000,,,,0.000000,4.000000,4.000000,4.000000,4.000000,4.000000,4.000000,4.000000,4.000000,4.000000,4.000000,4.000000,4.000000,4.000000,4.000000,100.000000
1602005919.815639,96.000000,0.000000,4118.974121,4122.563965,4113.333496,4122.051270,4121.025879,4136.922852,4141.025879,4116.922852,4106.153809,4105.128418,4125.128418,4123.077148,4117.436035,4124.102539,773.000000,4.000000,,,,0.000000,4.000000,4.000000,4.000000,4.000000,4.000000,4.000000,4.000000,4.000000,4.000000,4.000000,4.000000,4.000000,4.000000,4.000000,100.000000
1602005919.823522,97.000000,0.000000,4114.871582,4121.025879,4116.922852,4120.000000,4127.179688,4137.436035,4137.948730,4118.461426,4105.128418,4123.589844,4117.948730,4128.205078,4117.436035,4123.589844,749.000000,4.000000,,,,0.000000,4.000000,4.000000,4.000000,4.000000,4.000000,4.000000,4.000000,4.000000,4.000000,4.000000,4.000000,4.000000,4.000000,4.000000,100.000000
1602005919.831406,98.000000,0.000000,4116.922852,4127.692383,4121.538574,4128.205078,4132.820313,4137.948730,4140.000000,4115.384766,4109.230957,4138.974121,4128.205078,4138.974121,4128.717773,4136.922852,871.000000,4.000000,,,,0.000000,4.000000,4.000000,4.000000,4.000000,4.000000,4.000000,4.000000,4.000000,4.000000,4.000000,4.000000,4.000000,4.000000,4.000000,100.000000
1602005919.839289,99.000000,0.000000,4130.769043,4138.974121,4125.128418,4138.461426,4135.897461,4127.692383,4131.282227,4121.538574,4122.051270,4133.333496,4148.717773,4141.538574,4138.461426,4149.743652,841.000000,4.000000,,,,0.000000,4.000000,4.000000,4.000000,4.000000,4.000000,4.000000,4.000000,4.000000,4.000000,4.000000,4.000000,4.000000,4.000000,4.000000,100.000000
1602005919.847172,100.000000,0.000000,4143.077148,4144.615234,4129.230957,4142.563965,4137.436035,4120.000000,4126.666504,4136.922852,4137.948730,4142.051270,4153.333496,4142.563965,4142.051270,4148.205078,773.000000,4.000000,,,,0.000000,4.000000,4.000000,4.000000,4.000000,4.000000,4.000000,4.000000,4.000000,4.000000,4.000000,4.000000,4.000000,4.000000,4.000000,100.000000
1602005919.855056,101.000000,0.000000,4138.974121,4138.461426,4129.230957,4135.897461,4129.743652,4121.025879,4132.307617,4145.641113,4150.769043,4155.897461,4140.000000,4144.102539,4140.512695,4140.000000,749.000000,4.000000,,,,0.000000,4.000000,4.000000,4.000000,4.000000,4.000000,4.000000,4.000000,4.000000,4.000000,4.000000,4.000000,4.000000,4.000000,4.000000,100.000000
1602005919.863038,102.000000,0.000000,4129.743652,4126.153809,4123.589844,4124.102539,4119.487305,4120.512695,4131.282227,4143.077148,4154.871582,4145.641113,4132.820313,4140.000000,4131.794922,4136.922852,871.000000,4.000000,,,,0.000000,4.000000,4.000000,4.000000,4.000000,4.000000,4.000000,4.000000,4.000000,4.000000,4.000000,4.000000,4.000000,4.000000,4.000000,100.000000
1602005919.870921,103.000000,0.000000,4134.871582,4123.589844,4130.256348,4126.153809,4119.487305,4126.153809,4129.230957,4142.563965,4153.333496,4135.897461,4138.461426,4141.538574,4127.179688,4142.563965,841.000000,4.000000,,,,0.000000,4.000000,4.000000,4.000000,4.000000,4.000000,4.000000,4.000000,4.000000,4.000000,4.000000,4.000000,4.000000,4.000000,4.000000,100.000000
1602005919.878804,104.000000,0.000000,4142.563965,4129.230957,4140.000000,4132.820313,4127.692383,4139.487305,4134.871582,4138.974121,4145.641113,4135.897461,4140.512695,4146.153809,4131.282227,4146.153809,773.000000,4.000000,,,,0.000000,4.000000,4.000000,4.000000,4.000000,4.000000,4.000000,4.000000,4.000000,4.000000,4.000000,4.000000,4.000000,4.000000,4.000000,100.000000
1602005919.886687,105.000000,0.000000,4133.333496,4122.563965,4134.358887,4124.615234,4125.641113,4142.051270,4136.410156,4127.692383,4130.256348,4126.666504,4138.461426,4138.974121,4130.256348,4135.384766,749.000000,4.000000,,,,0.000000,4.000000,4.000000,4.000000,4.000000,4.000000,4.000000,4.000000,4.000000,4.000000,4.000000,4.000000,4.000000,4.000000,4.000000,100.000000
1602005919.894570,106.000000,0.000000,4125.641113,4113.333496,4130.256348,4117.436035,4113.333496,4138.461426,4135.384766,4120.512695,4120.000000,4121.025879,4137.436035,4134.358887,4123.077148,4125.641113,871.000000,4.000000,,,,0.000000,4.000000,4.000000,4.000000,4.000000,4.000000,4.000000,4.000000,4.000000,4.000000,4.000000,4.000000,4.000000,4.000000,4.000000,100.000000
1602005919.902453,107.000000,0.000000,4138.461426,4122.563965,4138.974121,4124.615234,4113.333496,4132.820313,4138.461426,4122.563965,4118.461426,4123.077148,4134.358887,4146.153809,4125.641113,4132.307617,841.000000,4.000000,,,,0.000000,4.000000,4.000000,4.000000,4.000000,4.000000,4.000000,4.000000,4.000000,4.000000,4.000000,4.000000,4.000000,4.000000,4.000000,100.000000
1602005919.910236,108.000000,0.000000,4139.487305,4117.948730,4141.538574,4124.102539,4121.025879,4118.461426,4133.333496,4122.051270,4116.922852,4122.563965,4131.794922,4155.897461,4129.230957,4139.487305,773.000000,4.000000,,,,0.000000,4.000000,4.000000,4.000000,4.000000,4.000000,4.000000,4.000000,4.000000,4.000000,4.000000,4.000000,4.000000,4.000000,4.000000,100.000000
1602005919.918120,109.000000,0.000000,4125.128418,4104.615234,4135.897461,4122.051270,4122.051270,4111.282227,4124.615234,4120.000000,4120.000000,4129.743652,4136.922852,4152.820313,4127.179688,4135.384766,749.000000,4.000000,,,,0.000000,4.000000,4.000000,4.000000,4.000000,4.000000,4.000000,4.000000,4.000000,4.000000,4.000000,4.000000,4.000000,4.000000,4.000000,100.000000
1602005919.926003,110.000000,0.000000,4140.000000,4131.794922,4138.461426,4140.512695,4129.743652,4121.025879,4124.102539,4123.077148,4125.128418,4142.051270,4138.461426,4147.692383,4127.692383,4133.333496,871.000000,4.000000,,,,0.000000,4.000000,4.000000,4.000000,4.000000,4.000000,4.000000,4.000000,4.000000,4.000000,4.000000,4.000000,4.000000,4.000000,4.000000,100.000000
1602005919.933887,111.000000,0.000000,4168.717773,4168.205078,4139.487305,4156.922852,4137.436035,4124.102539,4120.512695,4122.563965,4121.538574,4144.102539,4126.666504,4141.538574,4119.487305,4127.692383,841.000000,4.000000,,,,0.000000,4.000000,4.000000,4.000000,4.000000,4.000000,4.000000,4.000000,4.000000,4.000000,4.000000,4.000000,4.000000,4.000000,4.000000,100.000000
1602005919.941770,112.000000,0.000000,4174.358887,4171.282227,4130.256348,4156.410156,4127.692383,4119.487305,4118.461426,4121.538574,4122.563965,4131.794922,4120.512695,4135.897461,4103.589844,4116.410156,773.000000,4.000000,,,,0.000000,4.000000,4.000000,4.000000,4.000000,4.000000,4.000000,4.000000,4.000000,4.000000,4.000000,4.000000,4.000000,4.000000,4.000000,100.000000
1602005919.949654,113.000000,0.000000,4169.743652,4173.333496,4123.077148,4154.358887,4124.615234,4124.102539,4123.589844,4124.615234,4128.717773,4106.153809,4118.974121,4136.922852,4089.743652,4108.205078,749.000000,4.000000,,,,0.000000,4.000000,4.000000,4.000000,4.000000,4.000000,4.000000,4.000000,4.000000,4.000000,4.000000,4.000000,4.000000,4.000000,4.000000,100.000000
1602005919.957537,114.000000,0.000000,4173.846191,4186.153809,4122.051270,4155.384766,4135.384766,4128.205078,4125.641113,4125.128418,4122.563965,4087.179443,4108.717773,4137.948730,4082.051270,4099.487305,871.000000,4.000000,,,,0.000000,4.000000,4.000000,4.000000,4.000000,4.000000,4.000000,4.000000,4.000000,4.000000,4.000000,4.000000,4.000000,4.000000,4.000000,100.000000
1602005919.965321,115.000000,0.000000,4183.077148,4180.000000,4123.589844,4153.333496,4132.820313,4126.153809,4124.615234,4125.641113,4123.077148,4101.025879,4109.743652,4142.563965,4083.589844,4101.025879,841.000000,4.000000,,,,0.000000,4.000000,4.000000,4.000000,4.000000,4.000000,4.000000,4.000000,4.000000,4.000000,4.000000,4.000000,4.000000,4.000000,4.000000,100.000000
1602005919.973204,116.000000,0.000000,4184.615234,4171.282227,4128.717773,4153.333496,4124.102539,4128.717773,4125.641113,4129.230957,4141.538574,4132.307617,4122.051270,4151.282227,4094.871826,4110.256348,773.000000,4.000000,,,,0.000000,4.000000,4.000000,4.000000,4.000000,4.000000,4.000000,4.000000,4.000000,4.000000,4.000000,4.000000,4.000000,4.000000,4.000000,100.000000
1602005919.981087,117.000000,0.000000,4176.922852,4171.794922,4134.358887,4148.717773,4123.589844,4125.128418,4122.051270,4124.102539,4141.025879,4136.922852,4123.589844,4152.820313,4103.589844,4108.717773,749.000000,4.000000,,,,0.000000,4.000000,4.000000,4.000000,4.000000,4.000000,4.000000,4.000000,4.000000,4.000000,4.000000,4.000000,4.000000,4.000000,4.000000,100.000000
1602005919.988970,118.000000,0.000000,4175.384766,4169.230957,4136.922852,4144.615234,4128.205078,4106.666504,4116.922852,4114.871582,4113.333496,4123.077148,4120.000000,4158.461426,4104.615234,4106.666504,871.000000,4.000000,,,,0.000000,4.000000,4.000000,4.000000,4.000000,4.000000,4.000000,4.000000,4.000000,4.000000,4.000000,4.000000,4.000000,4.000000,4.000000,100.000000
1602005919.996853,119.000000,0.000000,4185.641113,4171.794922,4146.153809,4150.769043,4135.384766,4104.102539,4121.025879,4118.461426,4105.641113,4112.307617,4125.128418,4173.333496,4109.230957,4120.000000,841.000000,4.000000,,,,0.000000,4.000000,4.000000,4.000000,4.000000,4.000000,4.000000,4.000000,4.000000,4.000000,4.000000,4.000000,4.000000,4.000000,4.000000,100.000000
1602005920.004736,120.000000,0.000000,4190.769043,4178.974121,4158.974121,4156.410156,4137.948730,4120.512695,4126.153809,4128.717773,4121.538574,4100.512695,4129.230957,4178.974121,4113.333496,4130.256348,773.000000,4.000000,,,,0.000000,4.000000,4.000000,4.000000,4.000000,4.000000,4.000000,4.000000,4.000000,4.000000,4.000000,4.000000,4.000000,4.000000,4.000000,100.000000
1602005920.012720,121.000000,0.000000,4185.128418,4175.897461,4155.897461,4154.871582,4133.333496,4124.615234,4127.179688,4129.230957,4120.000000,4094.871826,4124.615234,4171.282227,4110.769043,4123.077148,749.000000,4.000000,,,,0.000000,4.000000,4.000000,4.000000,4.000000,4.000000,4.000000,4.000000,4.000000,4.000000,4.000000,4.000000,4.000000,4.000000,4.000000,100.000000
1602005920.020604,122.000000,0.000000,4178.461426,4168.717773,4145.128418,4154.871582,4134.871582,4125.641113,4133.333496,4126.153809,4104.615234,4105.641113,4122.563965,4158.461426,4103.589844,4112.307617,871.000000,4.000000,,,,0.000000,4.000000,4.000000,4.000000,4.000000,4.000000,4.000000,4.000000,4.000000,4.000000,4.000000,4.000000,4.000000,4.000000,4.000000,100.000000
1602005920.028489,123.000000,0.000000,4167.179688,4169.230957,4138.461426,4155.384766,4139.487305,4137.436035,4142.563965,4127.179688,4104.102539,4113.846191,4122.051270,4147.179688,4092.307617,4101.025879,841.000000,4.000000,,,,0.000000,4.000000,4.000000,4.000000,4.000000,4.000000,4.000000,4.000000,4.000000,4.000000,4.000000,4.000000,4.000000,4.000000,4.000000,100.000000
1602005920.036373,124.000000,0.000000,4156.922852,4165.128418,4128.717773,4148.717773,4131.282227,4142.563965,4141.025879,4127.179688,4108.717773,4109.230957,4112.820313,4138.461426,4081.025635,4090.769287,773.000000,4.000000,,,,0.000000,4.000000,4.000000,4.000000,4.000000,4.000000,4.000000,4.000000,4.000000,4.000000,4.000000,4.000000,4.000000,4.000000,4.000000,100.000000
1602005920.044257,125.000000,0.000000,4152.307617,4155.384766,4121.025879,4139.487305,4122.563965,4135.384766,4137.436035,4124.102539,4104.102539,4105.128418,4094.871826,4125.128418,4073.846191,4081.538574,749.000000,4.000000,,,,0.000000,4.000000,4.000000,4.000000,4.000000,4.000000,4.000000,4.000000,4.000000,4.000000,4.000000,4.000000,4.000000,4.000000,4.000000,100.000000
1602005920.052141,126.000000,0.000000,4150.769043,4153.333496,4121.538574,4137.436035,4129.230957,4130.769043,4140.512695,4121.538574,4103.077148,4096.922852,4085.641113,4113.333496,4069.743652,4071.281982,871.000000,4.000000,,,,0.000000,4.000000,4.000000,4.000000,4.000000,4.000000,4.000000,4.000000,4.000000,4.000000,4.000000,4.000000,4.000000,4.000000,4.000000,100.000000
1602005920.060026,127.000000,0.000000,4153.333496,4156.922852,4116.922852,4141.025879,4135.384766,4127.692383,4135.384766,4121.538574,4111.794922,4092.307617,4097.436035,4116.410156,4073.846191,4067.692383,841.000000,4.000000,,,,0.000000,4.000000,4.000000,4.000000,4.000000,4.000000,4.000000,4.000000,4.000000,4.000000,4.000000,4.000000,4.000000,4.000000,4.000000,100.000000
1602005920.067910,128.000000,0.000000,4154.871582,4160.000000,4111.794922,4142.051270,4126.666504,4120.000000,4122.051270,4122.051270,4125.641113,4103.589844,4109.230957,4124.615234,4085.128174,4078.974365,773.000000,4.000000,,,,0.000000,4.000000,4.000000,4.000000,4.000000,4.000000,4.000000,4.000000,4.000000,4.000000,4.000000,4.000000,4.000000,4.000000,4.000000,100.000000
1602005920.075794,0.000000,0.000000,4154.358887,4166.666504,4119.487305,4144.102539,4127.692383,4122.051270,4121.025879,4126.666504,4140.512695,4108.205078,4105.641113,4132.307617,4091.281982,4099.487305,799.000000,4.000000,,,,0.000000,4.000000,4.000000,4.000000,4.000000,4.000000,4.000000,4.000000,4.000000,4.000000,4.000000,4.000000,4.000000,4.000000,4.000000,100.000000
1602005920.083778,1.000000,0.000000,4162.563965,4173.333496,4127.179688,4148.205078,4138.974121,4135.384766,4132.820313,4136.922852,4145.641113,4115.384766,4108.717773,4142.563965,4098.974121,4106.153809,802.000000,4.000000,,,,0.000000,4.000000,4.000000,4.000000,4.000000,4.000000,4.000000,4.000000,4.000000,4.000000,4.000000,4.000000,4.000000,4.000000,4.000000,100.000000
1602005920.091663,2.000000,0.000000,4168.205078,4168.717773,4123.589844,4143.077148,4137.948730,4138.461426,4136.922852,4140.512695,4138.461426,4137.436035,4123.589844,4147.179688,4107.179688,4102.051270,853.000000,4.000000,,,,0.000000,4.000000,4.000000,4.000000,4.000000,4.000000,4.000000,4.000000,4.000000,4.000000,4.000000,4.000000,4.000000,4.000000,4.000000,100.000000
1602005920.099547,3.000000,0.000000,4161.538574,4160.000000,4121.025879,4137.948730,4134.358887,4132.820313,4134.358887,4137.948730,4142.563965,4141.538574,4128.717773,4145.128418,4108.717773,4098.974121,870.000000,4.000000,,,,0.000000,4.000000,4.000000,4.000000,4.000000,4.000000,4.000000,4.000000,4.000000,4.000000,4.000000,4.000000,4.000000,4.000000,4.000000,100.000000
1602005920.107431,4.000000,0.000000,4156.410156,4158.461426,4123.589844,4141.025879,4137.436035,4140.512695,4143.589844,4145.641113,4155.897461,4125.128418,4123.077148,4144.615234,4107.692383,4097.948730,814.000000,4.000000,,,,0.000000,4.000000,4.000000,4.000000,4.000000,4.000000,4.000000,4.000000,4.000000,4.000000,4.000000,4.000000,4.000000,4.000000,4.000000,100.000000
1602005920.115315,5.000000,0.000000,4154.871582,4158.461426,4124.102539,4142.051270,4136.410156,4153.333496,4154.358887,4154.358887,4152.307617,4123.077148,4115.897461,4141.025879,4099.487305,4093.333252,827.000000,4.000000,,,,0.000000,4.000000,4.000000,4.000000,4.000000,4.000000,4.000000,4.000000,4.000000,4.000000,4.000000,4.000000,4.000000,4.000000,4.000000,100.000000
1602005920.123200,6.000000,0.000000,4143.077148,4153.846191,4123.589844,4137.948730,4135.897461,4153.846191,4150.769043,4147.179688,4141.538574,4128.717773,4113.846191,4141.025879,4091.281982,4092.820557,757.000000,4.000000,,,,0.000000,4.000000,4.000000,4.000000,4.000000,4.000000,4.000000,4.000000,4.000000,4.000000,4.000000,4.000000,4.000000,4.000000,4.000000,100.000000
1602005920.131084,7.000000,0.000000,4135.384766,4151.794922,4123.077148,4137.948730,4141.025879,4149.743652,4142.563965,4137.948730,4138.974121,4123.077148,4119.487305,4150.256348,4097.948730,4101.025879,688.000000,4.000000,,,,0.000000,4.000000,4.000000,4.000000,4.000000,4.000000,4.000000,4.000000,4.000000,4.000000,4.000000,4.000000,4.000000,4.000000,4.000000,100.000000
1602005920.138968,8.000000,0.000000,4147.179688,4157.436035,4123.589844,4144.615234,4140.512695,4146.666504,4140.512695,4136.922852,4139.487305,4123.589844,4122.051270,4150.769043,4108.205078,4106.153809,791.000000,4.000000,,,,0.000000,4.000000,4.000000,4.000000,4.000000,4.000000,4.000000,4.000000,4.000000,4.000000,4.000000,4.000000,4.000000,4.000000,4.000000,100.000000
1602005920.146853,9.000000,0.000000,4155.897461,4160.000000,4130.769043,4152.820313,4138.461426,4142.051270,4138.974121,4137.436035,4135.897461,4120.512695,4118.461426,4143.077148,4106.153809,4105.641113,839.000000,4.000000,,,,0.000000,4.000000,4.000000,4.000000,4.000000,4.000000,4.000000,4.000000,4.000000,4.000000,4.000000,4.000000,4.000000,4.000000,4.000000,100.000000
1602005920.154637,10.000000,0.000000,4152.307617,4157.436035,4137.436035,4153.333496,4140.000000,4137.948730,4138.461426,4134.358887,4128.205078,4106.153809,4121.025879,4145.641113,4106.153809,4107.179688,871.000000,4.000000,,,,0.000000,4.000000,4.000000,4.000000,4.000000,4.000000,4.000000,4.000000,4.000000,4.000000,4.000000,4.000000,4.000000,4.000000,4.000000,100.000000
1602005920.162521,11.000000,0.000000,4150.256348,4158.974121,4138.461426,4149.230957,4141.025879,4141.538574,4141.025879,4135.384766,4127.179688,4107.179688,4126.666504,4154.358887,4109.230957,4108.205078,841.000000,4.000000,,,,0.000000,4.000000,4.000000,4.000000,4.000000,4.000000,4.000000,4.000000,4.000000,4.000000,4.000000,4.000000,4.000000,4.000000,4.000000,100.000000
1602005920.170405,12.000000,0.000000,4151.282227,4160.000000,4136.922852,4150.769043,4140.000000,4142.051270,4138.461426,4137.948730,4133.333496,4118.974121,4127.179688,4153.333496,4106.153809,4106.153809,773.000000,4.000000,,,,0.000000,4.000000,4.000000,4.000000,4.000000,4.000000,4.000000,4.000000,4.000000,4.000000,4.000000,4.000000,4.000000,4.000000,4.000000,100.000000
1602005920.178289,13.000000,0.000000,4150.256348,4156.922852,4135.384766,4153.846191,4137.948730,4126.153809,4135.384766,4136.922852,4131.794922,4131.794922,4125.128418,4151.282227,4106.666504,4108.717773,749.000000,4.000000,,,,0.000000,4.000000,4.000000,4.000000,4.000000,4.000000,4.000000,4.000000,4.000000,4.000000,4.000000,4.000000,4.000000,4.000000,4.000000,100.000000
1602005920.186173,14.000000,0.000000,4147.692383,4155.384766,4136.410156,4147.692383,4137.948730,4116.410156,4136.922852,4137.948730,4124.615234,4138.461426,4123.077148,4155.384766,4109.743652,4114.358887,871.000000,4.000000,,,,0.000000,4.000000,4.000000,4.000000,4.000000,4.000000,4.000000,4.000000,4.000000,4.000000,4.000000,4.000000,4.000000,4.000000,4.000000,100.000000
1602005920.194057,15.000000,0.000000,4143.077148,4152.820313,4133.333496,4139.487305,4134.358887,4130.256348,4137.948730,4140.512695,4124.102539,4124.102539,4123.077148,4154.871582,4102.051270,4110.256348,841.000000,4.000000,,,,0.000000,4.000000,4.000000,4.000000,4.000000,4.000000,4.000000,4.000000,4.000000,4.000000,4.000000,4.000000,4.000000,4.000000,4.000000,100.000000
1602005920.201941,16.000000,0.000000,4135.897461,4145.641113,4124.102539,4137.436035,4124.102539,4138.974121,4136.922852,4138.461426,4128.717773,4118.974121,4117.948730,4150.256348,4091.281982,4097.436035,0.000000,4.000000,,,,0.000000,4.000000,4.000000,4.000000,4.000000,4.000000,4.000000,4.000000,4.000000,4.000000,4.000000,4.000000,4.000000,4.000000,4.000000,100.000000
1602005920.209825,17.000000,0.000000,4131.282227,4141.025879,4118.461426,4138.461426,4120.000000,4126.666504,4135.897461,4135.384766,4132.307617,4124.615234,4108.205078,4148.717773,4089.230713,4092.820557,0.000000,4.000000,,,,0.000000,4.000000,4.000000,4.000000,4.000000,4.000000,4.000000,4.000000,4.000000,4.000000,4.000000,4.000000,4.000000,4.000000,4.000000,100.000000
1602005920.217807,18.000000,0.000000,4135.897461,4145.641113,4126.153809,4139.487305,4125.128418,4117.948730,4134.358887,4135.384766,4129.743652,4098.974121,4110.769043,4151.282227,4096.410156,4100.512695,0.000000,4.000000,,,,0.000000,4.000000,4.000000,4.000000,4.000000,4.000000,4.000000,4.000000,4.000000,4.000000,4.000000,4.000000,4.000000,4.000000,4.000000,100.000000
1602005920.225689,19.000000,0.000000,4144.102539,4151.282227,4136.410156,4145.641113,4127.692383,4120.512695,4134.871582,4136.410156,4125.128418,4087.692383,4128.717773,4156.410156,4103.077148,4107.692383,0.000000,4.000000,,,,0.000000,4.000000,4.000000,4.000000,4.000000,4.000000,4.000000,4.000000,4.000000,4.000000,4.000000,4.000000,4.000000,4.000000,4.000000,100.000000
1602005920.233570,20.000000,0.000000,4144.102539,4152.307617,4138.461426,4151.794922,4124.102539,4126.153809,4135.384766,4136.922852,4130.256348,4126.153809,4140.000000,4163.077148,4109.743652,4104.102539,0.000000,4.000000,,,,0.000000,4.000000,4.000000,4.000000,4.000000,4.000000,4.000000,4.000000,4.000000,4.000000,4.000000,4.000000,4.000000,4.000000,4.000000,100.000000
1602005920.241352,21.000000,0.000000,4142.563965,4152.307617,4143.077148,4152.820313,4124.102539,4136.922852,4135.384766,4138.974121,4139.487305,4146.153809,4135.897461,4163.589844,4120.000000,4105.641113,0.000000,4.000000,,,,0.000000,4.000000,4.000000,4.000000,4.000000,4.000000,4.000000,4.000000,4.000000,4.000000,4.000000,4.000000,4.000000,4.000000,4.000000,100.000000
1602005920.249234,22.000000,0.000000,4151.282227,4152.820313,4151.794922,4151.794922,4124.615234,4137.948730,4135.897461,4142.051270,4144.615234,4138.974121,4132.307617,4162.563965,4122.051270,4120.000000,0.000000,4.000000,,,,0.000000,4.000000,4.000000,4.000000,4.000000,4.000000,4.000000,4.000000,4.000000,4.000000,4.000000,4.000000,4.000000,4.000000,4.000000,100.000000
1602005920.257115,23.000000,0.000000,4159.487305,4151.794922,4153.846191,4150.256348,4123.589844,4128.205078,4137.948730,4142.051270,4143.589844,4144.615234,4141.025879,4167.692383,4114.871582,4125.641113,0.000000,4.000000,,,,0.000000,4.000000,4.000000,4.000000,4.000000,4.000000,4.000000,4.000000,4.000000,4.000000,4.000000,4.000000,4.000000,4.000000,4.000000,100.000000
1602005920.264896,24.000000,0.000000,4154.871582,4148.205078,4150.769043,4149.230957,4126.666504,4128.205078,4140.000000,4139.487305,4137.436035,4143.589844,4142.563965,4172.307617,4107.692383,4121.538574,0.000000,4.000000,,,,0.000000,4.000000,4.000000,4.000000,4.000000,4.000000,4.000000,4.000000,4.000000,4.000000,4.000000,4.000000,4.000000,4.000000,4.000000,100.000000
1602005920.272680,25.000000,0.000000,4150.769043,4146.666504,4154.358887,4150.256348,4126.153809,4131.794922,4141.538574,4139.487305,4135.897461,4136.410156,4128.717773,4170.256348,4107.179688,4121.025879,0.000000,4.000000,,,,0.000000,4.000000,4.000000,4.000000,4.000000,4.000000,4.000000,4.000000,4.000000,4.000000,4.000000,4.000000,4.000000,4.000000,4.000000,100.000000
1602005920.280563,26.000000,0.000000,4155.384766,4151.282227,4154.358887,4153.846191,4124.615234,4130.769043,4140.512695,4137.948730,4136.922852,4134.358887,4129.230957,4168.205078,4109.743652,4125.641113,0.000000,4.000000,,,,0.000000,4.000000,4.000000,4.000000,4.000000,4.000000,4.000000,4.000000,4.000000,4.000000,4.000000,4.000000,4.000000,4.000000,4.000000,100.000000
1602005920.288446,27.000000,0.000000,4158.461426,4157.948730,4145.128418,4153.846191,4132.307617,4130.769043,4134.871582,4129.230957,4126.666504,4114.358887,4141.538574,4165.128418,4111.282227,4127.179688,0.000000,4.000000,,,,0.000000,4.000000,4.000000,4.000000,4.000000,4.000000,4.000000,4.000000,4.000000,4.000000,4.000000,4.000000,4.000000,4.000000,4.000000,100.000000
1602005920.296330,28.000000,0.000000,4151.282227,4151.794922,4138.974121,4144.615234,4134.871582,4128.717773,4124.102539,4121.025879,4114.358887,4093.846191,4136.410156,4156.410156,4104.615234,4115.897461,0.000000,4.000000,,,,0.000000,4.000000,4.000000,4.000000,4.000000,4.000000,4.000000,4.000000,4.000000,4.000000,4.000000,4.000000,4.000000,4.000000,4.000000,100.000000
1602005920.304213,29.000000,0.000000,4138.461426,4138.461426,4132.820313,4134.871582,4124.615234,4117.436035,4117.948730,4119.487305,4115.897461,4108.717773,4121.025879,4150.256348,4096.410156,4100.000000,0.000000,4.000000,,,,0.000000,4.000000,4.000000,4.000000,4.000000,4.000000,4.000000,4.000000,4.000000,4.000000,4.000000,4.000000,4.000000,4.000000,4.000000,100.000000
1602005920.312096,30.000000,0.000000,4135.897461,4137.436035,4124.102539,4134.358887,4119.487305,4107.179688,4120.000000,4126.666504,4126.153809,4134.871582,4119.487305,4150.769043,4100.512695,4100.000000,0.000000,4.000000,,,,0.000000,4.000000,4.000000,4.000000,4.000000,4.000000,4.000000,4.000000,4.000000,4.000000,4.000000,4.000000,4.000000,4.000000,4.000000,100.000000
1602005920.319980,31.000000,0.000000,4137.948730,4138.974121,4125.128418,4136.410156,4123.077148,4106.666504,4122.563965,4132.820313,4128.205078,4141.538574,4122.051270,4151.282227,4105.128418,4108.205078,0.000000,4.000000,,,,0.000000,4.000000,4.000000,4.000000,4.000000,4.000000,4.000000,4.000000,4.000000,4.000000,4.000000,4.000000,4.000000,4.000000,4.000000,100.000000
1602005920.327763,32.000000,0.000000,4137.948730,4138.461426,4136.410156,4136.410156,4124.102539,4113.846191,4125.641113,4130.769043,4123.077148,4137.436035,4122.563965,4152.307617,4105.641113,4107.179688,0.000000,4.000000,,,,0.000000,4.000000,4.000000,4.000000,4.000000,4.000000,4.000000,4.000000,4.000000,4.000000,4.000000,4.000000,4.000000,4.000000,4.000000,100.000000
1602005920.335646,33.000000,0.000000,4138.974121,4141.025879,4140.000000,4138.974121,4126.153809,4125.128418,4130.256348,4127.692383,4123.077148,4132.820313,4124.102539,4153.333496,4108.205078,4110.256348,0.000000,4.000000,,,,0.000000,4.000000,4.000000,4.000000,4.000000,4.000000,4.000000,4.000000,4.000000,4.000000,4.000000,4.000000,4.000000,4.000000,4.000000,100.000000
1602005920.343529,34.000000,0.000000,4138.461426,4141.538574,4136.410156,4143.589844,4128.205078,4133.333496,4126.153809,4129.230957,4124.102539,4122.563965,4121.025879,4151.794922,4105.641113,4119.487305,0.000000,4.000000,,,,0.000000,4.000000,4.000000,4.000000,4.000000,4.000000,4.000000,4.000000,4.000000,4.000000,4.000000,4.000000,4.000000,4.000000,4.000000,100.000000
1602005920.351412,35.000000,0.000000,4142.563965,4142.563965,4137.948730,4149.743652,4124.615234,4133.333496,4121.025879,4127.179688,4116.922852,4115.384766,4127.179688,4151.282227,4107.692383,4123.589844,0.000000,4.000000,,,,0.000000,4.000000,4.000000,4.000000,4.000000,4.000000,4.000000,4.000000,4.000000,4.000000,4.000000,4.000000,4.000000,4.000000,4.000000,100.000000
1602005920.359295,36.000000,0.000000,4157.436035,4151.794922,4141.538574,4152.820313,4129.230957,4127.692383,4123.589844,4122.563965,4113.333496,4117.948730,4138.974121,4155.384766,4121.538574,4127.179688,0.000000,4.000000,,,,0.000000,4.000000,4.000000,4.000000,4.000000,4.000000,4.000000,4.000000,4.000000,4.000000,4.000000,4.000000,4.000000,4.000000,4.000000,100.000000
1602005920.367178,37.000000,0.000000,4161.025879,4155.897461,4140.512695,4147.179688,4140.000000,4124.102539,4124.102539,4125.641113,4121.025879,4126.666504,4134.358887,4152.820313,4122.051270,4128.717773,0.000000,4.000000,,,,0.000000,4.000000,4.000000,4.000000,4.000000,4.000000,4.000000,4.000000,4.000000,4.000000,4.000000,4.000000,4.000000,4.000000,4.000000,100.000000
1602005920.375162,38.000000,0.000000,4142.051270,4145.128418,4137.436035,4139.487305,4139.487305,4128.717773,4125.641113,4130.769043,4128.717773,4127.692383,4120.512695,4142.563965,4107.179688,4120.000000,0.000000,4.000000,,,,0.000000,4.000000,4.000000,4.000000,4.000000,4.000000,4.000000,4.000000,4.000000,4.000000,4.000000,4.000000,4.000000,4.000000,4.000000,100.000000
1602005920.383046,39.000000,0.000000,4135.897461,4141.538574,4135.384766,4136.922852,4131.794922,4132.307617,4133.846191,4132.820313,4127.692383,4124.615234,4121.538574,4143.077148,4103.589844,4115.897461,0.000000,4.000000,,,,0.000000,4.000000,4.000000,4.000000,4.000000,4.000000,4.000000,4.000000,4.000000,4.000000,4.000000,4.000000,4.000000,4.000000,4.000000,100.000000
1602005920.390930,40.000000,0.000000,4149.230957,4151.794922,4137.948730,4142.051270,4133.333496,4137.436035,4141.025879,4136.922852,4132.307617,4128.717773,4130.256348,4155.384766,4112.307617,4121.025879,0.000000,4.000000,,,,0.000000,4.000000,4.000000,4.000000,4.000000,4.000000,4.000000,4.000000,4.000000,4.000000,4.000000,4.000000,4.000000,4.000000,4.000000,100.000000
1602005920.398814,41.000000,0.000000,4148.205078,4156.410156,4141.025879,4146.153809,4137.948730,4137.436035,4136.922852,4135.897461,4134.871582,4131.282227,4131.282227,4157.436035,4115.897461,4114.871582,0.000000,4.000000,,,,0.000000,4.000000,4.000000,4.000000,4.000000,4.000000,4.000000,4.000000,4.000000,4.000000,4.000000,4.000000,4.000000,4.000000,4.000000,100.000000
1602005920.406698,42.000000,0.000000,4135.897461,4145.641113,4132.820313,4140.512695,4132.307617,4120.000000,4123.589844,4127.179688,4123.589844,4120.000000,4121.538574,4143.077148,4106.666504,4104.102539,0.000000,4.000000,,,,0.000000,4.000000,4.000000,4.000000,4.000000,4.000000,4.000000,4.000000,4.000000,4.000000,4.000000,4.000000,4.000000,4.000000,4.000000,100.000000
1602005920.414582,43.000000,0.000000,4135.384766,4136.922852,4122.051270,4134.358887,4125.128418,4109.230957,4120.000000,4129.230957,4120.512695,4123.589844,4118.461426,4131.282227,4100.512695,4109.230957,0.000000,4.000000,,,,0.000000,4.000000,4.000000,4.000000,4.000000,4.000000,4.000000,4.000000,4.000000,4.000000,4.000000,4.000000,4.000000,4.000000,4.000000,100.000000
1602005920.422466,44.000000,0.000000,4140.512695,4141.025879,4123.077148,4138.974121,4126.153809,4120.000000,4130.256348,4137.436035,4128.717773,4138.974121,4134.871582,4133.846191,4111.794922,4119.487305,0.000000,4.000000,,,,0.000000,4.000000,4.000000,4.000000,4.000000,4.000000,4.000000,4.000000,4.000000,4.000000,4.000000,4.000000,4.000000,4.000000,4.000000,100.000000
1602005920.430350,45.000000,0.000000,4138.461426,4144.102539,4130.769043,4142.051270,4131.794922,4136.410156,4136.410156,4131.282227,4124.615234,4132.307617,4138.974121,4140.000000,4117.948730,4120.512695,0.000000,4.000000,,,,0.000000,4.000000,4.000000,4.000000,4.000000,4.000000,4.000000,4.000000,4.000000,4.000000,4.000000,4.000000,4.000000,4.000000,4.000000,100.000000
1602005920.438234,46.000000,0.000000,4136.922852,4140.512695,4134.358887,4138.461426,4136.922852,4139.487305,4135.897461,4127.179688,4122.051270,4127.692383,4123.589844,4139.487305,4106.666504,4116.410156,0.000000,4.000000,,,,0.000000,4.000000,4.000000,4.000000,4.000000,4.000000,4.000000,4.000000,4.000000,4.000000,4.000000,4.000000,4.000000,4.000000,4.000000,100.000000
1602005920.446017,47.000000,0.000000,4136.922852,4137.436035,4135.384766,4136.410156,4136.922852,4134.871582,4139.487305,4135.384766,4130.769043,4135.897461,4120.512695,4134.871582,4103.077148,4115.384766,0.000000,4.000000,,,,0.000000,4.000000,4.000000,4.000000,4.000000,4.000000,4.000000,4.000000,4.000000,4.000000,4.000000,4.000000,4.000000,4.000000,4.000000,100.000000
1602005920.453899,48.000000,0.000000,4132.820313,4137.948730,4136.410156,4136.410156,4134.358887,4136.922852,4143.589844,4136.922852,4129.743652,4123.589844,4128.205078,4135.384766,4108.205078,4120.000000,0.000000,4.000000,,,,0.000000,4.000000,4.000000,4.000000,4.000000,4.000000,4.000000,4.000000,4.000000,4.000000,4.000000,4.000000,4.000000,4.000000,4.000000,100.000000
1602005920.461781,49.000000,0.000000,4133.846191,4139.487305,4138.461426,4137.436035,4135.897461,4145.128418,4142.051270,4134.871582,4124.102539,4113.846191,4128.205078,4140.000000,4111.282227,4124.102539,0.000000,4.000000,,,,0.000000,4.000000,4.000000,4.000000,4.000000,4.000000,4.000000,4.000000,4.000000,4.000000,4.000000,4.000000,4.000000,4.000000,4.000000,100.000000
1602005920.469663,50.000000,0.000000,4138.461426,4140.000000,4140.000000,4138.974121,4137.948730,4144.102539,4140.000000,4136.922852,4127.179688,4126.153809,4124.615234,4138.974121,4109.743652,4125.128418,0.000000,4.000000,,,,0.000000,4.000000,4.000000,4.000000,4.000000,4.000000,4.000000,4.000000,4.000000,4.000000,4.000000,4.000000,4.000000,4.000000,4.000000,100.000000
1602005920.477444,51.000000,0.000000,4138.461426,4138.461426,4136.410156,4136.922852,4137.436035,4130.256348,4140.000000,4136.410156,4126.153809,4130.256348,4126.666504,4134.871582,4107.179688,4125.641113,0.000000,4.000000,,,,0.000000,4.000000,4.000000,4.000000,4.000000,4.000000,4.000000,4.000000,4.000000,4.000000,4.000000,4.000000,4.000000,4.000000,4.000000,100.000000
1602005920.485326,52.000000,0.000000,4134.871582,4138.461426,4135.384766,4137.436035,4138.461426,4127.692383,4141.025879,4135.897461,4128.717773,4127.179688,4127.179688,4134.358887,4106.153809,4125.128418,0.000000,4.000000,,,,0.000000,4.000000,4.000000,4.000000,4.000000,4.000000,4.000000,4.000000,4.000000,4.000000,4.000000,4.000000,4.000000,4.000000,4.000000,100.000000
1602005920.493308,53.000000,0.000000,4135.384766,4140.512695,4136.922852,4139.487305,4137.436035,4136.922852,4140.512695,4137.948730,4136.922852,4136.410156,4124.615234,4137.948730,4108.205078,4120.000000,0.000000,4.000000,,,,0.000000,4.000000,4.000000,4.000000,4.000000,4.000000,4.000000,4.000000,4.000000,4.000000,4.000000,4.000000,4.000000,4.000000,4.000000,100.000000
1602005920.501191,54.000000,0.000000,4136.922852,4141.025879,4131.794922,4138.974121,4135.384766,4140.512695,4137.948730,4138.461426,4137.436035,4146.666504,4123.589844,4136.922852,4106.666504,4120.000000,0.000000,4.000000,,,,0.000000,4.000000,4.000000,4.000000,4.000000,4.000000,4.000000,4.000000,4.000000,4.000000,4.000000,4.000000,4.000000,4.000000,4.000000,100.000000
1602005920.509074,55.000000,0.000000,4132.307617,4138.974121,4124.102539,4138.461426,4136.922852,4137.948730,4135.897461,4133.333496,4127.179688,4139.487305,4124.102539,4127.179688,4104.615234,4126.666504,0.000000,4.000000,,,,0.000000,4.000000,4.000000,4.000000,4.000000,4.000000,4.000000,4.000000,4.000000,4.000000,4.000000,4.000000,4.000000,4.000000,4.000000,100.000000
1602005920.516956,56.000000,0.000000,4129.230957,4142.563965,4127.692383,4140.000000,4140.000000,4136.922852,4130.769043,4124.615234,4116.922852,4131.794922,4125.641113,4122.051270,4113.333496,4123.589844,0.000000,4.000000,,,,0.000000,4.000000,4.000000,4.000000,4.000000,4.000000,4.000000,4.000000,4.000000,4.000000,4.000000,4.000000,4.000000,4.000000,4.000000,100.000000
1602005920.524839,57.000000,0.000000,4133.333496,4150.769043,4134.871582,4143.077148,4140.000000,4132.307617,4123.589844,4120.000000,4115.897461,4131.794922,4128.205078,4129.743652,4121.025879,4112.307617,0.000000,4.000000,,,,0.000000,4.000000,4.000000,4.000000,4.000000,4.000000,4.000000,4.000000,4.000000,4.000000,4.000000,4.000000,4.000000,4.000000,4.000000,100.000000
1602005920.532621,58.000000,0.000000,4140.512695,4154.871582,4137.948730,4151.794922,4138.461426,4125.128418,4121.025879,4121.538574,4122.563965,4126.153809,4128.205078,4136.922852,4120.512695,4114.871582,0.000000,4.000000,,,,0.000000,4.000000,4.000000,4.000000,4.000000,4.000000,4.000000,4.000000,4.000000,4.000000,4.000000,4.000000,4.000000,4.000000,4.000000,100.000000
1602005920.540504,59.000000,0.000000,4142.051270,4154.358887,4138.974121,4156.410156,4136.922852,4118.974121,4123.077148,4124.102539,4126.153809,4125.128418,4122.051270,4136.922852,4120.512695,4131.282227,0.000000,4.000000,,,,0.000000,4.000000,4.000000,4.000000,4.000000,4.000000,4.000000,4.000000,4.000000,4.000000,4.000000,4.000000,4.000000,4.000000,4.000000,100.000000
1602005920.548386,60.000000,0.000000,4140.512695,4153.333496,4138.461426,4147.692383,4137.436035,4112.820313,4124.102539,4127.179688,4120.512695,4135.897461,4124.615234,4141.538574,4119.487305,4138.974121,0.000000,4.000000,,,,0.000000,4.000000,4.000000,4.000000,4.000000,4.000000,4.000000,4.000000,4.000000,4.000000,4.000000,4.000000,4.000000,4.000000,4.000000,100.000000
1602005920.556268,61.000000,0.000000,4141.025879,4148.205078,4137.436035,4137.436035,4141.025879,4115.897461,4128.205078,4129.743652,4117.948730,4137.436035,4134.358887,4144.102539,4116.410156,4125.128418,0.000000,4.000000,,,,0.000000,4.000000,4.000000,4.000000,4.000000,4.000000,4.000000,4.000000,4.000000,4.000000,4.000000,4.000000,4.000000,4.000000,4.000000,100.000000
1602005920.564151,62.000000,0.000000,4135.897461,4145.128418,4136.922852,4136.410156,4141.538574,4128.717773,4136.410156,4135.384766,4127.179688,4135.384766,4140.000000,4141.025879,4123.589844,4113.846191,0.000000,4.000000,,,,0.000000,4.000000,4.000000,4.000000,4.000000,4.000000,4.000000,4.000000,4.000000,4.000000,4.000000,4.000000,4.000000,4.000000,4.000000,100.000000
1602005920.571935,63.000000,0.000000,4141.025879,4152.307617,4138.461426,4143.077148,4144.102539,4136.922852,4141.538574,4141.025879,4140.000000,4151.282227,4143.589844,4146.153809,4139.487305,4134.358887,0.000000,4.000000,,,,0.000000,4.000000,4.000000,4.000000,4.000000,4.000000,4.000000,4.000000,4.000000,4.000000,4.000000,4.000000,4.000000,4.000000,4.000000,100.000000
1602005920.579818,64.000000,0.000000,4159.487305,4157.436035,4139.487305,4151.282227,4154.358887,4138.461426,4139.487305,4139.487305,4144.615234,4159.487305,4146.153809,4150.769043,4142.563965,4156.410156,799.000000,4.000000,,,,0.000000,4.000000,4.000000,4.000000,4.000000,4.000000,4.000000,4.000000,4.000000,4.000000,4.000000,4.000000,4.000000,4.000000,4.000000,100.000000
1602005920.587702,65.000000,0.000000,4164.102539,4155.897461,4138.974121,4154.871582,4151.794922,4138.974121,4134.871582,4130.769043,4141.025879,4153.846191,4141.025879,4145.641113,4137.948730,4147.179688,800.000000,4.000000,,,,0.000000,4.000000,4.000000,4.000000,4.000000,4.000000,4.000000,4.000000,4.000000,4.000000,4.000000,4.000000,4.000000,4.000000,4.000000,100.000000
1602005920.595586,66.000000,0.000000,4151.282227,4155.384766,4137.436035,4154.358887,4138.461426,4135.384766,4132.307617,4122.051270,4132.307617,4147.179688,4133.846191,4137.948730,4137.948730,4136.410156,853.000000,4.000000,,,,0.000000,4.000000,4.000000,4.000000,4.000000,4.000000,4.000000,4.000000,4.000000,4.000000,4.000000,4.000000,4.000000,4.000000,4.000000,100.000000
1602005920.603470,67.000000,0.000000,4150.769043,4155.897461,4137.948730,4153.333496,4142.563965,4136.922852,4136.410156,4125.641113,4127.179688,4137.436035,4138.461426,4138.974121,4140.000000,4143.077148,870.000000,4.000000,,,,0.000000,4.000000,4.000000,4.000000,4.000000,4.000000,4.000000,4.000000,4.000000,4.000000,4.000000,4.000000,4.000000,4.000000,4.000000,100.000000
1602005920.611353,68.000000,0.000000,4158.974121,4154.871582,4140.000000,4153.333496,4152.820313,4138.461426,4135.384766,4135.384766,4132.820313,4142.051270,4150.256348,4143.077148,4140.512695,4142.051270,814.000000,4.000000,,,,0.000000,4.000000,4.000000,4.000000,4.000000,4.000000,4.000000,4.000000,4.000000,4.000000,4.000000,4.000000,4.000000,4.000000,4.000000,100.000000
1602005920.619237,69.000000,0.000000,4155.897461,4154.871582,4140.512695,4153.333496,4143.077148,4126.666504,4128.205078,4138.461426,4136.922852,4157.948730,4156.922852,4141.025879,4139.487305,4142.051270,827.000000,4.000000,,,,0.000000,4.000000,4.000000,4.000000,4.000000,4.000000,4.000000,4.000000,4.000000,4.000000,4.000000,4.000000,4.000000,4.000000,4.000000,100.000000
1602005920.627121,70.000000,0.000000,4148.205078,4151.794922,4141.025879,4154.358887,4134.871582,4120.512695,4129.743652,4136.410156,4131.794922,4160.512695,4150.769043,4137.948730,4139.487305,4150.769043,765.000000,4.000000,,,,0.000000,4.000000,4.000000,4.000000,4.000000,4.000000,4.000000,4.000000,4.000000,4.000000,4.000000,4.000000,4.000000,4.000000,4.000000,100.000000
1602005920.635104,71.000000,0.000000,4144.102539,4145.641113,4138.974121,4149.230957,4140.512695,4128.717773,4136.410156,4132.307617,4127.692383,4146.666504,4140.000000,4140.512695,4139.487305,4145.641113,688.000000,4.000000,,,,0.000000,4.000000,4.000000,4.000000,4.000000,4.000000,4.000000,4.000000,4.000000,4.000000,4.000000,4.000000,4.000000,4.000000,4.000000,100.000000
1602005920.642987,72.000000,0.000000,4139.487305,4138.974121,4136.922852,4141.025879,4140.000000,4127.692383,4136.410156,4129.743652,4125.128418,4138.974121,4136.922852,4146.666504,4136.410156,4127.692383,791.000000,4.000000,,,,0.000000,4.000000,4.000000,4.000000,4.000000,4.000000,4.000000,4.000000,4.000000,4.000000,4.000000,4.000000,4.000000,4.000000,4.000000,100.000000
1602005920.650870,73.000000,0.000000,4131.282227,4132.820313,4135.384766,4136.922852,4134.871582,4118.461426,4134.871582,4128.205078,4118.974121,4137.436035,4137.948730,4148.717773,4129.743652,4123.589844,839.000000,4.000000,,,,0.000000,4.000000,4.000000,4.000000,4.000000,4.000000,4.000000,4.000000,4.000000,4.000000,4.000000,4.000000,4.000000,4.000000,4.000000,100.000000
1602005920.658753,74.000000,0.000000,4124.615234,4132.307617,4133.846191,4135.384766,4136.410156,4117.436035,4134.358887,4127.179688,4119.487305,4140.512695,4138.974121,4151.794922,4128.717773,4132.820313,871.000000,4.000000,,,,0.000000,4.000000,4.000000,4.000000,4.000000,4.000000,4.000000,4.000000,4.000000,4.000000,4.000000,4.000000,4.000000,4.000000,4.000000,100.000000
1602005920.666636,75.000000,0.000000,4126.666504,4135.384766,4133.333496,4135.384766,4134.358887,4119.487305,4128.205078,4125.641113,4126.666504,4155.384766,4141.025879,4153.846191,4135.897461,4133.846191,841.000000,4.000000,,,,0.000000,4.000000,4.000000,4.000000,4.000000,4.000000,4.000000,4.000000,4.000000,4.000000,4.000000,4.000000,4.000000,4.000000,4.000000,100.000000
1602005920.674519,76.000000,0.000000,4129.743652,4135.897461,4135.897461,4137.436035,4133.333496,4122.051270,4123.589844,4126.666504,4124.102539,4155.897461,4144.615234,4153.846191,4141.538574,4130.769043,773.000000,4.000000,,,,0.000000,4.000000,4.000000,4.000000,4.000000,4.000000,4.000000,4.000000,4.000000,4.000000,4.000000,4.000000,4.000000,4.000000,4.000000,100.000000
1602005920.682502,77.000000,0.000000,4127.179688,4135.897461,4134.358887,4138.461426,4137.436035,4126.153809,4126.153809,4124.102539,4120.512695,4134.871582,4142.563965,4154.358887,4140.512695,4134.871582,749.000000,4.000000,,,,0.000000,4.000000,4.000000,4.000000,4.000000,4.000000,4.000000,4.000000,4.000000,4.000000,4.000000,4.000000,4.000000,4.000000,4.000000,100.000000
1602005920.690385,78.000000,0.000000,4124.615234,4138.461426,4125.641113,4136.410156,4138.461426,4122.051270,4124.102539,4120.000000,4127.692383,4135.897461,4141.538574,4152.820313,4138.461426,4140.000000,871.000000,4.000000,,,,0.000000,4.000000,4.000000,4.000000,4.000000,4.000000,4.000000,4.000000,4.000000,4.000000,4.000000,4.000000,4.000000,4.000000,4.000000,100.000000
1602005920.698268,79.000000,0.000000,4126.666504,4142.051270,4122.563965,4140.000000,4137.948730,4123.589844,4123.589844,4127.179688,4140.000000,4165.128418,4148.205078,4154.358887,4141.025879,4138.461426,841.000000,4.000000,,,,0.000000,4.000000,4.000000,4.000000,4.000000,4.000000,4.000000,4.000000,4.000000,4.000000,4.000000,4.000000,4.000000,4.000000,4.000000,100.000000
1602005920.706152,80.000000,0.000000,4127.179688,4140.512695,4124.102539,4142.563965,4142.051270,4135.897461,4131.282227,4138.461426,4142.051270,4166.666504,4147.692383,4154.358887,4142.563965,4127.692383,773.000000,4.000000,,,,0.000000,4.000000,4.000000,4.000000,4.000000,4.000000,4.000000,4.000000,4.000000,4.000000,4.000000,4.000000,4.000000,4.000000,4.000000,100.000000
1602005920.714035,81.000000,0.000000,4123.589844,4136.410156,4121.538574,4136.922852,4143.589844,4140.512695,4135.897461,4136.922852,4131.282227,4141.538574,4140.000000,4144.102539,4134.871582,4119.487305,749.000000,4.000000,,,,0.000000,4.000000,4.000000,4.000000,4.000000,4.000000,4.000000,4.000000,4.000000,4.000000,4.000000,4.000000,4.000000,4.000000,4.000000,100.000000
1602005920.721918,82.000000,0.000000,4120.512695,4135.384766,4122.563965,4135.384766,4142.051270,4137.436035,4135.384766,4130.769043,4123.077148,4135.384766,4135.897461,4135.897461,4126.666504,4128.717773,871.000000,4.000000,,,,0.000000,4.000000,4.000000,4.000000,4.000000,4.000000,4.000000,4.000000,4.000000,4.000000,4.000000,4.000000,4.000000,4.000000,4.000000,100.000000
1602005920.729901,83.000000,0.000000,4128.717773,4137.948730,4132.820313,4142.051270,4147.179688,4136.922852,4134.358887,4133.846191,4129.743652,4143.077148,4134.358887,4144.615234,4130.769043,4142.563965,841.000000,4.000000,,,,0.000000,4.000000,4.000000,4.000000,4.000000,4.000000,4.000000,4.000000,4.000000,4.000000,4.000000,4.000000,4.000000,4.000000,4.000000,100.000000
1602005920.737784,84.000000,0.000000,4137.948730,4138.974121,4137.436035,4143.589844,4154.871582,4137.948730,4131.282227,4140.000000,4137.436035,4152.820313,4136.410156,4153.333496,4137.436035,4136.410156,773.000000,4.000000,,,,0.000000,4.000000,4.000000,4.000000,4.000000,4.000000,4.000000,4.000000,4.000000,4.000000,4.000000,4.000000,4.000000,4.000000,4.000000,100.000000
1602005920.745668,85.000000,0.000000,4132.820313,4140.000000,4136.410156,4138.461426,4153.846191,4138.461426,4127.179688,4139.487305,4136.410156,4152.307617,4142.051270,4152.307617,4138.974121,4134.871582,749.000000,4.000000,,,,0.000000,4.000000,4.000000,4.000000,4.000000,4.000000,4.000000,4.000000,4.000000,4.000000,4.000000,4.000000,4.000000,4.000000,4.000000,100.000000
1602005920.753551,86.000000,0.000000,4125.128418,4141.025879,4137.948730,4140.000000,4145.641113,4139.487305,4126.153809,4136.922852,4136.410156,4137.948730,4141.025879,4151.794922,4138.974121,4144.102539,871.000000,4.000000,,,,0.000000,4.000000,4.000000,4.000000,4.000000,4.000000,4.000000,4.000000,4.000000,4.000000,4.000000,4.000000,4.000000,4.000000,4.000000,100.000000
1602005920.761434,87.000000,0.000000,4120.000000,4128.205078,4132.307617,4136.922852,4138.461426,4138.461426,4122.563965,4135.384766,4134.358887,4132.820313,4126.153809,4151.282227,4120.512695,4116.410156,841.000000,4.000000,,,,0.000000,4.000000,4.000000,4.000000,4.000000,4.000000,4.000000,4.000000,4.000000,4.000000,4.000000,4.000000,4.000000,4.000000,4.000000,100.000000
1602005920.769317,88.000000,0.000000,4118.974121,4116.410156,4126.666504,4127.179688,4137.436035,4136.922852,4124.102539,4134.358887,4124.615234,4141.538574,4121.538574,4151.282227,4104.102539,4087.179443,773.000000,4.000000,,,,0.000000,4.000000,4.000000,4.000000,4.000000,4.000000,4.000000,4.000000,4.000000,4.000000,4.000000,4.000000,4.000000,4.000000,4.000000,100.000000
1602005920.777201,89.000000,0.000000,4124.102539,4128.717773,4133.333496,4131.794922,4146.666504,4138.974121,4135.384766,4137.948730,4124.102539,4138.974121,4140.512695,4156.410156,4131.794922,4122.051270,749.000000,4.000000,,,,0.000000,4.000000,4.000000,4.000000,4.000000,4.000000,4.000000,4.000000,4.000000,4.000000,4.000000,4.000000,4.000000,4.000000,4.000000,100.000000
1602005920.784985,90.000000,0.000000,4125.128418,4136.410156,4137.948730,4142.563965,4152.307617,4140.512695,4140.512695,4137.948730,4131.282227,4132.307617,4155.897461,4161.538574,4170.256348,4165.641113,871.000000,4.000000,,,,0.000000,4.000000,4.000000,4.000000,4.000000,4.000000,4.000000,4.000000,4.000000,4.000000,4.000000,4.000000,4.000000,4.000000,4.000000,100.000000
1602005920.792869,91.000000,0.000000,4119.487305,4122.051270,4132.820313,4137.436035,4146.666504,4137.436035,4135.384766,4133.333496,4133.846191,4147.692383,4161.538574,4162.051270,4182.051270,4160.000000,841.000000,4.000000,,,,0.000000,4.000000,4.000000,4.000000,4.000000,4.000000,4.000000,4.000000,4.000000,4.000000,4.000000,4.000000,4.000000,4.000000,4.000000,100.000000
1602005920.800754,92.000000,0.000000,4122.563965,4111.282227,4136.410156,4133.333496,4147.692383,4137.436035,4133.846191,4141.538574,4141.538574,4167.179688,4170.769043,4169.743652,4194.871582,4155.897461,773.000000,4.000000,,,,0.000000,4.000000,4.000000,4.000000,4.000000,4.000000,4.000000,4.000000,4.000000,4.000000,4.000000,4.000000,4.000000,4.000000,4.000000,100.000000
1602005920.808638,93.000000,0.000000,4124.615234,4110.769043,4146.153809,4136.922852,4156.922852,4139.487305,4136.922852,4152.307617,4153.333496,4174.871582,4176.410156,4186.153809,4210.769043,4182.051270,749.000000,4.000000,,,,0.000000,4.000000,4.000000,4.000000,4.000000,4.000000,4.000000,4.000000,4.000000,4.000000,4.000000,4.000000,4.000000,4.000000,4.000000,100.000000
1602005920.816522,94.000000,0.000000,4110.256348,4107.692383,4144.102539,4128.205078,4156.922852,4136.922852,4132.820313,4144.615234,4146.666504,4165.128418,4169.230957,4186.153809,4204.615234,4187.179688,871.000000,4.000000,,,,0.000000,4.000000,4.000000,4.000000,4.000000,4.000000,4.000000,4.000000,4.000000,4.000000,4.000000,4.000000,4.000000,4.000000,4.000000,100.000000
1602005920.824406,95.000000,0.000000,4103.589844,4105.128418,4137.436035,4122.051270,4152.307617,4135.897461,4128.205078,4134.358887,4132.820313,4141.538574,4171.282227,4172.307617,4200.000000,4170.769043,841.000000,4.000000,,,,0.000000,4.000000,4.000000,4.000000,4.000000,4.000000,4.000000,4.000000,4.000000,4.000000,4.000000,4.000000,4.000000,4.000000,4.000000,100.000000
1602005920.832291,96.000000,0.000000,4108.717773,4107.692383,4136.922852,4132.307617,4157.948730,4141.025879,4133.333496,4140.000000,4140.512695,4145.641113,4179.487305,4171.282227,4206.153809,4167.692383,773.000000,4.000000,,,,0.000000,4.000000,4.000000,4.000000,4.000000,4.000000,4.000000,4.000000,4.000000,4.000000,4.000000,4.000000,4.000000,4.000000,4.000000,100.000000
1602005920.840175,97.000000,0.000000,4108.205078,4105.641113,4136.922852,4137.436035,4152.820313,4142.051270,4139.487305,4146.153809,4155.384766,4181.025879,4171.794922,4175.384766,4201.025879,4169.743652,749.000000,4.000000,,,,0.000000,4.000000,4.000000,4.000000,4.000000,4.000000,4.000000,4.000000,4.000000,4.000000,4.000000,4.000000,4.000000,4.000000,4.000000,100.000000
1602005920.848059,98.000000,0.000000,4105.128418,4102.563965,4135.897461,4131.794922,4141.538574,4136.922852,4140.000000,4148.205078,4150.256348,4189.230957,4170.256348,4168.205078,4201.538574,4168.205078,871.000000,4.000000,,,,0.000000,4.000000,4.000000,4.000000,4.000000,4.000000,4.000000,4.000000,4.000000,4.000000,4.000000,4.000000,4.000000,4.000000,4.000000,100.000000
1602005920.855842,99.000000,0.000000,4105.641113,4110.256348,4142.051270,4133.846191,4147.692383,4135.897461,4142.051270,4151.794922,4147.179688,4167.692383,4189.743652,4174.358887,4219.487305,4173.846191,841.000000,4.000000,,,,0.000000,4.000000,4.000000,4.000000,4.000000,4.000000,4.000000,4.000000,4.000000,4.000000,4.000000,4.000000,4.000000,4.000000,4.000000,100.000000
1602005920.863725,100.000000,0.000000,4113.846191,4122.563965,4152.307617,4141.025879,4156.922852,4139.487305,4146.666504,4150.769043,4150.769043,4167.179688,4192.307617,4198.974121,4221.025879,4184.615234,773.000000,4.000000,,,,0.000000,4.000000,4.000000,4.000000,4.000000,4.000000,4.000000,4.000000,4.000000,4.000000,4.000000,4.000000,4.000000,4.000000,4.000000,100.000000
1602005920.871607,101.000000,0.000000,4125.128418,4125.641113,4154.871582,4140.512695,4152.820313,4139.487305,4145.128418,4146.153809,4145.641113,4178.461426,4173.846191,4202.051270,4206.666504,4185.641113,749.000000,4.000000,,,,0.000000,4.000000,4.000000,4.000000,4.000000,4.000000,4.000000,4.000000,4.000000,4.000000,4.000000,4.000000,4.000000,4.000000,4.000000,100.000000
1602005920.879490,102.000000,0.000000,4123.589844,4123.077148,4150.256348,4139.487305,4152.307617,4142.051270,4144.102539,4152.307617,4147.692383,4168.717773,4178.461426,4190.256348,4212.307617,4183.589844,871.000000,4.000000,,,,0.000000,4.000000,4.000000,4.000000,4.000000,4.000000,4.000000,4.000000,4.000000,4.000000,4.000000,4.000000,4.000000,4.000000,4.000000,100.000000
1602005920.887372,103.000000,0.000000,4109.743652,4126.153809,4142.563965,4140.512695,4157.948730,4151.282227,4145.641113,4163.077148,4164.102539,4155.897461,4195.897461,4188.717773,4221.025879,4185.641113,841.000000,4.000000,,,,0.000000,4.000000,4.000000,4.000000,4.000000,4.000000,4.000000,4.000000,4.000000,4.000000,4.000000,4.000000,4.000000,4.000000,4.000000,100.000000
1602005920.895154,104.000000,0.000000,4104.615234,4125.641113,4136.922852,4140.000000,4155.384766,4156.922852,4142.051270,4162.051270,4172.820313,4159.487305,4183.077148,4181.025879,4207.692383,4172.307617,773.000000,4.000000,,,,0.000000,4.000000,4.000000,4.000000,4.000000,4.000000,4.000000,4.000000,4.000000,4.000000,4.000000,4.000000,4.000000,4.000000,4.000000,100.000000
1602005920.903035,105.000000,0.000000,4106.666504,4118.461426,4135.897461,4134.871582,4153.333496,4155.384766,4138.461426,4153.333496,4170.256348,4170.769043,4166.153809,4163.589844,4195.897461,4146.153809,749.000000,4.000000,,,,0.000000,4.000000,4.000000,4.000000,4.000000,4.000000,4.000000,4.000000,4.000000,4.000000,4.000000,4.000000,4.000000,4.000000,4.000000,100.000000
1602005920.910819,106.000000,0.000000,4106.153809,4118.974121,4135.384766,4128.717773,4155.384766,4154.358887,4139.487305,4153.846191,4169.743652,4177.948730,4169.230957,4157.948730,4193.333496,4139.487305,871.000000,4.000000,,,,0.000000,4.000000,4.000000,4.000000,4.000000,4.000000,4.000000,4.000000,4.000000,4.000000,4.000000,4.000000,4.000000,4.000000,4.000000,100.000000
1602005920.918703,107.000000,0.000000,4104.102539,4119.487305,4135.897461,4130.769043,4151.794922,4153.333496,4140.512695,4156.410156,4165.641113,4178.461426,4173.846191,4158.974121,4186.666504,4156.410156,841.000000,4.000000,,,,0.000000,4.000000,4.000000,4.000000,4.000000,4.000000,4.000000,4.000000,4.000000,4.000000,4.000000,4.000000,4.000000,4.000000,4.000000,100.000000
1602005920.926587,108.000000,0.000000,4106.666504,4112.820313,4136.410156,4133.333496,4150.256348,4151.794922,4144.615234,4155.384766,4155.897461,4165.128418,4169.743652,4158.461426,4183.589844,4169.743652,773.000000,4.000000,,,,0.000000,4.000000,4.000000,4.000000,4.000000,4.000000,4.000000,4.000000,4.000000,4.000000,4.000000,4.000000,4.000000,4.000000,4.000000,100.000000
1602005920.934470,109.000000,0.000000,4113.333496,4110.256348,4131.282227,4129.230957,4156.410156,4154.871582,4153.846191,4157.948730,4153.333496,4147.179688,4169.230957,4166.666504,4187.179688,4169.743652,749.000000,4.000000,,,,0.000000,4.000000,4.000000,4.000000,4.000000,4.000000,4.000000,4.000000,4.000000,4.000000,4.000000,4.000000,4.000000,4.000000,4.000000,100.000000
1602005920.942354,110.000000,0.000000,4113.333496,4112.820313,4129.743652,4128.205078,4158.461426,4157.436035,4159.487305,4160.512695,4157.436035,4150.769043,4172.820313,4168.717773,4187.179688,4161.538574,871.000000,4.000000,,,,0.000000,4.000000,4.000000,4.000000,4.000000,4.000000,4.000000,4.000000,4.000000,4.000000,4.000000,4.000000,4.000000,4.000000,4.000000,100.000000
1602005920.950238,111.000000,0.000000,4107.692383,4109.230957,4135.384766,4134.358887,4153.846191,4154.871582,4153.846191,4155.384766,4151.282227,4160.000000,4172.820313,4162.051270,4184.102539,4155.897461,841.000000,4.000000,,,,0.000000,4.000000,4.000000,4.000000,4.000000,4.000000,4.000000,4.000000,4.000000,4.000000,4.000000,4.000000,4.000000,4.000000,4.000000,100.000000
1602005920.958122,112.000000,0.000000,4106.153809,4107.179688,4138.974121,4138.974121,4152.307617,4147.179688,4142.051270,4147.692383,4140.000000,4148.205078,4168.717773,4164.615234,4182.563965,4156.410156,773.000000,4.000000,,,,0.000000,4.000000,4.000000,4.000000,4.000000,4.000000,4.000000,4.000000,4.000000,4.000000,4.000000,4.000000,4.000000,4.000000,4.000000,100.000000
1602005920.966006,113.000000,0.000000,4108.717773,4112.820313,4140.512695,4136.410156,4155.384766,4145.128418,4136.922852,4147.179688,4137.948730,4151.282227,4167.692383,4173.846191,4183.589844,4154.871582,749.000000,4.000000,,,,0.000000,4.000000,4.000000,4.000000,4.000000,4.000000,4.000000,4.000000,4.000000,4.000000,4.000000,4.000000,4.000000,4.000000,4.000000,100.000000
1602005920.973789,114.000000,0.000000,4104.615234,4112.307617,4137.948730,4131.282227,4156.410156,4147.692383,4140.512695,4147.179688,4141.025879,4171.794922,4171.282227,4170.256348,4183.589844,4143.589844,871.000000,4.000000,,,,0.000000,4.000000,4.000000,4.000000,4.000000,4.000000,4.000000,4.000000,4.000000,4.000000,4.000000,4.000000,4.000000,4.000000,4.000000,100.000000
1602005920.981672,115.000000,0.000000,4086.666748,4100.512695,4125.128418,4120.512695,4147.692383,4148.717773,4143.077148,4142.051270,4137.948730,4162.051270,4165.641113,4159.487305,4177.436035,4137.948730,841.000000,4.000000,,,,0.000000,4.000000,4.000000,4.000000,4.000000,4.000000,4.000000,4.000000,4.000000,4.000000,4.000000,4.000000,4.000000,4.000000,4.000000,100.000000
1602005920.989555,116.000000,0.000000,4070.769287,4090.256348,4112.307617,4111.282227,4139.487305,4150.256348,4143.589844,4144.615234,4133.846191,4132.307617,4152.820313,4151.794922,4166.153809,4142.051270,773.000000,4.000000,,,,0.000000,4.000000,4.000000,4.000000,4.000000,4.000000,4.000000,4.000000,4.000000,4.000000,4.000000,4.000000,4.000000,4.000000,4.000000,100.000000
1602005920.997438,117.000000,0.000000,4071.794922,4088.718018,4107.179688,4108.205078,4138.461426,4150.256348,4145.641113,4151.282227,4137.948730,4129.743652,4150.256348,4143.589844,4157.436035,4140.000000,749.000000,4.000000,,,,0.000000,4.000000,4.000000,4.000000,4.000000,4.000000,4.000000,4.000000,4.000000,4.000000,4.000000,4.000000,4.000000,4.000000,4.000000,100.000000
1602005921.005321,118.000000,0.000000,4078.974365,4090.256348,4102.563965,4105.128418,4133.333496,4143.077148,4144.615234,4145.641113,4134.358887,4150.256348,4147.692383,4132.307617,4150.769043,4125.128418,871.000000,4.000000,,,,0.000000,4.000000,4.000000,4.000000,4.000000,4.000000,4.000000,4.000000,4.000000,4.000000,4.000000,4.000000,4.000000,4.000000,4.000000,100.000000
1602005921.013204,119.000000,0.000000,4079.487061,4087.692383,4105.128418,4108.205078,4130.256348,4133.333496,4141.538574,4136.410156,4124.102539,4156.922852,4136.410156,4133.846191,4147.179688,4114.358887,841.000000,4.000000,,,,0.000000,4.000000,4.000000,4.000000,4.000000,4.000000,4.000000,4.000000,4.000000,4.000000,4.000000,4.000000,4.000000,4.000000,4.000000,100.000000
1602005921.020988,120.000000,0.000000,4087.692383,4093.846191,4123.077148,4118.974121,4139.487305,4131.794922,4141.538574,4145.128418,4128.717773,4143.077148,4140.512695,4158.461426,4157.948730,4134.871582,773.000000,4.000000,,,,0.000000,4.000000,4.000000,4.000000,4.000000,4.000000,4.000000,4.000000,4.000000,4.000000,4.000000,4.000000,4.000000,4.000000,4.000000,100.000000
1602005921.028872,121.000000,0.000000,4103.589844,4107.179688,4140.512695,4125.641113,4142.051270,4130.256348,4143.589844,4152.820313,4137.948730,4133.333496,4163.077148,4177.948730,4169.230957,4161.025879,749.000000,4.000000,,,,0.000000,4.000000,4.000000,4.000000,4.000000,4.000000,4.000000,4.000000,4.000000,4.000000,4.000000,4.000000,4.000000,4.000000,4.000000,100.000000
1602005921.036756,122.000000,0.000000,4105.128418,4107.179688,4142.563965,4121.538574,4136.410156,4122.563965,4141.538574,4144.102539,4125.641113,4138.461426,4162.563965,4174.358887,4163.589844,4153.333496,871.000000,4.000000,,,,0.000000,4.000000,4.000000,4.000000,4.000000,4.000000,4.000000,4.000000,4.000000,4.000000,4.000000,4.000000,4.000000,4.000000,4.000000,100.000000
1602005921.044640,123.000000,0.000000,4091.794922,4095.384521,4134.871582,4113.333496,4133.846191,4124.102539,4132.820313,4135.897461,4113.333496,4133.846191,4141.538574,4168.717773,4154.358887,4136.922852,841.000000,4.000000,,,,0.000000,4.000000,4.000000,4.000000,4.000000,4.000000,4.000000,4.000000,4.000000,4.000000,4.000000,4.000000,4.000000,4.000000,4.000000,100.000000
1602005921.052524,124.000000,0.000000,4081.538574,4090.256348,4126.153809,4107.179688,4128.717773,4130.769043,4122.051270,4134.871582,4115.897461,4125.128418,4137.436035,4166.153809,4151.282227,4132.307617,773.000000,4.000000,,,,0.000000,4.000000,4.000000,4.000000,4.000000,4.000000,4.000000,4.000000,4.000000,4.000000,4.000000,4.000000,4.000000,4.000000,4.000000,100.000000
1602005921.060408,125.000000,0.000000,4081.025635,4093.333252,4115.897461,4106.153809,4128.205078,4132.307617,4120.000000,4132.820313,4120.512695,4137.948730,4144.615234,4157.436035,4150.769043,4124.615234,749.000000,4.000000,,,,0.000000,4.000000,4.000000,4.000000,4.000000,4.000000,4.000000,4.000000,4.000000,4.000000,4.000000,4.000000,4.000000,4.000000,4.000000,100.000000
1602005921.068292,126.000000,0.000000,4079.487061,4092.307617,4105.128418,4107.692383,4135.897461,4133.333496,4121.538574,4132.820313,4129.743652,4150.256348,4146.153809,4149.743652,4159.487305,4124.615234,871.000000,4.000000,,,,0.000000,4.000000,4.000000,4.000000,4.000000,4.000000,4.000000,4.000000,4.000000,4.000000,4.000000,4.000000,4.000000,4.000000,4.000000,100.000000
1602005921.076176,127.000000,0.000000,4073.846191,4087.692383,4102.051270,4105.641113,4137.948730,4141.538574,4123.077148,4140.000000,4140.000000,4140.512695,4150.256348,4156.922852,4173.846191,4141.025879,841.000000,4.000000,,,,0.000000,4.000000,4.000000,4.000000,4.000000,4.000000,4.000000,4.000000,4.000000,4.000000,4.000000,4.000000,4.000000,4.000000,4.000000,100.000000
1602005921.084159,128.000000,0.000000,4080.000000,4093.846191,4111.794922,4108.205078,4137.948730,4140.000000,4128.717773,4143.589844,4141.538574,4134.871582,4157.436035,4167.179688,4173.846191,4146.153809,773.000000,4.000000,,,,0.000000,4.000000,4.000000,4.000000,4.000000,4.000000,4.000000,4.000000,4.000000,4.000000,4.000000,4.000000,4.000000,4.000000,4.000000,100.000000
1602005921.092042,0.000000,0.000000,4094.358887,4107.179688,4124.102539,4120.512695,4142.051270,4129.743652,4137.948730,4141.538574,4140.512695,4144.615234,4158.461426,4171.282227,4170.256348,4141.025879,799.000000,4.000000,,,,0.000000,4.000000,4.000000,4.000000,4.000000,4.000000,4.000000,4.000000,4.000000,4.000000,4.000000,4.000000,4.000000,4.000000,4.000000,100.000000
1602005921.099925,1.000000,0.000000,4094.358887,4107.179688,4124.615234,4124.102539,4142.563965,4127.179688,4136.922852,4141.025879,4131.794922,4137.436035,4154.871582,4168.205078,4169.230957,4142.051270,800.000000,4.000000,,,,0.000000,4.000000,4.000000,4.000000,4.000000,4.000000,4.000000,4.000000,4.000000,4.000000,4.000000,4.000000,4.000000,4.000000,4.000000,100.000000
1602005921.107808,2.000000,0.000000,4084.102539,4096.922852,4118.461426,4114.871582,4137.948730,4120.000000,4126.666504,4134.358887,4114.871582,4125.641113,4146.153809,4157.948730,4160.000000,4134.358887,853.000000,4.000000,,,,0.000000,4.000000,4.000000,4.000000,4.000000,4.000000,4.000000,4.000000,4.000000,4.000000,4.000000,4.000000,4.000000,4.000000,4.000000,100.000000
1602005921.115691,3.000000,0.000000,4083.076904,4096.410156,4120.000000,4114.871582,4133.846191,4104.615234,4118.974121,4123.077148,4105.128418,4130.769043,4138.974121,4150.256348,4150.769043,4128.205078,870.000000,4.000000,,,,0.000000,4.000000,4.000000,4.000000,4.000000,4.000000,4.000000,4.000000,4.000000,4.000000,4.000000,4.000000,4.000000,4.000000,4.000000,100.000000
1602005921.123673,4.000000,0.000000,4090.769287,4105.641113,4123.077148,4121.538574,4133.846191,4103.077148,4116.922852,4118.461426,4112.307617,4140.000000,4152.820313,4154.871582,4160.000000,4137.948730,814.000000,4.000000,,,,0.000000,4.000000,4.000000,4.000000,4.000000,4.000000,4.000000,4.000000,4.000000,4.000000,4.000000,4.000000,4.000000,4.000000,4.000000,100.000000
1602005921.131557,5.000000,0.000000,4104.615234,4116.922852,4123.589844,4125.641113,4139.487305,4122.051270,4126.666504,4129.743652,4130.769043,4150.256348,4174.871582,4168.717773,4182.563965,4153.333496,827.000000,4.000000,,,,0.000000,4.000000,4.000000,4.000000,4.000000,4.000000,4.000000,4.000000,4.000000,4.000000,4.000000,4.000000,4.000000,4.000000,4.000000,100.000000
1602005921.139440,6.000000,0.000000,4113.846191,4123.589844,4128.717773,4130.769043,4141.538574,4131.794922,4134.358887,4140.000000,4134.871582,4155.384766,4171.794922,4174.871582,4187.692383,4159.487305,765.000000,4.000000,,,,0.000000,4.000000,4.000000,4.000000,4.000000,4.000000,4.000000,4.000000,4.000000,4.000000,4.000000,4.000000,4.000000,4.000000,4.000000,100.000000
1602005921.147323,7.000000,0.000000,4110.256348,4122.563965,4138.974121,4131.282227,4134.871582,4126.153809,4129.743652,4136.410156,4122.051270,4141.538574,4155.897461,4172.307617,4172.307617,4150.256348,687.000000,4.000000,,,,0.000000,4.000000,4.000000,4.000000,4.000000,4.000000,4.000000,4.000000,4.000000,4.000000,4.000000,4.000000,4.000000,4.000000,4.000000,100.000000
1602005921.155206,8.000000,0.000000,4105.128418,4120.512695,4137.948730,4126.153809,4133.846191,4130.769043,4130.769043,4133.333496,4116.922852,4124.102539,4158.461426,4166.153809,4165.128418,4142.051270,791.000000,4.000000,,,,0.000000,4.000000,4.000000,4.000000,4.000000,4.000000,4.000000,4.000000,4.000000,4.000000,4.000000,4.000000,4.000000,4.000000,4.000000,100.000000
1602005921.163089,9.000000,0.000000,4098.461426,4116.922852,4120.512695,4123.077148,4140.512695,4144.615234,4137.436035,4136.922852,4125.128418,4131.282227,4156.922852,4158.974121,4166.666504,4141.538574,839.000000,4.000000,,,,0.000000,4.000000,4.000000,4.000000,4.000000,4.000000,4.000000,4.000000,4.000000,4.000000,4.000000,4.000000,4.000000,4.000000,4.000000,100.000000
1602005921.171073,10.000000,0.000000,4085.128174,4107.179688,4105.128418,4116.410156,4143.077148,4143.077148,4129.743652,4138.461426,4132.307617,4149.230957,4138.461426,4149.743652,4154.358887,4133.333496,871.000000,4.000000,,,,0.000000,4.000000,4.000000,4.000000,4.000000,4.000000,4.000000,4.000000,4.000000,4.000000,4.000000,4.000000,4.000000,4.000000,4.000000,100.000000
1602005921.178956,11.000000,0.000000,4073.333252,4094.871826,4103.077148,4107.179688,4135.897461,4130.769043,4119.487305,4137.436035,4135.384766,4147.179688,4133.846191,4139.487305,4140.000000,4118.974121,841.000000,4.000000,,,,0.000000,4.000000,4.000000,4.000000,4.000000,4.000000,4.000000,4.000000,4.000000,4.000000,4.000000,4.000000,4.000000,4.000000,4.000000,100.000000
1602005921.186840,12.000000,0.000000,4075.897461,4091.281982,4107.692383,4106.666504,4130.256348,4131.282227,4122.563965,4138.461426,4136.922852,4134.871582,4141.538574,4133.333496,4138.974121,4115.897461,773.000000,4.000000,,,,0.000000,4.000000,4.000000,4.000000,4.000000,4.000000,4.000000,4.000000,4.000000,4.000000,4.000000,4.000000,4.000000,4.000000,4.000000,100.000000
1602005921.194724,13.000000,0.000000,4091.281982,4095.897461,4117.436035,4113.846191,4128.205078,4134.871582,4128.717773,4138.461426,4135.384766,4141.538574,4140.512695,4138.461426,4140.512695,4118.974121,749.000000,4.000000,,,,0.000000,4.000000,4.000000,4.000000,4.000000,4.000000,4.000000,4.000000,4.000000,4.000000,4.000000,4.000000,4.000000,4.000000,4.000000,100.000000
1602005921.202608,14.000000,0.000000,4110.256348,4106.153809,4132.307617,4122.051270,4126.153809,4132.307617,4136.410156,4142.051270,4141.025879,4160.000000,4149.230957,4158.974121,4151.282227,4131.282227,871.000000,4.000000,,,,0.000000,4.000000,4.000000,4.000000,4.000000,4.000000,4.000000,4.000000,4.000000,4.000000,4.000000,4.000000,4.000000,4.000000,4.000000,100.000000
1602005921.210491,15.000000,0.000000,4111.794922,4110.769043,4132.307617,4122.051270,4126.153809,4134.871582,4142.051270,4146.666504,4145.641113,4140.512695,4161.025879,4173.333496,4162.563965,4148.717773,841.000000,4.000000,,,,0.000000,4.000000,4.000000,4.000000,4.000000,4.000000,4.000000,4.000000,4.000000,4.000000,4.000000,4.000000,4.000000,4.000000,4.000000,100.000000
1602005921.218375,16.000000,0.000000,4092.307617,4098.461426,4109.230957,4110.256348,4124.615234,4139.487305,4137.948730,4135.384766,4129.230957,4104.615234,4142.563965,4158.974121,4144.615234,4141.538574,0.000000,4.000000,,,,0.000000,4.000000,4.000000,4.000000,4.000000,4.000000,4.000000,4.000000,4.000000,4.000000,4.000000,4.000000,4.000000,4.000000,4.000000,100.000000
1602005921.226259,17.000000,0.000000,4082.564209,4087.179443,4094.871826,4102.051270,4118.974121,4135.384766,4136.922852,4123.589844,4112.307617,4114.358887,4120.512695,4133.846191,4121.538574,4125.641113,0.000000,4.000000,,,,0.000000,4.000000,4.000000,4.000000,4.000000,4.000000,4.000000,4.000000,4.000000,4.000000,4.000000,4.000000,4.000000,4.000000,4.000000,100.000000
1602005921.234240,18.000000,0.000000,4094.871826,4096.922852,4105.641113,4105.641113,4117.948730,4133.333496,4140.512695,4132.307617,4121.025879,4147.179688,4131.282227,4136.922852,4133.846191,4131.794922,0.000000,4.000000,,,,0.000000,4.000000,4.000000,4.000000,4.000000,4.000000,4.000000,4.000000,4.000000,4.000000,4.000000,4.000000,4.000000,4.000000,4.000000,100.000000
1602005921.242122,19.000000,0.000000,4106.666504,4110.769043,4122.563965,4114.871582,4124.615234,4139.487305,4136.410156,4143.589844,4140.512695,4160.512695,4150.769043,4153.846191,4157.436035,4141.025879,0.000000,4.000000,,,,0.000000,4.000000,4.000000,4.000000,4.000000,4.000000,4.000000,4.000000,4.000000,4.000000,4.000000,4.000000,4.000000,4.000000,4.000000,100.000000
1602005921.250104,20.000000,0.000000,4105.641113,4108.717773,4127.179688,4120.512695,4126.153809,4137.948730,4123.589844,4135.384766,4141.538574,4162.051270,4151.794922,4147.179688,4153.333496,4135.897461,0.000000,4.000000,,,,0.000000,4.000000,4.000000,4.000000,4.000000,4.000000,4.000000,4.000000,4.000000,4.000000,4.000000,4.000000,4.000000,4.000000,4.000000,100.000000
1602005921.257987,21.000000,0.000000,4104.102539,4105.128418,4124.615234,4121.025879,4122.563965,4134.358887,4118.974121,4124.615234,4131.282227,4160.000000,4151.282227,4134.871582,4148.205078,4132.307617,0.000000,4.000000,,,,0.000000,4.000000,4.000000,4.000000,4.000000,4.000000,4.000000,4.000000,4.000000,4.000000,4.000000,4.000000,4.000000,4.000000,4.000000,100.000000
1602005921.265869,22.000000,0.000000,4108.717773,4115.384766,4124.615234,4122.563965,4129.230957,4136.410156,4124.102539,4125.641113,4130.769043,4142.563965,4156.410156,4145.128418,4156.410156,4143.077148,0.000000,4.000000,,,,0.000000,4.000000,4.000000,4.000000,4.000000,4.000000,4.000000,4.000000,4.000000,4.000000,4.000000,4.000000,4.000000,4.000000,4.000000,100.000000
1602005921.273752,23.000000,0.000000,4114.871582,4124.615234,4122.563965,4125.128418,4138.974121,4137.436035,4128.717773,4128.717773,4135.897461,4126.666504,4155.897461,4154.871582,4156.410156,4155.897461,0.000000,4.000000,,,,0.000000,4.000000,4.000000,4.000000,4.000000,4.000000,4.000000,4.000000,4.000000,4.000000,4.000000,4.000000,4.000000,4.000000,4.000000,100.000000
1602005921.281635,24.000000,0.000000,4121.025879,4124.615234,4120.000000,4122.563965,4137.948730,4135.384766,4131.282227,4130.769043,4137.948730,4138.974121,4153.846191,4152.307617,4160.512695,4158.461426,0.000000,4.000000,,,,0.000000,4.000000,4.000000,4.000000,4.000000,4.000000,4.000000,4.000000,4.000000,4.000000,4.000000,4.000000,4.000000,4.000000,4.000000,100.000000
1602005921.289418,25.000000,0.000000,4122.051270,4122.563965,4129.230957,4121.538574,4133.846191,4134.358887,4130.256348,4135.384766,4135.897461,4165.128418,4154.871582,4160.512695,4168.717773,4153.846191,0.000000,4.000000,,,,0.000000,4.000000,4.000000,4.000000,4.000000,4.000000,4.000000,4.000000,4.000000,4.000000,4.000000,4.000000,4.000000,4.000000,4.000000,100.000000
1602005921.297300,26.000000,0.000000,4122.563965,4122.563965,4143.589844,4125.128418,4134.871582,4138.461426,4129.230957,4138.461426,4133.333496,4176.922852,4156.922852,4172.820313,4161.538574,4157.436035,0.000000,4.000000,,,,0.000000,4.000000,4.000000,4.000000,4.000000,4.000000,4.000000,4.000000,4.000000,4.000000,4.000000,4.000000,4.000000,4.000000,4.000000,100.000000
1602005921.305183,27.000000,0.000000,4124.102539,4122.563965,4148.717773,4126.666504,4131.282227,4133.846191,4132.307617,4133.333496,4126.153809,4160.512695,4156.410156,4172.307617,4152.820313,4160.000000,0.000000,4.000000,,,,0.000000,4.000000,4.000000,4.000000,4.000000,4.000000,4.000000,4.000000,4.000000,4.000000,4.000000,4.000000,4.000000,4.000000,4.000000,100.000000
1602005921.313066,28.000000,0.000000,4126.153809,4117.948730,4144.102539,4125.128418,4123.589844,4124.615234,4132.820313,4120.000000,4111.282227,4130.769043,4150.769043,4168.205078,4156.410156,4145.641113,0.000000,4.000000,,,,0.000000,4.000000,4.000000,4.000000,4.000000,4.000000,4.000000,4.000000,4.000000,4.000000,4.000000,4.000000,4.000000,4.000000,4.000000,100.000000
1602005921.320949,29.000000,0.000000,4123.589844,4111.282227,4129.230957,4121.538574,4126.666504,4124.615234,4124.615234,4107.179688,4100.512695,4115.384766,4142.051270,4158.461426,4153.333496,4135.384766,0.000000,4.000000,,,,0.000000,4.000000,4.000000,4.000000,4.000000,4.000000,4.000000,4.000000,4.000000,4.000000,4.000000,4.000000,4.000000,4.000000,4.000000,100.000000
1602005921.328932,30.000000,0.000000,4112.307617,4111.794922,4108.205078,4120.000000,4136.410156,4126.666504,4120.512695,4106.666504,4103.589844,4124.615234,4138.461426,4142.563965,4142.051270,4139.487305,0.000000,4.000000,,,,0.000000,4.000000,4.000000,4.000000,4.000000,4.000000,4.000000,4.000000,4.000000,4.000000,4.000000,4.000000,4.000000,4.000000,4.000000,100.000000
1602005921.336816,31.000000,0.000000,4110.256348,4117.948730,4105.128418,4120.512695,4130.769043,4121.025879,4121.025879,4117.436035,4115.384766,4135.897461,4143.077148,4135.384766,4143.077148,4140.512695,0.000000,4.000000,,,,0.000000,4.000000,4.000000,4.000000,4.000000,4.000000,4.000000,4.000000,4.000000,4.000000,4.000000,4.000000,4.000000,4.000000,4.000000,100.000000
1602005921.344699,32.000000,0.000000,4123.589844,4122.051270,4119.487305,4122.051270,4125.128418,4122.563965,4123.589844,4128.717773,4125.641113,4137.948730,4152.307617,4138.461426,4151.794922,4136.922852,0.000000,4.000000,,,,0.000000,4.000000,4.000000,4.000000,4.000000,4.000000,4.000000,4.000000,4.000000,4.000000,4.000000,4.000000,4.000000,4.000000,4.000000,100.000000
1602005921.352583,33.000000,0.000000,4129.230957,4128.205078,4126.666504,4129.230957,4136.410156,4131.794922,4131.794922,4138.974121,4135.384766,4146.153809,4153.846191,4140.512695,4157.948730,4142.563965,0.000000,4.000000,,,,0.000000,4.000000,4.000000,4.000000,4.000000,4.000000,4.000000,4.000000,4.000000,4.000000,4.000000,4.000000,4.000000,4.000000,4.000000,100.000000
1602005921.360467,34.000000,0.000000,4119.487305,4128.205078,4122.563965,4128.205078,4136.922852,4127.692383,4134.871582,4140.000000,4142.563965,4154.871582,4143.589844,4140.512695,4151.282227,4141.538574,0.000000,4.000000,,,,0.000000,4.000000,4.000000,4.000000,4.000000,4.000000,4.000000,4.000000,4.000000,4.000000,4.000000,4.000000,4.000000,4.000000,4.000000,100.000000
1602005921.368350,35.000000,0.000000,4107.179688,4114.358887,4115.897461,4111.794922,4122.051270,4116.922852,4125.641113,4127.179688,4131.282227,4145.128418,4138.974121,4134.358887,4135.384766,4125.128418,0.000000,4.000000,,,,0.000000,4.000000,4.000000,4.000000,4.000000,4.000000,4.000000,4.000000,4.000000,4.000000,4.000000,4.000000,4.000000,4.000000,4.000000,100.000000
1602005921.376234,36.000000,0.000000,4105.128418,4104.615234,4108.205078,4107.179688,4120.000000,4118.974121,4121.025879,4118.461426,4111.282227,4127.692383,4134.871582,4127.179688,4124.615234,4116.922852,0.000000,4.000000,,,,0.000000,4.000000,4.000000,4.000000,4.000000,4.000000,4.000000,4.000000,4.000000,4.000000,4.000000,4.000000,4.000000,4.000000,4.000000,100.000000
1602005921.384218,37.000000,0.000000,4113.333496,4113.333496,4110.256348,4120.512695,4124.615234,4125.641113,4125.128418,4122.051270,4107.692383,4118.461426,4127.179688,4125.128418,4129.230957,4126.666504,0.000000,4.000000,,,,0.000000,4.000000,4.000000,4.000000,4.000000,4.000000,4.000000,4.000000,4.000000,4.000000,4.000000,4.000000,4.000000,4.000000,4.000000,100.000000
1602005921.392102,38.000000,0.000000,4122.563965,4123.589844,4120.000000,4125.128418,4125.128418,4124.102539,4124.102539,4123.589844,4120.000000,4123.077148,4130.256348,4127.179688,4137.948730,4139.487305,0.000000,4.000000,,,,0.000000,4.000000,4.000000,4.000000,4.000000,4.000000,4.000000,4.000000,4.000000,4.000000,4.000000,4.000000,4.000000,4.000000,4.000000,100.000000
1602005921.399986,39.000000,0.000000,4128.717773,4126.153809,4123.589844,4119.487305,4132.820313,4123.077148,4119.487305,4125.641113,4129.743652,4136.410156,4136.922852,4131.794922,4140.512695,4146.153809,0.000000,4.000000,,,,0.000000,4.000000,4.000000,4.000000,4.000000,4.000000,4.000000,4.000000,4.000000,4.000000,4.000000,4.000000,4.000000,4.000000,4.000000,100.000000
1602005921.407871,40.000000,0.000000,4136.922852,4132.307617,4124.102539,4125.641113,4144.615234,4134.358887,4126.153809,4134.358887,4128.717773,4147.692383,4140.512695,4136.922852,4147.179688,4149.743652,0.000000,4.000000,,,,0.000000,4.000000,4.000000,4.000000,4.000000,4.000000,4.000000,4.000000,4.000000,4.000000,4.000000,4.000000,4.000000,4.000000,4.000000,100.000000
1602005921.415755,41.000000,0.000000,4140.512695,4141.025879,4131.794922,4136.922852,4146.666504,4142.563965,4137.436035,4136.410156,4130.256348,4142.051270,4151.794922,4142.563965,4155.897461,4155.897461,0.000000,4.000000,,,,0.000000,4.000000,4.000000,4.000000,4.000000,4.000000,4.000000,4.000000,4.000000,4.000000,4.000000,4.000000,4.000000,4.000000,4.000000,100.000000
1602005921.423639,42.000000,0.000000,4141.538574,4142.563965,4143.077148,4138.974121,4140.512695,4135.897461,4134.871582,4131.282227,4136.410156,4132.307617,4155.384766,4151.282227,4158.461426,4161.025879,0.000000,4.000000,,,,0.000000,4.000000,4.000000,4.000000,4.000000,4.000000,4.000000,4.000000,4.000000,4.000000,4.000000,4.000000,4.000000,4.000000,4.000000,100.000000
1602005921.431523,43.000000,0.000000,4143.589844,4142.051270,4153.333496,4134.358887,4135.897461,4124.615234,4124.615234,4132.820313,4134.358887,4144.102539,4145.641113,4156.922852,4155.384766,4158.974121,0.000000,4.000000,,,,0.000000,4.000000,4.000000,4.000000,4.000000,4.000000,4.000000,4.000000,4.000000,4.000000,4.000000,4.000000,4.000000,4.000000,4.000000,100.000000
1602005921.439408,44.000000,0.000000,4143.077148,4138.461426,4154.871582,4129.230957,4134.871582,4127.179688,4126.153809,4135.897461,4128.205078,4158.974121,4149.230957,4150.256348,4148.717773,4154.358887,0.000000,4.000000,,,,0.000000,4.000000,4.000000,4.000000,4.000000,4.000000,4.000000,4.000000,4.000000,4.000000,4.000000,4.000000,4.000000,4.000000,4.000000,100.000000
1602005921.447292,45.000000,0.000000,4140.512695,4128.205078,4140.000000,4123.589844,4134.358887,4136.410156,4134.871582,4132.307617,4120.512695,4134.358887,4155.897461,4140.512695,4134.871582,4152.820313,0.000000,4.000000,,,,0.000000,4.000000,4.000000,4.000000,4.000000,4.000000,4.000000,4.000000,4.000000,4.000000,4.000000,4.000000,4.000000,4.000000,4.000000,100.000000
1602005921.455076,46.000000,0.000000,4133.333496,4121.025879,4123.589844,4120.512695,4136.922852,4141.025879,4137.436035,4128.205078,4111.282227,4097.436035,4141.538574,4135.897461,4126.153809,4143.077148,0.000000,4.000000,,,,0.000000,4.000000,4.000000,4.000000,4.000000,4.000000,4.000000,4.000000,4.000000,4.000000,4.000000,4.000000,4.000000,4.000000,4.000000,100.000000
1602005921.462960,47.000000,0.000000,4123.589844,4123.077148,4116.922852,4122.051270,4137.948730,4142.563965,4138.974121,4126.153809,4112.307617,4107.692383,4122.563965,4128.717773,4124.102539,4123.589844,0.000000,4.000000,,,,0.000000,4.000000,4.000000,4.000000,4.000000,4.000000,4.000000,4.000000,4.000000,4.000000,4.000000,4.000000,4.000000,4.000000,4.000000,100.000000
1602005921.470844,48.000000,0.000000,4117.948730,4125.641113,4110.769043,4125.128418,4136.410156,4138.461426,4134.871582,4122.563965,4121.025879,4133.333496,4118.461426,4115.897461,4119.487305,4115.384766,0.000000,4.000000,,,,0.000000,4.000000,4.000000,4.000000,4.000000,4.000000,4.000000,4.000000,4.000000,4.000000,4.000000,4.000000,4.000000,4.000000,4.000000,100.000000
1602005921.478728,49.000000,0.000000,4119.487305,4127.179688,4110.769043,4129.743652,4138.461426,4126.666504,4125.641113,4122.051270,4122.051270,4134.358887,4121.538574,4117.948730,4121.538574,4127.179688,0.000000,4.000000,,,,0.000000,4.000000,4.000000,4.000000,4.000000,4.000000,4.000000,4.000000,4.000000,4.000000,4.000000,4.000000,4.000000,4.000000,4.000000,100.000000
1602005921.486612,50.000000,0.000000,4128.205078,4133.333496,4124.102539,4136.410156,4141.538574,4118.461426,4121.025879,4122.051270,4128.205078,4143.589844,4127.692383,4139.487305,4132.820313,4147.692383,0.000000,4.000000,,,,0.000000,4.000000,4.000000,4.000000,4.000000,4.000000,4.000000,4.000000,4.000000,4.000000,4.000000,4.000000,4.000000,4.000000,4.000000,100.000000
1602005921.494496,51.000000,0.000000,4144.102539,4140.000000,4138.974121,4137.948730,4138.974121,4119.487305,4120.512695,4122.563965,4138.974121,4154.358887,4149.230957,4155.897461,4148.717773,4167.692383,0.000000,4.000000,,,,0.000000,4.000000,4.000000,4.000000,4.000000,4.000000,4.000000,4.000000,4.000000,4.000000,4.000000,4.000000,4.000000,4.000000,4.000000,100.000000
1602005921.502380,52.000000,0.000000,4151.794922,4144.102539,4147.179688,4139.487305,4138.461426,4118.461426,4119.487305,4128.717773,4135.897461,4144.102539,4168.205078,4160.512695,4160.000000,4177.436035,0.000000,4.000000,,,,0.000000,4.000000,4.000000,4.000000,4.000000,4.000000,4.000000,4.000000,4.000000,4.000000,4.000000,4.000000,4.000000,4.000000,4.000000,100.000000
1602005921.510264,53.000000,0.000000,4145.128418,4143.589844,4146.666504,4140.000000,4138.974121,4118.974121,4125.641113,4135.897461,4134.871582,4136.922852,4165.641113,4161.538574,4162.051270,4174.358887,0.000000,4.000000,,,,0.000000,4.000000,4.000000,4.000000,4.000000,4.000000,4.000000,4.000000,4.000000,4.000000,4.000000,4.000000,4.000000,4.000000,4.000000,100.000000
1602005921.518148,54.000000,0.000000,4140.512695,4134.358887,4142.563965,4133.333496,4134.871582,4123.077148,4134.871582,4138.461426,4139.487305,4134.358887,4152.820313,4154.358887,4152.307617,4167.692383,0.000000,4.000000,,,,0.000000,4.000000,4.000000,4.000000,4.000000,4.000000,4.000000,4.000000,4.000000,4.000000,4.000000,4.000000,4.000000,4.000000,4.000000,100.000000
1602005921.525931,55.000000,0.000000,4136.410156,4122.051270,4140.000000,4121.538574,4133.846191,4124.615234,4137.436035,4131.282227,4127.692383,4127.179688,4136.410156,4140.512695,4138.461426,4150.256348,0.000000,4.000000,,,,0.000000,4.000000,4.000000,4.000000,4.000000,4.000000,4.000000,4.000000,4.000000,4.000000,4.000000,4.000000,4.000000,4.000000,4.000000,100.000000
1602005921.533814,56.000000,0.000000,4125.641113,4112.820313,4133.846191,4114.871582,4136.410156,4131.794922,4138.974121,4123.077148,4116.922852,4134.871582,4123.589844,4129.230957,4124.615234,4123.589844,0.000000,4.000000,,,,0.000000,4.000000,4.000000,4.000000,4.000000,4.000000,4.000000,4.000000,4.000000,4.000000,4.000000,4.000000,4.000000,4.000000,4.000000,100.000000
1602005921.541696,57.000000,0.000000,4115.384766,4107.692383,4122.051270,4109.230957,4137.948730,4143.077148,4142.051270,4127.692383,4122.051270,4147.692383,4118.461426,4122.563965,4110.256348,4115.897461,0.000000,4.000000,,,,0.000000,4.000000,4.000000,4.000000,4.000000,4.000000,4.000000,4.000000,4.000000,4.000000,4.000000,4.000000,4.000000,4.000000,4.000000,100.000000
1602005921.549579,58.000000,0.000000,4107.692383,4102.563965,4117.436035,4103.077148,4133.846191,4143.077148,4140.000000,4135.384766,4122.051270,4136.410156,4117.948730,4119.487305,4107.179688,4124.615234,0.000000,4.000000,,,,0.000000,4.000000,4.000000,4.000000,4.000000,4.000000,4.000000,4.000000,4.000000,4.000000,4.000000,4.000000,4.000000,4.000000,4.000000,100.000000
1602005921.557461,59.000000,0.000000,4109.230957,4103.589844,4122.563965,4109.230957,4131.282227,4134.871582,4137.436035,4135.897461,4121.538574,4132.820313,4132.820313,4123.589844,4121.538574,4128.717773,0.000000,4.000000,,,,0.000000,4.000000,4.000000,4.000000,4.000000,4.000000,4.000000,4.000000,4.000000,4.000000,4.000000,4.000000,4.000000,4.000000,4.000000,100.000000
1602005921.565245,60.000000,0.000000,4117.436035,4113.846191,4125.128418,4122.563965,4137.436035,4129.743652,4135.897461,4135.897461,4134.871582,4146.153809,4149.230957,4130.769043,4137.948730,4134.871582,0.000000,4.000000,,,,0.000000,4.000000,4.000000,4.000000,4.000000,4.000000,4.000000,4.000000,4.000000,4.000000,4.000000,4.000000,4.000000,4.000000,4.000000,100.000000
1602005921.573129,61.000000,0.000000,4123.589844,4123.077148,4131.794922,4124.102539,4142.051270,4124.102539,4128.717773,4137.436035,4142.051270,4135.897461,4147.179688,4136.410156,4140.512695,4144.615234,0.000000,4.000000,,,,0.000000,4.000000,4.000000,4.000000,4.000000,4.000000,4.000000,4.000000,4.000000,4.000000,4.000000,4.000000,4.000000,4.000000,4.000000,100.000000
1602005921.581012,62.000000,0.000000,4131.794922,4125.641113,4148.205078,4124.615234,4136.922852,4118.974121,4121.538574,4134.871582,4135.897461,4126.666504,4149.230957,4144.615234,4144.102539,4144.102539,0.000000,4.000000,,,,0.000000,4.000000,4.000000,4.000000,4.000000,4.000000,4.000000,4.000000,4.000000,4.000000,4.000000,4.000000,4.000000,4.000000,4.000000,100.000000
1602005921.588896,63.000000,0.000000,4140.000000,4129.743652,4157.948730,4136.410156,4134.358887,4120.512695,4122.563965,4135.384766,4136.410156,4150.769043,4155.897461,4155.384766,4154.871582,4135.897461,0.000000,4.000000,,,,0.000000,4.000000,4.000000,4.000000,4.000000,4.000000,4.000000,4.000000,4.000000,4.000000,4.000000,4.000000,4.000000,4.000000,4.000000,100.000000
1602005921.596779,64.000000,0.000000,4140.512695,4131.282227,4156.922852,4138.461426,4138.974121,4120.512695,4124.615234,4134.871582,4136.410156,4166.666504,4143.589844,4159.487305,4156.410156,4138.461426,799.000000,4.000000,,,,0.000000,4.000000,4.000000,4.000000,4.000000,4.000000,4.000000,4.000000,4.000000,4.000000,4.000000,4.000000,4.000000,4.000000,4.000000,100.000000
1602005921.604663,65.000000,0.000000,4139.487305,4125.128418,4151.794922,4127.179688,4136.922852,4117.436035,4125.128418,4131.794922,4125.128418,4142.051270,4141.538574,4155.384766,4151.794922,4153.333496,800.000000,4.000000,,,,0.000000,4.000000,4.000000,4.000000,4.000000,4.000000,4.000000,4.000000,4.000000,4.000000,4.000000,4.000000,4.000000,4.000000,4.000000,100.000000
1602005921.612546,66.000000,0.000000,4141.538574,4122.051270,4146.153809,4123.589844,4129.743652,4121.538574,4132.307617,4133.846191,4120.000000,4124.102539,4160.512695,4155.384766,4151.794922,4160.000000,853.000000,4.000000,,,,0.000000,4.000000,4.000000,4.000000,4.000000,4.000000,4.000000,4.000000,4.000000,4.000000,4.000000,4.000000,4.000000,4.000000,4.000000,100.000000
1602005921.620529,67.000000,0.000000,4140.000000,4124.102539,4142.051270,4129.230957,4131.282227,4134.358887,4138.974121,4136.922852,4126.153809,4137.948730,4157.436035,4157.436035,4147.692383,4147.179688,870.000000,4.000000,,,,0.000000,4.000000,4.000000,4.000000,4.000000,4.000000,4.000000,4.000000,4.000000,4.000000,4.000000,4.000000,4.000000,4.000000,4.000000,100.000000
1602005921.628412,68.000000,0.000000,4135.897461,4123.077148,4136.922852,4129.743652,4136.410156,4141.538574,4138.461426,4136.410156,4128.205078,4147.179688,4144.102539,4149.230957,4141.025879,4138.974121,814.000000,4.000000,,,,0.000000,4.000000,4.000000,4.000000,4.000000,4.000000,4.000000,4.000000,4.000000,4.000000,4.000000,4.000000,4.000000,4.000000,4.000000,100.000000
1602005921.636295,69.000000,0.000000,4129.743652,4122.563965,4125.641113,4124.102539,4134.358887,4140.512695,4138.461426,4138.461426,4126.153809,4134.871582,4143.589844,4141.025879,4140.512695,4136.922852,827.000000,4.000000,,,,0.000000,4.000000,4.000000,4.000000,4.000000,4.000000,4.000000,4.000000,4.000000,4.000000,4.000000,4.000000,4.000000,4.000000,4.000000,100.000000
1602005921.644177,70.000000,0.000000,4122.563965,4121.025879,4116.410156,4120.000000,4131.794922,4138.461426,4140.512695,4137.948730,4125.641113,4123.077148,4136.410156,4137.948730,4138.974121,4125.128418,767.000000,4.000000,,,,0.000000,4.000000,4.000000,4.000000,4.000000,4.000000,4.000000,4.000000,4.000000,4.000000,4.000000,4.000000,4.000000,4.000000,4.000000,100.000000
1602005921.652060,71.000000,0.000000,4119.487305,4118.974121,4117.436035,4121.538574,4136.410156,4140.512695,4137.436035,4129.230957,4117.948730,4123.077148,4128.717773,4133.846191,4136.410156,4120.512695,687.000000,4.000000,,,,0.000000,4.000000,4.000000,4.000000,4.000000,4.000000,4.000000,4.000000,4.000000,4.000000,4.000000,4.000000,4.000000,4.000000,4.000000,100.000000
1602005921.660044,72.000000,0.000000,4121.025879,4118.974121,4121.538574,4123.077148,4137.948730,4136.922852,4129.743652,4123.077148,4108.717773,4125.128418,4138.974121,4134.358887,4134.358887,4126.666504,791.000000,4.000000,,,,0.000000,4.000000,4.000000,4.000000,4.000000,4.000000,4.000000,4.000000,4.000000,4.000000,4.000000,4.000000,4.000000,4.000000,4.000000,100.000000
1602005921.667928,73.000000,0.000000,4127.179688,4121.538574,4123.589844,4125.641113,4136.410156,4125.128418,4124.615234,4123.077148,4108.717773,4126.666504,4141.025879,4134.871582,4127.179688,4121.538574,839.000000,4.000000,,,,0.000000,4.000000,4.000000,4.000000,4.000000,4.000000,4.000000,4.000000,4.000000,4.000000,4.000000,4.000000,4.000000,4.000000,4.000000,100.000000
1602005921.675812,74.000000,0.000000,4139.487305,4131.282227,4133.333496,4134.358887,4137.948730,4114.358887,4118.974121,4123.589844,4110.256348,4127.692383,4130.769043,4136.410156,4129.230957,4123.077148,871.000000,4.000000,,,,0.000000,4.000000,4.000000,4.000000,4.000000,4.000000,4.000000,4.000000,4.000000,4.000000,4.000000,4.000000,4.000000,4.000000,4.000000,100.000000
1602005921.683695,75.000000,0.000000,4147.692383,4141.025879,4151.282227,4142.051270,4135.897461,4109.743652,4114.358887,4124.615234,4114.871582,4128.205078,4137.948730,4148.205078,4144.615234,4142.051270,841.000000,4.000000,,,,0.000000,4.000000,4.000000,4.000000,4.000000,4.000000,4.000000,4.000000,4.000000,4.000000,4.000000,4.000000,4.000000,4.000000,4.000000,100.000000
1602005921.691579,76.000000,0.000000,4145.641113,4137.436035,4156.922852,4141.538574,4128.205078,4111.282227,4116.922852,4123.077148,4121.538574,4119.487305,4142.563965,4154.358887,4143.077148,4143.077148,773.000000,4.000000,,,,0.000000,4.000000,4.000000,4.000000,4.000000,4.000000,4.000000,4.000000,4.000000,4.000000,4.000000,4.000000,4.000000,4.000000,4.000000,100.000000
1602005921.699463,77.000000,0.000000,4141.025879,4127.179688,4144.102539,4134.871582,4126.666504,4118.974121,4121.025879,4121.538574,4122.051270,4101.025879,4123.589844,4142.051270,4123.589844,4121.538574,749.000000,4.000000,,,,0.000000,4.000000,4.000000,4.000000,4.000000,4.000000,4.000000,4.000000,4.000000,4.000000,4.000000,4.000000,4.000000,4.000000,4.000000,100.000000
1602005921.707347,78.000000,0.000000,4133.333496,4118.974121,4135.897461,4124.615234,4127.179688,4132.307617,4124.102539,4124.615234,4117.436035,4100.512695,4116.410156,4134.358887,4117.436035,4117.436035,871.000000,4.000000,,,,0.000000,4.000000,4.000000,4.000000,4.000000,4.000000,4.000000,4.000000,4.000000,4.000000,4.000000,4.000000,4.000000,4.000000,4.000000,100.000000
1602005921.715231,79.000000,0.000000,4124.615234,4112.307617,4135.897461,4120.512695,4124.102539,4138.974121,4132.820313,4127.692383,4120.000000,4122.563965,4127.692383,4140.000000,4121.538574,4125.128418,841.000000,4.000000,,,,0.000000,4.000000,4.000000,4.000000,4.000000,4.000000,4.000000,4.000000,4.000000,4.000000,4.000000,4.000000,4.000000,4.000000,4.000000,100.000000
1602005921.723012,80.000000,0.000000,4122.051270,4113.333496,4135.384766,4123.589844,4128.205078,4138.461426,4136.410156,4124.615234,4123.077148,4130.256348,4130.256348,4136.410156,4120.000000,4114.358887,773.000000,4.000000,,,,0.000000,4.000000,4.000000,4.000000,4.000000,4.000000,4.000000,4.000000,4.000000,4.000000,4.000000,4.000000,4.000000,4.000000,4.000000,100.000000
1602005921.730894,81.000000,0.000000,4125.128418,4118.974121,4135.384766,4123.077148,4137.436035,4139.487305,4125.128418,4120.000000,4114.871582,4115.384766,4123.589844,4134.358887,4120.000000,4107.179688,749.000000,4.000000,,,,0.000000,4.000000,4.000000,4.000000,4.000000,4.000000,4.000000,4.000000,4.000000,4.000000,4.000000,4.000000,4.000000,4.000000,4.000000,100.000000
1602005921.738776,82.000000,0.000000,4132.307617,4124.102539,4140.000000,4126.153809,4137.948730,4133.846191,4124.102539,4121.025879,4105.641113,4115.897461,4127.692383,4147.179688,4128.717773,4129.230957,871.000000,4.000000,,,,0.000000,4.000000,4.000000,4.000000,4.000000,4.000000,4.000000,4.000000,4.000000,4.000000,4.000000,4.000000,4.000000,4.000000,4.000000,100.000000
1602005921.746558,83.000000,0.000000,4141.025879,4131.794922,4141.538574,4137.436035,4136.410156,4124.615234,4136.410156,4130.256348,4109.230957,4125.641113,4143.077148,4156.922852,4140.000000,4149.230957,841.000000,4.000000,,,,0.000000,4.000000,4.000000,4.000000,4.000000,4.000000,4.000000,4.000000,4.000000,4.000000,4.000000,4.000000,4.000000,4.000000,4.000000,100.000000
1602005921.754439,84.000000,0.000000,4141.538574,4137.948730,4140.000000,4138.461426,4138.461426,4121.538574,4137.948730,4137.436035,4121.025879,4119.487305,4149.230957,4161.025879,4149.230957,4138.974121,773.000000,4.000000,,,,0.000000,4.000000,4.000000,4.000000,4.000000,4.000000,4.000000,4.000000,4.000000,4.000000,4.000000,4.000000,4.000000,4.000000,4.000000,100.000000
1602005921.762420,85.000000,0.000000,4140.000000,4135.897461,4139.487305,4130.256348,4137.948730,4127.692383,4134.871582,4140.000000,4133.333496,4124.615234,4141.025879,4164.615234,4149.230957,4130.769043,749.000000,4.000000,,,,0.000000,4.000000,4.000000,4.000000,4.000000,4.000000,4.000000,4.000000,4.000000,4.000000,4.000000,4.000000,4.000000,4.000000,4.000000,100.000000
1602005921.770403,86.000000,0.000000,4141.025879,4129.230957,4141.025879,4127.179688,4131.282227,4122.051270,4136.410156,4140.512695,4141.538574,4152.820313,4137.436035,4163.077148,4142.051270,4140.000000,871.000000,4.000000,,,,0.000000,4.000000,4.000000,4.000000,4.000000,4.000000,4.000000,4.000000,4.000000,4.000000,4.000000,4.000000,4.000000,4.000000,4.000000,100.000000
1602005921.778287,87.000000,0.000000,4131.282227,4122.051270,4137.436035,4125.641113,4124.615234,4105.641113,4129.743652,4138.974121,4136.410156,4164.615234,4138.461426,4153.333496,4137.436035,4144.102539,841.000000,4.000000,,,,0.000000,4.000000,4.000000,4.000000,4.000000,4.000000,4.000000,4.000000,4.000000,4.000000,4.000000,4.000000,4.000000,4.000000,4.000000,100.000000
1602005921.786170,88.000000,0.000000,4126.666504,4118.974121,4134.871582,4122.563965,4122.563965,4108.717773,4122.051270,4137.948730,4127.692383,4151.794922,4138.461426,4151.794922,4140.000000,4141.025879,773.000000,4.000000,,,,0.000000,4.000000,4.000000,4.000000,4.000000,4.000000,4.000000,4.000000,4.000000,4.000000,4.000000,4.000000,4.000000,4.000000,4.000000,100.000000
1602005921.794053,89.000000,0.000000,4141.025879,4123.589844,4137.948730,4124.102539,4127.692383,4125.128418,4119.487305,4134.871582,4128.717773,4135.897461,4141.538574,4155.897461,4142.563965,4143.077148,749.000000,4.000000,,,,0.000000,4.000000,4.000000,4.000000,4.000000,4.000000,4.000000,4.000000,4.000000,4.000000,4.000000,4.000000,4.000000,4.000000,4.000000,100.000000
1602005921.801937,90.000000,0.000000,4144.102539,4121.025879,4135.897461,4122.051270,4131.794922,4122.563965,4115.897461,4125.641113,4117.436035,4115.897461,4134.871582,4148.717773,4131.794922,4140.512695,871.000000,4.000000,,,,0.000000,4.000000,4.000000,4.000000,4.000000,4.000000,4.000000,4.000000,4.000000,4.000000,4.000000,4.000000,4.000000,4.000000,4.000000,100.000000
1602005921.809820,91.000000,0.000000,4134.358887,4122.563965,4136.410156,4124.102539,4134.358887,4113.333496,4117.948730,4119.487305,4096.410156,4105.641113,4124.102539,4145.641113,4125.128418,4137.948730,841.000000,4.000000,,,,0.000000,4.000000,4.000000,4.000000,4.000000,4.000000,4.000000,4.000000,4.000000,4.000000,4.000000,4.000000,4.000000,4.000000,4.000000,100.000000
1602005921.817703,92.000000,0.000000,4135.897461,4131.794922,4141.025879,4129.743652,4136.410156,4112.820313,4125.641113,4120.512695,4096.922852,4118.974121,4122.051270,4152.307617,4130.256348,4135.384766,773.000000,4.000000,,,,0.000000,4.000000,4.000000,4.000000,4.000000,4.000000,4.000000,4.000000,4.000000,4.000000,4.000000,4.000000,4.000000,4.000000,4.000000,100.000000
1602005921.825485,93.000000,0.000000,4140.512695,4129.230957,4131.282227,4128.717773,4134.871582,4094.871826,4126.153809,4123.077148,4109.743652,4134.871582,4124.615234,4154.358887,4126.666504,4121.025879,749.000000,4.000000,,,,0.000000,4.000000,4.000000,4.000000,4.000000,4.000000,4.000000,4.000000,4.000000,4.000000,4.000000,4.000000,4.000000,4.000000,4.000000,100.000000
1602005921.833366,94.000000,0.000000,4138.461426,4132.820313,4126.666504,4130.256348,4134.871582,4089.230713,4124.615234,4131.794922,4108.717773,4137.948730,4125.128418,4152.307617,4128.205078,4126.153809,871.000000,4.000000,,,,0.000000,4.000000,4.000000,4.000000,4.000000,4.000000,4.000000,4.000000,4.000000,4.000000,4.000000,4.000000,4.000000,4.000000,4.000000,100.000000
1602005921.841149,95.000000,0.000000,4137.436035,4136.922852,4135.384766,4132.820313,4135.897461,4115.384766,4124.102539,4137.436035,4102.563965,4128.205078,4124.615234,4146.666504,4135.384766,4140.512695,841.000000,4.000000,,,,0.000000,4.000000,4.000000,4.000000,4.000000,4.000000,4.000000,4.000000,4.000000,4.000000,4.000000,4.000000,4.000000,4.000000,4.000000,100.000000
1602005921.849031,96.000000,0.000000,4137.436035,4126.666504,4137.436035,4127.692383,4135.384766,4127.692383,4124.102539,4135.897461,4114.871582,4116.410156,4126.666504,4136.922852,4127.692383,4124.615234,773.000000,4.000000,,,,0.000000,4.000000,4.000000,4.000000,4.000000,4.000000,4.000000,4.000000,4.000000,4.000000,4.000000,4.000000,4.000000,4.000000,4.000000,100.000000
1602005921.856914,97.000000,0.000000,4140.000000,4125.641113,4134.358887,4129.230957,4137.436035,4127.692383,4125.128418,4139.487305,4136.922852,4127.179688,4126.153809,4134.871582,4119.487305,4119.487305,749.000000,4.000000,,,,0.000000,4.000000,4.000000,4.000000,4.000000,4.000000,4.000000,4.000000,4.000000,4.000000,4.000000,4.000000,4.000000,4.000000,4.000000,100.000000
1602005921.864797,98.000000,0.000000,4147.692383,4141.025879,4139.487305,4139.487305,4142.563965,4142.563965,4124.615234,4140.000000,4146.153809,4144.102539,4121.538574,4141.025879,4125.128418,4143.077148,871.000000,4.000000,,,,0.000000,4.000000,4.000000,4.000000,4.000000,4.000000,4.000000,4.000000,4.000000,4.000000,4.000000,4.000000,4.000000,4.000000,4.000000,100.000000
1602005921.872679,99.000000,0.000000,4150.256348,4143.077148,4146.153809,4143.077148,4146.153809,4152.307617,4123.077148,4129.743652,4135.384766,4136.410156,4126.666504,4144.615234,4127.692383,4144.102539,841.000000,4.000000,,,,0.000000,4.000000,4.000000,4.000000,4.000000,4.000000,4.000000,4.000000,4.000000,4.000000,4.000000,4.000000,4.000000,4.000000,4.000000,100.000000
1602005921.880461,100.000000,0.000000,4147.692383,4138.974121,4151.282227,4141.025879,4143.077148,4137.948730,4120.000000,4122.563965,4117.436035,4125.128418,4138.974121,4149.743652,4125.128418,4128.717773,773.000000,4.000000,,,,0.000000,4.000000,4.000000,4.000000,4.000000,4.000000,4.000000,4.000000,4.000000,4.000000,4.000000,4.000000,4.000000,4.000000,4.000000,100.000000
1602005921.888343,101.000000,0.000000,4148.717773,4143.589844,4156.410156,4142.563965,4138.461426,4125.641113,4112.820313,4122.051270,4109.230957,4134.871582,4140.000000,4154.871582,4125.128418,4134.358887,749.000000,4.000000,,,,0.000000,4.000000,4.000000,4.000000,4.000000,4.000000,4.000000,4.000000,4.000000,4.000000,4.000000,4.000000,4.000000,4.000000,4.000000,100.000000
1602005921.896324,102.000000,0.000000,4153.846191,4141.025879,4151.282227,4139.487305,4136.922852,4119.487305,4111.794922,4121.538574,4115.384766,4141.538574,4133.333496,4155.384766,4130.256348,4140.512695,871.000000,4.000000,,,,0.000000,4.000000,4.000000,4.000000,4.000000,4.000000,4.000000,4.000000,4.000000,4.000000,4.000000,4.000000,4.000000,4.000000,4.000000,100.000000
1602005921.904206,103.000000,0.000000,4151.794922,4138.461426,4144.102539,4140.000000,4133.333496,4112.820313,4119.487305,4124.615234,4124.102539,4127.692383,4138.974121,4152.820313,4140.000000,4138.974121,841.000000,4.000000,,,,0.000000,4.000000,4.000000,4.000000,4.000000,4.000000,4.000000,4.000000,4.000000,4.000000,4.000000,4.000000,4.000000,4.000000,4.000000,100.000000
1602005921.912187,104.000000,0.000000,4138.974121,4137.436035,4134.871582,4136.410156,4125.128418,4113.333496,4121.538574,4127.179688,4123.077148,4125.128418,4136.922852,4145.128418,4129.230957,4135.384766,773.000000,4.000000,,,,0.000000,4.000000,4.000000,4.000000,4.000000,4.000000,4.000000,4.000000,4.000000,4.000000,4.000000,4.000000,4.000000,4.000000,4.000000,100.000000
1602005921.920069,105.000000,0.000000,4126.666504,4128.717773,4121.538574,4125.128418,4120.512695,4114.871582,4117.948730,4125.641113,4116.410156,4134.871582,4122.563965,4135.384766,4103.589844,4121.025879,749.000000,4.000000,,,,0.000000,4.000000,4.000000,4.000000,4.000000,4.000000,4.000000,4.000000,4.000000,4.000000,4.000000,4.000000,4.000000,4.000000,4.000000,100.000000
1602005921.928052,106.000000,0.000000,4121.538574,4123.589844,4118.461426,4121.538574,4130.256348,4120.512695,4121.025879,4124.102539,4104.615234,4131.794922,4122.051270,4136.410156,4106.153809,4120.512695,871.000000,4.000000,,,,0.000000,4.000000,4.000000,4.000000,4.000000,4.000000,4.000000,4.000000,4.000000,4.000000,4.000000,4.000000,4.000000,4.000000,4.000000,100.000000
1602005921.935935,107.000000,0.000000,4122.563965,4125.641113,4123.077148,4125.641113,4138.974121,4130.769043,4125.641113,4122.051270,4095.897461,4105.128418,4134.871582,4141.025879,4123.077148,4137.948730,841.000000,4.000000,,,,0.000000,4.000000,4.000000,4.000000,4.000000,4.000000,4.000000,4.000000,4.000000,4.000000,4.000000,4.000000,4.000000,4.000000,4.000000,100.000000
1602005921.943817,108.000000,0.000000,4121.025879,4123.077148,4122.051270,4122.563965,4130.769043,4138.974121,4120.000000,4120.512695,4099.487305,4088.205078,4137.436035,4135.897461,4118.461426,4135.384766,773.000000,4.000000,,,,0.000000,4.000000,4.000000,4.000000,4.000000,4.000000,4.000000,4.000000,4.000000,4.000000,4.000000,4.000000,4.000000,4.000000,4.000000,100.000000
1602005921.951700,109.000000,0.000000,4118.974121,4118.461426,4122.051270,4117.436035,4124.102539,4136.922852,4112.820313,4120.512695,4105.128418,4104.615234,4130.256348,4130.256348,4110.769043,4123.077148,749.000000,4.000000,,,,0.000000,4.000000,4.000000,4.000000,4.000000,4.000000,4.000000,4.000000,4.000000,4.000000,4.000000,4.000000,4.000000,4.000000,4.000000,100.000000
1602005921.959583,110.000000,0.000000,4129.743652,4129.230957,4136.410156,4129.230957,4134.358887,4133.846191,4118.461426,4123.589844,4109.230957,4123.589844,4132.307617,4135.384766,4119.487305,4133.846191,871.000000,4.000000,,,,0.000000,4.000000,4.000000,4.000000,4.000000,4.000000,4.000000,4.000000,4.000000,4.000000,4.000000,4.000000,4.000000,4.000000,4.000000,100.000000
1602005921.967466,111.000000,0.000000,4142.563965,4141.538574,4144.615234,4140.000000,4142.563965,4134.871582,4128.205078,4128.717773,4117.436035,4129.743652,4138.461426,4143.589844,4126.666504,4146.153809,841.000000,4.000000,,,,0.000000,4.000000,4.000000,4.000000,4.000000,4.000000,4.000000,4.000000,4.000000,4.000000,4.000000,4.000000,4.000000,4.000000,4.000000,100.000000
1602005921.975250,112.000000,0.000000,4132.307617,4131.794922,4131.794922,4130.769043,4131.282227,4125.641113,4125.641113,4131.794922,4123.077148,4134.871582,4144.102539,4137.436035,4126.153809,4138.461426,773.000000,4.000000,,,,0.000000,4.000000,4.000000,4.000000,4.000000,4.000000,4.000000,4.000000,4.000000,4.000000,4.000000,4.000000,4.000000,4.000000,4.000000,100.000000
1602005921.983134,113.000000,0.000000,4124.615234,4121.538574,4126.666504,4123.589844,4123.589844,4117.436035,4127.692383,4135.384766,4123.589844,4137.436035,4154.358887,4132.820313,4136.922852,4137.436035,749.000000,4.000000,,,,0.000000,4.000000,4.000000,4.000000,4.000000,4.000000,4.000000,4.000000,4.000000,4.000000,4.000000,4.000000,4.000000,4.000000,4.000000,100.000000
1602005921.991018,114.000000,0.000000,4141.538574,4131.282227,4147.179688,4132.820313,4132.307617,4124.102539,4134.358887,4139.487305,4126.666504,4140.000000,4162.051270,4148.717773,4149.230957,4152.307617,871.000000,4.000000,,,,0.000000,4.000000,4.000000,4.000000,4.000000,4.000000,4.000000,4.000000,4.000000,4.000000,4.000000,4.000000,4.000000,4.000000,4.000000,100.000000
1602005921.998902,115.000000,0.000000,4148.205078,4142.051270,4154.871582,4141.538574,4140.512695,4126.666504,4128.205078,4133.333496,4128.717773,4142.051270,4153.846191,4158.461426,4141.025879,4158.461426,841.000000,4.000000,,,,0.000000,4.000000,4.000000,4.000000,4.000000,4.000000,4.000000,4.000000,4.000000,4.000000,4.000000,4.000000,4.000000,4.000000,4.000000,100.000000
1602005922.006786,116.000000,0.000000,4137.948730,4136.922852,4140.512695,4138.461426,4135.384766,4127.179688,4119.487305,4122.563965,4123.589844,4127.692383,4138.974121,4143.077148,4123.589844,4145.641113,773.000000,4.000000,,,,0.000000,4.000000,4.000000,4.000000,4.000000,4.000000,4.000000,4.000000,4.000000,4.000000,4.000000,4.000000,4.000000,4.000000,4.000000,100.000000
1602005922.014670,117.000000,0.000000,4134.358887,4129.230957,4133.333496,4133.333496,4128.205078,4133.846191,4120.000000,4116.922852,4112.307617,4111.794922,4135.897461,4123.077148,4114.358887,4125.128418,749.000000,4.000000,,,,0.000000,4.000000,4.000000,4.000000,4.000000,4.000000,4.000000,4.000000,4.000000,4.000000,4.000000,4.000000,4.000000,4.000000,4.000000,100.000000
1602005922.022554,118.000000,0.000000,4130.769043,4123.077148,4131.794922,4132.820313,4125.641113,4136.922852,4120.000000,4117.436035,4107.179688,4121.538574,4136.410156,4115.897461,4110.256348,4116.410156,871.000000,4.000000,,,,0.000000,4.000000,4.000000,4.000000,4.000000,4.000000,4.000000,4.000000,4.000000,4.000000,4.000000,4.000000,4.000000,4.000000,4.000000,100.000000
1602005922.030438,119.000000,0.000000,4124.615234,4123.077148,4127.179688,4135.384766,4123.589844,4125.641113,4118.461426,4120.000000,4108.205078,4128.717773,4134.871582,4115.897461,4103.589844,4121.025879,841.000000,4.000000,,,,0.000000,4.000000,4.000000,4.000000,4.000000,4.000000,4.000000,4.000000,4.000000,4.000000,4.000000,4.000000,4.000000,4.000000,4.000000,100.000000
1602005922.038421,120.000000,0.000000,4130.256348,4131.794922,4130.256348,4133.846191,4127.692383,4116.410156,4121.025879,4122.051270,4102.563965,4111.282227,4137.948730,4123.589844,4105.128418,4135.384766,773.000000,4.000000,,,,0.000000,4.000000,4.000000,4.000000,4.000000,4.000000,4.000000,4.000000,4.000000,4.000000,4.000000,4.000000,4.000000,4.000000,4.000000,100.000000
1602005922.046305,121.000000,0.000000,4141.538574,4140.000000,4138.974121,4135.897461,4135.897461,4131.282227,4123.077148,4120.512695,4098.974121,4100.000000,4142.563965,4136.922852,4120.000000,4152.307617,749.000000,4.000000,,,,0.000000,4.000000,4.000000,4.000000,4.000000,4.000000,4.000000,4.000000,4.000000,4.000000,4.000000,4.000000,4.000000,4.000000,4.000000,100.000000
1602005922.054188,122.000000,0.000000,4145.128418,4140.000000,4145.128418,4142.563965,4136.922852,4136.922852,4122.051270,4118.974121,4105.641113,4120.512695,4144.102539,4141.025879,4128.205078,4154.871582,871.000000,4.000000,,,,0.000000,4.000000,4.000000,4.000000,4.000000,4.000000,4.000000,4.000000,4.000000,4.000000,4.000000,4.000000,4.000000,4.000000,4.000000,100.000000
1602005922.062071,123.000000,0.000000,4142.051270,4140.512695,4152.820313,4146.666504,4136.410156,4119.487305,4122.051270,4121.025879,4113.333496,4147.179688,4147.692383,4136.922852,4124.102539,4149.743652,841.000000,4.000000,,,,0.000000,4.000000,4.000000,4.000000,4.000000,4.000000,4.000000,4.000000,4.000000,4.000000,4.000000,4.000000,4.000000,4.000000,4.000000,100.000000
1602005922.069955,124.000000,0.000000,4141.538574,4148.205078,4155.384766,4148.205078,4142.051270,4120.512695,4123.589844,4124.102539,4119.487305,4146.666504,4160.000000,4137.436035,4128.717773,4154.871582,773.000000,4.000000,,,,0.000000,4.000000,4.000000,4.000000,4.000000,4.000000,4.000000,4.000000,4.000000,4.000000,4.000000,4.000000,4.000000,4.000000,4.000000,100.000000
1602005922.077838,125.000000,0.000000,4143.589844,4154.871582,4148.205078,4152.820313,4144.615234,4141.025879,4125.128418,4125.641113,4123.589844,4133.846191,4169.230957,4147.692383,4140.512695,4159.487305,749.000000,4.000000,,,,0.000000,4.000000,4.000000,4.000000,4.000000,4.000000,4.000000,4.000000,4.000000,4.000000,4.000000,4.000000,4.000000,4.000000,4.000000,100.000000
1602005922.085721,126.000000,0.000000,4142.051270,4155.897461,4148.205078,4154.871582,4140.512695,4132.820313,4124.615234,4125.641113,4122.563965,4136.410156,4170.256348,4155.897461,4142.051270,4161.538574,871.000000,4.000000,,,,0.000000,4.000000,4.000000,4.000000,4.000000,4.000000,4.000000,4.000000,4.000000,4.000000,4.000000,4.000000,4.000000,4.000000,4.000000,100.000000
1602005922.093504,127.000000,0.000000,4140.000000,4149.230957,4153.333496,4149.230957,4134.358887,4114.871582,4126.153809,4133.333496,4121.538574,4142.563965,4170.256348,4156.922852,4139.487305,4167.179688,841.000000,4.000000,,,,0.000000,4.000000,4.000000,4.000000,4.000000,4.000000,4.000000,4.000000,4.000000,4.000000,4.000000,4.000000,4.000000,4.000000,4.000000,100.000000
