Timestamp,EEG.Counter,EEG.Interpolated,EEG.AF3,EEG.F7,EEG.F3,EEG.FC5,EEG.T7,EEG.P7,EEG.O1,EEG.O2,EEG.P8,EEG.T8,EEG.FC6,EEG.F4,EEG.F8,EEG.AF4,EEG.RawCq,EEG.Battery,MarkerIndex,MarkerType,MarkerValueInt,EEG.MarkerHardware,CQ.AF3,CQ.F7,CQ.F3,CQ.FC5,CQ.T7,CQ.P7,CQ.O1,CQ.O2,CQ.P8,CQ.T8,CQ.FC6,CQ.F4,CQ.F8,CQ.AF4,CQ.Overall
1602005939.327604,121.000000,0.000000,4160.512695,4138.461426,4139.487305,4136.922852,4121.538574,4124.615234,4124.615234,4134.358887,4139.487305,4142.563965,4137.436035,4153.333496,4126.153809,4144.615234,757.000000,4.000000,,,,0.000000,4.000000,4.000000,4.000000,4.000000,4.000000,4.000000,4.000000,4.000000,4.000000,4.000000,4.000000,4.000000,4.000000,4.000000,100.000000
1602005939.335587,122.000000,0.000000,4158.461426,4130.256348,4143.077148,4130.769043,4121.025879,4120.000000,4122.051270,4121.025879,4128.717773,4139.487305,4127.692383,4145.128418,4118.974121,4136.922852,878.000000,4.000000,,,,0.000000,4.000000,4.000000,4.000000,4.000000,4.000000,4.000000,4.000000,4.000000,4.000000,4.000000,4.000000,4.000000,4.000000,4.000000,100.000000
1602005939.343470,123.000000,0.000000,4145.641113,4120.512695,4129.230957,4118.461426,4118.974121,4117.948730,4118.974121,4106.666504,4112.307617,4109.230957,4118.461426,4132.307617,4101.538574,4125.128418,837.000000,4.000000,,,,0.000000,4.000000,4.000000,4.000000,4.000000,4.000000,4.000000,4.000000,4.000000,4.000000,4.000000,4.000000,4.000000,4.000000,4.000000,100.000000
1602005939.351353,124.000000,0.000000,4136.922852,4114.358887,4110.256348,4115.384766,4116.410156,4119.487305,4119.487305,4106.153809,4105.641113,4077.948730,4112.307617,4124.615234,4087.179443,4116.922852,773.000000,4.000000,,,,0.000000,4.000000,4.000000,4.000000,4.000000,4.000000,4.000000,4.000000,4.000000,4.000000,4.000000,4.000000,4.000000,4.000000,4.000000,100.000000
1602005939.359237,125.000000,0.000000,4132.307617,4108.717773,4104.615234,4120.000000,4118.974121,4124.102539,4121.025879,4115.384766,4103.077148,4096.410156,4107.179688,4111.794922,4084.615479,4105.641113,757.000000,4.000000,,,,0.000000,4.000000,4.000000,4.000000,4.000000,4.000000,4.000000,4.000000,4.000000,4.000000,4.000000,4.000000,4.000000,4.000000,4.000000,100.000000
1602005939.367120,126.000000,0.000000,4124.102539,4110.256348,4104.102539,4120.000000,4122.051270,4124.102539,4121.025879,4118.461426,4102.051270,4126.666504,4104.615234,4095.897461,4082.564209,4095.897461,878.000000,4.000000,,,,0.000000,4.000000,4.000000,4.000000,4.000000,4.000000,4.000000,4.000000,4.000000,4.000000,4.000000,4.000000,4.000000,4.000000,4.000000,100.000000
1602005939.375003,127.000000,0.000000,4125.641113,4120.000000,4103.589844,4120.512695,4119.487305,4121.538574,4120.512695,4119.487305,4110.769043,4127.692383,4108.717773,4091.794922,4082.564209,4101.025879,837.000000,4.000000,,,,0.000000,4.000000,4.000000,4.000000,4.000000,4.000000,4.000000,4.000000,4.000000,4.000000,4.000000,4.000000,4.000000,4.000000,4.000000,100.000000
1602005939.382886,128.000000,0.000000,4135.384766,4124.102539,4110.256348,4123.589844,4117.436035,4130.256348,4122.051270,4129.743652,4127.179688,4123.589844,4111.282227,4099.487305,4089.743652,4108.205078,773.000000,4.000000,,,,0.000000,4.000000,4.000000,4.000000,4.000000,4.000000,4.000000,4.000000,4.000000,4.000000,4.000000,4.000000,4.000000,4.000000,4.000000,100.000000
1602005939.390669,0.000000,0.000000,4136.922852,4120.512695,4118.974121,4121.538574,4121.025879,4134.358887,4123.589844,4135.897461,4138.461426,4122.051270,4112.820313,4108.717773,4096.410156,4103.589844,798.000000,4.000000,,,,0.000000,4.000000,4.000000,4.000000,4.000000,4.000000,4.000000,4.000000,4.000000,4.000000,4.000000,4.000000,4.000000,4.000000,4.000000,100.000000
1602005939.398552,1.000000,0.000000,4142.563965,4125.128418,4131.282227,4121.538574,4126.153809,4125.128418,4123.077148,4131.794922,4143.077148,4120.512695,4120.000000,4120.000000,4102.051270,4109.230957,792.000000,4.000000,,,,0.000000,4.000000,4.000000,4.000000,4.000000,4.000000,4.000000,4.000000,4.000000,4.000000,4.000000,4.000000,4.000000,4.000000,4.000000,100.000000
1602005939.406436,2.000000,0.000000,4158.461426,4135.384766,4148.717773,4125.128418,4120.000000,4120.000000,4125.641113,4128.717773,4144.615234,4135.384766,4126.153809,4131.794922,4112.307617,4134.871582,850.000000,4.000000,,,,0.000000,4.000000,4.000000,4.000000,4.000000,4.000000,4.000000,4.000000,4.000000,4.000000,4.000000,4.000000,4.000000,4.000000,4.000000,100.000000
1602005939.414319,3.000000,0.000000,4162.563965,4136.922852,4156.410156,4126.153809,4107.692383,4116.922852,4132.820313,4131.794922,4138.974121,4141.538574,4130.256348,4142.051270,4120.000000,4152.307617,872.000000,4.000000,,,,0.000000,4.000000,4.000000,4.000000,4.000000,4.000000,4.000000,4.000000,4.000000,4.000000,4.000000,4.000000,4.000000,4.000000,4.000000,100.000000
1602005939.422202,4.000000,0.000000,4161.025879,4137.436035,4156.922852,4132.307617,4105.128418,4109.230957,4138.461426,4135.897461,4136.410156,4142.051270,4138.461426,4154.871582,4128.717773,4154.871582,814.000000,4.000000,,,,0.000000,4.000000,4.000000,4.000000,4.000000,4.000000,4.000000,4.000000,4.000000,4.000000,4.000000,4.000000,4.000000,4.000000,4.000000,100.000000
1602005939.430086,5.000000,0.000000,4159.487305,4140.000000,4153.333496,4134.871582,4108.205078,4111.794922,4141.025879,4138.974121,4140.000000,4147.692383,4135.384766,4157.948730,4135.897461,4154.871582,826.000000,4.000000,,,,0.000000,4.000000,4.000000,4.000000,4.000000,4.000000,4.000000,4.000000,4.000000,4.000000,4.000000,4.000000,4.000000,4.000000,4.000000,100.000000
1602005939.437969,6.000000,0.000000,4147.692383,4132.820313,4145.641113,4126.153809,4106.153809,4122.563965,4142.051270,4133.846191,4130.256348,4132.820313,4122.563965,4145.128418,4128.717773,4146.666504,770.000000,4.000000,,,,0.000000,4.000000,4.000000,4.000000,4.000000,4.000000,4.000000,4.000000,4.000000,4.000000,4.000000,4.000000,4.000000,4.000000,4.000000,100.000000
1602005939.445952,7.000000,0.000000,4140.000000,4123.077148,4135.897461,4118.461426,4107.179688,4124.615234,4136.922852,4122.051270,4114.358887,4116.410156,4123.589844,4131.282227,4115.897461,4126.666504,688.000000,4.000000,,,,0.000000,4.000000,4.000000,4.000000,4.000000,4.000000,4.000000,4.000000,4.000000,4.000000,4.000000,4.000000,4.000000,4.000000,4.000000,100.000000
1602005939.453834,8.000000,0.000000,4137.436035,4122.563965,4125.641113,4122.051270,4114.871582,4123.077148,4126.666504,4114.871582,4105.128418,4123.077148,4121.025879,4125.641113,4104.102539,4117.436035,786.000000,4.000000,,,,0.000000,4.000000,4.000000,4.000000,4.000000,4.000000,4.000000,4.000000,4.000000,4.000000,4.000000,4.000000,4.000000,4.000000,4.000000,100.000000
1602005939.461717,9.000000,0.000000,4127.179688,4119.487305,4118.974121,4122.051270,4116.922852,4122.051270,4119.487305,4108.205078,4095.384521,4117.948730,4106.153809,4129.743652,4095.384521,4121.025879,839.000000,4.000000,,,,0.000000,4.000000,4.000000,4.000000,4.000000,4.000000,4.000000,4.000000,4.000000,4.000000,4.000000,4.000000,4.000000,4.000000,4.000000,100.000000
1602005939.469599,10.000000,0.000000,4116.922852,4109.743652,4117.948730,4113.333496,4113.846191,4119.487305,4118.974121,4101.538574,4086.666748,4093.333252,4104.102539,4132.820313,4092.820557,4117.948730,878.000000,4.000000,,,,0.000000,4.000000,4.000000,4.000000,4.000000,4.000000,4.000000,4.000000,4.000000,4.000000,4.000000,4.000000,4.000000,4.000000,4.000000,100.000000
1602005939.477482,11.000000,0.000000,4117.948730,4112.307617,4120.000000,4111.282227,4116.922852,4118.461426,4119.487305,4101.538574,4087.692383,4085.641113,4108.205078,4130.769043,4093.846191,4113.333496,837.000000,4.000000,,,,0.000000,4.000000,4.000000,4.000000,4.000000,4.000000,4.000000,4.000000,4.000000,4.000000,4.000000,4.000000,4.000000,4.000000,4.000000,100.000000
1602005939.485466,12.000000,0.000000,4129.743652,4126.666504,4128.205078,4121.538574,4126.666504,4121.538574,4120.512695,4112.307617,4096.410156,4091.281982,4106.153809,4133.846191,4095.897461,4121.025879,773.000000,4.000000,,,,0.000000,4.000000,4.000000,4.000000,4.000000,4.000000,4.000000,4.000000,4.000000,4.000000,4.000000,4.000000,4.000000,4.000000,4.000000,100.000000
1602005939.493349,13.000000,0.000000,4138.461426,4135.897461,4133.333496,4128.717773,4130.769043,4128.717773,4124.102539,4128.717773,4112.307617,4097.436035,4114.358887,4140.000000,4104.102539,4126.153809,755.000000,4.000000,,,,0.000000,4.000000,4.000000,4.000000,4.000000,4.000000,4.000000,4.000000,4.000000,4.000000,4.000000,4.000000,4.000000,4.000000,4.000000,100.000000
1602005939.501233,14.000000,0.000000,4138.461426,4136.922852,4125.641113,4125.128418,4130.769043,4131.282227,4132.307617,4138.461426,4127.179688,4112.307617,4124.615234,4140.000000,4113.846191,4122.051270,878.000000,4.000000,,,,0.000000,4.000000,4.000000,4.000000,4.000000,4.000000,4.000000,4.000000,4.000000,4.000000,4.000000,4.000000,4.000000,4.000000,4.000000,100.000000
1602005939.509117,15.000000,0.000000,4137.948730,4137.436035,4120.512695,4127.692383,4133.333496,4127.179688,4137.948730,4140.512695,4127.692383,4126.666504,4116.410156,4137.948730,4114.358887,4121.538574,837.000000,4.000000,,,,0.000000,4.000000,4.000000,4.000000,4.000000,4.000000,4.000000,4.000000,4.000000,4.000000,4.000000,4.000000,4.000000,4.000000,4.000000,100.000000
1602005939.517001,16.000000,0.000000,4142.051270,4137.948730,4127.179688,4136.410156,4132.307617,4124.615234,4131.282227,4134.358887,4123.589844,4130.769043,4107.692383,4132.820313,4111.794922,4120.512695,0.000000,4.000000,,,,0.000000,4.000000,4.000000,4.000000,4.000000,4.000000,4.000000,4.000000,4.000000,4.000000,4.000000,4.000000,4.000000,4.000000,4.000000,100.000000
1602005939.524885,17.000000,0.000000,4137.948730,4136.410156,4127.692383,4136.922852,4125.128418,4123.077148,4117.948730,4125.641113,4123.589844,4112.820313,4108.717773,4123.589844,4107.179688,4108.717773,0.000000,4.000000,,,,0.000000,4.000000,4.000000,4.000000,4.000000,4.000000,4.000000,4.000000,4.000000,4.000000,4.000000,4.000000,4.000000,4.000000,4.000000,100.000000
1602005939.532768,18.000000,0.000000,4133.846191,4136.410156,4123.589844,4134.871582,4128.717773,4117.436035,4112.820313,4122.051270,4120.512695,4090.256348,4109.230957,4128.717773,4099.487305,4101.025879,0.000000,4.000000,,,,0.000000,4.000000,4.000000,4.000000,4.000000,4.000000,4.000000,4.000000,4.000000,4.000000,4.000000,4.000000,4.000000,4.000000,4.000000,100.000000
1602005939.540652,19.000000,0.000000,4138.974121,4136.922852,4123.589844,4132.820313,4135.384766,4121.025879,4118.461426,4121.538574,4122.051270,4099.487305,4111.282227,4138.461426,4098.974121,4105.641113,0.000000,4.000000,,,,0.000000,4.000000,4.000000,4.000000,4.000000,4.000000,4.000000,4.000000,4.000000,4.000000,4.000000,4.000000,4.000000,4.000000,4.000000,100.000000
1602005939.548536,20.000000,0.000000,4140.000000,4134.871582,4123.589844,4130.769043,4136.922852,4135.384766,4124.615234,4127.692383,4134.358887,4123.589844,4119.487305,4135.384766,4106.153809,4110.256348,0.000000,4.000000,,,,0.000000,4.000000,4.000000,4.000000,4.000000,4.000000,4.000000,4.000000,4.000000,4.000000,4.000000,4.000000,4.000000,4.000000,4.000000,100.000000
1602005939.556320,21.000000,0.000000,4130.256348,4135.897461,4123.077148,4128.205078,4138.974121,4144.615234,4126.666504,4135.897461,4144.102539,4127.692383,4123.589844,4133.846191,4108.717773,4105.128418,0.000000,4.000000,,,,0.000000,4.000000,4.000000,4.000000,4.000000,4.000000,4.000000,4.000000,4.000000,4.000000,4.000000,4.000000,4.000000,4.000000,4.000000,100.000000
1602005939.564203,22.000000,0.000000,4120.000000,4137.436035,4118.974121,4125.128418,4133.333496,4144.615234,4123.589844,4133.846191,4138.974121,4114.358887,4114.871582,4132.820313,4102.563965,4100.000000,0.000000,4.000000,,,,0.000000,4.000000,4.000000,4.000000,4.000000,4.000000,4.000000,4.000000,4.000000,4.000000,4.000000,4.000000,4.000000,4.000000,4.000000,100.000000
1602005939.572087,23.000000,0.000000,4124.615234,4136.410156,4119.487305,4129.230957,4127.179688,4141.538574,4123.589844,4124.615234,4132.820313,4105.641113,4110.769043,4124.615234,4105.128418,4100.512695,0.000000,4.000000,,,,0.000000,4.000000,4.000000,4.000000,4.000000,4.000000,4.000000,4.000000,4.000000,4.000000,4.000000,4.000000,4.000000,4.000000,4.000000,100.000000
1602005939.579970,24.000000,0.000000,4137.436035,4136.922852,4130.256348,4136.922852,4135.897461,4138.974121,4126.153809,4126.153809,4137.436035,4101.025879,4120.000000,4126.153809,4118.974121,4105.128418,0.000000,4.000000,,,,0.000000,4.000000,4.000000,4.000000,4.000000,4.000000,4.000000,4.000000,4.000000,4.000000,4.000000,4.000000,4.000000,4.000000,4.000000,100.000000
1602005939.587854,25.000000,0.000000,4140.000000,4137.436035,4140.512695,4136.922852,4135.384766,4134.871582,4125.128418,4133.333496,4138.974121,4101.538574,4131.282227,4142.563965,4126.666504,4113.333496,0.000000,4.000000,,,,0.000000,4.000000,4.000000,4.000000,4.000000,4.000000,4.000000,4.000000,4.000000,4.000000,4.000000,4.000000,4.000000,4.000000,4.000000,100.000000
1602005939.595737,26.000000,0.000000,4139.487305,4138.974121,4147.692383,4136.410156,4123.077148,4130.256348,4128.205078,4136.922852,4135.897461,4118.974121,4134.871582,4153.846191,4131.282227,4120.512695,0.000000,4.000000,,,,0.000000,4.000000,4.000000,4.000000,4.000000,4.000000,4.000000,4.000000,4.000000,4.000000,4.000000,4.000000,4.000000,4.000000,4.000000,100.000000
1602005939.603621,27.000000,0.000000,4147.179688,4143.589844,4154.871582,4145.641113,4128.205078,4123.077148,4137.436035,4138.974121,4136.922852,4140.512695,4136.922852,4154.871582,4140.512695,4128.717773,0.000000,4.000000,,,,0.000000,4.000000,4.000000,4.000000,4.000000,4.000000,4.000000,4.000000,4.000000,4.000000,4.000000,4.000000,4.000000,4.000000,4.000000,100.000000
1602005939.611504,28.000000,0.000000,4153.333496,4144.615234,4156.410156,4147.692383,4134.358887,4118.461426,4137.436035,4138.461426,4136.410156,4144.102539,4145.641113,4160.000000,4144.615234,4136.922852,0.000000,4.000000,,,,0.000000,4.000000,4.000000,4.000000,4.000000,4.000000,4.000000,4.000000,4.000000,4.000000,4.000000,4.000000,4.000000,4.000000,4.000000,100.000000
1602005939.619388,29.000000,0.000000,4155.384766,4141.538574,4155.897461,4141.025879,4123.589844,4124.102539,4133.333496,4137.436035,4138.974121,4128.205078,4153.333496,4168.717773,4140.512695,4145.641113,0.000000,4.000000,,,,0.000000,4.000000,4.000000,4.000000,4.000000,4.000000,4.000000,4.000000,4.000000,4.000000,4.000000,4.000000,4.000000,4.000000,4.000000,100.000000
1602005939.627172,30.000000,0.000000,4156.922852,4144.102539,4156.410156,4142.563965,4124.102539,4136.922852,4140.000000,4140.512695,4149.230957,4122.563965,4153.846191,4170.769043,4141.538574,4149.230957,0.000000,4.000000,,,,0.000000,4.000000,4.000000,4.000000,4.000000,4.000000,4.000000,4.000000,4.000000,4.000000,4.000000,4.000000,4.000000,4.000000,4.000000,100.000000
1602005939.635055,31.000000,0.000000,4142.051270,4142.563965,4144.102539,4140.512695,4130.256348,4140.512695,4141.025879,4141.025879,4149.743652,4129.230957,4138.974121,4158.461426,4138.974121,4135.897461,0.000000,4.000000,,,,0.000000,4.000000,4.000000,4.000000,4.000000,4.000000,4.000000,4.000000,4.000000,4.000000,4.000000,4.000000,4.000000,4.000000,4.000000,100.000000
1602005939.642939,32.000000,0.000000,4120.512695,4128.205078,4120.000000,4125.128418,4123.589844,4132.820313,4125.641113,4134.871582,4136.922852,4128.205078,4115.897461,4140.512695,4122.563965,4109.230957,0.000000,4.000000,,,,0.000000,4.000000,4.000000,4.000000,4.000000,4.000000,4.000000,4.000000,4.000000,4.000000,4.000000,4.000000,4.000000,4.000000,4.000000,100.000000
1602005939.650822,33.000000,0.000000,4112.307617,4116.922852,4106.153809,4113.846191,4127.179688,4132.820313,4120.512695,4131.282227,4138.974121,4122.051270,4108.717773,4130.769043,4109.743652,4090.256348,0.000000,4.000000,,,,0.000000,4.000000,4.000000,4.000000,4.000000,4.000000,4.000000,4.000000,4.000000,4.000000,4.000000,4.000000,4.000000,4.000000,4.000000,100.000000
1602005939.658706,34.000000,0.000000,4106.153809,4117.948730,4108.205078,4118.461426,4135.384766,4143.077148,4130.256348,4136.410156,4154.358887,4124.102539,4121.025879,4132.820313,4114.358887,4091.794922,0.000000,4.000000,,,,0.000000,4.000000,4.000000,4.000000,4.000000,4.000000,4.000000,4.000000,4.000000,4.000000,4.000000,4.000000,4.000000,4.000000,4.000000,100.000000
1602005939.666589,35.000000,0.000000,4107.179688,4120.000000,4117.948730,4121.538574,4127.179688,4152.820313,4129.743652,4137.436035,4155.384766,4123.589844,4128.717773,4136.922852,4122.563965,4105.128418,0.000000,4.000000,,,,0.000000,4.000000,4.000000,4.000000,4.000000,4.000000,4.000000,4.000000,4.000000,4.000000,4.000000,4.000000,4.000000,4.000000,4.000000,100.000000
1602005939.674473,36.000000,0.000000,4126.153809,4123.589844,4121.025879,4120.512695,4126.153809,4155.384766,4122.563965,4133.846191,4149.743652,4108.205078,4124.102539,4132.307617,4117.948730,4109.230957,0.000000,4.000000,,,,0.000000,4.000000,4.000000,4.000000,4.000000,4.000000,4.000000,4.000000,4.000000,4.000000,4.000000,4.000000,4.000000,4.000000,4.000000,100.000000
1602005939.682356,37.000000,0.000000,4141.538574,4133.846191,4120.000000,4127.692383,4140.000000,4150.769043,4129.230957,4135.897461,4153.846191,4105.128418,4121.025879,4126.666504,4114.358887,4097.436035,0.000000,4.000000,,,,0.000000,4.000000,4.000000,4.000000,4.000000,4.000000,4.000000,4.000000,4.000000,4.000000,4.000000,4.000000,4.000000,4.000000,4.000000,100.000000
1602005939.690340,38.000000,0.000000,4139.487305,4140.512695,4128.717773,4138.461426,4141.538574,4144.102539,4135.384766,4137.436035,4151.282227,4127.179688,4123.589844,4127.692383,4122.563965,4101.538574,0.000000,4.000000,,,,0.000000,4.000000,4.000000,4.000000,4.000000,4.000000,4.000000,4.000000,4.000000,4.000000,4.000000,4.000000,4.000000,4.000000,4.000000,100.000000
1602005939.698223,39.000000,0.000000,4138.461426,4140.512695,4139.487305,4141.538574,4134.871582,4138.461426,4127.179688,4128.205078,4134.358887,4140.512695,4124.615234,4133.333496,4129.743652,4126.666504,0.000000,4.000000,,,,0.000000,4.000000,4.000000,4.000000,4.000000,4.000000,4.000000,4.000000,4.000000,4.000000,4.000000,4.000000,4.000000,4.000000,4.000000,100.000000
1602005939.706107,40.000000,0.000000,4142.051270,4141.025879,4139.487305,4138.461426,4135.384766,4129.743652,4117.436035,4116.922852,4121.025879,4125.641113,4122.051270,4137.436035,4123.077148,4125.641113,0.000000,4.000000,,,,0.000000,4.000000,4.000000,4.000000,4.000000,4.000000,4.000000,4.000000,4.000000,4.000000,4.000000,4.000000,4.000000,4.000000,4.000000,100.000000
1602005939.713990,41.000000,0.000000,4141.025879,4140.512695,4135.897461,4137.948730,4133.846191,4121.025879,4117.948730,4112.307617,4116.410156,4101.025879,4117.436035,4136.410156,4110.256348,4108.717773,0.000000,4.000000,,,,0.000000,4.000000,4.000000,4.000000,4.000000,4.000000,4.000000,4.000000,4.000000,4.000000,4.000000,4.000000,4.000000,4.000000,4.000000,100.000000
1602005939.721874,42.000000,0.000000,4132.820313,4134.871582,4137.948730,4135.897461,4130.256348,4120.000000,4120.000000,4112.820313,4107.692383,4086.666748,4121.538574,4133.846191,4105.128418,4112.307617,0.000000,4.000000,,,,0.000000,4.000000,4.000000,4.000000,4.000000,4.000000,4.000000,4.000000,4.000000,4.000000,4.000000,4.000000,4.000000,4.000000,4.000000,100.000000
1602005939.729758,43.000000,0.000000,4126.153809,4133.333496,4137.436035,4130.769043,4127.179688,4116.922852,4114.358887,4110.769043,4097.948730,4092.820557,4125.128418,4135.384766,4109.230957,4120.512695,0.000000,4.000000,,,,0.000000,4.000000,4.000000,4.000000,4.000000,4.000000,4.000000,4.000000,4.000000,4.000000,4.000000,4.000000,4.000000,4.000000,4.000000,100.000000
1602005939.737641,44.000000,0.000000,4127.179688,4130.769043,4129.230957,4124.615234,4124.102539,4108.205078,4109.230957,4108.205078,4098.461426,4100.000000,4114.358887,4136.922852,4109.230957,4112.307617,0.000000,4.000000,,,,0.000000,4.000000,4.000000,4.000000,4.000000,4.000000,4.000000,4.000000,4.000000,4.000000,4.000000,4.000000,4.000000,4.000000,4.000000,100.000000
1602005939.745525,45.000000,0.000000,4119.487305,4111.794922,4121.025879,4117.436035,4127.179688,4114.871582,4116.410156,4115.897461,4105.641113,4090.769287,4107.692383,4134.871582,4102.563965,4101.025879,0.000000,4.000000,,,,0.000000,4.000000,4.000000,4.000000,4.000000,4.000000,4.000000,4.000000,4.000000,4.000000,4.000000,4.000000,4.000000,4.000000,4.000000,100.000000
1602005939.753507,46.000000,0.000000,4120.000000,4112.307617,4122.051270,4121.538574,4129.743652,4132.820313,4125.641113,4126.666504,4114.358887,4095.897461,4122.563965,4135.384766,4110.256348,4109.230957,0.000000,4.000000,,,,0.000000,4.000000,4.000000,4.000000,4.000000,4.000000,4.000000,4.000000,4.000000,4.000000,4.000000,4.000000,4.000000,4.000000,4.000000,100.000000
1602005939.761390,47.000000,0.000000,4143.589844,4145.641113,4130.256348,4137.948730,4124.102539,4135.897461,4123.077148,4124.615234,4126.666504,4122.563965,4141.538574,4138.974121,4126.666504,4128.205078,0.000000,4.000000,,,,0.000000,4.000000,4.000000,4.000000,4.000000,4.000000,4.000000,4.000000,4.000000,4.000000,4.000000,4.000000,4.000000,4.000000,4.000000,100.000000
1602005939.769272,48.000000,0.000000,4155.897461,4164.102539,4136.922852,4143.589844,4127.179688,4131.794922,4120.000000,4123.589844,4132.820313,4130.256348,4136.922852,4138.974121,4125.641113,4124.102539,0.000000,4.000000,,,,0.000000,4.000000,4.000000,4.000000,4.000000,4.000000,4.000000,4.000000,4.000000,4.000000,4.000000,4.000000,4.000000,4.000000,4.000000,100.000000
1602005939.777155,49.000000,0.000000,4150.256348,4157.948730,4145.128418,4140.000000,4136.410156,4135.897461,4121.025879,4125.128418,4127.692383,4120.000000,4123.077148,4142.051270,4111.282227,4104.615234,0.000000,4.000000,,,,0.000000,4.000000,4.000000,4.000000,4.000000,4.000000,4.000000,4.000000,4.000000,4.000000,4.000000,4.000000,4.000000,4.000000,4.000000,100.000000
1602005939.785038,50.000000,0.000000,4148.717773,4158.461426,4150.769043,4143.077148,4132.820313,4137.948730,4120.512695,4118.974121,4123.077148,4125.641113,4120.000000,4146.153809,4105.641113,4102.563965,0.000000,4.000000,,,,0.000000,4.000000,4.000000,4.000000,4.000000,4.000000,4.000000,4.000000,4.000000,4.000000,4.000000,4.000000,4.000000,4.000000,4.000000,100.000000
1602005939.792920,51.000000,0.000000,4146.666504,4160.000000,4144.615234,4144.102539,4122.563965,4126.153809,4119.487305,4116.410156,4126.666504,4124.102539,4121.538574,4142.563965,4106.666504,4109.230957,0.000000,4.000000,,,,0.000000,4.000000,4.000000,4.000000,4.000000,4.000000,4.000000,4.000000,4.000000,4.000000,4.000000,4.000000,4.000000,4.000000,4.000000,100.000000
1602005939.800704,52.000000,0.000000,4145.128418,4154.871582,4137.436035,4137.436035,4122.051270,4118.461426,4121.025879,4126.153809,4128.717773,4105.128418,4124.102539,4144.102539,4106.153809,4104.615234,0.000000,4.000000,,,,0.000000,4.000000,4.000000,4.000000,4.000000,4.000000,4.000000,4.000000,4.000000,4.000000,4.000000,4.000000,4.000000,4.000000,4.000000,100.000000
1602005939.808587,53.000000,0.000000,4155.897461,4157.948730,4142.051270,4140.512695,4124.102539,4130.256348,4126.153809,4133.846191,4126.666504,4109.230957,4118.974121,4152.820313,4107.692383,4102.051270,0.000000,4.000000,,,,0.000000,4.000000,4.000000,4.000000,4.000000,4.000000,4.000000,4.000000,4.000000,4.000000,4.000000,4.000000,4.000000,4.000000,4.000000,100.000000
1602005939.816471,54.000000,0.000000,4157.948730,4160.000000,4142.051270,4146.666504,4120.512695,4143.589844,4133.846191,4131.282227,4124.615234,4116.922852,4108.205078,4149.230957,4102.563965,4096.410156,0.000000,4.000000,,,,0.000000,4.000000,4.000000,4.000000,4.000000,4.000000,4.000000,4.000000,4.000000,4.000000,4.000000,4.000000,4.000000,4.000000,4.000000,100.000000
1602005939.824354,55.000000,0.000000,4140.000000,4151.794922,4125.641113,4141.538574,4111.794922,4137.948730,4137.948730,4126.153809,4123.077148,4102.563965,4102.563965,4132.307617,4085.641113,4082.051270,0.000000,4.000000,,,,0.000000,4.000000,4.000000,4.000000,4.000000,4.000000,4.000000,4.000000,4.000000,4.000000,4.000000,4.000000,4.000000,4.000000,4.000000,100.000000
1602005939.832238,56.000000,0.000000,4125.128418,4143.589844,4112.820313,4134.358887,4103.077148,4125.128418,4136.410156,4129.230957,4123.077148,4092.307617,4103.589844,4123.589844,4070.769287,4079.487061,0.000000,4.000000,,,,0.000000,4.000000,4.000000,4.000000,4.000000,4.000000,4.000000,4.000000,4.000000,4.000000,4.000000,4.000000,4.000000,4.000000,4.000000,100.000000
1602005939.840122,57.000000,0.000000,4123.589844,4139.487305,4113.846191,4135.384766,4110.769043,4116.922852,4136.410156,4136.922852,4125.128418,4105.128418,4104.102539,4123.589844,4070.769287,4083.076904,0.000000,4.000000,,,,0.000000,4.000000,4.000000,4.000000,4.000000,4.000000,4.000000,4.000000,4.000000,4.000000,4.000000,4.000000,4.000000,4.000000,4.000000,100.000000
1602005939.848005,58.000000,0.000000,4125.641113,4144.615234,4116.410156,4136.410156,4121.025879,4118.974121,4137.436035,4138.461426,4128.205078,4118.974121,4106.666504,4123.589844,4082.564209,4077.435791,0.000000,4.000000,,,,0.000000,4.000000,4.000000,4.000000,4.000000,4.000000,4.000000,4.000000,4.000000,4.000000,4.000000,4.000000,4.000000,4.000000,4.000000,100.000000
1602005939.855889,59.000000,0.000000,4121.538574,4151.282227,4113.333496,4133.846191,4118.461426,4132.307617,4140.512695,4133.846191,4127.179688,4117.948730,4107.692383,4120.512695,4085.128174,4071.794922,0.000000,4.000000,,,,0.000000,4.000000,4.000000,4.000000,4.000000,4.000000,4.000000,4.000000,4.000000,4.000000,4.000000,4.000000,4.000000,4.000000,4.000000,100.000000
1602005939.863871,60.000000,0.000000,4120.000000,4152.820313,4111.282227,4135.384766,4125.641113,4143.589844,4143.589844,4136.410156,4123.077148,4108.205078,4104.615234,4116.410156,4080.512939,4072.820557,0.000000,4.000000,,,,0.000000,4.000000,4.000000,4.000000,4.000000,4.000000,4.000000,4.000000,4.000000,4.000000,4.000000,4.000000,4.000000,4.000000,4.000000,100.000000
1602005939.871754,61.000000,0.000000,4124.102539,4153.846191,4110.769043,4138.974121,4142.563965,4143.077148,4143.077148,4138.974121,4129.230957,4108.205078,4111.282227,4117.948730,4085.128174,4069.230713,0.000000,4.000000,,,,0.000000,4.000000,4.000000,4.000000,4.000000,4.000000,4.000000,4.000000,4.000000,4.000000,4.000000,4.000000,4.000000,4.000000,4.000000,100.000000
1602005939.879637,62.000000,0.000000,4121.025879,4152.307617,4105.641113,4136.410156,4141.538574,4136.922852,4137.436035,4135.897461,4134.358887,4124.102539,4115.384766,4115.384766,4091.281982,4064.102539,0.000000,4.000000,,,,0.000000,4.000000,4.000000,4.000000,4.000000,4.000000,4.000000,4.000000,4.000000,4.000000,4.000000,4.000000,4.000000,4.000000,4.000000,100.000000
1602005939.887520,63.000000,0.000000,4119.487305,4152.307617,4108.717773,4135.897461,4133.846191,4134.871582,4133.846191,4135.384766,4136.410156,4145.128418,4112.307617,4113.333496,4097.436035,4070.769287,0.000000,4.000000,,,,0.000000,4.000000,4.000000,4.000000,4.000000,4.000000,4.000000,4.000000,4.000000,4.000000,4.000000,4.000000,4.000000,4.000000,4.000000,100.000000
1602005939.895403,64.000000,0.000000,4127.692383,4160.512695,4123.077148,4142.563965,4137.436035,4142.051270,4137.436035,4146.153809,4147.692383,4164.615234,4126.666504,4128.205078,4115.897461,4085.641113,798.000000,4.000000,,,,0.000000,4.000000,4.000000,4.000000,4.000000,4.000000,4.000000,4.000000,4.000000,4.000000,4.000000,4.000000,4.000000,4.000000,4.000000,100.000000
1602005939.903286,65.000000,0.000000,4129.743652,4163.589844,4127.179688,4145.128418,4133.846191,4141.538574,4139.487305,4152.820313,4152.307617,4162.051270,4141.538574,4139.487305,4127.179688,4097.948730,792.000000,4.000000,,,,0.000000,4.000000,4.000000,4.000000,4.000000,4.000000,4.000000,4.000000,4.000000,4.000000,4.000000,4.000000,4.000000,4.000000,4.000000,100.000000
1602005939.911069,66.000000,0.000000,4121.538574,4155.384766,4122.051270,4141.538574,4122.563965,4125.128418,4135.384766,4144.102539,4133.846191,4127.692383,4131.794922,4133.846191,4113.846191,4098.974121,824.000000,4.000000,,,,0.000000,4.000000,4.000000,4.000000,4.000000,4.000000,4.000000,4.000000,4.000000,4.000000,4.000000,4.000000,4.000000,4.000000,4.000000,100.000000
1602005939.918952,67.000000,0.000000,4117.948730,4150.256348,4129.743652,4140.000000,4118.974121,4115.384766,4133.846191,4134.871582,4118.974121,4101.025879,4119.487305,4131.794922,4105.641113,4092.820557,871.000000,4.000000,,,,0.000000,4.000000,4.000000,4.000000,4.000000,4.000000,4.000000,4.000000,4.000000,4.000000,4.000000,4.000000,4.000000,4.000000,4.000000,100.000000
1602005939.926836,68.000000,0.000000,4122.563965,4152.307617,4139.487305,4140.000000,4120.000000,4121.538574,4136.410156,4133.846191,4119.487305,4106.666504,4122.051270,4142.051270,4109.743652,4094.358887,814.000000,4.000000,,,,0.000000,4.000000,4.000000,4.000000,4.000000,4.000000,4.000000,4.000000,4.000000,4.000000,4.000000,4.000000,4.000000,4.000000,4.000000,100.000000
1602005939.934719,69.000000,0.000000,4123.077148,4152.820313,4137.436035,4140.000000,4120.000000,4121.025879,4135.384766,4134.358887,4120.512695,4122.051270,4124.615234,4149.743652,4108.717773,4101.538574,826.000000,4.000000,,,,0.000000,4.000000,4.000000,4.000000,4.000000,4.000000,4.000000,4.000000,4.000000,4.000000,4.000000,4.000000,4.000000,4.000000,4.000000,100.000000
1602005939.942602,70.000000,0.000000,4120.512695,4147.692383,4136.922852,4139.487305,4118.974121,4116.922852,4140.512695,4135.897461,4127.179688,4133.846191,4125.641113,4152.307617,4106.666504,4101.025879,770.000000,4.000000,,,,0.000000,4.000000,4.000000,4.000000,4.000000,4.000000,4.000000,4.000000,4.000000,4.000000,4.000000,4.000000,4.000000,4.000000,4.000000,100.000000
1602005939.950486,71.000000,0.000000,4125.128418,4146.666504,4136.410156,4138.461426,4120.512695,4126.666504,4152.307617,4139.487305,4140.000000,4149.230957,4127.692383,4150.256348,4111.282227,4093.846191,686.000000,4.000000,,,,0.000000,4.000000,4.000000,4.000000,4.000000,4.000000,4.000000,4.000000,4.000000,4.000000,4.000000,4.000000,4.000000,4.000000,4.000000,100.000000
1602005939.958369,72.000000,0.000000,4126.666504,4155.897461,4129.743652,4139.487305,4125.641113,4140.512695,4151.282227,4141.538574,4148.205078,4155.384766,4125.641113,4143.589844,4112.820313,4091.281982,786.000000,4.000000,,,,0.000000,4.000000,4.000000,4.000000,4.000000,4.000000,4.000000,4.000000,4.000000,4.000000,4.000000,4.000000,4.000000,4.000000,4.000000,100.000000
1602005939.966353,73.000000,0.000000,4125.641113,4160.000000,4125.128418,4139.487305,4128.717773,4142.051270,4142.563965,4140.000000,4146.153809,4140.512695,4123.077148,4133.333496,4102.563965,4089.743652,839.000000,4.000000,,,,0.000000,4.000000,4.000000,4.000000,4.000000,4.000000,4.000000,4.000000,4.000000,4.000000,4.000000,4.000000,4.000000,4.000000,4.000000,100.000000
1602005939.974237,74.000000,0.000000,4125.128418,4151.794922,4123.077148,4138.461426,4123.077148,4134.871582,4140.000000,4137.948730,4138.461426,4125.641113,4119.487305,4121.538574,4091.794922,4077.435791,874.000000,4.000000,,,,0.000000,4.000000,4.000000,4.000000,4.000000,4.000000,4.000000,4.000000,4.000000,4.000000,4.000000,4.000000,4.000000,4.000000,4.000000,100.000000
1602005939.982121,75.000000,0.000000,4117.436035,4146.666504,4121.025879,4137.948730,4119.487305,4135.384766,4140.512695,4140.000000,4138.974121,4118.974121,4113.333496,4119.487305,4089.743652,4070.769287,837.000000,4.000000,,,,0.000000,4.000000,4.000000,4.000000,4.000000,4.000000,4.000000,4.000000,4.000000,4.000000,4.000000,4.000000,4.000000,4.000000,4.000000,100.000000
1602005939.990005,76.000000,0.000000,4107.692383,4144.102539,4119.487305,4132.307617,4124.615234,4137.948730,4139.487305,4144.615234,4135.897461,4106.153809,4105.128418,4122.051270,4085.641113,4070.769287,773.000000,4.000000,,,,0.000000,4.000000,4.000000,4.000000,4.000000,4.000000,4.000000,4.000000,4.000000,4.000000,4.000000,4.000000,4.000000,4.000000,4.000000,100.000000
1602005939.997889,77.000000,0.000000,4100.512695,4130.256348,4112.307617,4123.077148,4123.589844,4127.179688,4139.487305,4141.538574,4127.179688,4100.000000,4092.820557,4118.974121,4074.358887,4060.000000,754.000000,4.000000,,,,0.000000,4.000000,4.000000,4.000000,4.000000,4.000000,4.000000,4.000000,4.000000,4.000000,4.000000,4.000000,4.000000,4.000000,4.000000,100.000000
1602005940.005773,78.000000,0.000000,4094.358887,4123.077148,4105.128418,4120.512695,4116.410156,4116.922852,4138.461426,4135.384766,4128.717773,4118.974121,4092.307617,4121.538574,4069.743652,4055.384521,874.000000,4.000000,,,,0.000000,4.000000,4.000000,4.000000,4.000000,4.000000,4.000000,4.000000,4.000000,4.000000,4.000000,4.000000,4.000000,4.000000,4.000000,100.000000
1602005940.013657,79.000000,0.000000,4091.794922,4133.846191,4113.333496,4125.128418,4117.436035,4117.436035,4134.358887,4135.384766,4139.487305,4141.538574,4105.641113,4136.410156,4078.461426,4069.230713,837.000000,4.000000,,,,0.000000,4.000000,4.000000,4.000000,4.000000,4.000000,4.000000,4.000000,4.000000,4.000000,4.000000,4.000000,4.000000,4.000000,4.000000,100.000000
1602005940.021541,80.000000,0.000000,4101.538574,4142.051270,4122.051270,4132.307617,4127.179688,4123.589844,4134.871582,4137.948730,4141.025879,4139.487305,4111.794922,4145.128418,4091.794922,4081.025635,773.000000,4.000000,,,,0.000000,4.000000,4.000000,4.000000,4.000000,4.000000,4.000000,4.000000,4.000000,4.000000,4.000000,4.000000,4.000000,4.000000,4.000000,100.000000
1602005940.029425,81.000000,0.000000,4114.871582,4144.615234,4118.974121,4135.384766,4128.717773,4126.153809,4136.922852,4136.410156,4130.256348,4121.025879,4111.282227,4140.000000,4097.948730,4081.538574,754.000000,4.000000,,,,0.000000,4.000000,4.000000,4.000000,4.000000,4.000000,4.000000,4.000000,4.000000,4.000000,4.000000,4.000000,4.000000,4.000000,4.000000,100.000000
1602005940.037408,82.000000,0.000000,4116.922852,4147.692383,4116.922852,4136.410156,4123.077148,4123.589844,4135.384766,4134.871582,4124.615234,4119.487305,4120.512695,4134.871582,4093.333252,4080.000000,874.000000,4.000000,,,,0.000000,4.000000,4.000000,4.000000,4.000000,4.000000,4.000000,4.000000,4.000000,4.000000,4.000000,4.000000,4.000000,4.000000,4.000000,100.000000
1602005940.045291,83.000000,0.000000,4111.282227,4145.641113,4120.000000,4137.436035,4123.077148,4120.512695,4135.897461,4137.948730,4133.333496,4125.641113,4125.128418,4136.410156,4090.769287,4077.435791,837.000000,4.000000,,,,0.000000,4.000000,4.000000,4.000000,4.000000,4.000000,4.000000,4.000000,4.000000,4.000000,4.000000,4.000000,4.000000,4.000000,4.000000,100.000000
1602005940.053175,84.000000,0.000000,4104.615234,4136.922852,4121.025879,4130.769043,4122.051270,4121.025879,4137.948730,4138.974121,4135.897461,4113.333496,4112.820313,4136.410156,4092.307617,4074.358887,773.000000,4.000000,,,,0.000000,4.000000,4.000000,4.000000,4.000000,4.000000,4.000000,4.000000,4.000000,4.000000,4.000000,4.000000,4.000000,4.000000,4.000000,100.000000
1602005940.061058,85.000000,0.000000,4102.563965,4135.897461,4120.000000,4125.128418,4114.871582,4122.051270,4139.487305,4137.436035,4125.128418,4110.769043,4110.256348,4141.538574,4089.743652,4074.358887,754.000000,4.000000,,,,0.000000,4.000000,4.000000,4.000000,4.000000,4.000000,4.000000,4.000000,4.000000,4.000000,4.000000,4.000000,4.000000,4.000000,4.000000,100.000000
1602005940.068941,86.000000,0.000000,4110.769043,4140.512695,4122.051270,4134.358887,4114.871582,4123.589844,4147.179688,4137.948730,4125.641113,4132.820313,4121.538574,4158.461426,4094.871826,4082.051270,874.000000,4.000000,,,,0.000000,4.000000,4.000000,4.000000,4.000000,4.000000,4.000000,4.000000,4.000000,4.000000,4.000000,4.000000,4.000000,4.000000,4.000000,100.000000
1602005940.076825,87.000000,0.000000,4121.025879,4144.102539,4129.230957,4140.000000,4121.538574,4126.153809,4148.717773,4138.461426,4136.410156,4139.487305,4132.820313,4170.256348,4113.846191,4102.051270,837.000000,4.000000,,,,0.000000,4.000000,4.000000,4.000000,4.000000,4.000000,4.000000,4.000000,4.000000,4.000000,4.000000,4.000000,4.000000,4.000000,4.000000,100.000000
1602005940.084708,88.000000,0.000000,4127.179688,4151.282227,4138.974121,4137.436035,4123.077148,4126.153809,4144.102539,4140.512695,4138.974121,4139.487305,4138.974121,4170.769043,4126.153809,4112.307617,773.000000,4.000000,,,,0.000000,4.000000,4.000000,4.000000,4.000000,4.000000,4.000000,4.000000,4.000000,4.000000,4.000000,4.000000,4.000000,4.000000,4.000000,100.000000
1602005940.092591,89.000000,0.000000,4133.846191,4161.538574,4142.051270,4146.153809,4124.615234,4130.256348,4149.230957,4150.256348,4140.000000,4149.743652,4142.563965,4167.692383,4125.128418,4108.717773,754.000000,4.000000,,,,0.000000,4.000000,4.000000,4.000000,4.000000,4.000000,4.000000,4.000000,4.000000,4.000000,4.000000,4.000000,4.000000,4.000000,4.000000,100.000000
1602005940.100374,90.000000,0.000000,4144.102539,4167.179688,4141.538574,4152.820313,4127.692383,4137.948730,4154.871582,4155.384766,4143.589844,4146.666504,4138.974121,4161.538574,4127.179688,4117.948730,874.000000,4.000000,,,,0.000000,4.000000,4.000000,4.000000,4.000000,4.000000,4.000000,4.000000,4.000000,4.000000,4.000000,4.000000,4.000000,4.000000,4.000000,100.000000
1602005940.108256,91.000000,0.000000,4143.077148,4160.512695,4139.487305,4144.102539,4122.051270,4132.307617,4145.128418,4146.666504,4138.974121,4137.948730,4126.153809,4155.384766,4127.179688,4129.743652,837.000000,4.000000,,,,0.000000,4.000000,4.000000,4.000000,4.000000,4.000000,4.000000,4.000000,4.000000,4.000000,4.000000,4.000000,4.000000,4.000000,4.000000,100.000000
1602005940.116139,92.000000,0.000000,4131.794922,4147.179688,4131.794922,4135.384766,4115.897461,4120.000000,4136.922852,4140.512695,4127.179688,4133.333496,4114.358887,4154.358887,4110.769043,4112.307617,773.000000,4.000000,,,,0.000000,4.000000,4.000000,4.000000,4.000000,4.000000,4.000000,4.000000,4.000000,4.000000,4.000000,4.000000,4.000000,4.000000,4.000000,100.000000
1602005940.124021,93.000000,0.000000,4123.589844,4140.000000,4129.743652,4134.358887,4118.974121,4120.000000,4139.487305,4140.512695,4125.128418,4116.410156,4106.666504,4154.358887,4090.256348,4088.205078,754.000000,4.000000,,,,0.000000,4.000000,4.000000,4.000000,4.000000,4.000000,4.000000,4.000000,4.000000,4.000000,4.000000,4.000000,4.000000,4.000000,4.000000,100.000000
1602005940.131903,94.000000,0.000000,4122.563965,4138.461426,4139.487305,4137.436035,4123.589844,4128.205078,4140.512695,4140.000000,4130.769043,4105.641113,4110.256348,4153.846191,4091.281982,4089.743652,874.000000,4.000000,,,,0.000000,4.000000,4.000000,4.000000,4.000000,4.000000,4.000000,4.000000,4.000000,4.000000,4.000000,4.000000,4.000000,4.000000,4.000000,100.000000
1602005940.139687,95.000000,0.000000,4123.589844,4137.948730,4141.538574,4135.897461,4122.563965,4135.897461,4139.487305,4137.948730,4126.153809,4120.000000,4118.461426,4156.410156,4102.051270,4100.512695,837.000000,4.000000,,,,0.000000,4.000000,4.000000,4.000000,4.000000,4.000000,4.000000,4.000000,4.000000,4.000000,4.000000,4.000000,4.000000,4.000000,4.000000,100.000000
1602005940.147571,96.000000,0.000000,4124.102539,4140.000000,4130.769043,4128.205078,4120.000000,4139.487305,4138.974121,4129.743652,4120.512695,4136.922852,4124.102539,4157.948730,4104.102539,4098.974121,773.000000,4.000000,,,,0.000000,4.000000,4.000000,4.000000,4.000000,4.000000,4.000000,4.000000,4.000000,4.000000,4.000000,4.000000,4.000000,4.000000,4.000000,100.000000
1602005940.155455,97.000000,0.000000,4124.615234,4141.025879,4122.051270,4128.205078,4123.077148,4135.384766,4134.871582,4121.538574,4121.538574,4134.358887,4118.461426,4150.769043,4104.615234,4095.384521,754.000000,4.000000,,,,0.000000,4.000000,4.000000,4.000000,4.000000,4.000000,4.000000,4.000000,4.000000,4.000000,4.000000,4.000000,4.000000,4.000000,4.000000,100.000000
1602005940.163339,98.000000,0.000000,4127.179688,4143.589844,4123.589844,4138.461426,4127.179688,4131.794922,4128.717773,4123.077148,4109.743652,4125.641113,4109.743652,4140.000000,4109.230957,4108.717773,874.000000,4.000000,,,,0.000000,4.000000,4.000000,4.000000,4.000000,4.000000,4.000000,4.000000,4.000000,4.000000,4.000000,4.000000,4.000000,4.000000,4.000000,100.000000
1602005940.171223,99.000000,0.000000,4127.692383,4148.717773,4119.487305,4138.974121,4123.589844,4130.256348,4125.128418,4123.077148,4096.922852,4118.974121,4113.846191,4135.897461,4110.769043,4124.102539,837.000000,4.000000,,,,0.000000,4.000000,4.000000,4.000000,4.000000,4.000000,4.000000,4.000000,4.000000,4.000000,4.000000,4.000000,4.000000,4.000000,4.000000,100.000000
1602005940.179107,100.000000,0.000000,4125.128418,4151.794922,4110.769043,4132.307617,4125.128418,4122.563965,4123.077148,4117.948730,4099.487305,4107.179688,4119.487305,4130.769043,4108.717773,4114.871582,773.000000,4.000000,,,,0.000000,4.000000,4.000000,4.000000,4.000000,4.000000,4.000000,4.000000,4.000000,4.000000,4.000000,4.000000,4.000000,4.000000,4.000000,100.000000
1602005940.186992,101.000000,0.000000,4130.769043,4152.820313,4114.871582,4136.922852,4135.897461,4120.512695,4120.000000,4120.000000,4106.153809,4109.230957,4115.897461,4127.692383,4107.179688,4103.589844,754.000000,4.000000,,,,0.000000,4.000000,4.000000,4.000000,4.000000,4.000000,4.000000,4.000000,4.000000,4.000000,4.000000,4.000000,4.000000,4.000000,4.000000,100.000000
1602005940.194876,102.000000,0.000000,4140.000000,4155.897461,4128.717773,4143.589844,4134.871582,4126.153809,4122.051270,4124.615234,4112.307617,4124.102539,4114.358887,4135.897461,4109.230957,4109.230957,874.000000,4.000000,,,,0.000000,4.000000,4.000000,4.000000,4.000000,4.000000,4.000000,4.000000,4.000000,4.000000,4.000000,4.000000,4.000000,4.000000,4.000000,100.000000
1602005940.202760,103.000000,0.000000,4137.948730,4157.436035,4133.333496,4141.025879,4124.102539,4119.487305,4124.102539,4123.077148,4115.384766,4122.563965,4122.563965,4144.102539,4116.410156,4109.230957,837.000000,4.000000,,,,0.000000,4.000000,4.000000,4.000000,4.000000,4.000000,4.000000,4.000000,4.000000,4.000000,4.000000,4.000000,4.000000,4.000000,4.000000,100.000000
1602005940.210741,104.000000,0.000000,4134.358887,4153.846191,4131.794922,4141.025879,4126.666504,4113.846191,4121.025879,4120.512695,4115.384766,4124.615234,4128.717773,4139.487305,4123.589844,4103.589844,773.000000,4.000000,,,,0.000000,4.000000,4.000000,4.000000,4.000000,4.000000,4.000000,4.000000,4.000000,4.000000,4.000000,4.000000,4.000000,4.000000,4.000000,100.000000
1602005940.218623,105.000000,0.000000,4141.538574,4154.871582,4136.410156,4148.205078,4135.897461,4125.128418,4121.538574,4120.512695,4120.512695,4156.410156,4127.692383,4136.410156,4124.102539,4110.769043,754.000000,4.000000,,,,0.000000,4.000000,4.000000,4.000000,4.000000,4.000000,4.000000,4.000000,4.000000,4.000000,4.000000,4.000000,4.000000,4.000000,4.000000,100.000000
1602005940.226504,106.000000,0.000000,4143.077148,4158.461426,4141.025879,4149.230957,4133.333496,4131.794922,4124.102539,4121.538574,4128.205078,4162.563965,4124.102539,4138.974121,4119.487305,4112.820313,874.000000,4.000000,,,,0.000000,4.000000,4.000000,4.000000,4.000000,4.000000,4.000000,4.000000,4.000000,4.000000,4.000000,4.000000,4.000000,4.000000,4.000000,100.000000
1602005940.234286,107.000000,0.000000,4134.871582,4155.384766,4137.948730,4141.025879,4129.743652,4125.641113,4127.179688,4122.051270,4123.077148,4130.769043,4121.538574,4136.922852,4117.436035,4109.743652,837.000000,4.000000,,,,0.000000,4.000000,4.000000,4.000000,4.000000,4.000000,4.000000,4.000000,4.000000,4.000000,4.000000,4.000000,4.000000,4.000000,4.000000,100.000000
1602005940.242168,108.000000,0.000000,4133.846191,4152.307617,4134.871582,4137.948730,4132.820313,4120.512695,4132.307617,4122.563965,4112.820313,4123.077148,4125.128418,4135.897461,4121.025879,4125.128418,773.000000,4.000000,,,,0.000000,4.000000,4.000000,4.000000,4.000000,4.000000,4.000000,4.000000,4.000000,4.000000,4.000000,4.000000,4.000000,4.000000,4.000000,100.000000
1602005940.250049,109.000000,0.000000,4142.051270,4156.410156,4137.948730,4143.077148,4133.846191,4118.974121,4137.948730,4127.179688,4109.230957,4141.538574,4125.641113,4137.948730,4124.615234,4141.025879,754.000000,4.000000,,,,0.000000,4.000000,4.000000,4.000000,4.000000,4.000000,4.000000,4.000000,4.000000,4.000000,4.000000,4.000000,4.000000,4.000000,4.000000,100.000000
1602005940.257834,110.000000,0.000000,4141.538574,4156.410156,4135.897461,4144.615234,4131.794922,4120.512695,4137.948730,4135.384766,4110.769043,4141.538574,4125.128418,4140.000000,4126.666504,4137.436035,874.000000,4.000000,,,,0.000000,4.000000,4.000000,4.000000,4.000000,4.000000,4.000000,4.000000,4.000000,4.000000,4.000000,4.000000,4.000000,4.000000,4.000000,100.000000
1602005940.265718,111.000000,0.000000,4127.179688,4146.153809,4124.615234,4136.922852,4127.179688,4124.615234,4130.769043,4135.384766,4111.794922,4128.717773,4128.205078,4141.025879,4121.538574,4121.538574,837.000000,4.000000,,,,0.000000,4.000000,4.000000,4.000000,4.000000,4.000000,4.000000,4.000000,4.000000,4.000000,4.000000,4.000000,4.000000,4.000000,4.000000,100.000000
1602005940.273602,112.000000,0.000000,4117.436035,4135.384766,4123.077148,4127.692383,4123.077148,4125.128418,4124.102539,4127.179688,4110.769043,4130.769043,4125.128418,4140.512695,4112.820313,4104.615234,773.000000,4.000000,,,,0.000000,4.000000,4.000000,4.000000,4.000000,4.000000,4.000000,4.000000,4.000000,4.000000,4.000000,4.000000,4.000000,4.000000,4.000000,100.000000
1602005940.281486,113.000000,0.000000,4117.948730,4129.230957,4130.769043,4122.563965,4121.025879,4125.641113,4121.025879,4115.384766,4107.692383,4133.846191,4116.410156,4133.333496,4106.153809,4096.410156,754.000000,4.000000,,,,0.000000,4.000000,4.000000,4.000000,4.000000,4.000000,4.000000,4.000000,4.000000,4.000000,4.000000,4.000000,4.000000,4.000000,4.000000,100.000000
1602005940.289370,114.000000,0.000000,4114.871582,4123.077148,4126.153809,4120.512695,4120.000000,4121.025879,4115.897461,4105.128418,4104.615234,4121.538574,4104.615234,4121.025879,4098.974121,4096.922852,874.000000,4.000000,,,,0.000000,4.000000,4.000000,4.000000,4.000000,4.000000,4.000000,4.000000,4.000000,4.000000,4.000000,4.000000,4.000000,4.000000,4.000000,100.000000
1602005940.297254,115.000000,0.000000,4106.153809,4116.922852,4115.897461,4117.948730,4117.436035,4117.948730,4113.333496,4107.692383,4108.717773,4113.846191,4101.538574,4115.384766,4091.794922,4093.333252,837.000000,4.000000,,,,0.000000,4.000000,4.000000,4.000000,4.000000,4.000000,4.000000,4.000000,4.000000,4.000000,4.000000,4.000000,4.000000,4.000000,4.000000,100.000000
1602005940.305138,116.000000,0.000000,4105.128418,4119.487305,4116.922852,4117.948730,4124.102539,4130.256348,4126.153809,4125.641113,4120.512695,4124.615234,4113.333496,4124.102539,4101.025879,4097.436035,773.000000,4.000000,,,,0.000000,4.000000,4.000000,4.000000,4.000000,4.000000,4.000000,4.000000,4.000000,4.000000,4.000000,4.000000,4.000000,4.000000,4.000000,100.000000
1602005940.313022,117.000000,0.000000,4114.358887,4131.282227,4129.230957,4125.641113,4135.897461,4141.538574,4140.000000,4138.461426,4133.846191,4144.615234,4124.615234,4138.461426,4120.000000,4113.333496,754.000000,4.000000,,,,0.000000,4.000000,4.000000,4.000000,4.000000,4.000000,4.000000,4.000000,4.000000,4.000000,4.000000,4.000000,4.000000,4.000000,4.000000,100.000000
1602005940.320906,118.000000,0.000000,4125.641113,4140.000000,4134.871582,4133.846191,4138.461426,4137.436035,4138.461426,4139.487305,4142.563965,4162.563965,4122.563965,4138.461426,4121.538574,4115.897461,874.000000,4.000000,,,,0.000000,4.000000,4.000000,4.000000,4.000000,4.000000,4.000000,4.000000,4.000000,4.000000,4.000000,4.000000,4.000000,4.000000,4.000000,100.000000
1602005940.328888,119.000000,0.000000,4127.179688,4140.512695,4130.769043,4136.410156,4135.897461,4134.871582,4134.871582,4138.461426,4138.461426,4155.384766,4121.538574,4131.794922,4116.410156,4114.358887,837.000000,4.000000,,,,0.000000,4.000000,4.000000,4.000000,4.000000,4.000000,4.000000,4.000000,4.000000,4.000000,4.000000,4.000000,4.000000,4.000000,4.000000,100.000000
1602005940.336771,120.000000,0.000000,4120.000000,4138.461426,4129.743652,4133.846191,4136.410156,4137.436035,4138.974121,4135.384766,4126.666504,4126.153809,4126.666504,4133.333496,4117.436035,4117.436035,773.000000,4.000000,,,,0.000000,4.000000,4.000000,4.000000,4.000000,4.000000,4.000000,4.000000,4.000000,4.000000,4.000000,4.000000,4.000000,4.000000,4.000000,100.000000
1602005940.344654,121.000000,0.000000,4126.153809,4140.000000,4136.922852,4134.871582,4136.410156,4130.769043,4139.487305,4127.179688,4114.358887,4118.974121,4118.461426,4135.897461,4111.282227,4102.563965,754.000000,4.000000,,,,0.000000,4.000000,4.000000,4.000000,4.000000,4.000000,4.000000,4.000000,4.000000,4.000000,4.000000,4.000000,4.000000,4.000000,4.000000,100.000000
1602005940.352537,122.000000,0.000000,4140.000000,4143.589844,4142.563965,4137.948730,4131.282227,4122.051270,4131.794922,4121.538574,4098.974121,4118.974121,4106.153809,4135.384766,4102.563965,4091.794922,874.000000,4.000000,,,,0.000000,4.000000,4.000000,4.000000,4.000000,4.000000,4.000000,4.000000,4.000000,4.000000,4.000000,4.000000,4.000000,4.000000,4.000000,100.000000
1602005940.360420,123.000000,0.000000,4141.025879,4143.589844,4140.000000,4140.000000,4122.563965,4124.615234,4124.102539,4120.000000,4093.846191,4103.077148,4104.615234,4135.384766,4102.563965,4102.563965,837.000000,4.000000,,,,0.000000,4.000000,4.000000,4.000000,4.000000,4.000000,4.000000,4.000000,4.000000,4.000000,4.000000,4.000000,4.000000,4.000000,4.000000,100.000000
1602005940.368303,124.000000,0.000000,4135.384766,4141.025879,4138.974121,4141.025879,4117.948730,4126.666504,4121.538574,4118.974121,4101.538574,4105.128418,4104.102539,4133.846191,4104.102539,4106.153809,773.000000,4.000000,,,,0.000000,4.000000,4.000000,4.000000,4.000000,4.000000,4.000000,4.000000,4.000000,4.000000,4.000000,4.000000,4.000000,4.000000,4.000000,100.000000
1602005940.376087,125.000000,0.000000,4145.128418,4145.641113,4146.666504,4141.025879,4126.666504,4125.641113,4124.615234,4125.641113,4113.333496,4135.384766,4112.307617,4142.051270,4112.820313,4111.794922,754.000000,4.000000,,,,0.000000,4.000000,4.000000,4.000000,4.000000,4.000000,4.000000,4.000000,4.000000,4.000000,4.000000,4.000000,4.000000,4.000000,4.000000,100.000000
1602005940.383970,126.000000,0.000000,4157.948730,4158.461426,4157.436035,4143.077148,4138.461426,4127.692383,4127.692383,4138.461426,4131.282227,4148.205078,4131.282227,4168.205078,4135.897461,4136.922852,874.000000,4.000000,,,,0.000000,4.000000,4.000000,4.000000,4.000000,4.000000,4.000000,4.000000,4.000000,4.000000,4.000000,4.000000,4.000000,4.000000,4.000000,100.000000
1602005940.391854,127.000000,0.000000,4150.769043,4155.897461,4158.974121,4144.102539,4140.512695,4128.717773,4129.743652,4148.205078,4144.615234,4126.153809,4144.102539,4186.153809,4141.025879,4143.077148,837.000000,4.000000,,,,0.000000,4.000000,4.000000,4.000000,4.000000,4.000000,4.000000,4.000000,4.000000,4.000000,4.000000,4.000000,4.000000,4.000000,4.000000,100.000000
1602005940.399738,128.000000,0.000000,4144.102539,4144.615234,4155.384766,4141.025879,4134.358887,4124.615234,4133.333496,4149.230957,4142.051270,4117.948730,4146.666504,4185.641113,4137.948730,4134.358887,773.000000,4.000000,,,,0.000000,4.000000,4.000000,4.000000,4.000000,4.000000,4.000000,4.000000,4.000000,4.000000,4.000000,4.000000,4.000000,4.000000,4.000000,100.000000
1602005940.407622,0.000000,0.000000,4147.179688,4145.128418,4153.333496,4139.487305,4132.307617,4129.743652,4136.922852,4146.666504,4140.000000,4140.000000,4151.794922,4184.615234,4155.384766,4141.025879,798.000000,4.000000,,,,0.000000,4.000000,4.000000,4.000000,4.000000,4.000000,4.000000,4.000000,4.000000,4.000000,4.000000,4.000000,4.000000,4.000000,4.000000,100.000000
1602005940.415505,1.000000,0.000000,4135.384766,4140.000000,4143.077148,4137.436035,4131.794922,4137.948730,4138.461426,4144.102539,4144.102539,4156.410156,4154.358887,4183.589844,4171.282227,4148.717773,792.000000,4.000000,,,,0.000000,4.000000,4.000000,4.000000,4.000000,4.000000,4.000000,4.000000,4.000000,4.000000,4.000000,4.000000,4.000000,4.000000,4.000000,100.000000
1602005940.423389,2.000000,0.000000,4111.794922,4124.615234,4127.179688,4129.743652,4127.179688,4136.410156,4138.461426,4142.563965,4144.615234,4159.487305,4153.846191,4174.358887,4176.410156,4149.230957,841.000000,4.000000,,,,0.000000,4.000000,4.000000,4.000000,4.000000,4.000000,4.000000,4.000000,4.000000,4.000000,4.000000,4.000000,4.000000,4.000000,4.000000,100.000000
1602005940.431273,3.000000,0.000000,4103.589844,4118.974121,4120.512695,4122.051270,4130.256348,4136.410156,4140.512695,4143.077148,4147.692383,4169.230957,4158.974121,4168.205078,4187.179688,4151.282227,871.000000,4.000000,,,,0.000000,4.000000,4.000000,4.000000,4.000000,4.000000,4.000000,4.000000,4.000000,4.000000,4.000000,4.000000,4.000000,4.000000,4.000000,100.000000
1602005940.439157,4.000000,0.000000,4097.436035,4115.384766,4121.025879,4121.025879,4133.846191,4141.025879,4140.000000,4141.025879,4152.820313,4161.025879,4160.512695,4170.256348,4192.307617,4149.230957,814.000000,4.000000,,,,0.000000,4.000000,4.000000,4.000000,4.000000,4.000000,4.000000,4.000000,4.000000,4.000000,4.000000,4.000000,4.000000,4.000000,4.000000,100.000000
1602005940.447141,5.000000,0.000000,4090.256348,4106.666504,4121.538574,4123.077148,4127.692383,4136.922852,4132.307617,4139.487305,4150.769043,4135.384766,4154.871582,4171.282227,4192.820313,4148.205078,826.000000,4.000000,,,,0.000000,4.000000,4.000000,4.000000,4.000000,4.000000,4.000000,4.000000,4.000000,4.000000,4.000000,4.000000,4.000000,4.000000,4.000000,100.000000
1602005940.455025,6.000000,0.000000,4100.000000,4109.230957,4126.666504,4125.641113,4124.615234,4128.205078,4123.077148,4137.436035,4148.717773,4137.948730,4154.871582,4174.871582,4198.974121,4156.922852,799.000000,4.000000,,,,0.000000,4.000000,4.000000,4.000000,4.000000,4.000000,4.000000,4.000000,4.000000,4.000000,4.000000,4.000000,4.000000,4.000000,4.000000,100.000000
1602005940.462909,7.000000,0.000000,4107.692383,4114.871582,4134.871582,4124.102539,4128.717773,4129.743652,4122.051270,4138.974121,4150.769043,4155.897461,4158.461426,4182.563965,4193.333496,4154.871582,686.000000,4.000000,,,,0.000000,4.000000,4.000000,4.000000,4.000000,4.000000,4.000000,4.000000,4.000000,4.000000,4.000000,4.000000,4.000000,4.000000,4.000000,100.000000
1602005940.470793,8.000000,0.000000,4103.589844,4106.666504,4137.436035,4118.974121,4125.128418,4128.205078,4129.743652,4146.153809,4152.820313,4161.025879,4150.769043,4183.589844,4179.487305,4148.205078,786.000000,4.000000,,,,0.000000,4.000000,4.000000,4.000000,4.000000,4.000000,4.000000,4.000000,4.000000,4.000000,4.000000,4.000000,4.000000,4.000000,4.000000,100.000000
1602005940.478677,9.000000,0.000000,4108.205078,4105.641113,4141.538574,4122.051270,4120.000000,4123.077148,4141.538574,4154.871582,4154.871582,4170.769043,4150.256348,4184.102539,4189.743652,4156.922852,861.000000,4.000000,,,,0.000000,4.000000,4.000000,4.000000,4.000000,4.000000,4.000000,4.000000,4.000000,4.000000,4.000000,4.000000,4.000000,4.000000,4.000000,100.000000
1602005940.486561,10.000000,0.000000,4108.205078,4108.717773,4146.153809,4122.563965,4125.128418,4130.769043,4151.282227,4156.410156,4156.410156,4175.897461,4166.153809,4189.230957,4204.102539,4160.512695,874.000000,4.000000,,,,0.000000,4.000000,4.000000,4.000000,4.000000,4.000000,4.000000,4.000000,4.000000,4.000000,4.000000,4.000000,4.000000,4.000000,4.000000,100.000000
1602005940.494445,11.000000,0.000000,4090.769287,4098.974121,4139.487305,4110.769043,4125.641113,4141.538574,4154.358887,4152.307617,4153.333496,4154.871582,4167.692383,4186.153809,4192.820313,4153.846191,837.000000,4.000000,,,,0.000000,4.000000,4.000000,4.000000,4.000000,4.000000,4.000000,4.000000,4.000000,4.000000,4.000000,4.000000,4.000000,4.000000,4.000000,100.000000
1602005940.502329,12.000000,0.000000,4090.769287,4096.922852,4133.846191,4108.205078,4121.538574,4137.948730,4154.871582,4153.846191,4149.743652,4142.051270,4158.461426,4184.102539,4182.051270,4153.333496,773.000000,4.000000,,,,0.000000,4.000000,4.000000,4.000000,4.000000,4.000000,4.000000,4.000000,4.000000,4.000000,4.000000,4.000000,4.000000,4.000000,4.000000,100.000000
1602005940.510213,13.000000,0.000000,4109.230957,4109.743652,4139.487305,4122.051270,4124.102539,4133.333496,4152.820313,4155.897461,4151.794922,4159.487305,4165.128418,4189.743652,4193.846191,4155.384766,754.000000,4.000000,,,,0.000000,4.000000,4.000000,4.000000,4.000000,4.000000,4.000000,4.000000,4.000000,4.000000,4.000000,4.000000,4.000000,4.000000,4.000000,100.000000
1602005940.518197,14.000000,0.000000,4111.794922,4113.333496,4142.563965,4127.692383,4126.153809,4137.436035,4144.102539,4150.256348,4150.769043,4164.615234,4171.794922,4189.230957,4198.974121,4154.358887,874.000000,4.000000,,,,0.000000,4.000000,4.000000,4.000000,4.000000,4.000000,4.000000,4.000000,4.000000,4.000000,4.000000,4.000000,4.000000,4.000000,4.000000,100.000000
1602005940.526081,15.000000,0.000000,4103.589844,4109.743652,4142.051270,4124.615234,4123.589844,4134.871582,4131.794922,4140.000000,4141.538574,4147.692383,4160.000000,4181.538574,4188.717773,4151.282227,837.000000,4.000000,,,,0.000000,4.000000,4.000000,4.000000,4.000000,4.000000,4.000000,4.000000,4.000000,4.000000,4.000000,4.000000,4.000000,4.000000,4.000000,100.000000
1602005940.533965,16.000000,0.000000,4106.153809,4110.256348,4140.512695,4125.128418,4121.538574,4123.589844,4120.512695,4130.769043,4136.410156,4148.205078,4151.282227,4180.512695,4180.000000,4141.538574,0.000000,4.000000,,,,0.000000,4.000000,4.000000,4.000000,4.000000,4.000000,4.000000,4.000000,4.000000,4.000000,4.000000,4.000000,4.000000,4.000000,4.000000,100.000000
1602005940.541849,17.000000,0.000000,4108.205078,4108.205078,4137.436035,4124.102539,4117.948730,4120.000000,4117.436035,4129.743652,4141.538574,4155.897461,4153.333496,4185.641113,4175.384766,4139.487305,0.000000,4.000000,,,,0.000000,4.000000,4.000000,4.000000,4.000000,4.000000,4.000000,4.000000,4.000000,4.000000,4.000000,4.000000,4.000000,4.000000,4.000000,100.000000
1602005940.549733,18.000000,0.000000,4099.487305,4104.102539,4134.871582,4116.410156,4116.922852,4125.128418,4121.025879,4133.846191,4145.128418,4140.512695,4154.871582,4186.666504,4171.282227,4148.717773,0.000000,4.000000,,,,0.000000,4.000000,4.000000,4.000000,4.000000,4.000000,4.000000,4.000000,4.000000,4.000000,4.000000,4.000000,4.000000,4.000000,4.000000,100.000000
1602005940.557617,19.000000,0.000000,4095.897461,4103.589844,4133.333496,4111.794922,4120.512695,4128.717773,4126.666504,4137.436035,4144.102539,4132.307617,4151.794922,4186.153809,4173.846191,4147.692383,0.000000,4.000000,,,,0.000000,4.000000,4.000000,4.000000,4.000000,4.000000,4.000000,4.000000,4.000000,4.000000,4.000000,4.000000,4.000000,4.000000,4.000000,100.000000
1602005940.565501,20.000000,0.000000,4093.333252,4098.974121,4127.179688,4109.230957,4114.871582,4125.641113,4131.794922,4136.922852,4142.563965,4141.538574,4141.538574,4181.538574,4168.205078,4141.025879,0.000000,4.000000,,,,0.000000,4.000000,4.000000,4.000000,4.000000,4.000000,4.000000,4.000000,4.000000,4.000000,4.000000,4.000000,4.000000,4.000000,4.000000,100.000000
1602005940.573385,21.000000,0.000000,4081.538574,4089.743652,4112.307617,4105.128418,4105.128418,4122.051270,4135.897461,4134.358887,4142.051270,4140.512695,4136.410156,4172.307617,4153.333496,4137.436035,0.000000,4.000000,,,,0.000000,4.000000,4.000000,4.000000,4.000000,4.000000,4.000000,4.000000,4.000000,4.000000,4.000000,4.000000,4.000000,4.000000,4.000000,100.000000
1602005940.581269,22.000000,0.000000,4078.974365,4088.205078,4109.230957,4103.589844,4113.333496,4121.538574,4136.410156,4136.922852,4147.179688,4135.897461,4144.615234,4168.205078,4159.487305,4136.922852,0.000000,4.000000,,,,0.000000,4.000000,4.000000,4.000000,4.000000,4.000000,4.000000,4.000000,4.000000,4.000000,4.000000,4.000000,4.000000,4.000000,4.000000,100.000000
1602005940.589252,23.000000,0.000000,4090.769287,4097.948730,4122.051270,4108.717773,4126.153809,4126.153809,4136.922852,4141.538574,4149.743652,4137.436035,4155.897461,4171.794922,4177.436035,4144.615234,0.000000,4.000000,,,,0.000000,4.000000,4.000000,4.000000,4.000000,4.000000,4.000000,4.000000,4.000000,4.000000,4.000000,4.000000,4.000000,4.000000,4.000000,100.000000
1602005940.597134,24.000000,0.000000,4095.897461,4105.128418,4125.128418,4115.897461,4122.051270,4125.128418,4136.410156,4134.871582,4134.358887,4141.538574,4156.410156,4170.256348,4176.922852,4147.179688,0.000000,4.000000,,,,0.000000,4.000000,4.000000,4.000000,4.000000,4.000000,4.000000,4.000000,4.000000,4.000000,4.000000,4.000000,4.000000,4.000000,4.000000,100.000000
1602005940.605017,25.000000,0.000000,4100.000000,4107.692383,4121.025879,4120.512695,4120.512695,4120.000000,4134.358887,4125.641113,4119.487305,4144.102539,4152.820313,4166.153809,4173.846191,4140.512695,0.000000,4.000000,,,,0.000000,4.000000,4.000000,4.000000,4.000000,4.000000,4.000000,4.000000,4.000000,4.000000,4.000000,4.000000,4.000000,4.000000,4.000000,100.000000
1602005940.612899,26.000000,0.000000,4112.820313,4118.461426,4131.282227,4127.692383,4134.358887,4128.717773,4136.922852,4132.307617,4128.205078,4143.077148,4155.384766,4176.410156,4182.563965,4148.717773,0.000000,4.000000,,,,0.000000,4.000000,4.000000,4.000000,4.000000,4.000000,4.000000,4.000000,4.000000,4.000000,4.000000,4.000000,4.000000,4.000000,4.000000,100.000000
1602005940.620782,27.000000,0.000000,4109.230957,4124.615234,4142.051270,4131.282227,4138.974121,4144.102539,4140.000000,4142.051270,4140.000000,4141.538574,4156.922852,4186.153809,4181.025879,4152.820313,0.000000,4.000000,,,,0.000000,4.000000,4.000000,4.000000,4.000000,4.000000,4.000000,4.000000,4.000000,4.000000,4.000000,4.000000,4.000000,4.000000,4.000000,100.000000
1602005940.628665,28.000000,0.000000,4100.512695,4113.846191,4137.436035,4126.153809,4129.230957,4144.102539,4137.948730,4134.871582,4131.794922,4143.589844,4154.358887,4178.461426,4170.256348,4144.615234,0.000000,4.000000,,,,0.000000,4.000000,4.000000,4.000000,4.000000,4.000000,4.000000,4.000000,4.000000,4.000000,4.000000,4.000000,4.000000,4.000000,4.000000,100.000000
1602005940.636448,29.000000,0.000000,4107.179688,4106.153809,4133.846191,4121.025879,4123.589844,4132.820313,4137.436035,4124.102539,4119.487305,4141.538574,4152.820313,4168.205078,4169.230957,4151.282227,0.000000,4.000000,,,,0.000000,4.000000,4.000000,4.000000,4.000000,4.000000,4.000000,4.000000,4.000000,4.000000,4.000000,4.000000,4.000000,4.000000,4.000000,100.000000
1602005940.644331,30.000000,0.000000,4110.256348,4108.717773,4136.410156,4122.051270,4126.153809,4130.256348,4138.974121,4124.615234,4127.692383,4138.461426,4152.307617,4171.282227,4171.282227,4160.000000,0.000000,4.000000,,,,0.000000,4.000000,4.000000,4.000000,4.000000,4.000000,4.000000,4.000000,4.000000,4.000000,4.000000,4.000000,4.000000,4.000000,4.000000,100.000000
1602005940.652215,31.000000,0.000000,4105.641113,4116.410156,4140.000000,4124.615234,4126.153809,4132.820313,4138.974121,4127.692383,4142.051270,4143.077148,4153.846191,4177.948730,4171.794922,4154.358887,0.000000,4.000000,,,,0.000000,4.000000,4.000000,4.000000,4.000000,4.000000,4.000000,4.000000,4.000000,4.000000,4.000000,4.000000,4.000000,4.000000,4.000000,100.000000
1602005940.660098,32.000000,0.000000,4107.692383,4122.563965,4134.871582,4121.538574,4123.589844,4128.717773,4138.974121,4126.153809,4140.000000,4140.512695,4153.846191,4168.717773,4172.820313,4148.205078,0.000000,4.000000,,,,0.000000,4.000000,4.000000,4.000000,4.000000,4.000000,4.000000,4.000000,4.000000,4.000000,4.000000,4.000000,4.000000,4.000000,4.000000,100.000000
1602005940.667981,33.000000,0.000000,4107.692383,4115.897461,4122.051270,4115.384766,4123.589844,4121.025879,4132.820313,4128.205078,4131.794922,4136.922852,4143.589844,4153.333496,4169.743652,4144.102539,0.000000,4.000000,,,,0.000000,4.000000,4.000000,4.000000,4.000000,4.000000,4.000000,4.000000,4.000000,4.000000,4.000000,4.000000,4.000000,4.000000,4.000000,100.000000
1602005940.675865,34.000000,0.000000,4104.615234,4106.153809,4118.461426,4110.256348,4124.615234,4122.563965,4124.615234,4135.897461,4134.358887,4153.333496,4138.974121,4150.256348,4164.615234,4137.948730,0.000000,4.000000,,,,0.000000,4.000000,4.000000,4.000000,4.000000,4.000000,4.000000,4.000000,4.000000,4.000000,4.000000,4.000000,4.000000,4.000000,4.000000,100.000000
1602005940.683748,35.000000,0.000000,4108.717773,4110.256348,4125.641113,4110.769043,4125.641113,4134.871582,4128.205078,4139.487305,4140.000000,4161.538574,4148.717773,4157.948730,4159.487305,4136.410156,0.000000,4.000000,,,,0.000000,4.000000,4.000000,4.000000,4.000000,4.000000,4.000000,4.000000,4.000000,4.000000,4.000000,4.000000,4.000000,4.000000,4.000000,100.000000
1602005940.691731,36.000000,0.000000,4105.641113,4110.769043,4122.051270,4110.769043,4124.102539,4141.538574,4136.410156,4134.871582,4131.794922,4141.538574,4148.717773,4159.487305,4154.871582,4133.846191,0.000000,4.000000,,,,0.000000,4.000000,4.000000,4.000000,4.000000,4.000000,4.000000,4.000000,4.000000,4.000000,4.000000,4.000000,4.000000,4.000000,4.000000,100.000000
1602005940.699615,37.000000,0.000000,4096.410156,4109.230957,4115.384766,4113.846191,4126.153809,4138.974121,4137.436035,4134.871582,4131.794922,4134.871582,4142.051270,4156.410156,4152.307617,4134.871582,0.000000,4.000000,,,,0.000000,4.000000,4.000000,4.000000,4.000000,4.000000,4.000000,4.000000,4.000000,4.000000,4.000000,4.000000,4.000000,4.000000,4.000000,100.000000
1602005940.707498,38.000000,0.000000,4100.512695,4120.000000,4118.461426,4123.077148,4132.820313,4140.000000,4137.948730,4140.000000,4150.256348,4153.846191,4149.230957,4157.948730,4160.000000,4143.589844,0.000000,4.000000,,,,0.000000,4.000000,4.000000,4.000000,4.000000,4.000000,4.000000,4.000000,4.000000,4.000000,4.000000,4.000000,4.000000,4.000000,4.000000,100.000000
1602005940.715382,39.000000,0.000000,4107.692383,4125.641113,4116.410156,4124.102539,4136.410156,4148.205078,4140.512695,4140.512695,4157.948730,4163.589844,4155.897461,4152.307617,4171.282227,4143.077148,0.000000,4.000000,,,,0.000000,4.000000,4.000000,4.000000,4.000000,4.000000,4.000000,4.000000,4.000000,4.000000,4.000000,4.000000,4.000000,4.000000,4.000000,100.000000
1602005940.723265,40.000000,0.000000,4105.128418,4127.692383,4104.615234,4124.102539,4135.897461,4149.743652,4141.538574,4136.410156,4152.307617,4153.846191,4148.205078,4140.000000,4167.692383,4130.769043,0.000000,4.000000,,,,0.000000,4.000000,4.000000,4.000000,4.000000,4.000000,4.000000,4.000000,4.000000,4.000000,4.000000,4.000000,4.000000,4.000000,4.000000,100.000000
1602005940.731149,41.000000,0.000000,4103.589844,4137.948730,4104.615234,4132.307617,4136.410156,4141.538574,4140.000000,4136.922852,4155.384766,4141.025879,4138.974121,4133.846191,4157.948730,4132.307617,0.000000,4.000000,,,,0.000000,4.000000,4.000000,4.000000,4.000000,4.000000,4.000000,4.000000,4.000000,4.000000,4.000000,4.000000,4.000000,4.000000,4.000000,100.000000
1602005940.739033,42.000000,0.000000,4106.153809,4135.897461,4114.871582,4130.769043,4137.436035,4136.410156,4130.256348,4138.461426,4157.436035,4142.051270,4135.897461,4136.922852,4157.948730,4136.922852,0.000000,4.000000,,,,0.000000,4.000000,4.000000,4.000000,4.000000,4.000000,4.000000,4.000000,4.000000,4.000000,4.000000,4.000000,4.000000,4.000000,4.000000,100.000000
1602005940.746916,43.000000,0.000000,4105.128418,4125.641113,4123.589844,4124.615234,4140.512695,4140.512695,4120.512695,4137.436035,4157.436035,4166.153809,4137.948730,4145.641113,4157.948730,4127.692383,0.000000,4.000000,,,,0.000000,4.000000,4.000000,4.000000,4.000000,4.000000,4.000000,4.000000,4.000000,4.000000,4.000000,4.000000,4.000000,4.000000,4.000000,100.000000
1602005940.754699,44.000000,0.000000,4104.615234,4124.102539,4131.282227,4127.692383,4140.000000,4146.153809,4122.563965,4138.974121,4162.051270,4176.410156,4146.666504,4156.922852,4160.000000,4124.102539,0.000000,4.000000,,,,0.000000,4.000000,4.000000,4.000000,4.000000,4.000000,4.000000,4.000000,4.000000,4.000000,4.000000,4.000000,4.000000,4.000000,4.000000,100.000000
1602005940.762581,45.000000,0.000000,4105.128418,4118.974121,4136.410156,4125.128418,4127.179688,4134.871582,4124.102539,4137.948730,4147.692383,4142.051270,4152.307617,4167.692383,4164.102539,4134.871582,0.000000,4.000000,,,,0.000000,4.000000,4.000000,4.000000,4.000000,4.000000,4.000000,4.000000,4.000000,4.000000,4.000000,4.000000,4.000000,4.000000,4.000000,100.000000
1602005940.770463,46.000000,0.000000,4110.769043,4114.358887,4138.461426,4121.025879,4120.512695,4122.563965,4122.051270,4134.358887,4125.641113,4123.589844,4153.333496,4174.358887,4166.666504,4149.743652,0.000000,4.000000,,,,0.000000,4.000000,4.000000,4.000000,4.000000,4.000000,4.000000,4.000000,4.000000,4.000000,4.000000,4.000000,4.000000,4.000000,4.000000,100.000000
1602005940.778346,47.000000,0.000000,4120.512695,4116.410156,4140.512695,4125.641113,4123.589844,4127.692383,4130.769043,4137.436035,4129.743652,4152.820313,4161.025879,4177.948730,4172.820313,4161.025879,0.000000,4.000000,,,,0.000000,4.000000,4.000000,4.000000,4.000000,4.000000,4.000000,4.000000,4.000000,4.000000,4.000000,4.000000,4.000000,4.000000,4.000000,100.000000
1602005940.786228,48.000000,0.000000,4117.948730,4110.769043,4137.436035,4119.487305,4123.589844,4129.743652,4136.410156,4140.000000,4140.512695,4163.077148,4159.487305,4171.794922,4172.307617,4162.563965,0.000000,4.000000,,,,0.000000,4.000000,4.000000,4.000000,4.000000,4.000000,4.000000,4.000000,4.000000,4.000000,4.000000,4.000000,4.000000,4.000000,4.000000,100.000000
1602005940.794012,49.000000,0.000000,4107.179688,4102.563965,4124.615234,4105.641113,4122.051270,4116.922852,4131.282227,4136.922852,4137.436035,4138.461426,4144.615234,4161.025879,4159.487305,4149.743652,0.000000,4.000000,,,,0.000000,4.000000,4.000000,4.000000,4.000000,4.000000,4.000000,4.000000,4.000000,4.000000,4.000000,4.000000,4.000000,4.000000,4.000000,100.000000
1602005940.801896,50.000000,0.000000,4105.641113,4108.717773,4119.487305,4109.230957,4121.025879,4116.410156,4133.846191,4138.461426,4136.922852,4137.436035,4144.615234,4162.051270,4152.307617,4141.538574,0.000000,4.000000,,,,0.000000,4.000000,4.000000,4.000000,4.000000,4.000000,4.000000,4.000000,4.000000,4.000000,4.000000,4.000000,4.000000,4.000000,4.000000,100.000000
1602005940.809779,51.000000,0.000000,4110.769043,4118.974121,4131.282227,4121.025879,4122.563965,4132.820313,4138.461426,4142.563965,4142.051270,4160.000000,4153.333496,4170.256348,4155.384766,4145.128418,0.000000,4.000000,,,,0.000000,4.000000,4.000000,4.000000,4.000000,4.000000,4.000000,4.000000,4.000000,4.000000,4.000000,4.000000,4.000000,4.000000,4.000000,100.000000
1602005940.817663,52.000000,0.000000,4120.512695,4128.205078,4142.563965,4129.230957,4132.307617,4138.974121,4135.384766,4137.948730,4142.563965,4156.410156,4144.615234,4170.769043,4153.333496,4142.051270,0.000000,4.000000,,,,0.000000,4.000000,4.000000,4.000000,4.000000,4.000000,4.000000,4.000000,4.000000,4.000000,4.000000,4.000000,4.000000,4.000000,4.000000,100.000000
1602005940.825547,53.000000,0.000000,4130.769043,4136.410156,4146.666504,4136.410156,4141.025879,4136.410156,4135.897461,4135.384766,4141.538574,4144.102539,4135.897461,4164.102539,4152.307617,4137.948730,0.000000,4.000000,,,,0.000000,4.000000,4.000000,4.000000,4.000000,4.000000,4.000000,4.000000,4.000000,4.000000,4.000000,4.000000,4.000000,4.000000,4.000000,100.000000
1602005940.833431,54.000000,0.000000,4130.256348,4140.512695,4140.512695,4140.512695,4140.000000,4134.871582,4134.358887,4138.974121,4140.512695,4150.256348,4141.538574,4157.436035,4158.461426,4146.666504,0.000000,4.000000,,,,0.000000,4.000000,4.000000,4.000000,4.000000,4.000000,4.000000,4.000000,4.000000,4.000000,4.000000,4.000000,4.000000,4.000000,4.000000,100.000000
1602005940.841315,55.000000,0.000000,4121.025879,4139.487305,4128.717773,4135.897461,4140.000000,4130.256348,4122.563965,4135.384766,4141.538574,4156.922852,4147.692383,4148.205078,4162.563965,4153.333496,0.000000,4.000000,,,,0.000000,4.000000,4.000000,4.000000,4.000000,4.000000,4.000000,4.000000,4.000000,4.000000,4.000000,4.000000,4.000000,4.000000,4.000000,100.000000
1602005940.849198,56.000000,0.000000,4112.307617,4133.333496,4121.025879,4128.717773,4140.000000,4123.077148,4117.436035,4123.589844,4141.025879,4156.922852,4140.512695,4138.974121,4157.948730,4148.205078,0.000000,4.000000,,,,0.000000,4.000000,4.000000,4.000000,4.000000,4.000000,4.000000,4.000000,4.000000,4.000000,4.000000,4.000000,4.000000,4.000000,4.000000,100.000000
1602005940.857082,57.000000,0.000000,4106.666504,4131.282227,4119.487305,4127.692383,4137.948730,4126.153809,4123.077148,4121.025879,4129.230957,4150.256348,4129.230957,4137.436035,4152.307617,4141.025879,0.000000,4.000000,,,,0.000000,4.000000,4.000000,4.000000,4.000000,4.000000,4.000000,4.000000,4.000000,4.000000,4.000000,4.000000,4.000000,4.000000,4.000000,100.000000
1602005940.864865,58.000000,0.000000,4106.153809,4133.846191,4120.512695,4130.769043,4138.974121,4138.461426,4128.205078,4123.077148,4122.051270,4130.256348,4131.282227,4136.410156,4154.358887,4131.794922,0.000000,4.000000,,,,0.000000,4.000000,4.000000,4.000000,4.000000,4.000000,4.000000,4.000000,4.000000,4.000000,4.000000,4.000000,4.000000,4.000000,4.000000,100.000000
1602005940.872747,59.000000,0.000000,4109.230957,4133.846191,4118.974121,4130.769043,4140.000000,4140.512695,4133.846191,4121.025879,4130.769043,4119.487305,4141.025879,4133.333496,4152.820313,4121.025879,0.000000,4.000000,,,,0.000000,4.000000,4.000000,4.000000,4.000000,4.000000,4.000000,4.000000,4.000000,4.000000,4.000000,4.000000,4.000000,4.000000,4.000000,100.000000
1602005940.880630,60.000000,0.000000,4102.563965,4133.333496,4113.333496,4124.615234,4136.410156,4136.410156,4138.461426,4125.128418,4135.897461,4122.563965,4138.974121,4128.717773,4143.077148,4117.948730,0.000000,4.000000,,,,0.000000,4.000000,4.000000,4.000000,4.000000,4.000000,4.000000,4.000000,4.000000,4.000000,4.000000,4.000000,4.000000,4.000000,4.000000,100.000000
1602005940.888513,61.000000,0.000000,4094.358887,4135.897461,4106.666504,4123.077148,4131.794922,4139.487305,4140.000000,4137.436035,4139.487305,4124.615234,4134.358887,4134.358887,4144.102539,4124.615234,0.000000,4.000000,,,,0.000000,4.000000,4.000000,4.000000,4.000000,4.000000,4.000000,4.000000,4.000000,4.000000,4.000000,4.000000,4.000000,4.000000,4.000000,100.000000
1602005940.896395,62.000000,0.000000,4102.051270,4135.897461,4113.333496,4127.692383,4130.256348,4141.538574,4143.077148,4144.615234,4150.769043,4141.025879,4140.000000,4148.205078,4156.922852,4135.897461,0.000000,4.000000,,,,0.000000,4.000000,4.000000,4.000000,4.000000,4.000000,4.000000,4.000000,4.000000,4.000000,4.000000,4.000000,4.000000,4.000000,4.000000,100.000000
1602005940.904278,63.000000,0.000000,4100.512695,4126.666504,4120.512695,4124.102539,4135.384766,4131.282227,4139.487305,4142.051270,4147.692383,4157.436035,4141.538574,4147.179688,4151.794922,4139.487305,0.000000,4.000000,,,,0.000000,4.000000,4.000000,4.000000,4.000000,4.000000,4.000000,4.000000,4.000000,4.000000,4.000000,4.000000,4.000000,4.000000,4.000000,100.000000
1602005940.912062,64.000000,0.000000,4084.102539,4118.974121,4115.384766,4117.436035,4140.512695,4127.179688,4125.128418,4133.333496,4132.307617,4145.641113,4134.358887,4138.461426,4135.897461,4132.307617,798.000000,4.000000,,,,0.000000,4.000000,4.000000,4.000000,4.000000,4.000000,4.000000,4.000000,4.000000,4.000000,4.000000,4.000000,4.000000,4.000000,4.000000,100.000000
1602005940.919945,65.000000,0.000000,4089.230713,4122.563965,4114.358887,4121.538574,4141.025879,4135.897461,4117.436035,4126.153809,4134.871582,4139.487305,4133.846191,4147.692383,4144.102539,4132.820313,792.000000,4.000000,,,,0.000000,4.000000,4.000000,4.000000,4.000000,4.000000,4.000000,4.000000,4.000000,4.000000,4.000000,4.000000,4.000000,4.000000,4.000000,100.000000
1602005940.927829,66.000000,0.000000,4107.179688,4125.641113,4124.615234,4125.128418,4142.563965,4139.487305,4118.974121,4125.641113,4141.538574,4144.615234,4137.948730,4160.512695,4157.436035,4146.153809,844.000000,4.000000,,,,0.000000,4.000000,4.000000,4.000000,4.000000,4.000000,4.000000,4.000000,4.000000,4.000000,4.000000,4.000000,4.000000,4.000000,4.000000,100.000000
1602005940.935712,67.000000,0.000000,4107.179688,4115.384766,4133.846191,4120.512695,4140.000000,4135.384766,4120.000000,4128.717773,4133.846191,4132.820313,4139.487305,4163.077148,4152.820313,4155.384766,871.000000,4.000000,,,,0.000000,4.000000,4.000000,4.000000,4.000000,4.000000,4.000000,4.000000,4.000000,4.000000,4.000000,4.000000,4.000000,4.000000,4.000000,100.000000
1602005940.943596,68.000000,0.000000,4108.717773,4108.205078,4145.641113,4120.000000,4128.205078,4131.282227,4124.615234,4133.846191,4140.512695,4136.922852,4144.102539,4173.846191,4150.256348,4156.922852,814.000000,4.000000,,,,0.000000,4.000000,4.000000,4.000000,4.000000,4.000000,4.000000,4.000000,4.000000,4.000000,4.000000,4.000000,4.000000,4.000000,4.000000,100.000000
1602005940.951479,69.000000,0.000000,4122.051270,4113.333496,4165.128418,4125.128418,4114.871582,4129.743652,4134.871582,4147.179688,4158.461426,4163.077148,4154.871582,4189.230957,4156.410156,4157.948730,826.000000,4.000000,,,,0.000000,4.000000,4.000000,4.000000,4.000000,4.000000,4.000000,4.000000,4.000000,4.000000,4.000000,4.000000,4.000000,4.000000,4.000000,100.000000
1602005940.959363,70.000000,0.000000,4126.153809,4112.820313,4172.307617,4124.102539,4110.256348,4132.820313,4147.692383,4155.897461,4152.307617,4153.846191,4157.436035,4188.205078,4150.256348,4158.461426,784.000000,4.000000,,,,0.000000,4.000000,4.000000,4.000000,4.000000,4.000000,4.000000,4.000000,4.000000,4.000000,4.000000,4.000000,4.000000,4.000000,4.000000,100.000000
1602005940.967246,71.000000,0.000000,4123.589844,4106.666504,4160.000000,4118.974121,4113.333496,4138.461426,4155.897461,4148.717773,4136.410156,4124.102539,4145.128418,4174.871582,4137.948730,4160.000000,686.000000,4.000000,,,,0.000000,4.000000,4.000000,4.000000,4.000000,4.000000,4.000000,4.000000,4.000000,4.000000,4.000000,4.000000,4.000000,4.000000,4.000000,100.000000
1602005940.975230,72.000000,0.000000,4124.102539,4107.692383,4147.692383,4117.436035,4120.512695,4138.974121,4150.256348,4138.461426,4137.436035,4129.230957,4135.897461,4157.436035,4135.897461,4159.487305,786.000000,4.000000,,,,0.000000,4.000000,4.000000,4.000000,4.000000,4.000000,4.000000,4.000000,4.000000,4.000000,4.000000,4.000000,4.000000,4.000000,4.000000,100.000000
1602005940.983114,73.000000,0.000000,4122.051270,4112.307617,4140.512695,4117.436035,4126.666504,4135.897461,4137.948730,4134.358887,4140.000000,4148.205078,4128.205078,4143.589844,4136.922852,4151.282227,850.000000,4.000000,,,,0.000000,4.000000,4.000000,4.000000,4.000000,4.000000,4.000000,4.000000,4.000000,4.000000,4.000000,4.000000,4.000000,4.000000,4.000000,100.000000
1602005940.990998,74.000000,0.000000,4120.000000,4116.410156,4136.410156,4120.000000,4132.307617,4134.871582,4132.820313,4135.384766,4134.871582,4136.922852,4123.077148,4138.974121,4137.436035,4143.589844,874.000000,4.000000,,,,0.000000,4.000000,4.000000,4.000000,4.000000,4.000000,4.000000,4.000000,4.000000,4.000000,4.000000,4.000000,4.000000,4.000000,4.000000,100.000000
1602005940.998881,75.000000,0.000000,4124.102539,4123.589844,4135.384766,4126.153809,4138.461426,4136.410156,4130.256348,4135.384766,4137.948730,4126.666504,4130.769043,4137.948730,4139.487305,4147.179688,837.000000,4.000000,,,,0.000000,4.000000,4.000000,4.000000,4.000000,4.000000,4.000000,4.000000,4.000000,4.000000,4.000000,4.000000,4.000000,4.000000,4.000000,100.000000
1602005941.006765,76.000000,0.000000,4128.717773,4128.717773,4133.846191,4129.743652,4144.615234,4142.563965,4127.179688,4136.922852,4142.563965,4145.641113,4144.102539,4138.461426,4142.051270,4157.948730,773.000000,4.000000,,,,0.000000,4.000000,4.000000,4.000000,4.000000,4.000000,4.000000,4.000000,4.000000,4.000000,4.000000,4.000000,4.000000,4.000000,4.000000,100.000000
1602005941.014649,77.000000,0.000000,4127.692383,4125.641113,4130.256348,4126.153809,4142.563965,4143.077148,4127.179688,4139.487305,4145.128418,4153.846191,4146.153809,4138.461426,4143.077148,4157.436035,754.000000,4.000000,,,,0.000000,4.000000,4.000000,4.000000,4.000000,4.000000,4.000000,4.000000,4.000000,4.000000,4.000000,4.000000,4.000000,4.000000,4.000000,100.000000
1602005941.022533,78.000000,0.000000,4121.025879,4121.538574,4128.205078,4123.077148,4132.307617,4139.487305,4123.589844,4140.000000,4152.820313,4142.563965,4140.512695,4137.436035,4141.025879,4147.692383,874.000000,4.000000,,,,0.000000,4.000000,4.000000,4.000000,4.000000,4.000000,4.000000,4.000000,4.000000,4.000000,4.000000,4.000000,4.000000,4.000000,4.000000,100.000000
1602005941.030417,79.000000,0.000000,4113.846191,4116.410156,4120.000000,4121.538574,4123.589844,4137.948730,4122.563965,4140.000000,4150.256348,4142.051270,4139.487305,4136.410156,4137.436035,4141.025879,837.000000,4.000000,,,,0.000000,4.000000,4.000000,4.000000,4.000000,4.000000,4.000000,4.000000,4.000000,4.000000,4.000000,4.000000,4.000000,4.000000,4.000000,100.000000
1602005941.038300,80.000000,0.000000,4110.769043,4109.743652,4111.794922,4120.512695,4123.077148,4133.846191,4128.717773,4138.974121,4139.487305,4143.077148,4140.000000,4135.897461,4139.487305,4136.922852,773.000000,4.000000,,,,0.000000,4.000000,4.000000,4.000000,4.000000,4.000000,4.000000,4.000000,4.000000,4.000000,4.000000,4.000000,4.000000,4.000000,4.000000,100.000000
1602005941.046083,81.000000,0.000000,4114.871582,4111.282227,4115.897461,4122.051270,4126.153809,4127.692383,4128.717773,4132.307617,4137.436035,4144.615234,4137.436035,4134.871582,4138.461426,4133.333496,754.000000,4.000000,,,,0.000000,4.000000,4.000000,4.000000,4.000000,4.000000,4.000000,4.000000,4.000000,4.000000,4.000000,4.000000,4.000000,4.000000,4.000000,100.000000
1602005941.053967,82.000000,0.000000,4122.563965,4120.000000,4122.563965,4124.102539,4126.153809,4122.051270,4123.077148,4124.615234,4134.871582,4150.256348,4134.358887,4140.000000,4134.871582,4142.051270,874.000000,4.000000,,,,0.000000,4.000000,4.000000,4.000000,4.000000,4.000000,4.000000,4.000000,4.000000,4.000000,4.000000,4.000000,4.000000,4.000000,4.000000,100.000000
1602005941.061850,83.000000,0.000000,4121.538574,4125.641113,4123.589844,4126.153809,4131.282227,4120.512695,4124.615234,4125.641113,4126.153809,4138.461426,4138.461426,4153.846191,4146.153809,4155.897461,837.000000,4.000000,,,,0.000000,4.000000,4.000000,4.000000,4.000000,4.000000,4.000000,4.000000,4.000000,4.000000,4.000000,4.000000,4.000000,4.000000,4.000000,100.000000
1602005941.069733,84.000000,0.000000,4114.358887,4123.077148,4124.102539,4126.153809,4136.922852,4120.512695,4128.717773,4132.820313,4124.615234,4122.051270,4143.589844,4156.922852,4152.307617,4151.282227,773.000000,4.000000,,,,0.000000,4.000000,4.000000,4.000000,4.000000,4.000000,4.000000,4.000000,4.000000,4.000000,4.000000,4.000000,4.000000,4.000000,4.000000,100.000000
1602005941.077616,85.000000,0.000000,4109.230957,4120.512695,4123.589844,4122.563965,4134.871582,4118.461426,4125.128418,4135.384766,4128.205078,4125.641113,4138.461426,4140.000000,4138.974121,4135.384766,754.000000,4.000000,,,,0.000000,4.000000,4.000000,4.000000,4.000000,4.000000,4.000000,4.000000,4.000000,4.000000,4.000000,4.000000,4.000000,4.000000,4.000000,100.000000
1602005941.085499,86.000000,0.000000,4110.256348,4128.205078,4127.692383,4126.666504,4140.000000,4124.615234,4123.077148,4136.410156,4135.897461,4140.000000,4136.410156,4136.922852,4138.461426,4140.000000,874.000000,4.000000,,,,0.000000,4.000000,4.000000,4.000000,4.000000,4.000000,4.000000,4.000000,4.000000,4.000000,4.000000,4.000000,4.000000,4.000000,4.000000,100.000000
1602005941.093382,87.000000,0.000000,4117.948730,4137.948730,4136.410156,4138.461426,4155.384766,4136.410156,4126.153809,4138.974121,4148.205078,4160.512695,4148.205078,4151.794922,4157.948730,4158.461426,837.000000,4.000000,,,,0.000000,4.000000,4.000000,4.000000,4.000000,4.000000,4.000000,4.000000,4.000000,4.000000,4.000000,4.000000,4.000000,4.000000,4.000000,100.000000
1602005941.101364,88.000000,0.000000,4129.743652,4141.538574,4141.025879,4140.512695,4155.384766,4144.102539,4127.179688,4139.487305,4151.794922,4175.384766,4156.922852,4156.410156,4163.589844,4169.743652,773.000000,4.000000,,,,0.000000,4.000000,4.000000,4.000000,4.000000,4.000000,4.000000,4.000000,4.000000,4.000000,4.000000,4.000000,4.000000,4.000000,4.000000,100.000000
1602005941.109246,89.000000,0.000000,4136.922852,4136.922852,4146.666504,4134.358887,4140.000000,4138.461426,4125.641113,4133.846191,4137.436035,4159.487305,4156.922852,4152.820313,4157.436035,4169.743652,754.000000,4.000000,,,,0.000000,4.000000,4.000000,4.000000,4.000000,4.000000,4.000000,4.000000,4.000000,4.000000,4.000000,4.000000,4.000000,4.000000,4.000000,100.000000
1602005941.117127,90.000000,0.000000,4136.922852,4129.230957,4153.333496,4130.256348,4134.871582,4129.230957,4126.666504,4126.153809,4125.128418,4142.563965,4152.820313,4155.897461,4157.436035,4168.205078,874.000000,4.000000,,,,0.000000,4.000000,4.000000,4.000000,4.000000,4.000000,4.000000,4.000000,4.000000,4.000000,4.000000,4.000000,4.000000,4.000000,4.000000,100.000000
1602005941.125109,91.000000,0.000000,4134.871582,4126.666504,4146.153809,4127.179688,4138.974121,4131.282227,4128.717773,4122.563965,4128.717773,4136.410156,4146.666504,4156.922852,4156.410156,4172.820313,837.000000,4.000000,,,,0.000000,4.000000,4.000000,4.000000,4.000000,4.000000,4.000000,4.000000,4.000000,4.000000,4.000000,4.000000,4.000000,4.000000,4.000000,100.000000
1602005941.132990,92.000000,0.000000,4135.384766,4129.230957,4135.897461,4123.589844,4133.333496,4135.384766,4127.179688,4126.666504,4137.436035,4124.615234,4147.692383,4158.461426,4154.358887,4167.692383,773.000000,4.000000,,,,0.000000,4.000000,4.000000,4.000000,4.000000,4.000000,4.000000,4.000000,4.000000,4.000000,4.000000,4.000000,4.000000,4.000000,4.000000,100.000000
1602005941.140871,93.000000,0.000000,4136.410156,4130.256348,4144.102539,4124.102539,4124.615234,4127.692383,4128.717773,4133.846191,4137.948730,4135.384766,4154.358887,4164.102539,4155.384766,4152.820313,754.000000,4.000000,,,,0.000000,4.000000,4.000000,4.000000,4.000000,4.000000,4.000000,4.000000,4.000000,4.000000,4.000000,4.000000,4.000000,4.000000,4.000000,100.000000
1602005941.148655,94.000000,0.000000,4134.871582,4125.128418,4152.820313,4125.128418,4123.077148,4120.000000,4135.384766,4137.436035,4137.436035,4162.563965,4149.230957,4157.948730,4152.307617,4157.948730,874.000000,4.000000,,,,0.000000,4.000000,4.000000,4.000000,4.000000,4.000000,4.000000,4.000000,4.000000,4.000000,4.000000,4.000000,4.000000,4.000000,4.000000,100.000000
1602005941.156539,95.000000,0.000000,4135.384766,4119.487305,4150.256348,4121.538574,4120.000000,4122.563965,4136.410156,4141.025879,4140.000000,4163.077148,4140.512695,4149.743652,4149.743652,4171.794922,837.000000,4.000000,,,,0.000000,4.000000,4.000000,4.000000,4.000000,4.000000,4.000000,4.000000,4.000000,4.000000,4.000000,4.000000,4.000000,4.000000,4.000000,100.000000
1602005941.164423,96.000000,0.000000,4141.538574,4126.666504,4151.794922,4128.205078,4114.358887,4124.102539,4132.307617,4144.102539,4141.025879,4154.871582,4150.256348,4158.974121,4153.333496,4171.794922,773.000000,4.000000,,,,0.000000,4.000000,4.000000,4.000000,4.000000,4.000000,4.000000,4.000000,4.000000,4.000000,4.000000,4.000000,4.000000,4.000000,4.000000,100.000000
1602005941.172307,97.000000,0.000000,4145.128418,4134.871582,4153.333496,4136.410156,4122.051270,4122.051270,4130.769043,4141.025879,4139.487305,4152.820313,4160.512695,4166.666504,4157.948730,4171.282227,754.000000,4.000000,,,,0.000000,4.000000,4.000000,4.000000,4.000000,4.000000,4.000000,4.000000,4.000000,4.000000,4.000000,4.000000,4.000000,4.000000,4.000000,100.000000
1602005941.180190,98.000000,0.000000,4138.974121,4131.282227,4141.025879,4131.794922,4132.820313,4123.077148,4129.743652,4136.410156,4136.922852,4134.358887,4149.230957,4156.410156,4155.897461,4171.282227,874.000000,4.000000,,,,0.000000,4.000000,4.000000,4.000000,4.000000,4.000000,4.000000,4.000000,4.000000,4.000000,4.000000,4.000000,4.000000,4.000000,4.000000,100.000000
1602005941.188074,99.000000,0.000000,4134.871582,4130.256348,4127.179688,4130.256348,4134.358887,4128.717773,4132.820313,4135.897461,4136.410156,4121.538574,4135.384766,4144.615234,4147.692383,4160.512695,837.000000,4.000000,,,,0.000000,4.000000,4.000000,4.000000,4.000000,4.000000,4.000000,4.000000,4.000000,4.000000,4.000000,4.000000,4.000000,4.000000,4.000000,100.000000
1602005941.195958,100.000000,0.000000,4134.358887,4138.974121,4125.641113,4133.846191,4138.461426,4141.025879,4139.487305,4134.871582,4141.538574,4140.512695,4137.436035,4141.025879,4143.589844,4149.743652,773.000000,4.000000,,,,0.000000,4.000000,4.000000,4.000000,4.000000,4.000000,4.000000,4.000000,4.000000,4.000000,4.000000,4.000000,4.000000,4.000000,4.000000,100.000000
1602005941.203842,101.000000,0.000000,4131.282227,4138.461426,4123.077148,4124.615234,4140.512695,4140.512695,4134.358887,4124.615234,4142.051270,4153.846191,4138.461426,4134.358887,4139.487305,4141.025879,754.000000,4.000000,,,,0.000000,4.000000,4.000000,4.000000,4.000000,4.000000,4.000000,4.000000,4.000000,4.000000,4.000000,4.000000,4.000000,4.000000,4.000000,100.000000
1602005941.211726,102.000000,0.000000,4130.769043,4133.333496,4124.102539,4120.512695,4135.384766,4131.282227,4127.179688,4121.538574,4135.384766,4144.102539,4132.307617,4131.794922,4135.384766,4145.641113,874.000000,4.000000,,,,0.000000,4.000000,4.000000,4.000000,4.000000,4.000000,4.000000,4.000000,4.000000,4.000000,4.000000,4.000000,4.000000,4.000000,4.000000,100.000000
1602005941.219507,103.000000,0.000000,4137.436035,4139.487305,4141.025879,4136.922852,4137.436035,4132.820313,4135.384766,4135.384766,4142.563965,4146.666504,4138.461426,4144.102539,4142.563965,4168.717773,837.000000,4.000000,,,,0.000000,4.000000,4.000000,4.000000,4.000000,4.000000,4.000000,4.000000,4.000000,4.000000,4.000000,4.000000,4.000000,4.000000,4.000000,100.000000
1602005941.227388,104.000000,0.000000,4147.692383,4146.153809,4156.410156,4144.615234,4137.948730,4132.820313,4139.487305,4142.563965,4152.820313,4155.897461,4147.179688,4155.384766,4155.897461,4170.256348,773.000000,4.000000,,,,0.000000,4.000000,4.000000,4.000000,4.000000,4.000000,4.000000,4.000000,4.000000,4.000000,4.000000,4.000000,4.000000,4.000000,4.000000,100.000000
1602005941.235372,105.000000,0.000000,4151.794922,4144.615234,4153.333496,4140.000000,4133.333496,4121.538574,4129.743652,4137.436035,4145.128418,4145.128418,4144.102539,4154.358887,4157.948730,4151.794922,754.000000,4.000000,,,,0.000000,4.000000,4.000000,4.000000,4.000000,4.000000,4.000000,4.000000,4.000000,4.000000,4.000000,4.000000,4.000000,4.000000,4.000000,100.000000
1602005941.243255,106.000000,0.000000,4143.589844,4141.538574,4144.102539,4138.461426,4131.282227,4116.410156,4127.692383,4135.897461,4136.922852,4133.846191,4142.563965,4150.256348,4152.820313,4158.974121,874.000000,4.000000,,,,0.000000,4.000000,4.000000,4.000000,4.000000,4.000000,4.000000,4.000000,4.000000,4.000000,4.000000,4.000000,4.000000,4.000000,4.000000,100.000000
1602005941.251138,107.000000,0.000000,4136.922852,4135.384766,4137.948730,4136.410156,4125.641113,4120.000000,4134.358887,4132.307617,4134.871582,4137.436035,4141.025879,4151.282227,4152.307617,4175.384766,837.000000,4.000000,,,,0.000000,4.000000,4.000000,4.000000,4.000000,4.000000,4.000000,4.000000,4.000000,4.000000,4.000000,4.000000,4.000000,4.000000,4.000000,100.000000
1602005941.259022,108.000000,0.000000,4138.974121,4128.717773,4137.948730,4132.820313,4122.051270,4123.077148,4133.333496,4126.153809,4127.179688,4141.025879,4138.974121,4152.820313,4148.205078,4163.077148,773.000000,4.000000,,,,0.000000,4.000000,4.000000,4.000000,4.000000,4.000000,4.000000,4.000000,4.000000,4.000000,4.000000,4.000000,4.000000,4.000000,4.000000,100.000000
1602005941.266905,109.000000,0.000000,4135.384766,4124.102539,4148.205078,4129.230957,4131.282227,4124.102539,4127.179688,4124.102539,4121.538574,4135.384766,4141.538574,4154.358887,4140.000000,4146.666504,754.000000,4.000000,,,,0.000000,4.000000,4.000000,4.000000,4.000000,4.000000,4.000000,4.000000,4.000000,4.000000,4.000000,4.000000,4.000000,4.000000,4.000000,100.000000
1602005941.274788,110.000000,0.000000,4128.205078,4123.077148,4151.282227,4124.615234,4133.333496,4124.615234,4123.589844,4123.077148,4128.717773,4135.384766,4139.487305,4154.871582,4136.922852,4155.384766,874.000000,4.000000,,,,0.000000,4.000000,4.000000,4.000000,4.000000,4.000000,4.000000,4.000000,4.000000,4.000000,4.000000,4.000000,4.000000,4.000000,4.000000,100.000000
1602005941.282672,111.000000,0.000000,4129.743652,4124.102539,4142.563965,4122.051270,4126.666504,4122.051270,4122.563965,4128.717773,4139.487305,4135.897461,4134.358887,4156.410156,4137.948730,4170.769043,837.000000,4.000000,,,,0.000000,4.000000,4.000000,4.000000,4.000000,4.000000,4.000000,4.000000,4.000000,4.000000,4.000000,4.000000,4.000000,4.000000,4.000000,100.000000
1602005941.290555,112.000000,0.000000,4130.769043,4130.256348,4140.512695,4125.128418,4132.820313,4121.025879,4123.589844,4136.410156,4143.589844,4134.358887,4141.538574,4161.538574,4141.538574,4168.717773,773.000000,4.000000,,,,0.000000,4.000000,4.000000,4.000000,4.000000,4.000000,4.000000,4.000000,4.000000,4.000000,4.000000,4.000000,4.000000,4.000000,4.000000,100.000000
1602005941.298336,113.000000,0.000000,4127.692383,4135.384766,4140.000000,4125.128418,4136.922852,4120.512695,4125.128418,4130.769043,4142.051270,4142.563965,4144.615234,4157.948730,4142.563965,4155.897461,754.000000,4.000000,,,,0.000000,4.000000,4.000000,4.000000,4.000000,4.000000,4.000000,4.000000,4.000000,4.000000,4.000000,4.000000,4.000000,4.000000,4.000000,100.000000
1602005941.306217,114.000000,0.000000,4128.717773,4134.871582,4131.794922,4125.128418,4130.256348,4118.974121,4125.128418,4122.051270,4140.512695,4149.230957,4130.256348,4152.820313,4140.512695,4153.333496,874.000000,4.000000,,,,0.000000,4.000000,4.000000,4.000000,4.000000,4.000000,4.000000,4.000000,4.000000,4.000000,4.000000,4.000000,4.000000,4.000000,4.000000,100.000000
1602005941.314001,115.000000,0.000000,4128.205078,4135.384766,4131.282227,4131.282227,4128.205078,4115.384766,4125.128418,4123.077148,4135.897461,4140.512695,4124.615234,4154.871582,4137.948730,4155.897461,837.000000,4.000000,,,,0.000000,4.000000,4.000000,4.000000,4.000000,4.000000,4.000000,4.000000,4.000000,4.000000,4.000000,4.000000,4.000000,4.000000,4.000000,100.000000
1602005941.321884,116.000000,0.000000,4124.102539,4136.922852,4135.384766,4133.333496,4126.153809,4113.333496,4124.102539,4124.615234,4124.102539,4128.205078,4134.358887,4151.282227,4137.948730,4148.717773,773.000000,4.000000,,,,0.000000,4.000000,4.000000,4.000000,4.000000,4.000000,4.000000,4.000000,4.000000,4.000000,4.000000,4.000000,4.000000,4.000000,4.000000,100.000000
1602005941.329768,117.000000,0.000000,4121.538574,4136.410156,4131.282227,4132.307617,4128.205078,4116.922852,4125.641113,4123.077148,4120.512695,4123.589844,4141.025879,4146.153809,4140.512695,4143.077148,754.000000,4.000000,,,,0.000000,4.000000,4.000000,4.000000,4.000000,4.000000,4.000000,4.000000,4.000000,4.000000,4.000000,4.000000,4.000000,4.000000,4.000000,100.000000
1602005941.337652,118.000000,0.000000,4121.025879,4130.256348,4125.641113,4130.256348,4136.922852,4121.025879,4124.102539,4123.077148,4124.615234,4121.025879,4140.000000,4147.692383,4138.461426,4145.128418,874.000000,4.000000,,,,0.000000,4.000000,4.000000,4.000000,4.000000,4.000000,4.000000,4.000000,4.000000,4.000000,4.000000,4.000000,4.000000,4.000000,4.000000,100.000000
1602005941.345535,119.000000,0.000000,4120.512695,4123.589844,4123.589844,4126.666504,4135.897461,4121.025879,4118.461426,4127.692383,4124.102539,4128.717773,4132.820313,4143.589844,4129.743652,4141.025879,837.000000,4.000000,,,,0.000000,4.000000,4.000000,4.000000,4.000000,4.000000,4.000000,4.000000,4.000000,4.000000,4.000000,4.000000,4.000000,4.000000,4.000000,100.000000
1602005941.353419,120.000000,0.000000,4120.512695,4129.743652,4125.641113,4125.128418,4125.641113,4120.512695,4121.025879,4135.384766,4129.230957,4141.025879,4126.666504,4136.922852,4130.256348,4137.948730,773.000000,4.000000,,,,0.000000,4.000000,4.000000,4.000000,4.000000,4.000000,4.000000,4.000000,4.000000,4.000000,4.000000,4.000000,4.000000,4.000000,4.000000,100.000000
1602005941.361302,121.000000,0.000000,4123.589844,4135.897461,4130.256348,4125.641113,4123.589844,4125.128418,4133.846191,4142.051270,4142.563965,4140.000000,4125.128418,4140.000000,4140.000000,4144.102539,754.000000,4.000000,,,,0.000000,4.000000,4.000000,4.000000,4.000000,4.000000,4.000000,4.000000,4.000000,4.000000,4.000000,4.000000,4.000000,4.000000,4.000000,100.000000
1602005941.369186,122.000000,0.000000,4127.179688,4127.692383,4128.717773,4122.051270,4126.153809,4128.717773,4141.025879,4143.589844,4142.051270,4136.410156,4123.589844,4144.102539,4137.436035,4142.563965,874.000000,4.000000,,,,0.000000,4.000000,4.000000,4.000000,4.000000,4.000000,4.000000,4.000000,4.000000,4.000000,4.000000,4.000000,4.000000,4.000000,4.000000,100.000000
1602005941.377169,123.000000,0.000000,4126.153809,4115.897461,4121.538574,4117.436035,4124.102539,4126.153809,4140.000000,4141.025879,4127.179688,4123.077148,4113.846191,4141.025879,4123.077148,4129.743652,837.000000,4.000000,,,,0.000000,4.000000,4.000000,4.000000,4.000000,4.000000,4.000000,4.000000,4.000000,4.000000,4.000000,4.000000,4.000000,4.000000,4.000000,100.000000
1602005941.385052,124.000000,0.000000,4116.410156,4114.358887,4122.563965,4119.487305,4123.077148,4123.077148,4136.922852,4138.974121,4121.025879,4107.179688,4107.692383,4137.436035,4114.871582,4122.051270,773.000000,4.000000,,,,0.000000,4.000000,4.000000,4.000000,4.000000,4.000000,4.000000,4.000000,4.000000,4.000000,4.000000,4.000000,4.000000,4.000000,4.000000,100.000000
1602005941.392936,125.000000,0.000000,4112.307617,4120.000000,4131.794922,4122.563965,4125.641113,4126.153809,4129.743652,4134.871582,4120.000000,4110.769043,4111.282227,4137.436035,4113.333496,4123.077148,754.000000,4.000000,,,,0.000000,4.000000,4.000000,4.000000,4.000000,4.000000,4.000000,4.000000,4.000000,4.000000,4.000000,4.000000,4.000000,4.000000,4.000000,100.000000
1602005941.400819,126.000000,0.000000,4115.384766,4119.487305,4133.846191,4121.538574,4124.102539,4119.487305,4117.436035,4123.077148,4107.179688,4109.743652,4110.256348,4138.461426,4107.692383,4117.948730,874.000000,4.000000,,,,0.000000,4.000000,4.000000,4.000000,4.000000,4.000000,4.000000,4.000000,4.000000,4.000000,4.000000,4.000000,4.000000,4.000000,4.000000,100.000000
1602005941.408702,127.000000,0.000000,4118.461426,4116.922852,4134.871582,4121.025879,4118.461426,4104.102539,4111.282227,4119.487305,4100.512695,4100.000000,4114.358887,4144.615234,4111.794922,4115.897461,837.000000,4.000000,,,,0.000000,4.000000,4.000000,4.000000,4.000000,4.000000,4.000000,4.000000,4.000000,4.000000,4.000000,4.000000,4.000000,4.000000,4.000000,100.000000
1602005941.416585,128.000000,0.000000,4133.333496,4130.769043,4150.256348,4130.256348,4123.077148,4108.717773,4115.897461,4137.948730,4124.615234,4123.589844,4133.333496,4164.615234,4138.461426,4138.461426,773.000000,4.000000,,,,0.000000,4.000000,4.000000,4.000000,4.000000,4.000000,4.000000,4.000000,4.000000,4.000000,4.000000,4.000000,4.000000,4.000000,4.000000,100.000000
1602005941.424469,0.000000,0.000000,4157.948730,4150.769043,4162.563965,4142.563965,4130.256348,4123.589844,4121.025879,4150.769043,4144.102539,4153.333496,4148.205078,4180.512695,4160.512695,4161.538574,798.000000,4.000000,,,,0.000000,4.000000,4.000000,4.000000,4.000000,4.000000,4.000000,4.000000,4.000000,4.000000,4.000000,4.000000,4.000000,4.000000,4.000000,100.000000
1602005941.432352,1.000000,0.000000,4156.922852,4146.666504,4155.897461,4141.025879,4122.563965,4123.077148,4119.487305,4142.051270,4130.256348,4135.384766,4141.025879,4176.410156,4150.769043,4157.436035,792.000000,4.000000,,,,0.000000,4.000000,4.000000,4.000000,4.000000,4.000000,4.000000,4.000000,4.000000,4.000000,4.000000,4.000000,4.000000,4.000000,4.000000,100.000000
1602005941.440136,2.000000,0.000000,4138.974121,4136.922852,4149.743652,4136.410156,4125.128418,4113.333496,4118.974121,4137.948730,4122.563965,4116.922852,4128.205078,4177.436035,4137.948730,4149.230957,846.000000,4.000000,,,,0.000000,4.000000,4.000000,4.000000,4.000000,4.000000,4.000000,4.000000,4.000000,4.000000,4.000000,4.000000,4.000000,4.000000,4.000000,100.000000
1602005941.448019,3.000000,0.000000,4146.666504,4143.589844,4156.922852,4141.025879,4135.897461,4115.384766,4130.769043,4151.282227,4138.461426,4140.512695,4131.282227,4191.282227,4147.179688,4154.358887,871.000000,4.000000,,,,0.000000,4.000000,4.000000,4.000000,4.000000,4.000000,4.000000,4.000000,4.000000,4.000000,4.000000,4.000000,4.000000,4.000000,4.000000,100.000000
1602005941.455903,4.000000,0.000000,4159.487305,4145.128418,4156.410156,4143.589844,4131.794922,4121.025879,4142.051270,4159.487305,4149.743652,4162.563965,4144.102539,4193.846191,4155.384766,4159.487305,814.000000,4.000000,,,,0.000000,4.000000,4.000000,4.000000,4.000000,4.000000,4.000000,4.000000,4.000000,4.000000,4.000000,4.000000,4.000000,4.000000,4.000000,100.000000
1602005941.463786,5.000000,0.000000,4150.256348,4137.436035,4143.589844,4134.871582,4128.717773,4123.077148,4142.563965,4154.358887,4150.769043,4159.487305,4146.153809,4184.102539,4151.794922,4150.256348,826.000000,4.000000,,,,0.000000,4.000000,4.000000,4.000000,4.000000,4.000000,4.000000,4.000000,4.000000,4.000000,4.000000,4.000000,4.000000,4.000000,4.000000,100.000000
1602005941.471670,6.000000,0.000000,4145.128418,4133.333496,4137.436035,4130.256348,4138.461426,4130.769043,4148.205078,4153.333496,4153.333496,4149.230957,4138.461426,4185.128418,4150.769043,4139.487305,779.000000,4.000000,,,,0.000000,4.000000,4.000000,4.000000,4.000000,4.000000,4.000000,4.000000,4.000000,4.000000,4.000000,4.000000,4.000000,4.000000,4.000000,100.000000
1602005941.479554,7.000000,0.000000,4148.205078,4130.769043,4141.025879,4130.769043,4142.563965,4141.025879,4152.820313,4152.820313,4146.153809,4135.384766,4138.974121,4188.717773,4154.358887,4148.205078,686.000000,4.000000,,,,0.000000,4.000000,4.000000,4.000000,4.000000,4.000000,4.000000,4.000000,4.000000,4.000000,4.000000,4.000000,4.000000,4.000000,4.000000,100.000000
1602005941.487437,8.000000,0.000000,4141.025879,4123.077148,4142.051270,4128.205078,4134.871582,4143.077148,4138.461426,4141.025879,4130.769043,4115.897461,4140.000000,4177.948730,4147.692383,4164.615234,786.000000,4.000000,,,,0.000000,4.000000,4.000000,4.000000,4.000000,4.000000,4.000000,4.000000,4.000000,4.000000,4.000000,4.000000,4.000000,4.000000,4.000000,100.000000
1602005941.495321,9.000000,0.000000,4128.205078,4118.974121,4138.974121,4123.077148,4128.717773,4135.897461,4120.000000,4128.205078,4120.512695,4106.153809,4128.205078,4160.512695,4130.769043,4153.846191,846.000000,4.000000,,,,0.000000,4.000000,4.000000,4.000000,4.000000,4.000000,4.000000,4.000000,4.000000,4.000000,4.000000,4.000000,4.000000,4.000000,4.000000,100.000000
1602005941.503203,10.000000,0.000000,4123.077148,4118.974121,4131.794922,4121.538574,4126.153809,4127.692383,4111.794922,4123.589844,4115.897461,4111.794922,4117.436035,4151.282227,4124.102539,4134.358887,874.000000,4.000000,,,,0.000000,4.000000,4.000000,4.000000,4.000000,4.000000,4.000000,4.000000,4.000000,4.000000,4.000000,4.000000,4.000000,4.000000,4.000000,100.000000
1602005941.511086,11.000000,0.000000,4123.589844,4121.538574,4124.102539,4128.205078,4128.717773,4124.615234,4106.666504,4125.128418,4116.922852,4128.717773,4120.512695,4153.333496,4135.384766,4144.615234,837.000000,4.000000,,,,0.000000,4.000000,4.000000,4.000000,4.000000,4.000000,4.000000,4.000000,4.000000,4.000000,4.000000,4.000000,4.000000,4.000000,4.000000,100.000000
1602005941.518968,12.000000,0.000000,4129.230957,4129.230957,4129.230957,4139.487305,4128.717773,4120.512695,4109.230957,4130.256348,4127.692383,4146.153809,4134.358887,4158.461426,4149.743652,4154.358887,773.000000,4.000000,,,,0.000000,4.000000,4.000000,4.000000,4.000000,4.000000,4.000000,4.000000,4.000000,4.000000,4.000000,4.000000,4.000000,4.000000,4.000000,100.000000
1602005941.526851,13.000000,0.000000,4135.384766,4135.897461,4136.922852,4140.512695,4125.128418,4106.666504,4119.487305,4142.051270,4136.410156,4146.153809,4149.230957,4162.051270,4153.333496,4142.563965,754.000000,4.000000,,,,0.000000,4.000000,4.000000,4.000000,4.000000,4.000000,4.000000,4.000000,4.000000,4.000000,4.000000,4.000000,4.000000,4.000000,4.000000,100.000000
1602005941.534734,14.000000,0.000000,4142.563965,4142.051270,4135.384766,4138.461426,4127.692383,4093.846191,4121.538574,4153.333496,4137.948730,4136.922852,4155.897461,4164.615234,4157.948730,4142.563965,874.000000,4.000000,,,,0.000000,4.000000,4.000000,4.000000,4.000000,4.000000,4.000000,4.000000,4.000000,4.000000,4.000000,4.000000,4.000000,4.000000,4.000000,100.000000
1602005941.542715,15.000000,0.000000,4151.794922,4152.820313,4144.102539,4149.230957,4136.922852,4099.487305,4123.589844,4161.025879,4147.692383,4136.410156,4158.461426,4172.820313,4169.230957,4158.974121,837.000000,4.000000,,,,0.000000,4.000000,4.000000,4.000000,4.000000,4.000000,4.000000,4.000000,4.000000,4.000000,4.000000,4.000000,4.000000,4.000000,4.000000,100.000000
1602005941.550597,16.000000,0.000000,4157.948730,4156.922852,4158.974121,4154.358887,4136.922852,4108.205078,4130.769043,4162.563965,4161.025879,4142.563965,4157.436035,4174.871582,4172.307617,4157.948730,0.000000,4.000000,,,,0.000000,4.000000,4.000000,4.000000,4.000000,4.000000,4.000000,4.000000,4.000000,4.000000,4.000000,4.000000,4.000000,4.000000,4.000000,100.000000
1602005941.558479,17.000000,0.000000,4157.436035,4147.179688,4153.846191,4143.589844,4124.102539,4112.820313,4132.820313,4153.333496,4161.025879,4141.025879,4147.692383,4161.538574,4158.461426,4147.692383,0.000000,4.000000,,,,0.000000,4.000000,4.000000,4.000000,4.000000,4.000000,4.000000,4.000000,4.000000,4.000000,4.000000,4.000000,4.000000,4.000000,4.000000,100.000000
1602005941.566361,18.000000,0.000000,4142.563965,4137.436035,4136.922852,4133.333496,4124.615234,4128.205078,4134.871582,4141.538574,4151.794922,4134.871582,4125.641113,4146.153809,4137.436035,4140.512695,0.000000,4.000000,,,,0.000000,4.000000,4.000000,4.000000,4.000000,4.000000,4.000000,4.000000,4.000000,4.000000,4.000000,4.000000,4.000000,4.000000,4.000000,100.000000
1602005941.574143,19.000000,0.000000,4116.922852,4126.153809,4121.538574,4123.589844,4136.922852,4142.563965,4134.358887,4134.871582,4140.512695,4135.897461,4108.205078,4130.256348,4116.922852,4115.897461,0.000000,4.000000,,,,0.000000,4.000000,4.000000,4.000000,4.000000,4.000000,4.000000,4.000000,4.000000,4.000000,4.000000,4.000000,4.000000,4.000000,4.000000,100.000000
1602005941.582024,20.000000,0.000000,4102.051270,4108.717773,4106.666504,4114.871582,4131.794922,4141.538574,4130.769043,4129.743652,4127.179688,4133.333496,4104.615234,4116.410156,4100.000000,4091.281982,0.000000,4.000000,,,,0.000000,4.000000,4.000000,4.000000,4.000000,4.000000,4.000000,4.000000,4.000000,4.000000,4.000000,4.000000,4.000000,4.000000,4.000000,100.000000
1602005941.589805,21.000000,0.000000,4106.153809,4105.641113,4107.179688,4114.871582,4122.051270,4137.436035,4130.256348,4128.205078,4114.358887,4106.666504,4105.128418,4123.077148,4097.948730,4090.769287,0.000000,4.000000,,,,0.000000,4.000000,4.000000,4.000000,4.000000,4.000000,4.000000,4.000000,4.000000,4.000000,4.000000,4.000000,4.000000,4.000000,4.000000,100.000000
1602005941.597586,22.000000,0.000000,4115.384766,4117.948730,4124.102539,4122.051270,4129.230957,4133.846191,4129.230957,4133.846191,4109.230957,4078.461426,4109.743652,4145.641113,4104.615234,4105.641113,0.000000,4.000000,,,,0.000000,4.000000,4.000000,4.000000,4.000000,4.000000,4.000000,4.000000,4.000000,4.000000,4.000000,4.000000,4.000000,4.000000,4.000000,100.000000
1602005941.605569,23.000000,0.000000,4125.128418,4127.692383,4135.897461,4128.717773,4138.974121,4121.538574,4124.102539,4137.436035,4111.282227,4092.820557,4126.153809,4160.000000,4114.871582,4125.641113,0.000000,4.000000,,,,0.000000,4.000000,4.000000,4.000000,4.000000,4.000000,4.000000,4.000000,4.000000,4.000000,4.000000,4.000000,4.000000,4.000000,4.000000,100.000000
1602005941.613452,24.000000,0.000000,4140.000000,4135.897461,4147.692383,4135.897461,4136.922852,4108.205078,4121.538574,4138.974121,4122.051270,4128.205078,4143.589844,4171.794922,4134.871582,4149.743652,0.000000,4.000000,,,,0.000000,4.000000,4.000000,4.000000,4.000000,4.000000,4.000000,4.000000,4.000000,4.000000,4.000000,4.000000,4.000000,4.000000,4.000000,100.000000
1602005941.621335,25.000000,0.000000,4154.358887,4148.717773,4168.205078,4146.666504,4134.871582,4104.102539,4121.538574,4147.179688,4134.871582,4139.487305,4142.563965,4187.179688,4153.846191,4166.153809,0.000000,4.000000,,,,0.000000,4.000000,4.000000,4.000000,4.000000,4.000000,4.000000,4.000000,4.000000,4.000000,4.000000,4.000000,4.000000,4.000000,4.000000,100.000000
1602005941.629217,26.000000,0.000000,4161.025879,4154.358887,4180.000000,4153.333496,4136.922852,4104.102539,4118.974121,4147.692383,4141.025879,4135.897461,4138.461426,4192.307617,4158.461426,4164.615234,0.000000,4.000000,,,,0.000000,4.000000,4.000000,4.000000,4.000000,4.000000,4.000000,4.000000,4.000000,4.000000,4.000000,4.000000,4.000000,4.000000,4.000000,100.000000
1602005941.637100,27.000000,0.000000,4158.974121,4145.641113,4172.307617,4145.128418,4134.871582,4111.794922,4123.589844,4141.538574,4139.487305,4136.922852,4143.077148,4184.615234,4150.769043,4158.974121,0.000000,4.000000,,,,0.000000,4.000000,4.000000,4.000000,4.000000,4.000000,4.000000,4.000000,4.000000,4.000000,4.000000,4.000000,4.000000,4.000000,4.000000,100.000000
1602005941.644983,28.000000,0.000000,4155.897461,4134.871582,4158.974121,4131.282227,4121.538574,4128.205078,4131.794922,4145.641113,4141.025879,4141.025879,4143.589844,4171.282227,4142.051270,4157.948730,0.000000,4.000000,,,,0.000000,4.000000,4.000000,4.000000,4.000000,4.000000,4.000000,4.000000,4.000000,4.000000,4.000000,4.000000,4.000000,4.000000,4.000000,100.000000
1602005941.652766,29.000000,0.000000,4150.769043,4131.282227,4148.205078,4128.717773,4113.846191,4138.974121,4137.948730,4155.384766,4146.666504,4151.282227,4140.512695,4161.025879,4139.487305,4161.025879,0.000000,4.000000,,,,0.000000,4.000000,4.000000,4.000000,4.000000,4.000000,4.000000,4.000000,4.000000,4.000000,4.000000,4.000000,4.000000,4.000000,4.000000,100.000000
1602005941.660649,30.000000,0.000000,4144.615234,4128.205078,4141.025879,4133.333496,4127.692383,4141.025879,4143.077148,4154.871582,4145.128418,4162.563965,4138.461426,4158.974121,4141.025879,4158.461426,0.000000,4.000000,,,,0.000000,4.000000,4.000000,4.000000,4.000000,4.000000,4.000000,4.000000,4.000000,4.000000,4.000000,4.000000,4.000000,4.000000,4.000000,100.000000
1602005941.668532,31.000000,0.000000,4141.538574,4122.051270,4135.384766,4128.717773,4139.487305,4140.512695,4142.051270,4145.128418,4134.358887,4146.153809,4139.487305,4155.384766,4140.000000,4149.743652,0.000000,4.000000,,,,0.000000,4.000000,4.000000,4.000000,4.000000,4.000000,4.000000,4.000000,4.000000,4.000000,4.000000,4.000000,4.000000,4.000000,4.000000,100.000000
1602005941.676415,32.000000,0.000000,4136.922852,4120.512695,4126.666504,4124.102539,4135.384766,4138.974121,4136.922852,4138.974121,4127.179688,4117.948730,4138.974121,4143.077148,4132.820313,4141.025879,0.000000,4.000000,,,,0.000000,4.000000,4.000000,4.000000,4.000000,4.000000,4.000000,4.000000,4.000000,4.000000,4.000000,4.000000,4.000000,4.000000,4.000000,100.000000
1602005941.684297,33.000000,0.000000,4124.102539,4121.538574,4114.358887,4125.128418,4135.897461,4135.897461,4128.205078,4132.307617,4119.487305,4115.384766,4126.153809,4127.692383,4127.179688,4126.666504,0.000000,4.000000,,,,0.000000,4.000000,4.000000,4.000000,4.000000,4.000000,4.000000,4.000000,4.000000,4.000000,4.000000,4.000000,4.000000,4.000000,4.000000,100.000000
1602005941.692180,34.000000,0.000000,4109.743652,4120.512695,4104.102539,4130.256348,4141.025879,4122.563965,4117.436035,4122.563965,4103.589844,4103.077148,4108.717773,4116.922852,4120.512695,4107.179688,0.000000,4.000000,,,,0.000000,4.000000,4.000000,4.000000,4.000000,4.000000,4.000000,4.000000,4.000000,4.000000,4.000000,4.000000,4.000000,4.000000,4.000000,100.000000
1602005941.700164,35.000000,0.000000,4109.230957,4126.666504,4104.615234,4135.384766,4139.487305,4107.179688,4113.333496,4121.538574,4094.358887,4075.897461,4111.794922,4121.538574,4116.922852,4102.051270,0.000000,4.000000,,,,0.000000,4.000000,4.000000,4.000000,4.000000,4.000000,4.000000,4.000000,4.000000,4.000000,4.000000,4.000000,4.000000,4.000000,4.000000,100.000000
1602005941.708048,36.000000,0.000000,4120.512695,4138.461426,4115.897461,4138.974121,4138.461426,4106.153809,4118.461426,4131.282227,4111.282227,4098.974121,4131.794922,4136.922852,4129.230957,4117.436035,0.000000,4.000000,,,,0.000000,4.000000,4.000000,4.000000,4.000000,4.000000,4.000000,4.000000,4.000000,4.000000,4.000000,4.000000,4.000000,4.000000,4.000000,100.000000
1602005941.715931,37.000000,0.000000,4129.743652,4141.538574,4122.051270,4140.512695,4134.871582,4109.743652,4127.692383,4143.589844,4136.410156,4153.333496,4141.538574,4144.615234,4142.563965,4129.743652,0.000000,4.000000,,,,0.000000,4.000000,4.000000,4.000000,4.000000,4.000000,4.000000,4.000000,4.000000,4.000000,4.000000,4.000000,4.000000,4.000000,4.000000,100.000000
1602005941.723815,38.000000,0.000000,4134.358887,4137.948730,4120.512695,4140.512695,4125.641113,4108.205078,4135.897461,4152.307617,4142.563965,4162.051270,4139.487305,4143.589844,4141.538574,4125.641113,0.000000,4.000000,,,,0.000000,4.000000,4.000000,4.000000,4.000000,4.000000,4.000000,4.000000,4.000000,4.000000,4.000000,4.000000,4.000000,4.000000,4.000000,100.000000
1602005941.731699,39.000000,0.000000,4138.461426,4137.948730,4127.179688,4139.487305,4118.974121,4114.871582,4142.051270,4156.922852,4138.974121,4141.025879,4134.358887,4144.615234,4135.384766,4121.538574,0.000000,4.000000,,,,0.000000,4.000000,4.000000,4.000000,4.000000,4.000000,4.000000,4.000000,4.000000,4.000000,4.000000,4.000000,4.000000,4.000000,4.000000,100.000000
1602005941.739583,40.000000,0.000000,4138.974121,4138.974121,4138.461426,4137.948730,4118.461426,4129.743652,4145.128418,4154.358887,4138.461426,4132.820313,4127.692383,4144.615234,4131.282227,4129.230957,0.000000,4.000000,,,,0.000000,4.000000,4.000000,4.000000,4.000000,4.000000,4.000000,4.000000,4.000000,4.000000,4.000000,4.000000,4.000000,4.000000,4.000000,100.000000
1602005941.747467,41.000000,0.000000,4140.000000,4140.000000,4141.025879,4137.948730,4127.179688,4137.948730,4143.589844,4151.282227,4136.922852,4116.410156,4122.563965,4140.000000,4126.666504,4136.410156,0.000000,4.000000,,,,0.000000,4.000000,4.000000,4.000000,4.000000,4.000000,4.000000,4.000000,4.000000,4.000000,4.000000,4.000000,4.000000,4.000000,4.000000,100.000000
1602005941.755350,42.000000,0.000000,4142.051270,4140.000000,4137.948730,4138.974121,4139.487305,4136.922852,4132.307617,4141.025879,4128.205078,4104.102539,4120.512695,4137.436035,4124.615234,4136.410156,0.000000,4.000000,,,,0.000000,4.000000,4.000000,4.000000,4.000000,4.000000,4.000000,4.000000,4.000000,4.000000,4.000000,4.000000,4.000000,4.000000,4.000000,100.000000
1602005941.763234,43.000000,0.000000,4141.025879,4138.461426,4140.512695,4138.974121,4139.487305,4126.153809,4114.358887,4124.102539,4112.307617,4114.358887,4122.051270,4135.384766,4122.563965,4134.358887,0.000000,4.000000,,,,0.000000,4.000000,4.000000,4.000000,4.000000,4.000000,4.000000,4.000000,4.000000,4.000000,4.000000,4.000000,4.000000,4.000000,4.000000,100.000000
1602005941.771117,44.000000,0.000000,4148.717773,4144.102539,4150.769043,4138.974121,4135.897461,4118.974121,4109.230957,4120.000000,4104.102539,4120.000000,4127.692383,4146.153809,4127.179688,4142.051270,0.000000,4.000000,,,,0.000000,4.000000,4.000000,4.000000,4.000000,4.000000,4.000000,4.000000,4.000000,4.000000,4.000000,4.000000,4.000000,4.000000,4.000000,100.000000
1602005941.778999,45.000000,0.000000,4167.692383,4156.410156,4166.153809,4146.666504,4138.461426,4129.230957,4117.436035,4133.333496,4113.333496,4125.128418,4141.538574,4175.384766,4146.153809,4159.487305,0.000000,4.000000,,,,0.000000,4.000000,4.000000,4.000000,4.000000,4.000000,4.000000,4.000000,4.000000,4.000000,4.000000,4.000000,4.000000,4.000000,4.000000,100.000000
1602005941.786881,46.000000,0.000000,4174.871582,4155.384766,4169.230957,4151.794922,4133.333496,4141.025879,4130.769043,4148.205078,4131.794922,4147.179688,4152.307617,4192.820313,4156.410156,4173.333496,0.000000,4.000000,,,,0.000000,4.000000,4.000000,4.000000,4.000000,4.000000,4.000000,4.000000,4.000000,4.000000,4.000000,4.000000,4.000000,4.000000,4.000000,100.000000
1602005941.794764,47.000000,0.000000,4164.615234,4143.077148,4158.974121,4143.589844,4125.641113,4142.563965,4148.205078,4156.410156,4135.897461,4148.717773,4145.128418,4180.000000,4144.615234,4170.769043,0.000000,4.000000,,,,0.000000,4.000000,4.000000,4.000000,4.000000,4.000000,4.000000,4.000000,4.000000,4.000000,4.000000,4.000000,4.000000,4.000000,4.000000,100.000000
1602005941.802646,48.000000,0.000000,4155.384766,4137.436035,4156.410156,4137.436035,4125.128418,4137.436035,4155.384766,4158.974121,4127.692383,4113.846191,4128.205078,4161.025879,4129.230957,4155.384766,0.000000,4.000000,,,,0.000000,4.000000,4.000000,4.000000,4.000000,4.000000,4.000000,4.000000,4.000000,4.000000,4.000000,4.000000,4.000000,4.000000,4.000000,100.000000
1602005941.810630,49.000000,0.000000,4155.384766,4137.948730,4160.000000,4139.487305,4124.615234,4130.256348,4144.615234,4155.897461,4126.666504,4097.948730,4120.512695,4155.384766,4121.538574,4144.615234,0.000000,4.000000,,,,0.000000,4.000000,4.000000,4.000000,4.000000,4.000000,4.000000,4.000000,4.000000,4.000000,4.000000,4.000000,4.000000,4.000000,4.000000,100.000000
1602005941.818513,50.000000,0.000000,4158.461426,4140.000000,4157.948730,4144.102539,4125.128418,4126.666504,4132.307617,4155.384766,4137.436035,4125.641113,4125.128418,4152.820313,4124.615234,4147.179688,0.000000,4.000000,,,,0.000000,4.000000,4.000000,4.000000,4.000000,4.000000,4.000000,4.000000,4.000000,4.000000,4.000000,4.000000,4.000000,4.000000,4.000000,100.000000
1602005941.826397,51.000000,0.000000,4157.436035,4142.563965,4150.256348,4146.153809,4134.871582,4123.077148,4124.615234,4155.897461,4143.077148,4148.205078,4135.384766,4148.717773,4133.333496,4154.871582,0.000000,4.000000,,,,0.000000,4.000000,4.000000,4.000000,4.000000,4.000000,4.000000,4.000000,4.000000,4.000000,4.000000,4.000000,4.000000,4.000000,4.000000,100.000000
1602005941.834281,52.000000,0.000000,4156.410156,4142.563965,4143.077148,4145.128418,4146.666504,4122.563965,4117.436035,4146.666504,4134.871582,4149.743652,4140.512695,4149.743652,4139.487305,4153.333496,0.000000,4.000000,,,,0.000000,4.000000,4.000000,4.000000,4.000000,4.000000,4.000000,4.000000,4.000000,4.000000,4.000000,4.000000,4.000000,4.000000,4.000000,100.000000
1602005941.842165,53.000000,0.000000,4163.589844,4147.692383,4144.615234,4147.179688,4148.205078,4132.307617,4118.461426,4138.461426,4127.179688,4148.205078,4138.974121,4156.922852,4143.077148,4152.307617,0.000000,4.000000,,,,0.000000,4.000000,4.000000,4.000000,4.000000,4.000000,4.000000,4.000000,4.000000,4.000000,4.000000,4.000000,4.000000,4.000000,4.000000,100.000000
