Timestamp,EEG.Counter,EEG.Interpolated,EEG.AF3,EEG.F7,EEG.F3,EEG.FC5,EEG.T7,EEG.P7,EEG.O1,EEG.O2,EEG.P8,EEG.T8,EEG.FC6,EEG.F4,EEG.F8,EEG.AF4,EEG.RawCq,EEG.Battery,MarkerIndex,MarkerType,MarkerValueInt,EEG.MarkerHardware,CQ.AF3,CQ.F7,CQ.F3,CQ.FC5,CQ.T7,CQ.P7,CQ.O1,CQ.O2,CQ.P8,CQ.T8,CQ.FC6,CQ.F4,CQ.F8,CQ.AF4,CQ.Overall
1602005976.342184,45.000000,0.000000,4143.077148,4123.077148,4130.769043,4122.051270,4120.000000,4145.641113,4148.205078,4146.153809,4147.179688,4121.538574,4125.641113,4156.410156,4121.538574,4128.717773,0.000000,4.000000,,,,0.000000,4.000000,4.000000,4.000000,4.000000,4.000000,4.000000,4.000000,4.000000,4.000000,4.000000,4.000000,4.000000,4.000000,4.000000,100.000000
1602005976.350167,46.000000,0.000000,4142.051270,4121.025879,4126.153809,4122.051270,4119.487305,4145.128418,4147.179688,4148.205078,4152.307617,4109.743652,4122.563965,4153.846191,4121.025879,4127.692383,0.000000,4.000000,,,,0.000000,4.000000,4.000000,4.000000,4.000000,4.000000,4.000000,4.000000,4.000000,4.000000,4.000000,4.000000,4.000000,4.000000,4.000000,100.000000
1602005976.358051,47.000000,0.000000,4136.410156,4116.922852,4118.461426,4119.487305,4121.538574,4133.846191,4138.461426,4140.000000,4135.897461,4094.358887,4126.153809,4141.025879,4121.538574,4135.384766,0.000000,4.000000,,,,0.000000,4.000000,4.000000,4.000000,4.000000,4.000000,4.000000,4.000000,4.000000,4.000000,4.000000,4.000000,4.000000,4.000000,4.000000,100.000000
1602005976.365934,48.000000,0.000000,4138.461426,4124.102539,4123.077148,4123.589844,4123.077148,4132.820313,4136.410156,4133.846191,4121.538574,4099.487305,4141.538574,4144.102539,4127.692383,4136.922852,0.000000,4.000000,,,,0.000000,4.000000,4.000000,4.000000,4.000000,4.000000,4.000000,4.000000,4.000000,4.000000,4.000000,4.000000,4.000000,4.000000,4.000000,100.000000
1602005976.373817,49.000000,0.000000,4141.025879,4128.717773,4128.717773,4127.179688,4121.538574,4140.000000,4131.282227,4129.230957,4127.179688,4123.077148,4143.077148,4152.307617,4128.717773,4125.128418,0.000000,4.000000,,,,0.000000,4.000000,4.000000,4.000000,4.000000,4.000000,4.000000,4.000000,4.000000,4.000000,4.000000,4.000000,4.000000,4.000000,4.000000,100.000000
1602005976.381701,50.000000,0.000000,4134.358887,4123.077148,4124.615234,4124.102539,4120.512695,4139.487305,4122.051270,4120.000000,4127.179688,4130.769043,4127.179688,4141.538574,4120.512695,4118.974121,0.000000,4.000000,,,,0.000000,4.000000,4.000000,4.000000,4.000000,4.000000,4.000000,4.000000,4.000000,4.000000,4.000000,4.000000,4.000000,4.000000,4.000000,100.000000
1602005976.389584,51.000000,0.000000,4133.846191,4122.051270,4120.000000,4124.615234,4122.563965,4137.436035,4127.179688,4123.077148,4120.512695,4121.538574,4116.410156,4130.769043,4121.025879,4122.563965,0.000000,4.000000,,,,0.000000,4.000000,4.000000,4.000000,4.000000,4.000000,4.000000,4.000000,4.000000,4.000000,4.000000,4.000000,4.000000,4.000000,4.000000,100.000000
1602005976.397467,52.000000,0.000000,4139.487305,4127.179688,4121.538574,4128.717773,4123.589844,4137.948730,4137.436035,4136.922852,4126.666504,4109.230957,4128.205078,4136.410156,4127.179688,4122.563965,0.000000,4.000000,,,,0.000000,4.000000,4.000000,4.000000,4.000000,4.000000,4.000000,4.000000,4.000000,4.000000,4.000000,4.000000,4.000000,4.000000,4.000000,100.000000
1602005976.405350,53.000000,0.000000,4141.025879,4127.179688,4128.205078,4127.179688,4121.025879,4138.461426,4134.871582,4133.333496,4130.256348,4091.281982,4136.922852,4142.563965,4122.563965,4120.000000,0.000000,4.000000,,,,0.000000,4.000000,4.000000,4.000000,4.000000,4.000000,4.000000,4.000000,4.000000,4.000000,4.000000,4.000000,4.000000,4.000000,4.000000,100.000000
1602005976.413234,54.000000,0.000000,4141.025879,4123.589844,4136.410156,4125.128418,4118.461426,4132.307617,4127.179688,4123.589844,4125.128418,4092.307617,4119.487305,4142.563965,4116.922852,4121.025879,0.000000,4.000000,,,,0.000000,4.000000,4.000000,4.000000,4.000000,4.000000,4.000000,4.000000,4.000000,4.000000,4.000000,4.000000,4.000000,4.000000,4.000000,100.000000
1602005976.421217,55.000000,0.000000,4140.000000,4123.077148,4139.487305,4124.615234,4113.846191,4120.512695,4123.077148,4126.153809,4125.128418,4111.794922,4112.307617,4146.666504,4119.487305,4122.563965,0.000000,4.000000,,,,0.000000,4.000000,4.000000,4.000000,4.000000,4.000000,4.000000,4.000000,4.000000,4.000000,4.000000,4.000000,4.000000,4.000000,4.000000,100.000000
1602005976.429101,56.000000,0.000000,4141.025879,4124.615234,4137.948730,4124.615234,4112.307617,4116.922852,4127.179688,4131.282227,4127.692383,4110.256348,4130.769043,4149.743652,4123.077148,4121.025879,0.000000,4.000000,,,,0.000000,4.000000,4.000000,4.000000,4.000000,4.000000,4.000000,4.000000,4.000000,4.000000,4.000000,4.000000,4.000000,4.000000,4.000000,100.000000
1602005976.436984,57.000000,0.000000,4147.692383,4130.256348,4140.000000,4129.743652,4119.487305,4120.512695,4133.846191,4131.282227,4126.153809,4107.692383,4145.128418,4153.333496,4130.256348,4126.153809,0.000000,4.000000,,,,0.000000,4.000000,4.000000,4.000000,4.000000,4.000000,4.000000,4.000000,4.000000,4.000000,4.000000,4.000000,4.000000,4.000000,4.000000,100.000000
1602005976.444868,58.000000,0.000000,4152.307617,4137.436035,4141.538574,4136.922852,4126.153809,4118.974121,4133.846191,4131.282227,4125.128418,4127.692383,4147.692383,4162.563965,4141.025879,4135.897461,0.000000,4.000000,,,,0.000000,4.000000,4.000000,4.000000,4.000000,4.000000,4.000000,4.000000,4.000000,4.000000,4.000000,4.000000,4.000000,4.000000,4.000000,100.000000
1602005976.452751,59.000000,0.000000,4153.846191,4138.461426,4139.487305,4138.974121,4129.230957,4121.538574,4133.846191,4133.846191,4129.743652,4134.358887,4145.641113,4169.230957,4143.077148,4142.563965,0.000000,4.000000,,,,0.000000,4.000000,4.000000,4.000000,4.000000,4.000000,4.000000,4.000000,4.000000,4.000000,4.000000,4.000000,4.000000,4.000000,4.000000,100.000000
1602005976.460635,60.000000,0.000000,4150.769043,4136.922852,4140.000000,4137.948730,4134.871582,4135.897461,4139.487305,4138.974121,4138.461426,4115.384766,4144.615234,4164.102539,4139.487305,4138.974121,0.000000,4.000000,,,,0.000000,4.000000,4.000000,4.000000,4.000000,4.000000,4.000000,4.000000,4.000000,4.000000,4.000000,4.000000,4.000000,4.000000,4.000000,100.000000
1602005976.468519,61.000000,0.000000,4141.025879,4140.512695,4138.974121,4140.512695,4140.000000,4144.102539,4142.051270,4139.487305,4141.025879,4105.641113,4144.615234,4154.871582,4140.000000,4127.179688,0.000000,4.000000,,,,0.000000,4.000000,4.000000,4.000000,4.000000,4.000000,4.000000,4.000000,4.000000,4.000000,4.000000,4.000000,4.000000,4.000000,4.000000,100.000000
1602005976.476402,62.000000,0.000000,4135.897461,4136.410156,4129.743652,4138.461426,4134.358887,4143.077148,4138.461426,4131.282227,4137.948730,4115.897461,4141.538574,4154.358887,4135.384766,4120.000000,0.000000,4.000000,,,,0.000000,4.000000,4.000000,4.000000,4.000000,4.000000,4.000000,4.000000,4.000000,4.000000,4.000000,4.000000,4.000000,4.000000,4.000000,100.000000
1602005976.484286,63.000000,0.000000,4135.897461,4127.692383,4122.051270,4129.743652,4127.179688,4136.922852,4134.358887,4127.692383,4140.000000,4126.666504,4137.436035,4154.358887,4123.589844,4113.846191,0.000000,4.000000,,,,0.000000,4.000000,4.000000,4.000000,4.000000,4.000000,4.000000,4.000000,4.000000,4.000000,4.000000,4.000000,4.000000,4.000000,4.000000,100.000000
1602005976.492169,64.000000,0.000000,4137.948730,4131.794922,4129.230957,4128.717773,4130.769043,4126.666504,4132.820313,4128.717773,4140.512695,4126.153809,4131.282227,4149.743652,4118.974121,4104.102539,796.000000,4.000000,,,,0.000000,4.000000,4.000000,4.000000,4.000000,4.000000,4.000000,4.000000,4.000000,4.000000,4.000000,4.000000,4.000000,4.000000,4.000000,100.000000
1602005976.499952,65.000000,0.000000,4147.179688,4142.051270,4140.512695,4137.436035,4135.897461,4129.230957,4134.358887,4126.153809,4136.922852,4114.871582,4127.179688,4150.256348,4126.666504,4117.436035,796.000000,4.000000,,,,0.000000,4.000000,4.000000,4.000000,4.000000,4.000000,4.000000,4.000000,4.000000,4.000000,4.000000,4.000000,4.000000,4.000000,4.000000,100.000000
1602005976.507835,66.000000,0.000000,4156.410156,4140.512695,4142.563965,4141.025879,4129.230957,4134.358887,4136.410156,4131.794922,4136.922852,4107.179688,4133.846191,4154.871582,4136.922852,4151.282227,846.000000,4.000000,,,,0.000000,4.000000,4.000000,4.000000,4.000000,4.000000,4.000000,4.000000,4.000000,4.000000,4.000000,4.000000,4.000000,4.000000,4.000000,100.000000
1602005976.515718,67.000000,0.000000,4155.384766,4133.846191,4140.000000,4134.358887,4120.512695,4125.128418,4135.897461,4136.410156,4132.307617,4113.846191,4151.794922,4157.948730,4143.077148,4157.436035,871.000000,4.000000,,,,0.000000,4.000000,4.000000,4.000000,4.000000,4.000000,4.000000,4.000000,4.000000,4.000000,4.000000,4.000000,4.000000,4.000000,4.000000,100.000000
1602005976.523601,68.000000,0.000000,4151.282227,4134.358887,4138.461426,4128.205078,4126.666504,4117.948730,4136.410156,4130.256348,4122.563965,4123.077148,4158.974121,4158.461426,4144.102539,4138.461426,819.000000,4.000000,,,,0.000000,4.000000,4.000000,4.000000,4.000000,4.000000,4.000000,4.000000,4.000000,4.000000,4.000000,4.000000,4.000000,4.000000,4.000000,100.000000
1602005976.531483,69.000000,0.000000,4145.641113,4131.282227,4130.769043,4128.717773,4129.743652,4121.025879,4136.410156,4125.128418,4120.512695,4119.487305,4145.641113,4157.436035,4142.051270,4130.256348,820.000000,4.000000,,,,0.000000,4.000000,4.000000,4.000000,4.000000,4.000000,4.000000,4.000000,4.000000,4.000000,4.000000,4.000000,4.000000,4.000000,4.000000,100.000000
1602005976.539366,70.000000,0.000000,4139.487305,4122.563965,4124.615234,4129.230957,4122.051270,4120.000000,4135.897461,4128.205078,4123.077148,4114.871582,4135.897461,4154.358887,4138.461426,4128.205078,740.000000,4.000000,,,,0.000000,4.000000,4.000000,4.000000,4.000000,4.000000,4.000000,4.000000,4.000000,4.000000,4.000000,4.000000,4.000000,4.000000,4.000000,100.000000
1602005976.547249,71.000000,0.000000,4140.512695,4121.025879,4130.256348,4129.230957,4118.461426,4120.000000,4136.922852,4133.333496,4121.538574,4130.769043,4139.487305,4151.282227,4135.384766,4125.641113,676.000000,4.000000,,,,0.000000,4.000000,4.000000,4.000000,4.000000,4.000000,4.000000,4.000000,4.000000,4.000000,4.000000,4.000000,4.000000,4.000000,4.000000,100.000000
1602005976.555132,72.000000,0.000000,4142.563965,4131.282227,4137.948730,4132.820313,4122.563965,4130.256348,4135.897461,4137.436035,4128.717773,4148.205078,4151.794922,4154.358887,4134.871582,4130.256348,772.000000,4.000000,,,,0.000000,4.000000,4.000000,4.000000,4.000000,4.000000,4.000000,4.000000,4.000000,4.000000,4.000000,4.000000,4.000000,4.000000,4.000000,100.000000
1602005976.562913,73.000000,0.000000,4141.025879,4136.410156,4132.307617,4138.461426,4123.589844,4138.461426,4134.871582,4138.461426,4141.538574,4130.256348,4152.307617,4163.589844,4137.948730,4136.410156,826.000000,4.000000,,,,0.000000,4.000000,4.000000,4.000000,4.000000,4.000000,4.000000,4.000000,4.000000,4.000000,4.000000,4.000000,4.000000,4.000000,4.000000,100.000000
1602005976.570895,74.000000,0.000000,4140.512695,4129.230957,4122.051270,4137.948730,4123.077148,4136.410156,4135.897461,4134.871582,4147.692383,4110.256348,4138.974121,4167.692383,4138.974121,4135.897461,871.000000,4.000000,,,,0.000000,4.000000,4.000000,4.000000,4.000000,4.000000,4.000000,4.000000,4.000000,4.000000,4.000000,4.000000,4.000000,4.000000,4.000000,100.000000
1602005976.578776,75.000000,0.000000,4140.000000,4130.256348,4125.128418,4134.871582,4123.077148,4130.769043,4134.358887,4134.358887,4154.358887,4131.794922,4138.461426,4165.128418,4138.461426,4136.922852,839.000000,4.000000,,,,0.000000,4.000000,4.000000,4.000000,4.000000,4.000000,4.000000,4.000000,4.000000,4.000000,4.000000,4.000000,4.000000,4.000000,4.000000,100.000000
1602005976.586657,76.000000,0.000000,4144.615234,4138.974121,4136.410156,4137.436035,4125.641113,4127.179688,4125.128418,4135.384766,4156.922852,4142.051270,4154.358887,4168.205078,4140.512695,4132.820313,767.000000,4.000000,,,,0.000000,4.000000,4.000000,4.000000,4.000000,4.000000,4.000000,4.000000,4.000000,4.000000,4.000000,4.000000,4.000000,4.000000,4.000000,100.000000
1602005976.594439,77.000000,0.000000,4153.846191,4142.051270,4142.051270,4141.538574,4133.333496,4126.666504,4121.538574,4135.897461,4141.538574,4117.948730,4156.922852,4175.384766,4140.512695,4127.692383,753.000000,4.000000,,,,0.000000,4.000000,4.000000,4.000000,4.000000,4.000000,4.000000,4.000000,4.000000,4.000000,4.000000,4.000000,4.000000,4.000000,4.000000,100.000000
1602005976.602320,78.000000,0.000000,4152.820313,4136.410156,4141.025879,4140.512695,4133.846191,4130.256348,4130.769043,4135.897461,4123.589844,4120.000000,4143.589844,4172.307617,4137.436035,4132.820313,871.000000,4.000000,,,,0.000000,4.000000,4.000000,4.000000,4.000000,4.000000,4.000000,4.000000,4.000000,4.000000,4.000000,4.000000,4.000000,4.000000,4.000000,100.000000
1602005976.610103,79.000000,0.000000,4141.025879,4127.179688,4140.000000,4135.384766,4124.102539,4137.436035,4137.436035,4134.871582,4117.948730,4142.051270,4141.538574,4162.051270,4137.436035,4139.487305,839.000000,4.000000,,,,0.000000,4.000000,4.000000,4.000000,4.000000,4.000000,4.000000,4.000000,4.000000,4.000000,4.000000,4.000000,4.000000,4.000000,4.000000,100.000000
1602005976.617986,80.000000,0.000000,4136.410156,4125.641113,4142.563965,4134.871582,4118.974121,4137.436035,4143.589844,4135.384766,4118.974121,4132.820313,4144.615234,4161.538574,4139.487305,4140.000000,767.000000,4.000000,,,,0.000000,4.000000,4.000000,4.000000,4.000000,4.000000,4.000000,4.000000,4.000000,4.000000,4.000000,4.000000,4.000000,4.000000,4.000000,100.000000
1602005976.625868,81.000000,0.000000,4143.077148,4133.846191,4142.051270,4139.487305,4123.589844,4133.333496,4151.282227,4136.410156,4128.205078,4125.641113,4140.512695,4169.743652,4140.000000,4139.487305,753.000000,4.000000,,,,0.000000,4.000000,4.000000,4.000000,4.000000,4.000000,4.000000,4.000000,4.000000,4.000000,4.000000,4.000000,4.000000,4.000000,4.000000,100.000000
1602005976.633751,82.000000,0.000000,4149.743652,4138.461426,4140.512695,4140.000000,4130.256348,4137.948730,4148.717773,4136.410156,4136.410156,4138.974121,4136.922852,4174.358887,4139.487305,4142.051270,871.000000,4.000000,,,,0.000000,4.000000,4.000000,4.000000,4.000000,4.000000,4.000000,4.000000,4.000000,4.000000,4.000000,4.000000,4.000000,4.000000,4.000000,100.000000
1602005976.641634,83.000000,0.000000,4152.820313,4137.948730,4147.179688,4140.512695,4133.333496,4142.051270,4140.000000,4132.820313,4128.717773,4123.077148,4139.487305,4171.282227,4138.461426,4142.051270,839.000000,4.000000,,,,0.000000,4.000000,4.000000,4.000000,4.000000,4.000000,4.000000,4.000000,4.000000,4.000000,4.000000,4.000000,4.000000,4.000000,4.000000,100.000000
1602005976.649517,84.000000,0.000000,4151.282227,4141.538574,4152.820313,4143.589844,4135.384766,4137.436035,4136.922852,4124.102539,4126.666504,4101.025879,4149.230957,4163.589844,4136.922852,4137.948730,767.000000,4.000000,,,,0.000000,4.000000,4.000000,4.000000,4.000000,4.000000,4.000000,4.000000,4.000000,4.000000,4.000000,4.000000,4.000000,4.000000,4.000000,100.000000
1602005976.657400,85.000000,0.000000,4146.153809,4142.563965,4145.641113,4140.000000,4134.358887,4140.000000,4135.897461,4123.077148,4141.025879,4121.538574,4149.743652,4155.897461,4133.333496,4129.743652,753.000000,4.000000,,,,0.000000,4.000000,4.000000,4.000000,4.000000,4.000000,4.000000,4.000000,4.000000,4.000000,4.000000,4.000000,4.000000,4.000000,4.000000,100.000000
1602005976.665383,86.000000,0.000000,4134.871582,4137.436035,4134.358887,4135.384766,4129.230957,4151.794922,4133.846191,4132.307617,4143.077148,4145.641113,4141.025879,4151.282227,4125.641113,4120.512695,871.000000,4.000000,,,,0.000000,4.000000,4.000000,4.000000,4.000000,4.000000,4.000000,4.000000,4.000000,4.000000,4.000000,4.000000,4.000000,4.000000,4.000000,100.000000
1602005976.673266,87.000000,0.000000,4124.615234,4130.769043,4125.641113,4136.410156,4124.102539,4153.333496,4138.461426,4136.410156,4136.410156,4138.461426,4138.974121,4150.256348,4124.102539,4112.307617,839.000000,4.000000,,,,0.000000,4.000000,4.000000,4.000000,4.000000,4.000000,4.000000,4.000000,4.000000,4.000000,4.000000,4.000000,4.000000,4.000000,4.000000,100.000000
1602005976.681149,88.000000,0.000000,4129.743652,4125.641113,4121.025879,4135.384766,4122.563965,4141.538574,4141.025879,4128.205078,4138.974121,4135.897461,4134.358887,4152.307617,4129.743652,4106.666504,767.000000,4.000000,,,,0.000000,4.000000,4.000000,4.000000,4.000000,4.000000,4.000000,4.000000,4.000000,4.000000,4.000000,4.000000,4.000000,4.000000,4.000000,100.000000
1602005976.689032,89.000000,0.000000,4137.436035,4124.102539,4129.230957,4127.692383,4120.512695,4130.256348,4133.846191,4121.025879,4131.794922,4147.692383,4123.077148,4155.897461,4126.666504,4109.230957,753.000000,4.000000,,,,0.000000,4.000000,4.000000,4.000000,4.000000,4.000000,4.000000,4.000000,4.000000,4.000000,4.000000,4.000000,4.000000,4.000000,4.000000,100.000000
1602005976.696915,90.000000,0.000000,4128.717773,4122.563965,4136.410156,4124.615234,4116.410156,4124.102539,4124.615234,4120.512695,4116.922852,4134.358887,4123.589844,4152.307617,4114.871582,4111.282227,871.000000,4.000000,,,,0.000000,4.000000,4.000000,4.000000,4.000000,4.000000,4.000000,4.000000,4.000000,4.000000,4.000000,4.000000,4.000000,4.000000,4.000000,100.000000
1602005976.704798,91.000000,0.000000,4120.000000,4120.512695,4128.717773,4126.153809,4120.512695,4123.077148,4122.051270,4122.051270,4113.846191,4100.512695,4127.692383,4144.102539,4104.615234,4109.743652,839.000000,4.000000,,,,0.000000,4.000000,4.000000,4.000000,4.000000,4.000000,4.000000,4.000000,4.000000,4.000000,4.000000,4.000000,4.000000,4.000000,4.000000,100.000000
1602005976.712681,92.000000,0.000000,4126.666504,4120.512695,4123.077148,4124.615234,4125.128418,4126.153809,4125.128418,4123.589844,4112.820313,4088.718018,4123.589844,4140.000000,4102.051270,4108.205078,767.000000,4.000000,,,,0.000000,4.000000,4.000000,4.000000,4.000000,4.000000,4.000000,4.000000,4.000000,4.000000,4.000000,4.000000,4.000000,4.000000,4.000000,100.000000
1602005976.720564,93.000000,0.000000,4130.769043,4121.538574,4117.948730,4123.589844,4121.025879,4129.230957,4130.256348,4125.128418,4111.282227,4101.025879,4129.230957,4137.436035,4107.692383,4109.230957,753.000000,4.000000,,,,0.000000,4.000000,4.000000,4.000000,4.000000,4.000000,4.000000,4.000000,4.000000,4.000000,4.000000,4.000000,4.000000,4.000000,4.000000,100.000000
1602005976.728447,94.000000,0.000000,4124.102539,4121.538574,4111.794922,4123.589844,4123.077148,4136.922852,4135.897461,4124.615234,4118.974121,4114.871582,4128.205078,4135.384766,4111.794922,4106.666504,871.000000,4.000000,,,,0.000000,4.000000,4.000000,4.000000,4.000000,4.000000,4.000000,4.000000,4.000000,4.000000,4.000000,4.000000,4.000000,4.000000,4.000000,100.000000
1602005976.736229,95.000000,0.000000,4120.512695,4122.051270,4116.410156,4124.102539,4131.282227,4143.589844,4138.461426,4123.589844,4123.589844,4122.051270,4112.307617,4138.461426,4109.230957,4095.897461,839.000000,4.000000,,,,0.000000,4.000000,4.000000,4.000000,4.000000,4.000000,4.000000,4.000000,4.000000,4.000000,4.000000,4.000000,4.000000,4.000000,4.000000,100.000000
1602005976.744112,96.000000,0.000000,4121.538574,4121.538574,4120.512695,4123.077148,4129.230957,4137.948730,4137.948730,4123.077148,4118.974121,4124.102539,4114.358887,4140.512695,4104.102539,4094.871826,767.000000,4.000000,,,,0.000000,4.000000,4.000000,4.000000,4.000000,4.000000,4.000000,4.000000,4.000000,4.000000,4.000000,4.000000,4.000000,4.000000,4.000000,100.000000
1602005976.751994,97.000000,0.000000,4121.538574,4121.025879,4109.743652,4120.000000,4126.666504,4135.384766,4135.384766,4123.589844,4116.922852,4119.487305,4125.128418,4136.922852,4102.051270,4107.692383,753.000000,4.000000,,,,0.000000,4.000000,4.000000,4.000000,4.000000,4.000000,4.000000,4.000000,4.000000,4.000000,4.000000,4.000000,4.000000,4.000000,4.000000,100.000000
1602005976.759876,98.000000,0.000000,4122.051270,4122.563965,4104.102539,4121.025879,4133.333496,4139.487305,4134.871582,4124.615234,4121.025879,4119.487305,4123.589844,4136.922852,4109.230957,4110.769043,871.000000,4.000000,,,,0.000000,4.000000,4.000000,4.000000,4.000000,4.000000,4.000000,4.000000,4.000000,4.000000,4.000000,4.000000,4.000000,4.000000,4.000000,100.000000
1602005976.767758,99.000000,0.000000,4123.077148,4125.641113,4106.666504,4125.128418,4138.461426,4134.871582,4137.948730,4125.128418,4124.102539,4113.333496,4127.692383,4141.538574,4121.025879,4098.974121,839.000000,4.000000,,,,0.000000,4.000000,4.000000,4.000000,4.000000,4.000000,4.000000,4.000000,4.000000,4.000000,4.000000,4.000000,4.000000,4.000000,4.000000,100.000000
1602005976.775740,100.000000,0.000000,4121.538574,4123.589844,4104.102539,4123.589844,4135.897461,4130.256348,4134.358887,4122.563965,4122.563965,4090.256348,4129.230957,4141.025879,4124.615234,4100.512695,767.000000,4.000000,,,,0.000000,4.000000,4.000000,4.000000,4.000000,4.000000,4.000000,4.000000,4.000000,4.000000,4.000000,4.000000,4.000000,4.000000,4.000000,100.000000
1602005976.783623,101.000000,0.000000,4124.615234,4121.025879,4108.717773,4122.563965,4129.743652,4134.871582,4124.102539,4121.025879,4122.563965,4093.333252,4121.538574,4138.461426,4122.051270,4104.615234,753.000000,4.000000,,,,0.000000,4.000000,4.000000,4.000000,4.000000,4.000000,4.000000,4.000000,4.000000,4.000000,4.000000,4.000000,4.000000,4.000000,4.000000,100.000000
1602005976.791506,102.000000,0.000000,4135.384766,4132.307617,4123.589844,4132.820313,4131.282227,4145.641113,4125.641113,4124.102539,4124.102539,4130.256348,4127.179688,4145.641113,4125.641113,4104.615234,871.000000,4.000000,,,,0.000000,4.000000,4.000000,4.000000,4.000000,4.000000,4.000000,4.000000,4.000000,4.000000,4.000000,4.000000,4.000000,4.000000,4.000000,100.000000
1602005976.799388,103.000000,0.000000,4138.461426,4140.512695,4127.179688,4140.512695,4137.948730,4152.820313,4135.897461,4126.666504,4124.615234,4148.205078,4132.820313,4154.358887,4127.692383,4116.922852,839.000000,4.000000,,,,0.000000,4.000000,4.000000,4.000000,4.000000,4.000000,4.000000,4.000000,4.000000,4.000000,4.000000,4.000000,4.000000,4.000000,4.000000,100.000000
1602005976.807271,104.000000,0.000000,4132.820313,4128.205078,4119.487305,4131.282227,4134.871582,4148.717773,4138.461426,4127.692383,4129.230957,4133.846191,4123.589844,4152.307617,4125.128418,4124.615234,767.000000,4.000000,,,,0.000000,4.000000,4.000000,4.000000,4.000000,4.000000,4.000000,4.000000,4.000000,4.000000,4.000000,4.000000,4.000000,4.000000,4.000000,100.000000
1602005976.815153,105.000000,0.000000,4136.410156,4120.000000,4118.974121,4122.051270,4125.128418,4139.487305,4134.358887,4132.820313,4136.410156,4114.358887,4130.256348,4152.820313,4129.743652,4117.436035,753.000000,4.000000,,,,0.000000,4.000000,4.000000,4.000000,4.000000,4.000000,4.000000,4.000000,4.000000,4.000000,4.000000,4.000000,4.000000,4.000000,4.000000,100.000000
1602005976.823136,106.000000,0.000000,4148.205078,4123.589844,4123.589844,4123.077148,4123.077148,4139.487305,4133.846191,4137.948730,4137.948730,4117.436035,4139.487305,4157.948730,4136.410156,4125.128418,871.000000,4.000000,,,,0.000000,4.000000,4.000000,4.000000,4.000000,4.000000,4.000000,4.000000,4.000000,4.000000,4.000000,4.000000,4.000000,4.000000,4.000000,100.000000
1602005976.831019,107.000000,0.000000,4163.077148,4126.666504,4122.051270,4125.641113,4125.641113,4142.051270,4132.820313,4136.410156,4132.307617,4129.743652,4132.820313,4158.461426,4136.922852,4153.333496,839.000000,4.000000,,,,0.000000,4.000000,4.000000,4.000000,4.000000,4.000000,4.000000,4.000000,4.000000,4.000000,4.000000,4.000000,4.000000,4.000000,4.000000,100.000000
1602005976.838903,108.000000,0.000000,4192.820313,4126.153809,4120.000000,4123.077148,4121.538574,4131.794922,4127.179688,4134.871582,4130.769043,4112.820313,4130.769043,4161.025879,4140.000000,4174.871582,767.000000,4.000000,,,,0.000000,4.000000,4.000000,4.000000,4.000000,4.000000,4.000000,4.000000,4.000000,4.000000,4.000000,4.000000,4.000000,4.000000,4.000000,100.000000
1602005976.846786,109.000000,0.000000,4235.384766,4122.563965,4124.102539,4123.589844,4115.384766,4118.974121,4125.641113,4134.871582,4133.333496,4088.718018,4131.282227,4170.769043,4143.589844,4200.512695,753.000000,4.000000,,,,0.000000,4.000000,4.000000,4.000000,4.000000,4.000000,4.000000,4.000000,4.000000,4.000000,4.000000,4.000000,4.000000,4.000000,4.000000,100.000000
1602005976.854669,110.000000,0.000000,4277.948730,4126.153809,4133.333496,4131.794922,4114.871582,4123.077148,4129.230957,4130.256348,4128.717773,4111.794922,4123.589844,4180.000000,4142.051270,4233.333496,871.000000,4.000000,,,,0.000000,4.000000,4.000000,4.000000,4.000000,4.000000,4.000000,4.000000,4.000000,4.000000,4.000000,4.000000,4.000000,4.000000,4.000000,100.000000
1602005976.862552,111.000000,0.000000,4310.769043,4151.282227,4141.538574,4143.589844,4122.051270,4133.333496,4128.717773,4124.102539,4121.538574,4141.025879,4124.615234,4184.102539,4149.230957,4235.897461,839.000000,4.000000,,,,0.000000,4.000000,4.000000,4.000000,4.000000,4.000000,4.000000,4.000000,4.000000,4.000000,4.000000,4.000000,4.000000,4.000000,4.000000,100.000000
1602005976.870435,112.000000,0.000000,4316.922852,4169.230957,4142.563965,4152.307617,4124.615234,4128.205078,4121.538574,4121.025879,4120.000000,4127.692383,4134.871582,4178.974121,4155.384766,4225.128418,767.000000,4.000000,,,,0.000000,4.000000,4.000000,4.000000,4.000000,4.000000,4.000000,4.000000,4.000000,4.000000,4.000000,4.000000,4.000000,4.000000,4.000000,100.000000
1602005976.878318,113.000000,0.000000,4290.769043,4160.000000,4141.025879,4151.282227,4120.512695,4123.077148,4119.487305,4122.051270,4125.641113,4110.769043,4141.025879,4166.153809,4147.179688,4241.025879,753.000000,4.000000,,,,0.000000,4.000000,4.000000,4.000000,4.000000,4.000000,4.000000,4.000000,4.000000,4.000000,4.000000,4.000000,4.000000,4.000000,4.000000,100.000000
1602005976.886300,114.000000,0.000000,4256.922852,4154.358887,4143.589844,4145.128418,4120.000000,4136.410156,4130.769043,4125.641113,4127.179688,4107.692383,4137.436035,4158.461426,4137.948730,4244.102539,871.000000,4.000000,,,,0.000000,4.000000,4.000000,4.000000,4.000000,4.000000,4.000000,4.000000,4.000000,4.000000,4.000000,4.000000,4.000000,4.000000,4.000000,100.000000
1602005976.894182,115.000000,0.000000,4225.128418,4157.436035,4138.461426,4141.538574,4121.025879,4143.077148,4137.948730,4126.153809,4121.025879,4095.384521,4126.666504,4152.307617,4130.256348,4194.358887,839.000000,4.000000,,,,0.000000,4.000000,4.000000,4.000000,4.000000,4.000000,4.000000,4.000000,4.000000,4.000000,4.000000,4.000000,4.000000,4.000000,4.000000,100.000000
1602005976.902065,116.000000,0.000000,4195.384766,4146.666504,4123.589844,4139.487305,4121.538574,4129.230957,4128.717773,4121.538574,4116.922852,4089.743652,4117.436035,4138.974121,4121.025879,4138.461426,767.000000,4.000000,,,,0.000000,4.000000,4.000000,4.000000,4.000000,4.000000,4.000000,4.000000,4.000000,4.000000,4.000000,4.000000,4.000000,4.000000,4.000000,100.000000
1602005976.909947,117.000000,0.000000,4185.128418,4141.025879,4119.487305,4137.436035,4124.615234,4121.025879,4120.000000,4118.974121,4123.077148,4102.563965,4121.025879,4135.897461,4114.871582,4124.615234,753.000000,4.000000,,,,0.000000,4.000000,4.000000,4.000000,4.000000,4.000000,4.000000,4.000000,4.000000,4.000000,4.000000,4.000000,4.000000,4.000000,4.000000,100.000000
1602005976.917830,118.000000,0.000000,4185.641113,4153.846191,4128.717773,4138.974121,4124.615234,4127.179688,4123.077148,4123.589844,4128.717773,4112.820313,4124.102539,4144.615234,4110.256348,4129.230957,871.000000,4.000000,,,,0.000000,4.000000,4.000000,4.000000,4.000000,4.000000,4.000000,4.000000,4.000000,4.000000,4.000000,4.000000,4.000000,4.000000,4.000000,100.000000
1602005976.925712,119.000000,0.000000,4170.769043,4152.307617,4129.230957,4138.461426,4122.051270,4129.230957,4124.615234,4127.692383,4124.615234,4109.743652,4116.410156,4141.025879,4101.538574,4112.820313,839.000000,4.000000,,,,0.000000,4.000000,4.000000,4.000000,4.000000,4.000000,4.000000,4.000000,4.000000,4.000000,4.000000,4.000000,4.000000,4.000000,4.000000,100.000000
1602005976.933495,120.000000,0.000000,4158.974121,4137.436035,4125.641113,4135.384766,4121.538574,4122.563965,4122.563965,4126.153809,4123.077148,4111.282227,4109.743652,4136.922852,4105.128418,4092.820557,767.000000,4.000000,,,,0.000000,4.000000,4.000000,4.000000,4.000000,4.000000,4.000000,4.000000,4.000000,4.000000,4.000000,4.000000,4.000000,4.000000,4.000000,100.000000
1602005976.941379,121.000000,0.000000,4168.205078,4145.128418,4132.820313,4136.410156,4123.077148,4121.538574,4123.589844,4124.102539,4118.461426,4115.384766,4111.794922,4152.307617,4114.358887,4085.128174,753.000000,4.000000,,,,0.000000,4.000000,4.000000,4.000000,4.000000,4.000000,4.000000,4.000000,4.000000,4.000000,4.000000,4.000000,4.000000,4.000000,4.000000,100.000000
1602005976.949262,122.000000,0.000000,4169.230957,4153.846191,4134.871582,4138.974121,4122.563965,4125.641113,4128.717773,4124.102539,4108.717773,4108.717773,4109.230957,4152.307617,4101.538574,4080.512939,871.000000,4.000000,,,,0.000000,4.000000,4.000000,4.000000,4.000000,4.000000,4.000000,4.000000,4.000000,4.000000,4.000000,4.000000,4.000000,4.000000,4.000000,100.000000
1602005976.957145,123.000000,0.000000,4153.333496,4144.615234,4131.794922,4139.487305,4122.051270,4122.563965,4131.794922,4123.589844,4113.333496,4104.615234,4108.717773,4137.436035,4089.743652,4071.281982,839.000000,4.000000,,,,0.000000,4.000000,4.000000,4.000000,4.000000,4.000000,4.000000,4.000000,4.000000,4.000000,4.000000,4.000000,4.000000,4.000000,4.000000,100.000000
1602005976.965029,124.000000,0.000000,4150.769043,4142.051270,4135.384766,4139.487305,4122.051270,4123.589844,4128.205078,4123.077148,4120.512695,4107.692383,4123.077148,4140.512695,4102.051270,4075.897461,767.000000,4.000000,,,,0.000000,4.000000,4.000000,4.000000,4.000000,4.000000,4.000000,4.000000,4.000000,4.000000,4.000000,4.000000,4.000000,4.000000,4.000000,100.000000
1602005976.972912,125.000000,0.000000,4164.102539,4146.153809,4134.358887,4138.974121,4120.512695,4129.743652,4127.692383,4125.641113,4113.333496,4107.179688,4123.077148,4147.692383,4115.384766,4095.384521,753.000000,4.000000,,,,0.000000,4.000000,4.000000,4.000000,4.000000,4.000000,4.000000,4.000000,4.000000,4.000000,4.000000,4.000000,4.000000,4.000000,4.000000,100.000000
1602005976.980795,126.000000,0.000000,4171.282227,4144.102539,4125.641113,4138.974121,4125.128418,4128.717773,4134.871582,4125.641113,4103.077148,4112.820313,4104.102539,4141.538574,4104.615234,4104.102539,871.000000,4.000000,,,,0.000000,4.000000,4.000000,4.000000,4.000000,4.000000,4.000000,4.000000,4.000000,4.000000,4.000000,4.000000,4.000000,4.000000,4.000000,100.000000
1602005976.988679,127.000000,0.000000,4168.205078,4146.153809,4123.589844,4140.512695,4134.871582,4128.205078,4136.922852,4121.538574,4109.743652,4116.922852,4110.769043,4135.384766,4095.897461,4095.384521,839.000000,4.000000,,,,0.000000,4.000000,4.000000,4.000000,4.000000,4.000000,4.000000,4.000000,4.000000,4.000000,4.000000,4.000000,4.000000,4.000000,4.000000,100.000000
1602005976.996562,128.000000,0.000000,4165.128418,4153.846191,4128.717773,4138.974121,4134.358887,4135.384766,4132.820313,4125.641113,4124.102539,4112.820313,4126.666504,4140.000000,4104.102539,4086.666748,767.000000,4.000000,,,,0.000000,4.000000,4.000000,4.000000,4.000000,4.000000,4.000000,4.000000,4.000000,4.000000,4.000000,4.000000,4.000000,4.000000,4.000000,100.000000
1602005977.004544,0.000000,0.000000,4168.205078,4152.307617,4131.794922,4141.025879,4129.230957,4142.051270,4135.897461,4135.897461,4130.769043,4120.512695,4115.384766,4150.769043,4109.230957,4092.307617,796.000000,4.000000,,,,0.000000,4.000000,4.000000,4.000000,4.000000,4.000000,4.000000,4.000000,4.000000,4.000000,4.000000,4.000000,4.000000,4.000000,4.000000,100.000000
1602005977.012427,1.000000,0.000000,4172.307617,4142.563965,4127.179688,4140.512695,4127.692383,4135.384766,4141.025879,4136.410156,4127.179688,4122.051270,4108.717773,4153.846191,4106.666504,4098.461426,796.000000,4.000000,,,,0.000000,4.000000,4.000000,4.000000,4.000000,4.000000,4.000000,4.000000,4.000000,4.000000,4.000000,4.000000,4.000000,4.000000,4.000000,100.000000
1602005977.020309,2.000000,0.000000,4167.179688,4135.384766,4113.846191,4126.666504,4122.563965,4121.025879,4138.461426,4128.717773,4122.563965,4101.538574,4124.102539,4141.025879,4105.128418,4092.307617,848.000000,4.000000,,,,0.000000,4.000000,4.000000,4.000000,4.000000,4.000000,4.000000,4.000000,4.000000,4.000000,4.000000,4.000000,4.000000,4.000000,4.000000,100.000000
1602005977.028192,3.000000,0.000000,4168.205078,4136.410156,4113.333496,4123.589844,4118.974121,4123.077148,4138.461426,4130.769043,4122.051270,4105.641113,4129.743652,4141.025879,4109.743652,4084.615479,871.000000,4.000000,,,,0.000000,4.000000,4.000000,4.000000,4.000000,4.000000,4.000000,4.000000,4.000000,4.000000,4.000000,4.000000,4.000000,4.000000,4.000000,100.000000
1602005977.036075,4.000000,0.000000,4182.051270,4140.000000,4125.641113,4137.948730,4121.538574,4142.563965,4143.077148,4138.461426,4124.102539,4125.641113,4121.025879,4152.820313,4109.743652,4083.589844,817.000000,4.000000,,,,0.000000,4.000000,4.000000,4.000000,4.000000,4.000000,4.000000,4.000000,4.000000,4.000000,4.000000,4.000000,4.000000,4.000000,4.000000,100.000000
1602005977.043957,5.000000,0.000000,4188.205078,4134.871582,4123.077148,4136.410156,4120.512695,4146.153809,4142.051270,4132.820313,4122.563965,4114.358887,4115.897461,4145.128418,4105.641113,4076.410156,820.000000,4.000000,,,,0.000000,4.000000,4.000000,4.000000,4.000000,4.000000,4.000000,4.000000,4.000000,4.000000,4.000000,4.000000,4.000000,4.000000,4.000000,100.000000
1602005977.051840,6.000000,0.000000,4194.358887,4135.897461,4111.282227,4128.205078,4124.102539,4137.436035,4133.846191,4120.512695,4114.871582,4105.128418,4114.358887,4134.871582,4107.179688,4060.000000,763.000000,4.000000,,,,0.000000,4.000000,4.000000,4.000000,4.000000,4.000000,4.000000,4.000000,4.000000,4.000000,4.000000,4.000000,4.000000,4.000000,4.000000,100.000000
1602005977.059623,7.000000,0.000000,4207.692383,4142.051270,4106.666504,4134.358887,4138.461426,4144.102539,4127.692383,4113.846191,4106.153809,4111.282227,4110.256348,4140.512695,4110.256348,4058.461426,676.000000,4.000000,,,,0.000000,4.000000,4.000000,4.000000,4.000000,4.000000,4.000000,4.000000,4.000000,4.000000,4.000000,4.000000,4.000000,4.000000,4.000000,100.000000
1602005977.067507,8.000000,0.000000,4197.948730,4123.589844,4106.666504,4126.666504,4134.358887,4144.615234,4123.077148,4110.769043,4103.077148,4100.512695,4104.615234,4138.974121,4104.102539,4065.128174,780.000000,4.000000,,,,0.000000,4.000000,4.000000,4.000000,4.000000,4.000000,4.000000,4.000000,4.000000,4.000000,4.000000,4.000000,4.000000,4.000000,4.000000,100.000000
1602005977.075390,9.000000,0.000000,4194.871582,4120.512695,4113.333496,4123.589844,4124.615234,4135.897461,4120.512695,4113.333496,4109.230957,4092.820557,4113.846191,4128.205078,4101.538574,4072.307617,833.000000,4.000000,,,,0.000000,4.000000,4.000000,4.000000,4.000000,4.000000,4.000000,4.000000,4.000000,4.000000,4.000000,4.000000,4.000000,4.000000,4.000000,100.000000
1602005977.083273,10.000000,0.000000,4221.025879,4157.436035,4124.102539,4142.563965,4135.384766,4143.589844,4120.512695,4120.000000,4119.487305,4113.333496,4126.666504,4133.846191,4108.205078,4080.512939,871.000000,4.000000,,,,0.000000,4.000000,4.000000,4.000000,4.000000,4.000000,4.000000,4.000000,4.000000,4.000000,4.000000,4.000000,4.000000,4.000000,4.000000,100.000000
1602005977.091157,11.000000,0.000000,4224.102539,4171.282227,4125.128418,4148.717773,4143.077148,4154.871582,4122.563965,4123.589844,4123.589844,4127.179688,4116.922852,4144.102539,4104.102539,4073.333252,839.000000,4.000000,,,,0.000000,4.000000,4.000000,4.000000,4.000000,4.000000,4.000000,4.000000,4.000000,4.000000,4.000000,4.000000,4.000000,4.000000,4.000000,100.000000
1602005977.099040,12.000000,0.000000,4206.666504,4157.948730,4122.563965,4144.102539,4135.384766,4151.282227,4130.769043,4122.563965,4123.077148,4123.589844,4106.153809,4140.000000,4089.743652,4074.871826,767.000000,4.000000,,,,0.000000,4.000000,4.000000,4.000000,4.000000,4.000000,4.000000,4.000000,4.000000,4.000000,4.000000,4.000000,4.000000,4.000000,4.000000,100.000000
1602005977.106923,13.000000,0.000000,4214.358887,4163.589844,4123.589844,4150.256348,4135.384766,4142.563965,4135.384766,4122.563965,4125.641113,4123.589844,4115.384766,4133.333496,4088.718018,4110.256348,753.000000,4.000000,,,,0.000000,4.000000,4.000000,4.000000,4.000000,4.000000,4.000000,4.000000,4.000000,4.000000,4.000000,4.000000,4.000000,4.000000,4.000000,100.000000
1602005977.114806,14.000000,0.000000,4218.974121,4168.717773,4124.615234,4147.692383,4136.410156,4139.487305,4129.743652,4126.153809,4124.615234,4113.333496,4109.230957,4133.846191,4095.384521,4149.230957,871.000000,4.000000,,,,0.000000,4.000000,4.000000,4.000000,4.000000,4.000000,4.000000,4.000000,4.000000,4.000000,4.000000,4.000000,4.000000,4.000000,4.000000,100.000000
1602005977.122690,15.000000,0.000000,4200.000000,4152.820313,4117.436035,4136.922852,4124.615234,4129.743652,4125.641113,4120.000000,4115.384766,4095.384521,4085.128174,4135.897461,4089.230713,4158.974121,839.000000,4.000000,,,,0.000000,4.000000,4.000000,4.000000,4.000000,4.000000,4.000000,4.000000,4.000000,4.000000,4.000000,4.000000,4.000000,4.000000,4.000000,100.000000
1602005977.130473,16.000000,0.000000,4193.333496,4149.743652,4109.743652,4137.436035,4123.077148,4121.538574,4124.615234,4107.692383,4110.769043,4095.897461,4088.205078,4134.358887,4076.923096,4168.205078,0.000000,4.000000,,,,0.000000,4.000000,4.000000,4.000000,4.000000,4.000000,4.000000,4.000000,4.000000,4.000000,4.000000,4.000000,4.000000,4.000000,4.000000,100.000000
1602005977.138356,17.000000,0.000000,4200.512695,4162.563965,4113.846191,4142.563965,4135.384766,4130.256348,4121.538574,4110.769043,4109.743652,4109.230957,4108.717773,4134.358887,4077.948730,4210.256348,0.000000,4.000000,,,,0.000000,4.000000,4.000000,4.000000,4.000000,4.000000,4.000000,4.000000,4.000000,4.000000,4.000000,4.000000,4.000000,4.000000,4.000000,100.000000
1602005977.146240,18.000000,0.000000,4205.128418,4167.692383,4128.205078,4148.717773,4140.000000,4138.461426,4127.692383,4124.615234,4105.641113,4117.948730,4108.717773,4138.461426,4088.205078,4264.102539,0.000000,4.000000,,,,0.000000,4.000000,4.000000,4.000000,4.000000,4.000000,4.000000,4.000000,4.000000,4.000000,4.000000,4.000000,4.000000,4.000000,4.000000,100.000000
1602005977.154123,19.000000,0.000000,4203.077148,4165.641113,4131.794922,4153.333496,4134.358887,4134.871582,4136.410156,4125.128418,4103.077148,4123.589844,4104.615234,4137.948730,4091.794922,4296.922852,0.000000,4.000000,,,,0.000000,4.000000,4.000000,4.000000,4.000000,4.000000,4.000000,4.000000,4.000000,4.000000,4.000000,4.000000,4.000000,4.000000,4.000000,100.000000
1602005977.162006,20.000000,0.000000,4197.436035,4165.641113,4132.307617,4152.820313,4135.384766,4135.384766,4134.871582,4122.051270,4108.205078,4130.256348,4120.512695,4136.922852,4096.410156,4320.512695,0.000000,4.000000,,,,0.000000,4.000000,4.000000,4.000000,4.000000,4.000000,4.000000,4.000000,4.000000,4.000000,4.000000,4.000000,4.000000,4.000000,4.000000,100.000000
1602005977.169890,21.000000,0.000000,4201.538574,4169.230957,4136.410156,4154.871582,4140.000000,4137.948730,4133.846191,4123.077148,4113.333496,4123.077148,4127.179688,4137.948730,4101.538574,4359.487305,0.000000,4.000000,,,,0.000000,4.000000,4.000000,4.000000,4.000000,4.000000,4.000000,4.000000,4.000000,4.000000,4.000000,4.000000,4.000000,4.000000,4.000000,100.000000
1602005977.177773,22.000000,0.000000,4202.563965,4162.563965,4132.307617,4151.282227,4136.922852,4127.179688,4136.410156,4122.051270,4104.615234,4102.563965,4108.205078,4131.282227,4094.871826,4384.615234,0.000000,4.000000,,,,0.000000,4.000000,4.000000,4.000000,4.000000,4.000000,4.000000,4.000000,4.000000,4.000000,4.000000,4.000000,4.000000,4.000000,4.000000,100.000000
1602005977.185656,23.000000,0.000000,4192.307617,4155.897461,4130.256348,4147.692383,4136.410156,4126.153809,4135.384766,4126.666504,4099.487305,4102.563965,4103.589844,4129.743652,4093.333252,4384.615234,0.000000,4.000000,,,,0.000000,4.000000,4.000000,4.000000,4.000000,4.000000,4.000000,4.000000,4.000000,4.000000,4.000000,4.000000,4.000000,4.000000,4.000000,100.000000
1602005977.193540,24.000000,0.000000,4186.666504,4158.461426,4133.333496,4150.256348,4136.922852,4135.897461,4136.410156,4132.307617,4112.307617,4124.102539,4122.563965,4140.000000,4100.512695,4395.384766,0.000000,4.000000,,,,0.000000,4.000000,4.000000,4.000000,4.000000,4.000000,4.000000,4.000000,4.000000,4.000000,4.000000,4.000000,4.000000,4.000000,4.000000,100.000000
1602005977.201322,25.000000,0.000000,4183.589844,4152.307617,4125.128418,4144.102539,4129.743652,4127.179688,4138.461426,4128.205078,4120.000000,4129.230957,4129.230957,4135.897461,4095.897461,4413.333496,0.000000,4.000000,,,,0.000000,4.000000,4.000000,4.000000,4.000000,4.000000,4.000000,4.000000,4.000000,4.000000,4.000000,4.000000,4.000000,4.000000,4.000000,100.000000
1602005977.209204,26.000000,0.000000,4174.358887,4145.641113,4117.436035,4134.871582,4125.128418,4118.461426,4137.436035,4131.282227,4121.538574,4124.102539,4118.461426,4120.000000,4091.281982,4423.077148,0.000000,4.000000,,,,0.000000,4.000000,4.000000,4.000000,4.000000,4.000000,4.000000,4.000000,4.000000,4.000000,4.000000,4.000000,4.000000,4.000000,4.000000,100.000000
1602005977.217085,27.000000,0.000000,4167.179688,4146.666504,4122.051270,4135.897461,4124.102539,4133.333496,4138.461426,4137.436035,4135.384766,4134.871582,4114.358887,4118.461426,4095.897461,4425.641113,0.000000,4.000000,,,,0.000000,4.000000,4.000000,4.000000,4.000000,4.000000,4.000000,4.000000,4.000000,4.000000,4.000000,4.000000,4.000000,4.000000,4.000000,100.000000
1602005977.224967,28.000000,0.000000,4165.128418,4143.077148,4121.538574,4137.948730,4123.077148,4142.051270,4138.974121,4129.230957,4140.000000,4136.410156,4112.820313,4121.025879,4087.692383,4430.256348,0.000000,4.000000,,,,0.000000,4.000000,4.000000,4.000000,4.000000,4.000000,4.000000,4.000000,4.000000,4.000000,4.000000,4.000000,4.000000,4.000000,4.000000,100.000000
1602005977.232950,29.000000,0.000000,4164.615234,4136.410156,4115.897461,4135.384766,4122.563965,4127.692383,4134.871582,4118.974121,4125.641113,4121.025879,4102.051270,4117.436035,4078.461426,4433.333496,0.000000,4.000000,,,,0.000000,4.000000,4.000000,4.000000,4.000000,4.000000,4.000000,4.000000,4.000000,4.000000,4.000000,4.000000,4.000000,4.000000,4.000000,100.000000
1602005977.240832,30.000000,0.000000,4166.666504,4136.410156,4118.974121,4135.384766,4123.077148,4122.051270,4133.846191,4122.563965,4119.487305,4116.410156,4102.051270,4118.974121,4087.179443,4434.871582,0.000000,4.000000,,,,0.000000,4.000000,4.000000,4.000000,4.000000,4.000000,4.000000,4.000000,4.000000,4.000000,4.000000,4.000000,4.000000,4.000000,4.000000,100.000000
1602005977.248714,31.000000,0.000000,4168.205078,4140.512695,4123.589844,4138.461426,4127.692383,4132.307617,4136.922852,4132.307617,4130.256348,4126.153809,4118.974121,4122.563965,4098.974121,4449.743652,0.000000,4.000000,,,,0.000000,4.000000,4.000000,4.000000,4.000000,4.000000,4.000000,4.000000,4.000000,4.000000,4.000000,4.000000,4.000000,4.000000,4.000000,100.000000
1602005977.256597,32.000000,0.000000,4168.205078,4147.692383,4126.153809,4140.000000,4135.897461,4140.512695,4139.487305,4139.487305,4136.922852,4140.000000,4128.205078,4121.538574,4099.487305,4464.615234,0.000000,4.000000,,,,0.000000,4.000000,4.000000,4.000000,4.000000,4.000000,4.000000,4.000000,4.000000,4.000000,4.000000,4.000000,4.000000,4.000000,4.000000,100.000000
1602005977.264479,33.000000,0.000000,4166.153809,4152.307617,4126.153809,4139.487305,4135.897461,4137.948730,4140.000000,4140.000000,4131.282227,4136.410156,4118.461426,4119.487305,4093.846191,4458.974121,0.000000,4.000000,,,,0.000000,4.000000,4.000000,4.000000,4.000000,4.000000,4.000000,4.000000,4.000000,4.000000,4.000000,4.000000,4.000000,4.000000,4.000000,100.000000
1602005977.272361,34.000000,0.000000,4160.512695,4146.153809,4123.589844,4137.436035,4130.769043,4129.743652,4137.948730,4132.307617,4120.512695,4122.563965,4111.282227,4119.487305,4089.743652,4446.666504,0.000000,4.000000,,,,0.000000,4.000000,4.000000,4.000000,4.000000,4.000000,4.000000,4.000000,4.000000,4.000000,4.000000,4.000000,4.000000,4.000000,4.000000,100.000000
1602005977.280145,35.000000,0.000000,4151.794922,4140.000000,4121.538574,4136.922852,4135.897461,4130.769043,4136.922852,4125.641113,4121.025879,4132.307617,4112.820313,4121.538574,4093.333252,4451.794922,0.000000,4.000000,,,,0.000000,4.000000,4.000000,4.000000,4.000000,4.000000,4.000000,4.000000,4.000000,4.000000,4.000000,4.000000,4.000000,4.000000,4.000000,100.000000
1602005977.288028,36.000000,0.000000,4150.769043,4137.948730,4120.512695,4135.384766,4137.436035,4140.000000,4138.974121,4127.179688,4128.205078,4146.153809,4109.230957,4120.000000,4096.922852,4460.000000,0.000000,4.000000,,,,0.000000,4.000000,4.000000,4.000000,4.000000,4.000000,4.000000,4.000000,4.000000,4.000000,4.000000,4.000000,4.000000,4.000000,4.000000,100.000000
1602005977.295911,37.000000,0.000000,4162.563965,4140.512695,4120.000000,4134.871582,4129.230957,4142.563965,4141.538574,4129.230957,4125.641113,4135.897461,4111.282227,4118.461426,4092.307617,4457.436035,0.000000,4.000000,,,,0.000000,4.000000,4.000000,4.000000,4.000000,4.000000,4.000000,4.000000,4.000000,4.000000,4.000000,4.000000,4.000000,4.000000,4.000000,100.000000
1602005977.303794,38.000000,0.000000,4167.179688,4144.102539,4121.025879,4137.948730,4129.230957,4142.563965,4140.512695,4125.128418,4122.051270,4129.743652,4122.563965,4121.538574,4093.846191,4460.512695,0.000000,4.000000,,,,0.000000,4.000000,4.000000,4.000000,4.000000,4.000000,4.000000,4.000000,4.000000,4.000000,4.000000,4.000000,4.000000,4.000000,4.000000,100.000000
1602005977.311677,39.000000,0.000000,4156.410156,4142.563965,4122.563965,4137.436035,4129.230957,4143.077148,4137.436035,4121.025879,4124.615234,4141.538574,4119.487305,4122.563965,4098.974121,4460.000000,0.000000,4.000000,,,,0.000000,4.000000,4.000000,4.000000,4.000000,4.000000,4.000000,4.000000,4.000000,4.000000,4.000000,4.000000,4.000000,4.000000,4.000000,100.000000
1602005977.319560,40.000000,0.000000,4151.282227,4138.461426,4124.102539,4134.871582,4120.512695,4139.487305,4136.922852,4124.615234,4124.102539,4145.128418,4104.102539,4120.000000,4094.358887,4450.256348,0.000000,4.000000,,,,0.000000,4.000000,4.000000,4.000000,4.000000,4.000000,4.000000,4.000000,4.000000,4.000000,4.000000,4.000000,4.000000,4.000000,4.000000,100.000000
1602005977.327443,41.000000,0.000000,4157.436035,4140.512695,4124.615234,4136.410156,4124.615234,4137.948730,4139.487305,4128.205078,4120.000000,4120.512695,4108.205078,4122.051270,4095.384521,4448.717773,0.000000,4.000000,,,,0.000000,4.000000,4.000000,4.000000,4.000000,4.000000,4.000000,4.000000,4.000000,4.000000,4.000000,4.000000,4.000000,4.000000,4.000000,100.000000
1602005977.335326,42.000000,0.000000,4154.358887,4141.538574,4121.025879,4135.384766,4135.897461,4136.410156,4137.948730,4126.666504,4117.948730,4097.436035,4118.461426,4123.589844,4098.974121,4449.230957,0.000000,4.000000,,,,0.000000,4.000000,4.000000,4.000000,4.000000,4.000000,4.000000,4.000000,4.000000,4.000000,4.000000,4.000000,4.000000,4.000000,4.000000,100.000000
1602005977.343209,43.000000,0.000000,4150.256348,4139.487305,4120.000000,4132.820313,4132.820313,4128.717773,4134.871582,4126.666504,4121.538574,4108.205078,4114.358887,4122.051270,4096.922852,4442.051270,0.000000,4.000000,,,,0.000000,4.000000,4.000000,4.000000,4.000000,4.000000,4.000000,4.000000,4.000000,4.000000,4.000000,4.000000,4.000000,4.000000,4.000000,100.000000
1602005977.350992,44.000000,0.000000,4157.436035,4138.974121,4124.102539,4134.358887,4123.077148,4128.205078,4135.384766,4127.179688,4124.102539,4132.820313,4114.871582,4122.563965,4101.025879,4447.179688,0.000000,4.000000,,,,0.000000,4.000000,4.000000,4.000000,4.000000,4.000000,4.000000,4.000000,4.000000,4.000000,4.000000,4.000000,4.000000,4.000000,4.000000,100.000000
1602005977.358875,45.000000,0.000000,4156.922852,4136.410156,4127.692383,4133.333496,4124.615234,4137.436035,4135.384766,4125.128418,4122.563965,4145.128418,4122.563965,4122.563965,4104.615234,4450.256348,0.000000,4.000000,,,,0.000000,4.000000,4.000000,4.000000,4.000000,4.000000,4.000000,4.000000,4.000000,4.000000,4.000000,4.000000,4.000000,4.000000,4.000000,100.000000
1602005977.366758,46.000000,0.000000,4152.820313,4138.461426,4134.871582,4134.358887,4133.333496,4141.538574,4137.436035,4126.153809,4127.179688,4152.820313,4123.077148,4126.153809,4106.153809,4429.743652,0.000000,4.000000,,,,0.000000,4.000000,4.000000,4.000000,4.000000,4.000000,4.000000,4.000000,4.000000,4.000000,4.000000,4.000000,4.000000,4.000000,4.000000,100.000000
1602005977.374641,47.000000,0.000000,4158.461426,4147.692383,4142.563965,4141.538574,4139.487305,4140.512695,4138.974121,4130.769043,4139.487305,4154.358887,4119.487305,4136.410156,4112.820313,4422.563965,0.000000,4.000000,,,,0.000000,4.000000,4.000000,4.000000,4.000000,4.000000,4.000000,4.000000,4.000000,4.000000,4.000000,4.000000,4.000000,4.000000,4.000000,100.000000
1602005977.382525,48.000000,0.000000,4162.563965,4147.692383,4142.051270,4142.051270,4141.538574,4138.461426,4130.769043,4127.692383,4136.410156,4141.025879,4123.077148,4140.512695,4115.897461,4444.102539,0.000000,4.000000,,,,0.000000,4.000000,4.000000,4.000000,4.000000,4.000000,4.000000,4.000000,4.000000,4.000000,4.000000,4.000000,4.000000,4.000000,4.000000,100.000000
1602005977.390408,49.000000,0.000000,4156.922852,4138.461426,4138.974121,4136.410156,4133.846191,4130.256348,4122.563965,4120.000000,4122.051270,4124.102539,4130.769043,4137.436035,4115.897461,4450.769043,0.000000,4.000000,,,,0.000000,4.000000,4.000000,4.000000,4.000000,4.000000,4.000000,4.000000,4.000000,4.000000,4.000000,4.000000,4.000000,4.000000,4.000000,100.000000
1602005977.398291,50.000000,0.000000,4154.358887,4136.410156,4140.000000,4135.384766,4121.025879,4121.025879,4123.077148,4120.512695,4121.025879,4109.743652,4126.153809,4137.436035,4115.897461,4431.794922,0.000000,4.000000,,,,0.000000,4.000000,4.000000,4.000000,4.000000,4.000000,4.000000,4.000000,4.000000,4.000000,4.000000,4.000000,4.000000,4.000000,4.000000,100.000000
1602005977.406174,51.000000,0.000000,4156.922852,4141.538574,4140.512695,4137.948730,4122.563965,4121.538574,4126.153809,4126.153809,4123.589844,4112.820313,4115.897461,4140.000000,4109.743652,4421.538574,0.000000,4.000000,,,,0.000000,4.000000,4.000000,4.000000,4.000000,4.000000,4.000000,4.000000,4.000000,4.000000,4.000000,4.000000,4.000000,4.000000,4.000000,100.000000
1602005977.414057,52.000000,0.000000,4155.897461,4146.153809,4141.025879,4140.000000,4137.436035,4126.666504,4126.666504,4128.717773,4122.563965,4137.948730,4118.974121,4137.436035,4105.128418,4426.153809,0.000000,4.000000,,,,0.000000,4.000000,4.000000,4.000000,4.000000,4.000000,4.000000,4.000000,4.000000,4.000000,4.000000,4.000000,4.000000,4.000000,4.000000,100.000000
1602005977.421840,53.000000,0.000000,4151.794922,4144.102539,4138.974121,4141.025879,4141.025879,4127.179688,4124.615234,4126.153809,4126.153809,4151.794922,4126.666504,4128.717773,4101.538574,4423.077148,0.000000,4.000000,,,,0.000000,4.000000,4.000000,4.000000,4.000000,4.000000,4.000000,4.000000,4.000000,4.000000,4.000000,4.000000,4.000000,4.000000,4.000000,100.000000
1602005977.429722,54.000000,0.000000,4141.025879,4137.436035,4127.692383,4137.436035,4133.333496,4118.461426,4120.512695,4122.051270,4127.692383,4140.000000,4117.436035,4117.436035,4090.769287,4406.666504,0.000000,4.000000,,,,0.000000,4.000000,4.000000,4.000000,4.000000,4.000000,4.000000,4.000000,4.000000,4.000000,4.000000,4.000000,4.000000,4.000000,4.000000,100.000000
1602005977.437605,55.000000,0.000000,4133.333496,4136.410156,4121.025879,4135.384766,4134.871582,4116.410156,4118.461426,4122.563965,4131.282227,4131.794922,4107.692383,4115.384766,4090.256348,4392.820313,0.000000,4.000000,,,,0.000000,4.000000,4.000000,4.000000,4.000000,4.000000,4.000000,4.000000,4.000000,4.000000,4.000000,4.000000,4.000000,4.000000,4.000000,100.000000
1602005977.445487,56.000000,0.000000,4141.025879,4140.512695,4124.615234,4140.000000,4139.487305,4131.794922,4121.538574,4125.641113,4142.563965,4142.051270,4108.717773,4122.051270,4098.974121,4390.769043,0.000000,4.000000,,,,0.000000,4.000000,4.000000,4.000000,4.000000,4.000000,4.000000,4.000000,4.000000,4.000000,4.000000,4.000000,4.000000,4.000000,4.000000,100.000000
1602005977.453370,57.000000,0.000000,4138.461426,4139.487305,4123.589844,4135.897461,4132.307617,4135.897461,4118.461426,4125.128418,4139.487305,4141.538574,4109.230957,4119.487305,4097.436035,4381.025879,0.000000,4.000000,,,,0.000000,4.000000,4.000000,4.000000,4.000000,4.000000,4.000000,4.000000,4.000000,4.000000,4.000000,4.000000,4.000000,4.000000,4.000000,100.000000
1602005977.461252,58.000000,0.000000,4122.563965,4135.384766,4119.487305,4126.153809,4121.025879,4119.487305,4109.743652,4121.025879,4126.153809,4120.000000,4109.230957,4111.794922,4091.281982,4370.769043,0.000000,4.000000,,,,0.000000,4.000000,4.000000,4.000000,4.000000,4.000000,4.000000,4.000000,4.000000,4.000000,4.000000,4.000000,4.000000,4.000000,4.000000,100.000000
1602005977.469135,59.000000,0.000000,4124.102539,4135.897461,4120.512695,4127.179688,4120.512695,4111.794922,4110.769043,4114.871582,4123.589844,4118.461426,4107.179688,4115.897461,4089.230713,4374.358887,0.000000,4.000000,,,,0.000000,4.000000,4.000000,4.000000,4.000000,4.000000,4.000000,4.000000,4.000000,4.000000,4.000000,4.000000,4.000000,4.000000,4.000000,100.000000
1602005977.477017,60.000000,0.000000,4139.487305,4139.487305,4123.077148,4135.897461,4130.256348,4125.641113,4121.538574,4112.820313,4128.717773,4148.205078,4107.692383,4121.538574,4091.794922,4379.487305,0.000000,4.000000,,,,0.000000,4.000000,4.000000,4.000000,4.000000,4.000000,4.000000,4.000000,4.000000,4.000000,4.000000,4.000000,4.000000,4.000000,4.000000,100.000000
1602005977.484899,61.000000,0.000000,4141.025879,4140.512695,4123.589844,4138.974121,4135.897461,4136.922852,4125.128418,4116.410156,4131.282227,4161.538574,4114.871582,4117.948730,4094.358887,4375.384766,0.000000,4.000000,,,,0.000000,4.000000,4.000000,4.000000,4.000000,4.000000,4.000000,4.000000,4.000000,4.000000,4.000000,4.000000,4.000000,4.000000,4.000000,100.000000
1602005977.492781,62.000000,0.000000,4128.205078,4138.974121,4123.077148,4136.410156,4134.871582,4136.410156,4123.077148,4114.871582,4123.077148,4140.000000,4110.769043,4115.897461,4089.743652,4372.307617,0.000000,4.000000,,,,0.000000,4.000000,4.000000,4.000000,4.000000,4.000000,4.000000,4.000000,4.000000,4.000000,4.000000,4.000000,4.000000,4.000000,4.000000,100.000000
1602005977.500663,63.000000,0.000000,4122.051270,4136.922852,4118.461426,4135.384766,4136.922852,4130.256348,4124.102539,4112.307617,4109.230957,4118.974121,4104.102539,4117.948730,4086.666748,4372.307617,0.000000,4.000000,,,,0.000000,4.000000,4.000000,4.000000,4.000000,4.000000,4.000000,4.000000,4.000000,4.000000,4.000000,4.000000,4.000000,4.000000,4.000000,100.000000
1602005977.508644,64.000000,0.000000,4126.153809,4135.384766,4118.461426,4136.410156,4138.461426,4124.615234,4122.563965,4118.974121,4113.333496,4117.436035,4110.769043,4118.974121,4089.743652,4369.743652,798.000000,4.000000,,,,0.000000,4.000000,4.000000,4.000000,4.000000,4.000000,4.000000,4.000000,4.000000,4.000000,4.000000,4.000000,4.000000,4.000000,4.000000,100.000000
1602005977.516526,65.000000,0.000000,4126.666504,4135.897461,4131.282227,4137.436035,4133.846191,4123.589844,4123.077148,4125.128418,4125.641113,4120.000000,4115.897461,4122.563965,4091.794922,4363.589844,796.000000,4.000000,,,,0.000000,4.000000,4.000000,4.000000,4.000000,4.000000,4.000000,4.000000,4.000000,4.000000,4.000000,4.000000,4.000000,4.000000,4.000000,100.000000
1602005977.524407,66.000000,0.000000,4124.615234,4136.922852,4138.974121,4136.922852,4127.692383,4123.077148,4125.641113,4123.589844,4121.538574,4123.077148,4116.410156,4124.615234,4092.307617,4357.948730,848.000000,4.000000,,,,0.000000,4.000000,4.000000,4.000000,4.000000,4.000000,4.000000,4.000000,4.000000,4.000000,4.000000,4.000000,4.000000,4.000000,4.000000,100.000000
1602005977.532389,67.000000,0.000000,4133.333496,4136.410156,4133.846191,4136.410156,4125.128418,4122.563965,4127.179688,4124.102539,4116.410156,4137.948730,4123.077148,4125.641113,4097.436035,4361.025879,871.000000,4.000000,,,,0.000000,4.000000,4.000000,4.000000,4.000000,4.000000,4.000000,4.000000,4.000000,4.000000,4.000000,4.000000,4.000000,4.000000,4.000000,100.000000
1602005977.540271,68.000000,0.000000,4141.025879,4135.897461,4127.692383,4137.948730,4122.563965,4122.051270,4129.230957,4120.512695,4121.538574,4147.179688,4123.589844,4132.307617,4103.077148,4365.128418,815.000000,4.000000,,,,0.000000,4.000000,4.000000,4.000000,4.000000,4.000000,4.000000,4.000000,4.000000,4.000000,4.000000,4.000000,4.000000,4.000000,4.000000,100.000000
1602005977.548152,69.000000,0.000000,4128.205078,4137.436035,4125.128418,4137.948730,4126.666504,4118.974121,4127.692383,4111.282227,4120.512695,4127.692383,4117.948730,4136.922852,4104.102539,4356.922852,820.000000,4.000000,,,,0.000000,4.000000,4.000000,4.000000,4.000000,4.000000,4.000000,4.000000,4.000000,4.000000,4.000000,4.000000,4.000000,4.000000,4.000000,100.000000
1602005977.556034,70.000000,0.000000,4120.000000,4139.487305,4125.128418,4137.436035,4134.871582,4117.948730,4122.563965,4114.871582,4119.487305,4123.077148,4121.025879,4137.436035,4107.179688,4355.897461,766.000000,4.000000,,,,0.000000,4.000000,4.000000,4.000000,4.000000,4.000000,4.000000,4.000000,4.000000,4.000000,4.000000,4.000000,4.000000,4.000000,4.000000,100.000000
1602005977.563817,71.000000,0.000000,4130.256348,4141.538574,4127.179688,4138.461426,4135.897461,4125.641113,4122.051270,4124.615234,4124.615234,4153.333496,4124.615234,4139.487305,4113.333496,4364.102539,678.000000,4.000000,,,,0.000000,4.000000,4.000000,4.000000,4.000000,4.000000,4.000000,4.000000,4.000000,4.000000,4.000000,4.000000,4.000000,4.000000,4.000000,100.000000
1602005977.571700,72.000000,0.000000,4132.307617,4140.512695,4126.153809,4137.436035,4133.333496,4132.307617,4118.974121,4118.461426,4124.102539,4152.820313,4121.538574,4133.333496,4111.282227,4354.871582,784.000000,4.000000,,,,0.000000,4.000000,4.000000,4.000000,4.000000,4.000000,4.000000,4.000000,4.000000,4.000000,4.000000,4.000000,4.000000,4.000000,4.000000,100.000000
1602005977.579583,73.000000,0.000000,4124.102539,4141.538574,4122.563965,4137.948730,4138.461426,4126.666504,4107.179688,4109.743652,4121.538574,4129.230957,4117.948730,4123.077148,4106.666504,4338.461426,838.000000,4.000000,,,,0.000000,4.000000,4.000000,4.000000,4.000000,4.000000,4.000000,4.000000,4.000000,4.000000,4.000000,4.000000,4.000000,4.000000,4.000000,100.000000
1602005977.587465,74.000000,0.000000,4125.128418,4146.666504,4124.102539,4140.000000,4143.589844,4126.153809,4104.102539,4117.948730,4126.153809,4132.307617,4116.922852,4123.077148,4108.205078,4335.897461,871.000000,4.000000,,,,0.000000,4.000000,4.000000,4.000000,4.000000,4.000000,4.000000,4.000000,4.000000,4.000000,4.000000,4.000000,4.000000,4.000000,4.000000,100.000000
1602005977.595348,75.000000,0.000000,4128.717773,4144.102539,4123.077148,4140.000000,4140.000000,4136.922852,4114.358887,4126.153809,4133.846191,4147.179688,4115.384766,4127.692383,4102.051270,4330.769043,839.000000,4.000000,,,,0.000000,4.000000,4.000000,4.000000,4.000000,4.000000,4.000000,4.000000,4.000000,4.000000,4.000000,4.000000,4.000000,4.000000,4.000000,100.000000
1602005977.603231,76.000000,0.000000,4121.025879,4129.743652,4119.487305,4136.410156,4134.871582,4140.512695,4122.051270,4125.128418,4126.666504,4138.974121,4107.179688,4124.102539,4088.205078,4316.410156,767.000000,4.000000,,,,0.000000,4.000000,4.000000,4.000000,4.000000,4.000000,4.000000,4.000000,4.000000,4.000000,4.000000,4.000000,4.000000,4.000000,4.000000,100.000000
1602005977.611114,77.000000,0.000000,4115.384766,4127.692383,4118.461426,4135.384766,4136.410156,4138.974121,4127.692383,4129.230957,4112.307617,4118.974121,4102.563965,4118.461426,4093.333252,4308.205078,753.000000,4.000000,,,,0.000000,4.000000,4.000000,4.000000,4.000000,4.000000,4.000000,4.000000,4.000000,4.000000,4.000000,4.000000,4.000000,4.000000,4.000000,100.000000
1602005977.619097,78.000000,0.000000,4124.615234,4135.897461,4120.000000,4136.922852,4137.948730,4136.410156,4136.922852,4137.948730,4114.358887,4112.307617,4112.307617,4124.615234,4107.692383,4313.333496,871.000000,4.000000,,,,0.000000,4.000000,4.000000,4.000000,4.000000,4.000000,4.000000,4.000000,4.000000,4.000000,4.000000,4.000000,4.000000,4.000000,4.000000,100.000000
1602005977.626980,79.000000,0.000000,4135.384766,4137.436035,4128.717773,4137.948730,4134.871582,4127.692383,4141.025879,4138.461426,4126.666504,4124.615234,4126.153809,4136.922852,4107.692383,4322.051270,839.000000,4.000000,,,,0.000000,4.000000,4.000000,4.000000,4.000000,4.000000,4.000000,4.000000,4.000000,4.000000,4.000000,4.000000,4.000000,4.000000,4.000000,100.000000
1602005977.634863,80.000000,0.000000,4141.025879,4144.615234,4139.487305,4141.538574,4136.410156,4128.205078,4133.846191,4131.794922,4129.230957,4142.563965,4130.256348,4144.102539,4110.769043,4330.256348,767.000000,4.000000,,,,0.000000,4.000000,4.000000,4.000000,4.000000,4.000000,4.000000,4.000000,4.000000,4.000000,4.000000,4.000000,4.000000,4.000000,4.000000,100.000000
1602005977.642746,81.000000,0.000000,4137.948730,4154.358887,4134.871582,4144.102539,4140.000000,4134.871582,4125.641113,4125.128418,4124.615234,4148.717773,4125.641113,4141.538574,4120.512695,4328.717773,753.000000,4.000000,,,,0.000000,4.000000,4.000000,4.000000,4.000000,4.000000,4.000000,4.000000,4.000000,4.000000,4.000000,4.000000,4.000000,4.000000,4.000000,100.000000
1602005977.650629,82.000000,0.000000,4127.179688,4145.641113,4121.025879,4138.974121,4135.897461,4128.717773,4118.974121,4120.512695,4128.205078,4149.743652,4120.000000,4135.384766,4120.000000,4314.871582,871.000000,4.000000,,,,0.000000,4.000000,4.000000,4.000000,4.000000,4.000000,4.000000,4.000000,4.000000,4.000000,4.000000,4.000000,4.000000,4.000000,4.000000,100.000000
1602005977.658512,83.000000,0.000000,4122.563965,4140.000000,4120.000000,4137.436035,4141.538574,4128.717773,4113.846191,4122.051270,4137.948730,4153.846191,4120.000000,4134.871582,4118.461426,4307.179688,839.000000,4.000000,,,,0.000000,4.000000,4.000000,4.000000,4.000000,4.000000,4.000000,4.000000,4.000000,4.000000,4.000000,4.000000,4.000000,4.000000,4.000000,100.000000
1602005977.666395,84.000000,0.000000,4127.179688,4148.205078,4125.128418,4142.563965,4151.282227,4141.025879,4116.922852,4125.128418,4146.153809,4156.410156,4125.128418,4139.487305,4124.615234,4313.333496,767.000000,4.000000,,,,0.000000,4.000000,4.000000,4.000000,4.000000,4.000000,4.000000,4.000000,4.000000,4.000000,4.000000,4.000000,4.000000,4.000000,4.000000,100.000000
1602005977.674278,85.000000,0.000000,4125.641113,4145.641113,4124.615234,4143.077148,4144.102539,4140.000000,4121.538574,4125.128418,4142.563965,4144.615234,4125.641113,4141.025879,4124.615234,4306.153809,753.000000,4.000000,,,,0.000000,4.000000,4.000000,4.000000,4.000000,4.000000,4.000000,4.000000,4.000000,4.000000,4.000000,4.000000,4.000000,4.000000,4.000000,100.000000
1602005977.682161,86.000000,0.000000,4116.922852,4135.897461,4121.538574,4137.436035,4134.358887,4130.256348,4121.025879,4122.563965,4124.102539,4120.000000,4116.410156,4129.743652,4108.717773,4282.563965,871.000000,4.000000,,,,0.000000,4.000000,4.000000,4.000000,4.000000,4.000000,4.000000,4.000000,4.000000,4.000000,4.000000,4.000000,4.000000,4.000000,4.000000,100.000000
1602005977.689945,87.000000,0.000000,4115.384766,4134.358887,4119.487305,4135.897461,4135.897461,4125.641113,4121.025879,4119.487305,4114.358887,4115.897461,4105.128418,4123.589844,4095.384521,4277.436035,839.000000,4.000000,,,,0.000000,4.000000,4.000000,4.000000,4.000000,4.000000,4.000000,4.000000,4.000000,4.000000,4.000000,4.000000,4.000000,4.000000,4.000000,100.000000
1602005977.697828,88.000000,0.000000,4118.974121,4137.436035,4121.538574,4138.461426,4136.410156,4122.563965,4123.077148,4119.487305,4117.436035,4130.256348,4105.128418,4131.282227,4097.948730,4291.282227,767.000000,4.000000,,,,0.000000,4.000000,4.000000,4.000000,4.000000,4.000000,4.000000,4.000000,4.000000,4.000000,4.000000,4.000000,4.000000,4.000000,4.000000,100.000000
1602005977.705711,89.000000,0.000000,4120.512695,4139.487305,4123.589844,4138.974121,4136.410156,4125.128418,4122.563965,4121.538574,4120.000000,4138.974121,4118.974121,4136.410156,4108.717773,4297.436035,753.000000,4.000000,,,,0.000000,4.000000,4.000000,4.000000,4.000000,4.000000,4.000000,4.000000,4.000000,4.000000,4.000000,4.000000,4.000000,4.000000,4.000000,100.000000
1602005977.713595,90.000000,0.000000,4123.589844,4141.025879,4121.538574,4137.436035,4138.461426,4125.641113,4121.538574,4122.051270,4124.615234,4141.538574,4127.179688,4136.922852,4117.948730,4290.256348,871.000000,4.000000,,,,0.000000,4.000000,4.000000,4.000000,4.000000,4.000000,4.000000,4.000000,4.000000,4.000000,4.000000,4.000000,4.000000,4.000000,4.000000,100.000000
1602005977.721478,91.000000,0.000000,4128.205078,4145.641113,4121.025879,4140.512695,4137.948730,4121.538574,4120.512695,4123.589844,4137.948730,4138.461426,4122.051270,4138.974121,4123.589844,4282.563965,839.000000,4.000000,,,,0.000000,4.000000,4.000000,4.000000,4.000000,4.000000,4.000000,4.000000,4.000000,4.000000,4.000000,4.000000,4.000000,4.000000,4.000000,100.000000
1602005977.729361,92.000000,0.000000,4128.717773,4153.333496,4122.051270,4143.589844,4137.436035,4122.051270,4120.000000,4127.692383,4148.205078,4137.436035,4119.487305,4139.487305,4125.641113,4280.512695,767.000000,4.000000,,,,0.000000,4.000000,4.000000,4.000000,4.000000,4.000000,4.000000,4.000000,4.000000,4.000000,4.000000,4.000000,4.000000,4.000000,4.000000,100.000000
1602005977.737245,93.000000,0.000000,4128.717773,4154.358887,4121.025879,4141.538574,4135.384766,4123.589844,4119.487305,4130.256348,4146.666504,4140.000000,4127.179688,4135.384766,4124.102539,4282.051270,753.000000,4.000000,,,,0.000000,4.000000,4.000000,4.000000,4.000000,4.000000,4.000000,4.000000,4.000000,4.000000,4.000000,4.000000,4.000000,4.000000,4.000000,100.000000
1602005977.745128,94.000000,0.000000,4130.769043,4151.282227,4119.487305,4140.000000,4139.487305,4126.666504,4120.000000,4133.333496,4145.641113,4136.410156,4127.692383,4136.410156,4122.051270,4278.461426,871.000000,4.000000,,,,0.000000,4.000000,4.000000,4.000000,4.000000,4.000000,4.000000,4.000000,4.000000,4.000000,4.000000,4.000000,4.000000,4.000000,4.000000,100.000000
1602005977.753011,95.000000,0.000000,4131.282227,4153.846191,4122.051270,4141.538574,4151.794922,4139.487305,4122.563965,4139.487305,4156.410156,4143.077148,4123.077148,4138.461426,4125.641113,4275.384766,839.000000,4.000000,,,,0.000000,4.000000,4.000000,4.000000,4.000000,4.000000,4.000000,4.000000,4.000000,4.000000,4.000000,4.000000,4.000000,4.000000,4.000000,100.000000
1602005977.760793,96.000000,0.000000,4129.230957,4155.384766,4124.615234,4142.051270,4152.820313,4145.128418,4125.128418,4143.077148,4161.025879,4159.487305,4124.102539,4132.307617,4130.769043,4281.538574,767.000000,4.000000,,,,0.000000,4.000000,4.000000,4.000000,4.000000,4.000000,4.000000,4.000000,4.000000,4.000000,4.000000,4.000000,4.000000,4.000000,4.000000,100.000000
1602005977.768676,97.000000,0.000000,4125.128418,4147.179688,4122.563965,4140.512695,4141.025879,4128.205078,4121.538574,4133.333496,4139.487305,4144.615234,4120.000000,4122.051270,4120.000000,4278.974121,753.000000,4.000000,,,,0.000000,4.000000,4.000000,4.000000,4.000000,4.000000,4.000000,4.000000,4.000000,4.000000,4.000000,4.000000,4.000000,4.000000,4.000000,100.000000
1602005977.776558,98.000000,0.000000,4121.538574,4141.538574,4121.025879,4138.974121,4136.410156,4120.000000,4117.948730,4123.589844,4122.563965,4118.461426,4110.769043,4121.538574,4108.205078,4263.589844,871.000000,4.000000,,,,0.000000,4.000000,4.000000,4.000000,4.000000,4.000000,4.000000,4.000000,4.000000,4.000000,4.000000,4.000000,4.000000,4.000000,4.000000,100.000000
1602005977.784440,99.000000,0.000000,4125.128418,4143.589844,4126.153809,4138.974121,4138.974121,4134.871582,4121.538574,4125.128418,4135.384766,4127.692383,4110.256348,4127.692383,4117.436035,4257.948730,839.000000,4.000000,,,,0.000000,4.000000,4.000000,4.000000,4.000000,4.000000,4.000000,4.000000,4.000000,4.000000,4.000000,4.000000,4.000000,4.000000,4.000000,100.000000
1602005977.792322,100.000000,0.000000,4126.153809,4142.563965,4127.692383,4136.410156,4139.487305,4137.948730,4125.128418,4128.717773,4141.025879,4132.820313,4118.461426,4125.641113,4124.615234,4260.512695,767.000000,4.000000,,,,0.000000,4.000000,4.000000,4.000000,4.000000,4.000000,4.000000,4.000000,4.000000,4.000000,4.000000,4.000000,4.000000,4.000000,4.000000,100.000000
1602005977.800105,101.000000,0.000000,4117.436035,4135.897461,4118.974121,4130.769043,4138.974121,4125.128418,4124.615234,4128.717773,4127.179688,4126.666504,4122.563965,4123.077148,4120.512695,4258.461426,753.000000,4.000000,,,,0.000000,4.000000,4.000000,4.000000,4.000000,4.000000,4.000000,4.000000,4.000000,4.000000,4.000000,4.000000,4.000000,4.000000,4.000000,100.000000
1602005977.807988,102.000000,0.000000,4115.384766,4135.384766,4118.974121,4131.794922,4133.333496,4120.000000,4122.051270,4122.051270,4120.512695,4141.538574,4122.051270,4128.205078,4122.563965,4257.436035,871.000000,4.000000,,,,0.000000,4.000000,4.000000,4.000000,4.000000,4.000000,4.000000,4.000000,4.000000,4.000000,4.000000,4.000000,4.000000,4.000000,4.000000,100.000000
1602005977.815871,103.000000,0.000000,4124.102539,4141.025879,4133.846191,4137.436035,4131.282227,4123.077148,4115.384766,4109.743652,4115.897461,4138.461426,4124.102539,4130.256348,4124.615234,4264.615234,839.000000,4.000000,,,,0.000000,4.000000,4.000000,4.000000,4.000000,4.000000,4.000000,4.000000,4.000000,4.000000,4.000000,4.000000,4.000000,4.000000,4.000000,100.000000
1602005977.823754,104.000000,0.000000,4129.230957,4142.563965,4143.077148,4137.948730,4136.922852,4121.025879,4105.641113,4100.512695,4104.615234,4111.282227,4123.589844,4128.205078,4121.538574,4265.641113,767.000000,4.000000,,,,0.000000,4.000000,4.000000,4.000000,4.000000,4.000000,4.000000,4.000000,4.000000,4.000000,4.000000,4.000000,4.000000,4.000000,4.000000,100.000000
1602005977.831637,105.000000,0.000000,4126.153809,4140.512695,4136.922852,4139.487305,4137.948730,4121.025879,4101.025879,4101.025879,4109.230957,4121.025879,4113.333496,4128.205078,4122.051270,4255.384766,753.000000,4.000000,,,,0.000000,4.000000,4.000000,4.000000,4.000000,4.000000,4.000000,4.000000,4.000000,4.000000,4.000000,4.000000,4.000000,4.000000,4.000000,100.000000
1602005977.839521,106.000000,0.000000,4117.436035,4135.897461,4125.128418,4141.025879,4133.333496,4129.230957,4103.589844,4108.205078,4128.205078,4142.563965,4113.333496,4125.128418,4123.077148,4245.641113,871.000000,4.000000,,,,0.000000,4.000000,4.000000,4.000000,4.000000,4.000000,4.000000,4.000000,4.000000,4.000000,4.000000,4.000000,4.000000,4.000000,4.000000,100.000000
1602005977.847404,107.000000,0.000000,4114.358887,4136.922852,4121.025879,4137.948730,4135.384766,4136.922852,4111.282227,4126.153809,4136.922852,4133.333496,4130.769043,4122.051270,4122.563965,4246.153809,839.000000,4.000000,,,,0.000000,4.000000,4.000000,4.000000,4.000000,4.000000,4.000000,4.000000,4.000000,4.000000,4.000000,4.000000,4.000000,4.000000,4.000000,100.000000
1602005977.855287,108.000000,0.000000,4121.025879,4146.153809,4126.153809,4137.948730,4140.000000,4140.512695,4122.563965,4143.077148,4138.974121,4138.461426,4132.820313,4124.102539,4126.153809,4247.179688,767.000000,4.000000,,,,0.000000,4.000000,4.000000,4.000000,4.000000,4.000000,4.000000,4.000000,4.000000,4.000000,4.000000,4.000000,4.000000,4.000000,4.000000,100.000000
1602005977.863269,109.000000,0.000000,4124.102539,4147.179688,4129.743652,4140.512695,4138.461426,4134.871582,4125.128418,4143.077148,4144.615234,4158.974121,4118.974121,4122.051270,4123.589844,4239.487305,753.000000,4.000000,,,,0.000000,4.000000,4.000000,4.000000,4.000000,4.000000,4.000000,4.000000,4.000000,4.000000,4.000000,4.000000,4.000000,4.000000,4.000000,100.000000
1602005977.871152,110.000000,0.000000,4117.948730,4138.461426,4125.128418,4138.461426,4136.410156,4125.641113,4117.436035,4138.974121,4144.102539,4155.384766,4117.948730,4112.820313,4118.974121,4227.692383,871.000000,4.000000,,,,0.000000,4.000000,4.000000,4.000000,4.000000,4.000000,4.000000,4.000000,4.000000,4.000000,4.000000,4.000000,4.000000,4.000000,4.000000,100.000000
1602005977.879035,111.000000,0.000000,4117.436035,4137.436035,4123.589844,4136.410156,4137.436035,4120.512695,4111.794922,4135.384766,4134.358887,4141.538574,4121.538574,4107.692383,4122.051270,4221.538574,839.000000,4.000000,,,,0.000000,4.000000,4.000000,4.000000,4.000000,4.000000,4.000000,4.000000,4.000000,4.000000,4.000000,4.000000,4.000000,4.000000,4.000000,100.000000
1602005977.886918,112.000000,0.000000,4120.512695,4142.563965,4128.205078,4139.487305,4141.538574,4121.025879,4106.666504,4126.666504,4126.666504,4127.692383,4111.282227,4108.205078,4119.487305,4214.358887,767.000000,4.000000,,,,0.000000,4.000000,4.000000,4.000000,4.000000,4.000000,4.000000,4.000000,4.000000,4.000000,4.000000,4.000000,4.000000,4.000000,4.000000,100.000000
1602005977.894801,113.000000,0.000000,4118.461426,4140.000000,4127.692383,4141.025879,4139.487305,4120.000000,4099.487305,4113.846191,4116.922852,4106.666504,4104.102539,4110.256348,4106.153809,4206.666504,753.000000,4.000000,,,,0.000000,4.000000,4.000000,4.000000,4.000000,4.000000,4.000000,4.000000,4.000000,4.000000,4.000000,4.000000,4.000000,4.000000,4.000000,100.000000
1602005977.902684,114.000000,0.000000,4119.487305,4136.922852,4128.717773,4137.948730,4135.384766,4120.512695,4100.000000,4106.153809,4112.307617,4107.179688,4111.282227,4117.948730,4107.692383,4212.820313,871.000000,4.000000,,,,0.000000,4.000000,4.000000,4.000000,4.000000,4.000000,4.000000,4.000000,4.000000,4.000000,4.000000,4.000000,4.000000,4.000000,4.000000,100.000000
1602005977.910566,115.000000,0.000000,4124.615234,4141.538574,4137.948730,4140.000000,4145.641113,4131.794922,4108.205078,4112.820313,4125.128418,4128.717773,4124.615234,4133.846191,4130.769043,4229.743652,839.000000,4.000000,,,,0.000000,4.000000,4.000000,4.000000,4.000000,4.000000,4.000000,4.000000,4.000000,4.000000,4.000000,4.000000,4.000000,4.000000,4.000000,100.000000
1602005977.918549,116.000000,0.000000,4129.230957,4145.128418,4141.538574,4144.102539,4152.820313,4141.025879,4115.384766,4122.563965,4138.461426,4145.128418,4135.384766,4141.025879,4143.077148,4237.948730,767.000000,4.000000,,,,0.000000,4.000000,4.000000,4.000000,4.000000,4.000000,4.000000,4.000000,4.000000,4.000000,4.000000,4.000000,4.000000,4.000000,4.000000,100.000000
1602005977.926431,117.000000,0.000000,4129.743652,4140.000000,4137.436035,4143.077148,4145.128418,4139.487305,4120.512695,4127.692383,4145.128418,4151.282227,4141.025879,4137.948730,4136.922852,4226.153809,753.000000,4.000000,,,,0.000000,4.000000,4.000000,4.000000,4.000000,4.000000,4.000000,4.000000,4.000000,4.000000,4.000000,4.000000,4.000000,4.000000,4.000000,100.000000
1602005977.934314,118.000000,0.000000,4131.794922,4138.461426,4136.922852,4141.025879,4142.051270,4139.487305,4123.077148,4134.358887,4156.922852,4150.769043,4138.974121,4133.846191,4140.000000,4218.461426,871.000000,4.000000,,,,0.000000,4.000000,4.000000,4.000000,4.000000,4.000000,4.000000,4.000000,4.000000,4.000000,4.000000,4.000000,4.000000,4.000000,4.000000,100.000000
1602005977.942197,119.000000,0.000000,4130.256348,4143.589844,4134.358887,4141.538574,4144.102539,4136.410156,4125.641113,4141.025879,4154.358887,4143.077148,4130.256348,4128.205078,4138.461426,4218.974121,839.000000,4.000000,,,,0.000000,4.000000,4.000000,4.000000,4.000000,4.000000,4.000000,4.000000,4.000000,4.000000,4.000000,4.000000,4.000000,4.000000,4.000000,100.000000
1602005977.950079,120.000000,0.000000,4111.794922,4134.358887,4123.589844,4138.461426,4137.436035,4126.153809,4127.179688,4137.948730,4133.333496,4133.846191,4119.487305,4117.948730,4110.769043,4196.410156,767.000000,4.000000,,,,0.000000,4.000000,4.000000,4.000000,4.000000,4.000000,4.000000,4.000000,4.000000,4.000000,4.000000,4.000000,4.000000,4.000000,4.000000,100.000000
1602005977.957962,121.000000,0.000000,4097.948730,4121.538574,4117.436035,4133.846191,4130.256348,4122.563965,4125.128418,4135.897461,4129.743652,4135.897461,4116.410156,4113.333496,4097.436035,4176.922852,753.000000,4.000000,,,,0.000000,4.000000,4.000000,4.000000,4.000000,4.000000,4.000000,4.000000,4.000000,4.000000,4.000000,4.000000,4.000000,4.000000,4.000000,100.000000
1602005977.965844,122.000000,0.000000,4106.666504,4124.102539,4123.077148,4132.307617,4136.410156,4135.384766,4128.717773,4140.512695,4139.487305,4136.922852,4127.692383,4118.974121,4127.692383,4196.922852,871.000000,4.000000,,,,0.000000,4.000000,4.000000,4.000000,4.000000,4.000000,4.000000,4.000000,4.000000,4.000000,4.000000,4.000000,4.000000,4.000000,4.000000,100.000000
1602005977.973628,123.000000,0.000000,4108.717773,4124.102539,4125.128418,4127.179688,4138.974121,4139.487305,4135.384766,4136.410156,4131.282227,4124.615234,4136.922852,4122.563965,4153.333496,4217.948730,839.000000,4.000000,,,,0.000000,4.000000,4.000000,4.000000,4.000000,4.000000,4.000000,4.000000,4.000000,4.000000,4.000000,4.000000,4.000000,4.000000,4.000000,100.000000
1602005977.981511,124.000000,0.000000,4091.794922,4111.794922,4117.436035,4120.512695,4131.282227,4130.769043,4135.897461,4124.102539,4117.436035,4120.512695,4136.922852,4121.025879,4152.307617,4211.794922,767.000000,4.000000,,,,0.000000,4.000000,4.000000,4.000000,4.000000,4.000000,4.000000,4.000000,4.000000,4.000000,4.000000,4.000000,4.000000,4.000000,4.000000,100.000000
1602005977.989394,125.000000,0.000000,4080.000000,4103.077148,4110.256348,4120.000000,4130.256348,4131.282227,4134.358887,4118.974121,4118.974121,4135.897461,4136.410156,4120.512695,4163.077148,4212.820313,753.000000,4.000000,,,,0.000000,4.000000,4.000000,4.000000,4.000000,4.000000,4.000000,4.000000,4.000000,4.000000,4.000000,4.000000,4.000000,4.000000,4.000000,100.000000
1602005977.997277,126.000000,0.000000,4076.410156,4098.461426,4110.769043,4117.948730,4138.461426,4141.025879,4134.358887,4123.589844,4130.256348,4141.538574,4137.436035,4122.563965,4175.897461,4220.512695,871.000000,4.000000,,,,0.000000,4.000000,4.000000,4.000000,4.000000,4.000000,4.000000,4.000000,4.000000,4.000000,4.000000,4.000000,4.000000,4.000000,4.000000,100.000000
1602005978.005160,127.000000,0.000000,4077.435791,4092.307617,4117.948730,4115.384766,4140.512695,4148.205078,4136.410156,4128.205078,4139.487305,4140.512695,4143.077148,4127.692383,4170.256348,4214.358887,839.000000,4.000000,,,,0.000000,4.000000,4.000000,4.000000,4.000000,4.000000,4.000000,4.000000,4.000000,4.000000,4.000000,4.000000,4.000000,4.000000,4.000000,100.000000
1602005978.013043,128.000000,0.000000,4086.666748,4094.871826,4126.666504,4120.512695,4135.897461,4155.384766,4141.025879,4136.410156,4151.794922,4163.077148,4151.282227,4140.512695,4170.256348,4214.871582,767.000000,4.000000,,,,0.000000,4.000000,4.000000,4.000000,4.000000,4.000000,4.000000,4.000000,4.000000,4.000000,4.000000,4.000000,4.000000,4.000000,4.000000,100.000000
1602005978.020926,0.000000,0.000000,4085.641113,4094.358887,4128.717773,4120.000000,4132.307617,4155.384766,4144.615234,4149.230957,4165.128418,4177.948730,4147.692383,4146.666504,4173.846191,4215.897461,798.000000,4.000000,,,,0.000000,4.000000,4.000000,4.000000,4.000000,4.000000,4.000000,4.000000,4.000000,4.000000,4.000000,4.000000,4.000000,4.000000,4.000000,100.000000
1602005978.028809,1.000000,0.000000,4068.205078,4081.538574,4123.589844,4108.205078,4124.102539,4141.538574,4142.051270,4153.333496,4164.615234,4158.974121,4134.871582,4138.974121,4159.487305,4203.589844,796.000000,4.000000,,,,0.000000,4.000000,4.000000,4.000000,4.000000,4.000000,4.000000,4.000000,4.000000,4.000000,4.000000,4.000000,4.000000,4.000000,4.000000,100.000000
1602005978.036791,2.000000,0.000000,4055.384521,4074.871826,4119.487305,4102.563965,4116.922852,4136.410156,4140.000000,4149.230957,4150.256348,4124.615234,4135.384766,4135.897461,4147.179688,4191.794922,848.000000,4.000000,,,,0.000000,4.000000,4.000000,4.000000,4.000000,4.000000,4.000000,4.000000,4.000000,4.000000,4.000000,4.000000,4.000000,4.000000,4.000000,100.000000
1602005978.044673,3.000000,0.000000,4064.102539,4082.564209,4124.615234,4109.743652,4122.563965,4140.512695,4140.512695,4143.077148,4141.025879,4104.615234,4142.051270,4141.025879,4153.846191,4193.333496,871.000000,4.000000,,,,0.000000,4.000000,4.000000,4.000000,4.000000,4.000000,4.000000,4.000000,4.000000,4.000000,4.000000,4.000000,4.000000,4.000000,4.000000,100.000000
1602005978.052555,4.000000,0.000000,4082.564209,4090.769287,4136.410156,4120.512695,4125.128418,4137.948730,4137.436035,4138.461426,4138.974121,4124.102539,4138.974121,4139.487305,4157.436035,4201.025879,815.000000,4.000000,,,,0.000000,4.000000,4.000000,4.000000,4.000000,4.000000,4.000000,4.000000,4.000000,4.000000,4.000000,4.000000,4.000000,4.000000,4.000000,100.000000
1602005978.060437,5.000000,0.000000,4090.256348,4096.922852,4142.051270,4125.128418,4124.615234,4140.512695,4138.974121,4142.051270,4142.051270,4165.641113,4140.000000,4140.512695,4158.974121,4204.102539,820.000000,4.000000,,,,0.000000,4.000000,4.000000,4.000000,4.000000,4.000000,4.000000,4.000000,4.000000,4.000000,4.000000,4.000000,4.000000,4.000000,4.000000,100.000000
1602005978.068320,6.000000,0.000000,4089.230713,4107.179688,4141.025879,4125.128418,4133.333496,4153.846191,4150.769043,4152.820313,4150.256348,4177.948730,4150.256348,4154.358887,4168.205078,4202.563965,766.000000,4.000000,,,,0.000000,4.000000,4.000000,4.000000,4.000000,4.000000,4.000000,4.000000,4.000000,4.000000,4.000000,4.000000,4.000000,4.000000,4.000000,100.000000
1602005978.076303,7.000000,0.000000,4095.384521,4110.256348,4145.641113,4124.615234,4137.948730,4161.025879,4158.974121,4160.000000,4155.897461,4164.615234,4160.512695,4161.025879,4173.333496,4200.512695,678.000000,4.000000,,,,0.000000,4.000000,4.000000,4.000000,4.000000,4.000000,4.000000,4.000000,4.000000,4.000000,4.000000,4.000000,4.000000,4.000000,4.000000,100.000000
1602005978.084186,8.000000,0.000000,4093.333252,4097.948730,4147.692383,4122.051270,4132.307617,4153.333496,4154.871582,4154.358887,4151.794922,4163.077148,4153.333496,4146.153809,4161.538574,4194.358887,784.000000,4.000000,,,,0.000000,4.000000,4.000000,4.000000,4.000000,4.000000,4.000000,4.000000,4.000000,4.000000,4.000000,4.000000,4.000000,4.000000,4.000000,100.000000
1602005978.092069,9.000000,0.000000,4066.153809,4077.948730,4124.615234,4105.128418,4121.538574,4140.512695,4146.153809,4143.077148,4143.077148,4145.641113,4127.179688,4120.512695,4139.487305,4170.769043,838.000000,4.000000,,,,0.000000,4.000000,4.000000,4.000000,4.000000,4.000000,4.000000,4.000000,4.000000,4.000000,4.000000,4.000000,4.000000,4.000000,4.000000,100.000000
1602005978.099952,10.000000,0.000000,4046.153809,4063.076904,4100.512695,4088.205078,4108.717773,4133.846191,4140.000000,4133.846191,4137.436035,4097.436035,4109.230957,4103.589844,4121.025879,4138.461426,871.000000,4.000000,,,,0.000000,4.000000,4.000000,4.000000,4.000000,4.000000,4.000000,4.000000,4.000000,4.000000,4.000000,4.000000,4.000000,4.000000,4.000000,100.000000
1602005978.107835,11.000000,0.000000,4053.846191,4062.051270,4107.179688,4091.281982,4102.563965,4131.282227,4133.333496,4130.256348,4137.436035,4086.153809,4116.922852,4100.512695,4118.461426,4127.692383,839.000000,4.000000,,,,0.000000,4.000000,4.000000,4.000000,4.000000,4.000000,4.000000,4.000000,4.000000,4.000000,4.000000,4.000000,4.000000,4.000000,4.000000,100.000000
1602005978.115718,12.000000,0.000000,4063.589844,4072.307617,4125.128418,4103.077148,4111.282227,4127.692383,4124.615234,4130.256348,4137.948730,4125.641113,4132.307617,4100.512695,4129.743652,4146.153809,767.000000,4.000000,,,,0.000000,4.000000,4.000000,4.000000,4.000000,4.000000,4.000000,4.000000,4.000000,4.000000,4.000000,4.000000,4.000000,4.000000,4.000000,100.000000
1602005978.123601,13.000000,0.000000,4069.230713,4085.641113,4129.743652,4109.743652,4124.615234,4128.205078,4123.077148,4136.410156,4138.974121,4152.307617,4136.922852,4109.230957,4140.512695,4166.666504,753.000000,4.000000,,,,0.000000,4.000000,4.000000,4.000000,4.000000,4.000000,4.000000,4.000000,4.000000,4.000000,4.000000,4.000000,4.000000,4.000000,4.000000,100.000000
1602005978.131484,14.000000,0.000000,4075.384521,4093.333252,4126.666504,4111.794922,4125.641113,4136.410156,4129.743652,4140.000000,4141.025879,4153.333496,4133.333496,4120.512695,4142.563965,4161.025879,871.000000,4.000000,,,,0.000000,4.000000,4.000000,4.000000,4.000000,4.000000,4.000000,4.000000,4.000000,4.000000,4.000000,4.000000,4.000000,4.000000,4.000000,100.000000
1602005978.139267,15.000000,0.000000,4071.281982,4092.307617,4123.589844,4110.769043,4122.051270,4146.666504,4135.897461,4132.307617,4138.461426,4153.333496,4123.077148,4113.846191,4135.897461,4142.563965,839.000000,4.000000,,,,0.000000,4.000000,4.000000,4.000000,4.000000,4.000000,4.000000,4.000000,4.000000,4.000000,4.000000,4.000000,4.000000,4.000000,4.000000,100.000000
1602005978.147151,16.000000,0.000000,4068.205078,4091.281982,4120.512695,4107.692383,4127.692383,4151.282227,4136.922852,4128.717773,4135.384766,4141.538574,4118.974121,4103.589844,4130.769043,4142.563965,0.000000,4.000000,,,,0.000000,4.000000,4.000000,4.000000,4.000000,4.000000,4.000000,4.000000,4.000000,4.000000,4.000000,4.000000,4.000000,4.000000,4.000000,100.000000
1602005978.155034,17.000000,0.000000,4076.923096,4097.436035,4122.051270,4111.794922,4140.512695,4146.666504,4137.436035,4137.436035,4138.974121,4125.128418,4130.256348,4112.820313,4135.897461,4153.846191,0.000000,4.000000,,,,0.000000,4.000000,4.000000,4.000000,4.000000,4.000000,4.000000,4.000000,4.000000,4.000000,4.000000,4.000000,4.000000,4.000000,4.000000,100.000000
1602005978.162917,18.000000,0.000000,4075.384521,4098.461426,4126.153809,4115.897461,4138.974121,4142.051270,4137.436035,4135.384766,4131.794922,4122.563965,4130.769043,4120.000000,4140.512695,4147.692383,0.000000,4.000000,,,,0.000000,4.000000,4.000000,4.000000,4.000000,4.000000,4.000000,4.000000,4.000000,4.000000,4.000000,4.000000,4.000000,4.000000,4.000000,100.000000
1602005978.170801,19.000000,0.000000,4062.564209,4091.281982,4123.589844,4107.692383,4127.692383,4142.563965,4137.436035,4126.666504,4120.000000,4119.487305,4119.487305,4114.871582,4134.871582,4128.205078,0.000000,4.000000,,,,0.000000,4.000000,4.000000,4.000000,4.000000,4.000000,4.000000,4.000000,4.000000,4.000000,4.000000,4.000000,4.000000,4.000000,4.000000,100.000000
1602005978.178684,20.000000,0.000000,4069.230713,4096.922852,4122.563965,4105.641113,4131.794922,4142.563965,4140.512695,4134.358887,4129.230957,4130.256348,4121.025879,4120.512695,4136.922852,4134.358887,0.000000,4.000000,,,,0.000000,4.000000,4.000000,4.000000,4.000000,4.000000,4.000000,4.000000,4.000000,4.000000,4.000000,4.000000,4.000000,4.000000,4.000000,100.000000
1602005978.186567,21.000000,0.000000,4081.025635,4106.153809,4123.077148,4115.384766,4138.461426,4137.948730,4141.538574,4141.538574,4135.897461,4150.256348,4133.333496,4127.179688,4150.256348,4150.256348,0.000000,4.000000,,,,0.000000,4.000000,4.000000,4.000000,4.000000,4.000000,4.000000,4.000000,4.000000,4.000000,4.000000,4.000000,4.000000,4.000000,4.000000,100.000000
1602005978.194451,22.000000,0.000000,4078.461426,4105.641113,4121.025879,4121.538574,4129.743652,4132.307617,4138.461426,4130.769043,4125.128418,4133.333496,4136.922852,4122.563965,4150.256348,4143.589844,0.000000,4.000000,,,,0.000000,4.000000,4.000000,4.000000,4.000000,4.000000,4.000000,4.000000,4.000000,4.000000,4.000000,4.000000,4.000000,4.000000,4.000000,100.000000
1602005978.202334,23.000000,0.000000,4083.076904,4109.743652,4127.692383,4122.051270,4126.666504,4126.666504,4139.487305,4127.692383,4121.025879,4118.974121,4139.487305,4126.666504,4152.820313,4140.512695,0.000000,4.000000,,,,0.000000,4.000000,4.000000,4.000000,4.000000,4.000000,4.000000,4.000000,4.000000,4.000000,4.000000,4.000000,4.000000,4.000000,4.000000,100.000000
1602005978.210315,24.000000,0.000000,4093.846191,4118.461426,4137.436035,4125.128418,4133.846191,4122.563965,4135.384766,4136.410156,4129.230957,4145.641113,4149.743652,4136.922852,4168.717773,4150.256348,0.000000,4.000000,,,,0.000000,4.000000,4.000000,4.000000,4.000000,4.000000,4.000000,4.000000,4.000000,4.000000,4.000000,4.000000,4.000000,4.000000,4.000000,100.000000
1602005978.218197,25.000000,0.000000,4093.846191,4115.897461,4138.974121,4126.666504,4129.230957,4124.615234,4127.692383,4137.948730,4134.358887,4154.358887,4152.820313,4137.948730,4168.205078,4147.692383,0.000000,4.000000,,,,0.000000,4.000000,4.000000,4.000000,4.000000,4.000000,4.000000,4.000000,4.000000,4.000000,4.000000,4.000000,4.000000,4.000000,4.000000,100.000000
1602005978.226178,26.000000,0.000000,4085.641113,4109.230957,4136.410156,4122.051270,4119.487305,4129.230957,4131.282227,4136.922852,4137.948730,4129.743652,4145.641113,4134.871582,4155.897461,4140.000000,0.000000,4.000000,,,,0.000000,4.000000,4.000000,4.000000,4.000000,4.000000,4.000000,4.000000,4.000000,4.000000,4.000000,4.000000,4.000000,4.000000,4.000000,100.000000
1602005978.234059,27.000000,0.000000,4083.076904,4107.692383,4135.897461,4120.000000,4122.563965,4125.641113,4141.025879,4140.512695,4136.922852,4128.205078,4143.589844,4130.256348,4156.922852,4145.641113,0.000000,4.000000,,,,0.000000,4.000000,4.000000,4.000000,4.000000,4.000000,4.000000,4.000000,4.000000,4.000000,4.000000,4.000000,4.000000,4.000000,4.000000,100.000000
1602005978.241941,28.000000,0.000000,4086.153809,4106.153809,4135.384766,4119.487305,4124.615234,4122.563965,4140.512695,4141.025879,4133.846191,4150.256348,4142.051270,4122.563965,4158.461426,4144.615234,0.000000,4.000000,,,,0.000000,4.000000,4.000000,4.000000,4.000000,4.000000,4.000000,4.000000,4.000000,4.000000,4.000000,4.000000,4.000000,4.000000,4.000000,100.000000
1602005978.249723,29.000000,0.000000,4086.153809,4107.179688,4135.384766,4120.000000,4125.641113,4132.820313,4138.974121,4138.974121,4139.487305,4152.820313,4136.922852,4123.077148,4153.333496,4130.256348,0.000000,4.000000,,,,0.000000,4.000000,4.000000,4.000000,4.000000,4.000000,4.000000,4.000000,4.000000,4.000000,4.000000,4.000000,4.000000,4.000000,4.000000,100.000000
1602005978.257606,30.000000,0.000000,4077.435791,4108.205078,4133.333496,4122.051270,4128.205078,4134.871582,4138.974121,4138.461426,4135.897461,4138.974121,4135.384766,4125.128418,4155.384766,4125.128418,0.000000,4.000000,,,,0.000000,4.000000,4.000000,4.000000,4.000000,4.000000,4.000000,4.000000,4.000000,4.000000,4.000000,4.000000,4.000000,4.000000,4.000000,100.000000
1602005978.265488,31.000000,0.000000,4069.230713,4106.153809,4123.589844,4120.512695,4125.128418,4117.948730,4129.230957,4135.384766,4123.077148,4133.846191,4132.820313,4117.948730,4152.820313,4121.538574,0.000000,4.000000,,,,0.000000,4.000000,4.000000,4.000000,4.000000,4.000000,4.000000,4.000000,4.000000,4.000000,4.000000,4.000000,4.000000,4.000000,4.000000,100.000000
1602005978.273370,32.000000,0.000000,4080.512939,4107.692383,4121.538574,4121.025879,4128.205078,4119.487305,4124.102539,4135.384766,4129.230957,4137.948730,4139.487305,4122.563965,4150.769043,4122.563965,0.000000,4.000000,,,,0.000000,4.000000,4.000000,4.000000,4.000000,4.000000,4.000000,4.000000,4.000000,4.000000,4.000000,4.000000,4.000000,4.000000,4.000000,100.000000
1602005978.281253,33.000000,0.000000,4091.281982,4110.256348,4129.743652,4124.615234,4134.871582,4138.974121,4127.179688,4136.922852,4138.974121,4141.025879,4153.333496,4137.948730,4161.538574,4128.205078,0.000000,4.000000,,,,0.000000,4.000000,4.000000,4.000000,4.000000,4.000000,4.000000,4.000000,4.000000,4.000000,4.000000,4.000000,4.000000,4.000000,4.000000,100.000000
1602005978.289135,34.000000,0.000000,4084.615479,4111.794922,4134.358887,4123.077148,4133.846191,4135.384766,4126.153809,4134.871582,4132.307617,4140.512695,4152.307617,4137.948730,4160.512695,4126.666504,0.000000,4.000000,,,,0.000000,4.000000,4.000000,4.000000,4.000000,4.000000,4.000000,4.000000,4.000000,4.000000,4.000000,4.000000,4.000000,4.000000,4.000000,100.000000
1602005978.297118,35.000000,0.000000,4083.076904,4117.948730,4137.948730,4126.153809,4131.794922,4123.077148,4128.205078,4134.358887,4127.692383,4137.948730,4146.666504,4132.307617,4154.358887,4120.000000,0.000000,4.000000,,,,0.000000,4.000000,4.000000,4.000000,4.000000,4.000000,4.000000,4.000000,4.000000,4.000000,4.000000,4.000000,4.000000,4.000000,4.000000,100.000000
1602005978.305001,36.000000,0.000000,4092.307617,4125.128418,4147.179688,4136.922852,4136.922852,4135.897461,4138.461426,4138.461426,4138.461426,4140.000000,4152.307617,4137.948730,4166.666504,4121.025879,0.000000,4.000000,,,,0.000000,4.000000,4.000000,4.000000,4.000000,4.000000,4.000000,4.000000,4.000000,4.000000,4.000000,4.000000,4.000000,4.000000,4.000000,100.000000
1602005978.312883,37.000000,0.000000,4097.948730,4124.102539,4148.717773,4134.871582,4138.974121,4148.717773,4143.077148,4142.051270,4148.205078,4153.846191,4154.871582,4143.589844,4171.794922,4130.256348,0.000000,4.000000,,,,0.000000,4.000000,4.000000,4.000000,4.000000,4.000000,4.000000,4.000000,4.000000,4.000000,4.000000,4.000000,4.000000,4.000000,4.000000,100.000000
1602005978.320766,38.000000,0.000000,4093.846191,4114.871582,4140.000000,4122.051270,4131.282227,4140.000000,4137.948730,4137.948730,4148.717773,4157.948730,4150.256348,4146.666504,4157.436035,4127.179688,0.000000,4.000000,,,,0.000000,4.000000,4.000000,4.000000,4.000000,4.000000,4.000000,4.000000,4.000000,4.000000,4.000000,4.000000,4.000000,4.000000,4.000000,100.000000
1602005978.328649,39.000000,0.000000,4091.281982,4109.743652,4137.436035,4119.487305,4123.589844,4136.922852,4135.897461,4138.461426,4153.846191,4153.333496,4151.282227,4153.333496,4155.384766,4118.974121,0.000000,4.000000,,,,0.000000,4.000000,4.000000,4.000000,4.000000,4.000000,4.000000,4.000000,4.000000,4.000000,4.000000,4.000000,4.000000,4.000000,4.000000,100.000000
1602005978.336532,40.000000,0.000000,4091.281982,4110.256348,4135.897461,4122.051270,4123.077148,4146.153809,4134.871582,4146.153809,4160.512695,4160.512695,4151.794922,4149.743652,4165.641113,4122.051270,0.000000,4.000000,,,,0.000000,4.000000,4.000000,4.000000,4.000000,4.000000,4.000000,4.000000,4.000000,4.000000,4.000000,4.000000,4.000000,4.000000,4.000000,100.000000
1602005978.344415,41.000000,0.000000,4085.641113,4108.717773,4126.153809,4117.436035,4126.666504,4142.051270,4127.179688,4141.538574,4147.692383,4146.153809,4140.000000,4138.461426,4156.410156,4119.487305,0.000000,4.000000,,,,0.000000,4.000000,4.000000,4.000000,4.000000,4.000000,4.000000,4.000000,4.000000,4.000000,4.000000,4.000000,4.000000,4.000000,4.000000,100.000000
1602005978.352298,42.000000,0.000000,4073.846191,4104.102539,4118.461426,4115.897461,4126.666504,4130.256348,4123.077148,4130.256348,4133.333496,4114.358887,4125.128418,4134.358887,4137.948730,4107.692383,0.000000,4.000000,,,,0.000000,4.000000,4.000000,4.000000,4.000000,4.000000,4.000000,4.000000,4.000000,4.000000,4.000000,4.000000,4.000000,4.000000,4.000000,100.000000
1602005978.360081,43.000000,0.000000,4073.333252,4103.077148,4122.051270,4120.512695,4123.589844,4131.282227,4131.794922,4132.820313,4135.384766,4122.563965,4128.205078,4137.436035,4137.948730,4103.589844,0.000000,4.000000,,,,0.000000,4.000000,4.000000,4.000000,4.000000,4.000000,4.000000,4.000000,4.000000,4.000000,4.000000,4.000000,4.000000,4.000000,4.000000,100.000000
1602005978.367964,44.000000,0.000000,4086.666748,4109.230957,4131.282227,4124.102539,4124.615234,4138.974121,4138.974121,4140.000000,4138.974121,4145.128418,4147.692383,4137.948730,4150.769043,4107.692383,0.000000,4.000000,,,,0.000000,4.000000,4.000000,4.000000,4.000000,4.000000,4.000000,4.000000,4.000000,4.000000,4.000000,4.000000,4.000000,4.000000,4.000000,100.000000
1602005978.375847,45.000000,0.000000,4091.794922,4117.436035,4138.461426,4125.641113,4131.794922,4137.948730,4139.487305,4137.948730,4136.922852,4139.487305,4155.384766,4138.974121,4156.410156,4112.820313,0.000000,4.000000,,,,0.000000,4.000000,4.000000,4.000000,4.000000,4.000000,4.000000,4.000000,4.000000,4.000000,4.000000,4.000000,4.000000,4.000000,4.000000,100.000000
1602005978.383730,46.000000,0.000000,4089.230713,4122.051270,4136.410156,4128.717773,4136.922852,4140.512695,4141.538574,4135.384766,4140.000000,4141.025879,4151.794922,4146.153809,4156.922852,4112.820313,0.000000,4.000000,,,,0.000000,4.000000,4.000000,4.000000,4.000000,4.000000,4.000000,4.000000,4.000000,4.000000,4.000000,4.000000,4.000000,4.000000,4.000000,100.000000
1602005978.391613,47.000000,0.000000,4092.820557,4122.563965,4136.410156,4133.333496,4136.410156,4150.769043,4141.538574,4134.871582,4140.000000,4162.563965,4153.333496,4151.794922,4163.077148,4109.743652,0.000000,4.000000,,,,0.000000,4.000000,4.000000,4.000000,4.000000,4.000000,4.000000,4.000000,4.000000,4.000000,4.000000,4.000000,4.000000,4.000000,4.000000,100.000000
1602005978.399496,48.000000,0.000000,4105.641113,4124.615234,4148.717773,4138.461426,4136.922852,4155.384766,4138.461426,4135.897461,4141.538574,4165.641113,4157.436035,4154.871582,4169.743652,4113.333496,0.000000,4.000000,,,,0.000000,4.000000,4.000000,4.000000,4.000000,4.000000,4.000000,4.000000,4.000000,4.000000,4.000000,4.000000,4.000000,4.000000,4.000000,100.000000
1602005978.407379,49.000000,0.000000,4109.743652,4127.179688,4153.333496,4138.974121,4140.512695,4154.358887,4134.871582,4137.948730,4154.358887,4145.641113,4156.922852,4154.358887,4173.333496,4117.948730,0.000000,4.000000,,,,0.000000,4.000000,4.000000,4.000000,4.000000,4.000000,4.000000,4.000000,4.000000,4.000000,4.000000,4.000000,4.000000,4.000000,4.000000,100.000000
1602005978.415262,50.000000,0.000000,4098.461426,4123.077148,4143.077148,4130.769043,4136.410156,4150.256348,4128.717773,4135.897461,4155.897461,4139.487305,4150.256348,4145.128418,4170.769043,4110.769043,0.000000,4.000000,,,,0.000000,4.000000,4.000000,4.000000,4.000000,4.000000,4.000000,4.000000,4.000000,4.000000,4.000000,4.000000,4.000000,4.000000,4.000000,100.000000
1602005978.423244,51.000000,0.000000,4089.743652,4113.846191,4136.922852,4123.589844,4126.666504,4145.128418,4130.256348,4132.820313,4143.589844,4152.820313,4140.000000,4134.871582,4157.948730,4100.512695,0.000000,4.000000,,,,0.000000,4.000000,4.000000,4.000000,4.000000,4.000000,4.000000,4.000000,4.000000,4.000000,4.000000,4.000000,4.000000,4.000000,4.000000,100.000000
1602005978.431126,52.000000,0.000000,4090.769287,4106.666504,4137.948730,4124.102539,4120.512695,4143.077148,4138.974121,4135.897461,4138.461426,4154.871582,4134.358887,4134.871582,4149.230957,4093.846191,0.000000,4.000000,,,,0.000000,4.000000,4.000000,4.000000,4.000000,4.000000,4.000000,4.000000,4.000000,4.000000,4.000000,4.000000,4.000000,4.000000,4.000000,100.000000
1602005978.439009,53.000000,0.000000,4091.281982,4105.128418,4137.948730,4123.589844,4125.641113,4142.563965,4142.563965,4137.948730,4141.025879,4142.563965,4135.384766,4140.512695,4150.256348,4088.718018,0.000000,4.000000,,,,0.000000,4.000000,4.000000,4.000000,4.000000,4.000000,4.000000,4.000000,4.000000,4.000000,4.000000,4.000000,4.000000,4.000000,4.000000,100.000000
1602005978.446891,54.000000,0.000000,4088.718018,4111.282227,4137.436035,4123.589844,4136.410156,4141.025879,4140.000000,4136.410156,4139.487305,4137.436035,4138.461426,4139.487305,4152.820313,4090.769287,0.000000,4.000000,,,,0.000000,4.000000,4.000000,4.000000,4.000000,4.000000,4.000000,4.000000,4.000000,4.000000,4.000000,4.000000,4.000000,4.000000,4.000000,100.000000
1602005978.454773,55.000000,0.000000,4090.769287,4119.487305,4138.974121,4131.794922,4141.025879,4143.077148,4134.871582,4135.897461,4133.333496,4129.230957,4138.974121,4135.897461,4149.743652,4091.281982,0.000000,4.000000,,,,0.000000,4.000000,4.000000,4.000000,4.000000,4.000000,4.000000,4.000000,4.000000,4.000000,4.000000,4.000000,4.000000,4.000000,4.000000,100.000000
1602005978.462755,56.000000,0.000000,4091.794922,4123.077148,4137.948730,4138.461426,4140.000000,4143.077148,4126.153809,4135.897461,4132.307617,4117.948730,4135.897461,4135.384766,4143.077148,4089.230713,0.000000,4.000000,,,,0.000000,4.000000,4.000000,4.000000,4.000000,4.000000,4.000000,4.000000,4.000000,4.000000,4.000000,4.000000,4.000000,4.000000,4.000000,100.000000
1602005978.470638,57.000000,0.000000,4090.256348,4123.077148,4137.436035,4135.897461,4141.025879,4140.512695,4126.666504,4136.410156,4139.487305,4140.000000,4135.897461,4140.000000,4143.077148,4095.384521,0.000000,4.000000,,,,0.000000,4.000000,4.000000,4.000000,4.000000,4.000000,4.000000,4.000000,4.000000,4.000000,4.000000,4.000000,4.000000,4.000000,4.000000,100.000000
1602005978.478520,58.000000,0.000000,4094.871826,4122.563965,4138.974121,4136.922852,4143.589844,4147.179688,4135.897461,4135.384766,4142.563965,4164.102539,4141.025879,4149.743652,4153.333496,4092.820557,0.000000,4.000000,,,,0.000000,4.000000,4.000000,4.000000,4.000000,4.000000,4.000000,4.000000,4.000000,4.000000,4.000000,4.000000,4.000000,4.000000,4.000000,100.000000
1602005978.486403,59.000000,0.000000,4098.461426,4123.589844,4142.563965,4138.974121,4141.025879,4152.820313,4138.461426,4137.948730,4144.102539,4141.538574,4145.128418,4155.384766,4160.512695,4086.153809,0.000000,4.000000,,,,0.000000,4.000000,4.000000,4.000000,4.000000,4.000000,4.000000,4.000000,4.000000,4.000000,4.000000,4.000000,4.000000,4.000000,4.000000,100.000000
1602005978.494286,60.000000,0.000000,4092.820557,4122.051270,4139.487305,4128.205078,4136.410156,4143.077148,4137.948730,4148.717773,4152.307617,4125.641113,4143.077148,4152.307617,4157.948730,4090.256348,0.000000,4.000000,,,,0.000000,4.000000,4.000000,4.000000,4.000000,4.000000,4.000000,4.000000,4.000000,4.000000,4.000000,4.000000,4.000000,4.000000,4.000000,100.000000
1602005978.502168,61.000000,0.000000,4092.820557,4120.512695,4133.333496,4123.077148,4135.897461,4131.794922,4133.846191,4154.358887,4156.922852,4145.128418,4137.436035,4149.743652,4156.410156,4091.281982,0.000000,4.000000,,,,0.000000,4.000000,4.000000,4.000000,4.000000,4.000000,4.000000,4.000000,4.000000,4.000000,4.000000,4.000000,4.000000,4.000000,4.000000,100.000000
1602005978.510051,62.000000,0.000000,4105.641113,4124.102539,4143.589844,4134.871582,4136.410156,4135.384766,4127.692383,4153.333496,4153.846191,4148.205078,4140.512695,4156.922852,4158.974121,4089.230713,0.000000,4.000000,,,,0.000000,4.000000,4.000000,4.000000,4.000000,4.000000,4.000000,4.000000,4.000000,4.000000,4.000000,4.000000,4.000000,4.000000,4.000000,100.000000
1602005978.517833,63.000000,0.000000,4112.820313,4128.205078,4155.384766,4142.563965,4136.410156,4141.538574,4126.666504,4151.794922,4152.820313,4135.384766,4148.205078,4164.102539,4159.487305,4095.897461,0.000000,4.000000,,,,0.000000,4.000000,4.000000,4.000000,4.000000,4.000000,4.000000,4.000000,4.000000,4.000000,4.000000,4.000000,4.000000,4.000000,4.000000,100.000000
1602005978.525716,64.000000,0.000000,4106.666504,4125.128418,4145.641113,4140.000000,4140.000000,4140.512695,4128.205078,4144.615234,4153.333496,4143.589844,4144.615234,4161.025879,4156.922852,4097.436035,798.000000,4.000000,,,,0.000000,4.000000,4.000000,4.000000,4.000000,4.000000,4.000000,4.000000,4.000000,4.000000,4.000000,4.000000,4.000000,4.000000,4.000000,100.000000
1602005978.533598,65.000000,0.000000,4095.897461,4121.025879,4128.205078,4131.282227,4141.025879,4141.538574,4129.230957,4137.436035,4149.743652,4153.846191,4136.410156,4148.717773,4156.410156,4084.615479,796.000000,4.000000,,,,0.000000,4.000000,4.000000,4.000000,4.000000,4.000000,4.000000,4.000000,4.000000,4.000000,4.000000,4.000000,4.000000,4.000000,4.000000,100.000000
1602005978.541480,66.000000,0.000000,4084.102539,4116.410156,4118.461426,4121.538574,4137.436035,4144.102539,4134.358887,4138.974121,4143.589844,4135.384766,4135.384766,4132.307617,4153.846191,4075.384521,848.000000,4.000000,,,,0.000000,4.000000,4.000000,4.000000,4.000000,4.000000,4.000000,4.000000,4.000000,4.000000,4.000000,4.000000,4.000000,4.000000,4.000000,100.000000
1602005978.549363,67.000000,0.000000,4078.461426,4107.179688,4112.820313,4120.000000,4134.358887,4140.512695,4137.436035,4138.974121,4135.897461,4112.820313,4135.897461,4129.743652,4143.589844,4074.358887,871.000000,4.000000,,,,0.000000,4.000000,4.000000,4.000000,4.000000,4.000000,4.000000,4.000000,4.000000,4.000000,4.000000,4.000000,4.000000,4.000000,4.000000,100.000000
1602005978.557245,68.000000,0.000000,4083.076904,4105.128418,4116.410156,4122.051270,4133.846191,4134.871582,4134.358887,4136.922852,4139.487305,4115.384766,4133.846191,4143.077148,4134.358887,4074.871826,815.000000,4.000000,,,,0.000000,4.000000,4.000000,4.000000,4.000000,4.000000,4.000000,4.000000,4.000000,4.000000,4.000000,4.000000,4.000000,4.000000,4.000000,100.000000
1602005978.565227,69.000000,0.000000,4091.794922,4115.897461,4130.769043,4122.051270,4135.384766,4137.436035,4135.897461,4141.025879,4150.769043,4130.769043,4135.897461,4154.358887,4140.000000,4073.333252,820.000000,4.000000,,,,0.000000,4.000000,4.000000,4.000000,4.000000,4.000000,4.000000,4.000000,4.000000,4.000000,4.000000,4.000000,4.000000,4.000000,4.000000,100.000000
1602005978.573110,70.000000,0.000000,4099.487305,4124.102539,4140.512695,4128.717773,4136.410156,4136.922852,4136.922852,4143.077148,4153.333496,4139.487305,4141.538574,4154.358887,4152.820313,4073.333252,766.000000,4.000000,,,,0.000000,4.000000,4.000000,4.000000,4.000000,4.000000,4.000000,4.000000,4.000000,4.000000,4.000000,4.000000,4.000000,4.000000,4.000000,100.000000
1602005978.580992,71.000000,0.000000,4095.897461,4122.051270,4140.512695,4137.948730,4133.846191,4127.179688,4128.717773,4142.563965,4151.794922,4144.615234,4140.512695,4147.179688,4157.948730,4071.794922,678.000000,4.000000,,,,0.000000,4.000000,4.000000,4.000000,4.000000,4.000000,4.000000,4.000000,4.000000,4.000000,4.000000,4.000000,4.000000,4.000000,4.000000,100.000000
1602005978.588874,72.000000,0.000000,4090.256348,4120.000000,4136.410156,4135.384766,4133.846191,4124.102539,4124.615234,4147.179688,4155.384766,4156.922852,4137.948730,4138.974121,4153.846191,4064.102539,784.000000,4.000000,,,,0.000000,4.000000,4.000000,4.000000,4.000000,4.000000,4.000000,4.000000,4.000000,4.000000,4.000000,4.000000,4.000000,4.000000,4.000000,100.000000
1602005978.596757,73.000000,0.000000,4096.922852,4124.102539,4137.436035,4134.358887,4136.410156,4135.384766,4132.307617,4148.717773,4160.512695,4155.384766,4146.153809,4138.974121,4154.358887,4067.692383,838.000000,4.000000,,,,0.000000,4.000000,4.000000,4.000000,4.000000,4.000000,4.000000,4.000000,4.000000,4.000000,4.000000,4.000000,4.000000,4.000000,4.000000,100.000000
1602005978.604639,74.000000,0.000000,4101.538574,4126.666504,4137.948730,4140.512695,4131.282227,4141.538574,4138.974121,4141.538574,4151.282227,4133.846191,4151.282227,4141.025879,4158.974121,4078.974365,871.000000,4.000000,,,,0.000000,4.000000,4.000000,4.000000,4.000000,4.000000,4.000000,4.000000,4.000000,4.000000,4.000000,4.000000,4.000000,4.000000,4.000000,100.000000
1602005978.612521,75.000000,0.000000,4095.384521,4122.051270,4133.333496,4141.025879,4128.717773,4136.922852,4137.948730,4134.871582,4134.358887,4121.538574,4140.512695,4137.948730,4155.897461,4073.333252,862.000000,4.000000,,,,0.000000,4.000000,4.000000,4.000000,4.000000,4.000000,4.000000,4.000000,4.000000,4.000000,4.000000,4.000000,4.000000,4.000000,4.000000,100.000000
1602005978.620402,76.000000,0.000000,4098.974121,4123.077148,4140.512695,4136.410156,4134.871582,4137.436035,4137.948730,4135.384766,4129.230957,4125.128418,4133.846191,4141.538574,4150.769043,4064.615479,767.000000,4.000000,,,,0.000000,4.000000,4.000000,4.000000,4.000000,4.000000,4.000000,4.000000,4.000000,4.000000,4.000000,4.000000,4.000000,4.000000,4.000000,100.000000
1602005978.628385,77.000000,0.000000,4116.922852,4133.846191,4156.922852,4138.461426,4135.897461,4137.948730,4136.922852,4137.436035,4133.846191,4127.179688,4140.000000,4148.205078,4153.846191,4081.538574,753.000000,4.000000,,,,0.000000,4.000000,4.000000,4.000000,4.000000,4.000000,4.000000,4.000000,4.000000,4.000000,4.000000,4.000000,4.000000,4.000000,4.000000,100.000000
1602005978.636268,78.000000,0.000000,4122.563965,4140.512695,4157.436035,4144.615234,4133.846191,4130.256348,4129.230957,4137.436035,4139.487305,4127.692383,4142.051270,4146.153809,4155.897461,4092.820557,871.000000,4.000000,,,,0.000000,4.000000,4.000000,4.000000,4.000000,4.000000,4.000000,4.000000,4.000000,4.000000,4.000000,4.000000,4.000000,4.000000,4.000000,100.000000
1602005978.644151,79.000000,0.000000,4112.307617,4137.436035,4143.077148,4143.589844,4136.922852,4121.538574,4122.563965,4137.948730,4143.589844,4141.538574,4135.384766,4139.487305,4151.794922,4076.923096,862.000000,4.000000,,,,0.000000,4.000000,4.000000,4.000000,4.000000,4.000000,4.000000,4.000000,4.000000,4.000000,4.000000,4.000000,4.000000,4.000000,4.000000,100.000000
1602005978.652034,80.000000,0.000000,4104.615234,4133.846191,4132.307617,4136.410156,4136.410156,4117.948730,4122.051270,4139.487305,4144.615234,4146.153809,4136.410156,4137.436035,4150.769043,4065.641113,767.000000,4.000000,,,,0.000000,4.000000,4.000000,4.000000,4.000000,4.000000,4.000000,4.000000,4.000000,4.000000,4.000000,4.000000,4.000000,4.000000,4.000000,100.000000
1602005978.659917,81.000000,0.000000,4105.641113,4135.897461,4127.692383,4135.897461,4135.384766,4128.205078,4126.666504,4140.512695,4147.179688,4130.256348,4145.128418,4138.461426,4155.384766,4072.820557,753.000000,4.000000,,,,0.000000,4.000000,4.000000,4.000000,4.000000,4.000000,4.000000,4.000000,4.000000,4.000000,4.000000,4.000000,4.000000,4.000000,4.000000,100.000000
1602005978.667800,82.000000,0.000000,4103.077148,4136.922852,4122.051270,4135.897461,4142.051270,4147.692383,4132.820313,4138.974121,4151.282227,4129.743652,4148.205078,4131.794922,4156.410156,4077.435791,871.000000,4.000000,,,,0.000000,4.000000,4.000000,4.000000,4.000000,4.000000,4.000000,4.000000,4.000000,4.000000,4.000000,4.000000,4.000000,4.000000,4.000000,100.000000
1602005978.675683,83.000000,0.000000,4094.358887,4129.230957,4114.871582,4128.717773,4141.538574,4151.282227,4134.358887,4137.436035,4144.102539,4140.000000,4140.512695,4121.025879,4151.282227,4071.794922,862.000000,4.000000,,,,0.000000,4.000000,4.000000,4.000000,4.000000,4.000000,4.000000,4.000000,4.000000,4.000000,4.000000,4.000000,4.000000,4.000000,4.000000,100.000000
1602005978.683566,84.000000,0.000000,4097.948730,4127.179688,4119.487305,4127.179688,4134.358887,4146.666504,4135.897461,4137.436035,4136.410156,4145.641113,4138.461426,4122.563965,4151.282227,4072.820557,767.000000,4.000000,,,,0.000000,4.000000,4.000000,4.000000,4.000000,4.000000,4.000000,4.000000,4.000000,4.000000,4.000000,4.000000,4.000000,4.000000,4.000000,100.000000
1602005978.691350,85.000000,0.000000,4108.205078,4135.384766,4134.871582,4133.846191,4136.922852,4151.794922,4134.871582,4137.948730,4142.563965,4155.897461,4142.051270,4130.256348,4156.922852,4077.948730,753.000000,4.000000,,,,0.000000,4.000000,4.000000,4.000000,4.000000,4.000000,4.000000,4.000000,4.000000,4.000000,4.000000,4.000000,4.000000,4.000000,4.000000,100.000000
1602005978.699233,86.000000,0.000000,4111.282227,4137.948730,4141.025879,4138.461426,4140.512695,4149.743652,4128.205078,4136.922852,4142.563965,4153.846191,4137.948730,4129.743652,4156.922852,4076.923096,871.000000,4.000000,,,,0.000000,4.000000,4.000000,4.000000,4.000000,4.000000,4.000000,4.000000,4.000000,4.000000,4.000000,4.000000,4.000000,4.000000,4.000000,100.000000
1602005978.707116,87.000000,0.000000,4112.820313,4135.384766,4137.436035,4139.487305,4137.948730,4138.461426,4125.641113,4138.974121,4136.410156,4135.897461,4141.538574,4133.333496,4155.384766,4075.384521,862.000000,4.000000,,,,0.000000,4.000000,4.000000,4.000000,4.000000,4.000000,4.000000,4.000000,4.000000,4.000000,4.000000,4.000000,4.000000,4.000000,4.000000,100.000000
1602005978.714999,88.000000,0.000000,4110.256348,4138.461426,4139.487305,4140.512695,4133.333496,4133.846191,4127.179688,4141.025879,4141.538574,4134.871582,4153.333496,4138.974121,4158.974121,4077.948730,767.000000,4.000000,,,,0.000000,4.000000,4.000000,4.000000,4.000000,4.000000,4.000000,4.000000,4.000000,4.000000,4.000000,4.000000,4.000000,4.000000,4.000000,100.000000
1602005978.722882,89.000000,0.000000,4107.179688,4140.000000,4143.077148,4139.487305,4131.794922,4127.692383,4127.692383,4140.000000,4141.538574,4145.128418,4151.282227,4131.282227,4156.922852,4078.461426,753.000000,4.000000,,,,0.000000,4.000000,4.000000,4.000000,4.000000,4.000000,4.000000,4.000000,4.000000,4.000000,4.000000,4.000000,4.000000,4.000000,4.000000,100.000000
1602005978.730765,90.000000,0.000000,4107.692383,4131.282227,4136.410156,4138.461426,4128.717773,4120.512695,4131.282227,4135.897461,4129.743652,4132.820313,4138.461426,4124.102539,4144.615234,4070.769287,871.000000,4.000000,,,,0.000000,4.000000,4.000000,4.000000,4.000000,4.000000,4.000000,4.000000,4.000000,4.000000,4.000000,4.000000,4.000000,4.000000,4.000000,100.000000
1602005978.738648,91.000000,0.000000,4100.000000,4123.077148,4125.128418,4130.256348,4125.641113,4126.153809,4136.410156,4133.333496,4126.666504,4115.897461,4129.230957,4123.077148,4137.436035,4063.589844,862.000000,4.000000,,,,0.000000,4.000000,4.000000,4.000000,4.000000,4.000000,4.000000,4.000000,4.000000,4.000000,4.000000,4.000000,4.000000,4.000000,4.000000,100.000000
1602005978.746531,92.000000,0.000000,4091.794922,4121.538574,4119.487305,4123.077148,4128.717773,4135.897461,4137.436035,4134.358887,4132.820313,4125.641113,4128.717773,4121.538574,4140.000000,4057.435791,767.000000,4.000000,,,,0.000000,4.000000,4.000000,4.000000,4.000000,4.000000,4.000000,4.000000,4.000000,4.000000,4.000000,4.000000,4.000000,4.000000,4.000000,100.000000
1602005978.754414,93.000000,0.000000,4102.563965,4125.128418,4127.179688,4130.256348,4136.922852,4141.538574,4138.974121,4138.974121,4137.948730,4151.282227,4136.922852,4127.692383,4145.641113,4056.410156,753.000000,4.000000,,,,0.000000,4.000000,4.000000,4.000000,4.000000,4.000000,4.000000,4.000000,4.000000,4.000000,4.000000,4.000000,4.000000,4.000000,4.000000,100.000000
1602005978.762197,94.000000,0.000000,4111.282227,4127.692383,4137.948730,4138.974121,4140.000000,4137.948730,4141.025879,4144.102539,4149.743652,4159.487305,4152.307617,4138.974121,4151.282227,4066.153809,871.000000,4.000000,,,,0.000000,4.000000,4.000000,4.000000,4.000000,4.000000,4.000000,4.000000,4.000000,4.000000,4.000000,4.000000,4.000000,4.000000,4.000000,100.000000
1602005978.770080,95.000000,0.000000,4106.153809,4127.692383,4139.487305,4136.922852,4134.871582,4126.666504,4136.922852,4143.589844,4154.358887,4141.538574,4155.384766,4139.487305,4153.846191,4070.256348,862.000000,4.000000,,,,0.000000,4.000000,4.000000,4.000000,4.000000,4.000000,4.000000,4.000000,4.000000,4.000000,4.000000,4.000000,4.000000,4.000000,4.000000,100.000000
1602005978.777963,96.000000,0.000000,4102.563965,4122.051270,4135.897461,4134.871582,4134.871582,4126.666504,4128.205078,4136.922852,4137.436035,4131.282227,4140.512695,4132.307617,4150.256348,4056.923096,767.000000,4.000000,,,,0.000000,4.000000,4.000000,4.000000,4.000000,4.000000,4.000000,4.000000,4.000000,4.000000,4.000000,4.000000,4.000000,4.000000,4.000000,100.000000
1602005978.785847,97.000000,0.000000,4105.128418,4122.051270,4135.384766,4138.461426,4139.487305,4137.948730,4123.077148,4135.897461,4132.820313,4147.692383,4137.436035,4135.384766,4150.256348,4056.410156,753.000000,4.000000,,,,0.000000,4.000000,4.000000,4.000000,4.000000,4.000000,4.000000,4.000000,4.000000,4.000000,4.000000,4.000000,4.000000,4.000000,4.000000,100.000000
1602005978.793730,98.000000,0.000000,4113.846191,4133.846191,4134.871582,4141.025879,4138.974121,4141.025879,4121.538574,4140.512695,4142.563965,4158.461426,4152.820313,4138.974121,4157.948730,4074.358887,871.000000,4.000000,,,,0.000000,4.000000,4.000000,4.000000,4.000000,4.000000,4.000000,4.000000,4.000000,4.000000,4.000000,4.000000,4.000000,4.000000,4.000000,100.000000
1602005978.801613,99.000000,0.000000,4116.922852,4136.410156,4130.256348,4140.000000,4136.922852,4135.897461,4122.563965,4134.871582,4130.256348,4141.538574,4153.846191,4129.230957,4154.871582,4073.333252,862.000000,4.000000,,,,0.000000,4.000000,4.000000,4.000000,4.000000,4.000000,4.000000,4.000000,4.000000,4.000000,4.000000,4.000000,4.000000,4.000000,4.000000,100.000000
1602005978.809496,100.000000,0.000000,4108.717773,4129.230957,4126.666504,4137.436035,4137.948730,4142.051270,4127.692383,4127.179688,4120.512695,4120.000000,4137.948730,4123.077148,4144.615234,4057.435791,767.000000,4.000000,,,,0.000000,4.000000,4.000000,4.000000,4.000000,4.000000,4.000000,4.000000,4.000000,4.000000,4.000000,4.000000,4.000000,4.000000,4.000000,100.000000
1602005978.817379,101.000000,0.000000,4110.256348,4130.769043,4130.256348,4137.436035,4139.487305,4156.922852,4137.948730,4136.410156,4142.051270,4130.256348,4138.461426,4135.897461,4149.230957,4055.897461,753.000000,4.000000,,,,0.000000,4.000000,4.000000,4.000000,4.000000,4.000000,4.000000,4.000000,4.000000,4.000000,4.000000,4.000000,4.000000,4.000000,4.000000,100.000000
1602005978.825262,102.000000,0.000000,4115.897461,4131.794922,4136.922852,4138.974121,4137.948730,4161.538574,4146.666504,4148.205078,4156.922852,4154.871582,4145.641113,4148.205078,4157.436035,4063.076904,871.000000,4.000000,,,,0.000000,4.000000,4.000000,4.000000,4.000000,4.000000,4.000000,4.000000,4.000000,4.000000,4.000000,4.000000,4.000000,4.000000,4.000000,100.000000
1602005978.833145,103.000000,0.000000,4107.179688,4124.102539,4135.384766,4134.871582,4135.384766,4155.897461,4152.820313,4149.743652,4150.769043,4159.487305,4138.461426,4143.589844,4152.307617,4060.000000,862.000000,4.000000,,,,0.000000,4.000000,4.000000,4.000000,4.000000,4.000000,4.000000,4.000000,4.000000,4.000000,4.000000,4.000000,4.000000,4.000000,4.000000,100.000000
1602005978.841028,104.000000,0.000000,4104.615234,4122.563965,4128.717773,4128.717773,4135.384766,4153.846191,4154.358887,4152.820313,4150.769043,4149.230957,4139.487305,4138.974121,4147.692383,4051.794922,767.000000,4.000000,,,,0.000000,4.000000,4.000000,4.000000,4.000000,4.000000,4.000000,4.000000,4.000000,4.000000,4.000000,4.000000,4.000000,4.000000,4.000000,100.000000
1602005978.848911,105.000000,0.000000,4107.179688,4123.589844,4123.077148,4127.179688,4134.871582,4152.820313,4145.641113,4152.307617,4154.871582,4137.948730,4151.282227,4140.512695,4151.282227,4049.230713,753.000000,4.000000,,,,0.000000,4.000000,4.000000,4.000000,4.000000,4.000000,4.000000,4.000000,4.000000,4.000000,4.000000,4.000000,4.000000,4.000000,4.000000,100.000000
1602005978.856794,106.000000,0.000000,4093.846191,4120.000000,4120.512695,4126.666504,4133.846191,4148.717773,4136.922852,4142.051270,4152.820313,4138.974121,4154.358887,4138.974121,4151.794922,4046.666748,871.000000,4.000000,,,,0.000000,4.000000,4.000000,4.000000,4.000000,4.000000,4.000000,4.000000,4.000000,4.000000,4.000000,4.000000,4.000000,4.000000,4.000000,100.000000
