Timestamp,EEG.Counter,EEG.Interpolated,EEG.AF3,EEG.F7,EEG.F3,EEG.FC5,EEG.T7,EEG.P7,EEG.O1,EEG.O2,EEG.P8,EEG.T8,EEG.FC6,EEG.F4,EEG.F8,EEG.AF4,EEG.RawCq,EEG.Battery,MarkerIndex,MarkerType,MarkerValueInt,EEG.MarkerHardware,CQ.AF3,CQ.F7,CQ.F3,CQ.FC5,CQ.T7,CQ.P7,CQ.O1,CQ.O2,CQ.P8,CQ.T8,CQ.FC6,CQ.F4,CQ.F8,CQ.AF4,CQ.Overall
1602005997.516812,23.000000,0.000000,4137.436035,4127.692383,4144.615234,4133.846191,4126.666504,4125.128418,4124.615234,4123.589844,4126.153809,4123.077148,4138.461426,4173.846191,4141.538574,4136.410156,0.000000,4.000000,,,,0.000000,4.000000,4.000000,4.000000,4.000000,4.000000,4.000000,4.000000,4.000000,4.000000,4.000000,4.000000,4.000000,4.000000,4.000000,100.000000
1602005997.524795,24.000000,0.000000,4138.461426,4125.641113,4138.461426,4133.846191,4123.077148,4121.538574,4125.128418,4123.077148,4119.487305,4123.589844,4141.025879,4172.307617,4135.384766,4134.871582,0.000000,4.000000,,,,0.000000,4.000000,4.000000,4.000000,4.000000,4.000000,4.000000,4.000000,4.000000,4.000000,4.000000,4.000000,4.000000,4.000000,4.000000,100.000000
1602005997.532678,25.000000,0.000000,4140.000000,4128.717773,4140.000000,4137.436035,4123.077148,4119.487305,4126.666504,4130.769043,4122.563965,4145.128418,4142.563965,4170.769043,4131.282227,4132.820313,0.000000,4.000000,,,,0.000000,4.000000,4.000000,4.000000,4.000000,4.000000,4.000000,4.000000,4.000000,4.000000,4.000000,4.000000,4.000000,4.000000,4.000000,100.000000
1602005997.540561,26.000000,0.000000,4136.410156,4125.128418,4140.512695,4132.820313,4121.025879,4122.563965,4122.563965,4130.256348,4122.051270,4141.538574,4139.487305,4171.794922,4132.307617,4125.128418,0.000000,4.000000,,,,0.000000,4.000000,4.000000,4.000000,4.000000,4.000000,4.000000,4.000000,4.000000,4.000000,4.000000,4.000000,4.000000,4.000000,4.000000,100.000000
1602005997.548445,27.000000,0.000000,4131.282227,4117.436035,4140.000000,4123.589844,4120.000000,4114.871582,4118.974121,4122.563965,4114.871582,4114.358887,4143.589844,4173.846191,4136.922852,4128.205078,0.000000,4.000000,,,,0.000000,4.000000,4.000000,4.000000,4.000000,4.000000,4.000000,4.000000,4.000000,4.000000,4.000000,4.000000,4.000000,4.000000,4.000000,100.000000
1602005997.556328,28.000000,0.000000,4127.692383,4118.461426,4140.512695,4123.589844,4121.025879,4105.641113,4120.512695,4120.000000,4107.692383,4116.410156,4143.077148,4166.666504,4131.794922,4137.948730,0.000000,4.000000,,,,0.000000,4.000000,4.000000,4.000000,4.000000,4.000000,4.000000,4.000000,4.000000,4.000000,4.000000,4.000000,4.000000,4.000000,4.000000,100.000000
1602005997.564211,29.000000,0.000000,4122.051270,4120.000000,4133.846191,4125.641113,4116.410156,4112.307617,4120.512695,4118.461426,4104.615234,4125.128418,4124.615234,4153.846191,4118.974121,4135.384766,0.000000,4.000000,,,,0.000000,4.000000,4.000000,4.000000,4.000000,4.000000,4.000000,4.000000,4.000000,4.000000,4.000000,4.000000,4.000000,4.000000,4.000000,100.000000
1602005997.572094,30.000000,0.000000,4122.051270,4119.487305,4128.205078,4130.256348,4113.846191,4122.563965,4121.025879,4121.538574,4114.358887,4121.025879,4120.000000,4151.794922,4120.512695,4134.358887,0.000000,4.000000,,,,0.000000,4.000000,4.000000,4.000000,4.000000,4.000000,4.000000,4.000000,4.000000,4.000000,4.000000,4.000000,4.000000,4.000000,4.000000,100.000000
1602005997.579977,31.000000,0.000000,4125.641113,4123.589844,4130.769043,4138.974121,4124.615234,4120.512695,4124.615234,4128.717773,4127.179688,4133.846191,4137.436035,4158.461426,4129.230957,4141.538574,0.000000,4.000000,,,,0.000000,4.000000,4.000000,4.000000,4.000000,4.000000,4.000000,4.000000,4.000000,4.000000,4.000000,4.000000,4.000000,4.000000,4.000000,100.000000
1602005997.587860,32.000000,0.000000,4120.512695,4124.102539,4126.153809,4138.974121,4127.692383,4118.974121,4124.615234,4126.666504,4128.205078,4149.743652,4142.051270,4151.794922,4125.641113,4133.846191,0.000000,4.000000,,,,0.000000,4.000000,4.000000,4.000000,4.000000,4.000000,4.000000,4.000000,4.000000,4.000000,4.000000,4.000000,4.000000,4.000000,4.000000,100.000000
1602005997.595743,33.000000,0.000000,4114.358887,4121.538574,4117.948730,4135.384766,4120.000000,4120.512695,4121.538574,4121.538574,4130.256348,4146.153809,4133.846191,4140.512695,4121.538574,4121.538574,0.000000,4.000000,,,,0.000000,4.000000,4.000000,4.000000,4.000000,4.000000,4.000000,4.000000,4.000000,4.000000,4.000000,4.000000,4.000000,4.000000,4.000000,100.000000
1602005997.603526,34.000000,0.000000,4118.461426,4122.051270,4120.512695,4135.897461,4121.025879,4117.948730,4121.025879,4122.563965,4135.897461,4135.384766,4139.487305,4141.538574,4133.846191,4131.794922,0.000000,4.000000,,,,0.000000,4.000000,4.000000,4.000000,4.000000,4.000000,4.000000,4.000000,4.000000,4.000000,4.000000,4.000000,4.000000,4.000000,4.000000,100.000000
1602005997.611409,35.000000,0.000000,4125.128418,4125.128418,4122.563965,4137.948730,4125.641113,4120.000000,4120.000000,4123.077148,4129.230957,4124.615234,4146.153809,4142.051270,4145.128418,4146.666504,0.000000,4.000000,,,,0.000000,4.000000,4.000000,4.000000,4.000000,4.000000,4.000000,4.000000,4.000000,4.000000,4.000000,4.000000,4.000000,4.000000,4.000000,100.000000
1602005997.619292,36.000000,0.000000,4123.589844,4125.641113,4117.948730,4136.922852,4123.077148,4121.025879,4118.461426,4121.025879,4122.051270,4123.589844,4131.794922,4136.410156,4134.358887,4135.897461,0.000000,4.000000,,,,0.000000,4.000000,4.000000,4.000000,4.000000,4.000000,4.000000,4.000000,4.000000,4.000000,4.000000,4.000000,4.000000,4.000000,4.000000,100.000000
1602005997.627174,37.000000,0.000000,4121.025879,4124.102539,4118.461426,4130.256348,4121.025879,4111.282227,4118.974121,4120.512695,4122.563965,4140.512695,4126.153809,4135.897461,4120.000000,4120.000000,0.000000,4.000000,,,,0.000000,4.000000,4.000000,4.000000,4.000000,4.000000,4.000000,4.000000,4.000000,4.000000,4.000000,4.000000,4.000000,4.000000,4.000000,100.000000
1602005997.635057,38.000000,0.000000,4123.077148,4124.102539,4121.538574,4128.717773,4123.589844,4105.128418,4118.461426,4121.025879,4121.538574,4144.102539,4138.974121,4140.512695,4122.563965,4128.205078,0.000000,4.000000,,,,0.000000,4.000000,4.000000,4.000000,4.000000,4.000000,4.000000,4.000000,4.000000,4.000000,4.000000,4.000000,4.000000,4.000000,4.000000,100.000000
1602005997.642940,39.000000,0.000000,4122.563965,4125.128418,4121.025879,4137.436035,4117.436035,4107.692383,4118.461426,4121.025879,4118.461426,4130.256348,4135.897461,4138.461426,4125.641113,4142.051270,0.000000,4.000000,,,,0.000000,4.000000,4.000000,4.000000,4.000000,4.000000,4.000000,4.000000,4.000000,4.000000,4.000000,4.000000,4.000000,4.000000,4.000000,100.000000
1602005997.650823,40.000000,0.000000,4121.025879,4125.128418,4121.538574,4140.512695,4111.282227,4112.307617,4122.051270,4123.589844,4122.051270,4138.461426,4127.179688,4134.358887,4121.538574,4142.051270,0.000000,4.000000,,,,0.000000,4.000000,4.000000,4.000000,4.000000,4.000000,4.000000,4.000000,4.000000,4.000000,4.000000,4.000000,4.000000,4.000000,4.000000,100.000000
1602005997.658706,41.000000,0.000000,4120.000000,4121.025879,4124.102539,4132.307617,4116.922852,4118.974121,4125.641113,4126.666504,4128.717773,4144.615234,4134.871582,4137.436035,4118.461426,4134.871582,0.000000,4.000000,,,,0.000000,4.000000,4.000000,4.000000,4.000000,4.000000,4.000000,4.000000,4.000000,4.000000,4.000000,4.000000,4.000000,4.000000,4.000000,100.000000
1602005997.666689,42.000000,0.000000,4122.051270,4120.000000,4124.615234,4129.743652,4121.538574,4123.589844,4122.563965,4125.641113,4127.179688,4119.487305,4135.897461,4138.461426,4114.358887,4133.333496,0.000000,4.000000,,,,0.000000,4.000000,4.000000,4.000000,4.000000,4.000000,4.000000,4.000000,4.000000,4.000000,4.000000,4.000000,4.000000,4.000000,4.000000,100.000000
1602005997.674572,43.000000,0.000000,4127.179688,4125.641113,4125.641113,4135.897461,4116.922852,4122.051270,4114.871582,4118.974121,4120.512695,4104.615234,4126.666504,4137.436035,4113.333496,4138.974121,0.000000,4.000000,,,,0.000000,4.000000,4.000000,4.000000,4.000000,4.000000,4.000000,4.000000,4.000000,4.000000,4.000000,4.000000,4.000000,4.000000,4.000000,100.000000
1602005997.682455,44.000000,0.000000,4123.077148,4115.897461,4130.769043,4132.820313,4114.871582,4121.538574,4114.871582,4119.487305,4123.077148,4130.256348,4130.769043,4146.666504,4117.948730,4137.436035,0.000000,4.000000,,,,0.000000,4.000000,4.000000,4.000000,4.000000,4.000000,4.000000,4.000000,4.000000,4.000000,4.000000,4.000000,4.000000,4.000000,4.000000,100.000000
1602005997.690338,45.000000,0.000000,4123.077148,4109.230957,4136.922852,4130.769043,4119.487305,4123.589844,4122.051270,4123.077148,4125.641113,4150.769043,4140.000000,4154.358887,4123.077148,4132.307617,0.000000,4.000000,,,,0.000000,4.000000,4.000000,4.000000,4.000000,4.000000,4.000000,4.000000,4.000000,4.000000,4.000000,4.000000,4.000000,4.000000,4.000000,100.000000
1602005997.698221,46.000000,0.000000,4148.205078,4137.436035,4140.000000,4144.615234,4122.051270,4119.487305,4119.487305,4116.922852,4116.410156,4137.948730,4140.512695,4144.615234,4123.589844,4135.897461,0.000000,4.000000,,,,0.000000,4.000000,4.000000,4.000000,4.000000,4.000000,4.000000,4.000000,4.000000,4.000000,4.000000,4.000000,4.000000,4.000000,4.000000,100.000000
1602005997.706104,47.000000,0.000000,4175.384766,4168.717773,4139.487305,4156.410156,4124.102539,4111.282227,4112.307617,4110.769043,4111.282227,4133.846191,4127.179688,4132.820313,4110.769043,4138.974121,0.000000,4.000000,,,,0.000000,4.000000,4.000000,4.000000,4.000000,4.000000,4.000000,4.000000,4.000000,4.000000,4.000000,4.000000,4.000000,4.000000,4.000000,100.000000
1602005997.713987,48.000000,0.000000,4182.051270,4171.794922,4135.384766,4154.358887,4122.051270,4103.077148,4116.410156,4111.794922,4109.743652,4131.794922,4104.615234,4129.230957,4083.076904,4122.563965,0.000000,4.000000,,,,0.000000,4.000000,4.000000,4.000000,4.000000,4.000000,4.000000,4.000000,4.000000,4.000000,4.000000,4.000000,4.000000,4.000000,4.000000,100.000000
1602005997.721870,49.000000,0.000000,4184.102539,4168.717773,4135.897461,4151.794922,4118.461426,4100.512695,4121.025879,4111.282227,4104.615234,4106.666504,4097.948730,4126.153809,4064.102539,4106.666504,0.000000,4.000000,,,,0.000000,4.000000,4.000000,4.000000,4.000000,4.000000,4.000000,4.000000,4.000000,4.000000,4.000000,4.000000,4.000000,4.000000,4.000000,100.000000
1602005997.729753,50.000000,0.000000,4190.256348,4174.358887,4138.461426,4154.358887,4120.512695,4111.282227,4116.922852,4109.230957,4105.128418,4094.358887,4107.179688,4129.230957,4067.179443,4106.153809,0.000000,4.000000,,,,0.000000,4.000000,4.000000,4.000000,4.000000,4.000000,4.000000,4.000000,4.000000,4.000000,4.000000,4.000000,4.000000,4.000000,4.000000,100.000000
1602005997.737736,51.000000,0.000000,4184.615234,4175.384766,4131.794922,4152.820313,4123.589844,4123.589844,4112.820313,4108.205078,4107.692383,4103.077148,4106.666504,4137.948730,4066.153809,4107.692383,0.000000,4.000000,,,,0.000000,4.000000,4.000000,4.000000,4.000000,4.000000,4.000000,4.000000,4.000000,4.000000,4.000000,4.000000,4.000000,4.000000,4.000000,100.000000
1602005997.745619,52.000000,0.000000,4176.410156,4173.846191,4123.589844,4152.307617,4122.051270,4124.615234,4111.282227,4104.102539,4105.128418,4112.307617,4102.051270,4134.871582,4064.102539,4107.692383,0.000000,4.000000,,,,0.000000,4.000000,4.000000,4.000000,4.000000,4.000000,4.000000,4.000000,4.000000,4.000000,4.000000,4.000000,4.000000,4.000000,4.000000,100.000000
1602005997.753502,53.000000,0.000000,4170.769043,4171.282227,4121.538574,4151.794922,4123.589844,4119.487305,4114.871582,4103.589844,4102.051270,4119.487305,4097.948730,4123.589844,4070.769287,4099.487305,0.000000,4.000000,,,,0.000000,4.000000,4.000000,4.000000,4.000000,4.000000,4.000000,4.000000,4.000000,4.000000,4.000000,4.000000,4.000000,4.000000,4.000000,100.000000
1602005997.761385,54.000000,0.000000,4160.000000,4163.589844,4115.384766,4146.153809,4131.794922,4123.589844,4123.077148,4109.230957,4097.436035,4112.820313,4089.230713,4113.333496,4064.615479,4090.769287,0.000000,4.000000,,,,0.000000,4.000000,4.000000,4.000000,4.000000,4.000000,4.000000,4.000000,4.000000,4.000000,4.000000,4.000000,4.000000,4.000000,4.000000,100.000000
1602005997.769267,55.000000,0.000000,4152.820313,4155.897461,4105.641113,4141.538574,4134.358887,4124.102539,4126.153809,4108.205078,4088.718018,4097.436035,4089.230713,4108.717773,4053.333252,4087.179443,0.000000,4.000000,,,,0.000000,4.000000,4.000000,4.000000,4.000000,4.000000,4.000000,4.000000,4.000000,4.000000,4.000000,4.000000,4.000000,4.000000,4.000000,100.000000
1602005997.777150,56.000000,0.000000,4151.794922,4154.358887,4104.102539,4138.974121,4124.615234,4113.333496,4122.563965,4105.128418,4086.153809,4102.563965,4089.743652,4113.846191,4053.333252,4082.564209,0.000000,4.000000,,,,0.000000,4.000000,4.000000,4.000000,4.000000,4.000000,4.000000,4.000000,4.000000,4.000000,4.000000,4.000000,4.000000,4.000000,4.000000,100.000000
1602005997.785033,57.000000,0.000000,4153.846191,4156.922852,4106.666504,4138.974121,4121.025879,4112.307617,4121.538574,4112.307617,4093.333252,4111.794922,4087.692383,4115.384766,4060.000000,4082.051270,0.000000,4.000000,,,,0.000000,4.000000,4.000000,4.000000,4.000000,4.000000,4.000000,4.000000,4.000000,4.000000,4.000000,4.000000,4.000000,4.000000,4.000000,100.000000
1602005997.792916,58.000000,0.000000,4151.794922,4156.410156,4107.179688,4141.025879,4127.692383,4122.051270,4127.692383,4122.563965,4102.051270,4104.615234,4099.487305,4114.358887,4069.743652,4092.307617,0.000000,4.000000,,,,0.000000,4.000000,4.000000,4.000000,4.000000,4.000000,4.000000,4.000000,4.000000,4.000000,4.000000,4.000000,4.000000,4.000000,4.000000,100.000000
1602005997.800799,59.000000,0.000000,4148.205078,4153.333496,4107.179688,4140.000000,4127.179688,4122.051270,4131.282227,4123.077148,4111.282227,4106.153809,4108.205078,4115.384766,4073.333252,4097.436035,0.000000,4.000000,,,,0.000000,4.000000,4.000000,4.000000,4.000000,4.000000,4.000000,4.000000,4.000000,4.000000,4.000000,4.000000,4.000000,4.000000,4.000000,100.000000
1602005997.808581,60.000000,0.000000,4148.717773,4150.256348,4107.179688,4137.436035,4122.051270,4116.410156,4128.205078,4120.512695,4119.487305,4118.461426,4102.051270,4110.769043,4062.051270,4084.615479,0.000000,4.000000,,,,0.000000,4.000000,4.000000,4.000000,4.000000,4.000000,4.000000,4.000000,4.000000,4.000000,4.000000,4.000000,4.000000,4.000000,4.000000,100.000000
1602005997.816464,61.000000,0.000000,4153.846191,4149.743652,4113.333496,4137.948730,4124.102539,4121.538574,4127.179688,4122.563965,4124.615234,4133.333496,4102.563965,4110.256348,4056.923096,4087.179443,0.000000,4.000000,,,,0.000000,4.000000,4.000000,4.000000,4.000000,4.000000,4.000000,4.000000,4.000000,4.000000,4.000000,4.000000,4.000000,4.000000,4.000000,100.000000
1602005997.824347,62.000000,0.000000,4153.846191,4150.769043,4121.538574,4140.000000,4124.102539,4125.641113,4128.205078,4124.615234,4125.641113,4131.794922,4103.589844,4120.512695,4066.666748,4106.153809,0.000000,4.000000,,,,0.000000,4.000000,4.000000,4.000000,4.000000,4.000000,4.000000,4.000000,4.000000,4.000000,4.000000,4.000000,4.000000,4.000000,4.000000,100.000000
1602005997.832229,63.000000,0.000000,4153.333496,4150.769043,4121.538574,4142.563965,4121.538574,4121.025879,4125.128418,4124.102539,4125.641113,4117.436035,4093.333252,4124.615234,4069.230713,4106.666504,0.000000,4.000000,,,,0.000000,4.000000,4.000000,4.000000,4.000000,4.000000,4.000000,4.000000,4.000000,4.000000,4.000000,4.000000,4.000000,4.000000,4.000000,100.000000
1602005997.840112,64.000000,0.000000,4164.615234,4157.436035,4124.102539,4149.743652,4132.307617,4122.563965,4125.128418,4124.102539,4130.769043,4128.717773,4094.871826,4121.538574,4070.256348,4096.410156,799.000000,4.000000,,,,0.000000,4.000000,4.000000,4.000000,4.000000,4.000000,4.000000,4.000000,4.000000,4.000000,4.000000,4.000000,4.000000,4.000000,4.000000,100.000000
1602005997.847994,65.000000,0.000000,4174.871582,4169.743652,4134.358887,4157.436035,4143.077148,4127.692383,4129.230957,4129.230957,4134.358887,4141.025879,4107.692383,4129.743652,4080.512939,4103.589844,796.000000,4.000000,,,,0.000000,4.000000,4.000000,4.000000,4.000000,4.000000,4.000000,4.000000,4.000000,4.000000,4.000000,4.000000,4.000000,4.000000,4.000000,100.000000
1602005997.855877,66.000000,0.000000,4178.461426,4173.846191,4140.000000,4160.512695,4138.974121,4126.666504,4125.641113,4136.410156,4133.846191,4125.641113,4115.897461,4138.461426,4090.256348,4121.538574,853.000000,4.000000,,,,0.000000,4.000000,4.000000,4.000000,4.000000,4.000000,4.000000,4.000000,4.000000,4.000000,4.000000,4.000000,4.000000,4.000000,4.000000,100.000000
1602005997.863860,67.000000,0.000000,4184.102539,4174.358887,4137.948730,4158.974121,4135.897461,4122.051270,4122.051270,4138.461426,4135.384766,4129.230957,4124.102539,4140.000000,4098.461426,4129.743652,870.000000,4.000000,,,,0.000000,4.000000,4.000000,4.000000,4.000000,4.000000,4.000000,4.000000,4.000000,4.000000,4.000000,4.000000,4.000000,4.000000,4.000000,100.000000
1602005997.871743,68.000000,0.000000,4189.230957,4175.897461,4140.512695,4156.922852,4136.410156,4119.487305,4129.743652,4136.922852,4140.512695,4159.487305,4126.666504,4146.666504,4106.666504,4135.384766,815.000000,4.000000,,,,0.000000,4.000000,4.000000,4.000000,4.000000,4.000000,4.000000,4.000000,4.000000,4.000000,4.000000,4.000000,4.000000,4.000000,4.000000,100.000000
1602005997.879625,69.000000,0.000000,4188.205078,4173.846191,4149.743652,4157.436035,4130.256348,4117.436035,4136.922852,4136.410156,4140.000000,4160.512695,4124.102539,4155.897461,4106.666504,4140.512695,818.000000,4.000000,,,,0.000000,4.000000,4.000000,4.000000,4.000000,4.000000,4.000000,4.000000,4.000000,4.000000,4.000000,4.000000,4.000000,4.000000,4.000000,100.000000
1602005997.887508,70.000000,0.000000,4185.128418,4163.589844,4150.769043,4153.333496,4122.563965,4111.794922,4137.948730,4131.794922,4128.717773,4129.230957,4121.025879,4152.307617,4097.436035,4133.333496,766.000000,4.000000,,,,0.000000,4.000000,4.000000,4.000000,4.000000,4.000000,4.000000,4.000000,4.000000,4.000000,4.000000,4.000000,4.000000,4.000000,4.000000,100.000000
1602005997.895391,71.000000,0.000000,4183.589844,4153.333496,4143.589844,4143.589844,4122.051270,4109.230957,4137.948730,4130.256348,4120.512695,4107.179688,4113.333496,4144.615234,4089.230713,4122.051270,686.000000,4.000000,,,,0.000000,4.000000,4.000000,4.000000,4.000000,4.000000,4.000000,4.000000,4.000000,4.000000,4.000000,4.000000,4.000000,4.000000,4.000000,100.000000
1602005997.903274,72.000000,0.000000,4181.538574,4151.794922,4141.025879,4144.102539,4128.205078,4116.922852,4138.974121,4138.974121,4123.589844,4113.333496,4109.743652,4145.641113,4089.743652,4124.102539,785.000000,4.000000,,,,0.000000,4.000000,4.000000,4.000000,4.000000,4.000000,4.000000,4.000000,4.000000,4.000000,4.000000,4.000000,4.000000,4.000000,4.000000,100.000000
1602005997.911157,73.000000,0.000000,4173.846191,4155.384766,4142.051270,4151.794922,4128.205078,4125.128418,4140.000000,4140.512695,4128.205078,4127.692383,4113.846191,4146.666504,4093.333252,4126.153809,843.000000,4.000000,,,,0.000000,4.000000,4.000000,4.000000,4.000000,4.000000,4.000000,4.000000,4.000000,4.000000,4.000000,4.000000,4.000000,4.000000,4.000000,100.000000
1602005997.919040,74.000000,0.000000,4165.128418,4154.358887,4133.333496,4152.307617,4123.077148,4124.102539,4135.384766,4130.769043,4127.692383,4123.589844,4109.230957,4133.846191,4088.205078,4113.333496,869.000000,4.000000,,,,0.000000,4.000000,4.000000,4.000000,4.000000,4.000000,4.000000,4.000000,4.000000,4.000000,4.000000,4.000000,4.000000,4.000000,4.000000,100.000000
1602005997.927022,75.000000,0.000000,4164.615234,4151.282227,4124.615234,4148.205078,4128.717773,4122.051270,4128.717773,4125.128418,4127.179688,4115.897461,4101.538574,4120.000000,4077.948730,4103.589844,841.000000,4.000000,,,,0.000000,4.000000,4.000000,4.000000,4.000000,4.000000,4.000000,4.000000,4.000000,4.000000,4.000000,4.000000,4.000000,4.000000,4.000000,100.000000
1602005997.934905,76.000000,0.000000,4167.692383,4154.871582,4126.153809,4149.743652,4138.974121,4122.563965,4126.666504,4127.179688,4125.641113,4125.641113,4106.153809,4121.025879,4077.948730,4108.717773,773.000000,4.000000,,,,0.000000,4.000000,4.000000,4.000000,4.000000,4.000000,4.000000,4.000000,4.000000,4.000000,4.000000,4.000000,4.000000,4.000000,4.000000,100.000000
1602005997.942787,77.000000,0.000000,4165.641113,4157.948730,4126.666504,4152.307617,4138.461426,4119.487305,4125.641113,4126.666504,4121.538574,4126.153809,4111.794922,4128.717773,4089.230713,4112.820313,751.000000,4.000000,,,,0.000000,4.000000,4.000000,4.000000,4.000000,4.000000,4.000000,4.000000,4.000000,4.000000,4.000000,4.000000,4.000000,4.000000,4.000000,100.000000
1602005997.950670,78.000000,0.000000,4158.461426,4154.358887,4125.128418,4147.179688,4133.333496,4118.974121,4124.615234,4124.615234,4122.051270,4101.538574,4107.179688,4128.717773,4091.281982,4110.256348,869.000000,4.000000,,,,0.000000,4.000000,4.000000,4.000000,4.000000,4.000000,4.000000,4.000000,4.000000,4.000000,4.000000,4.000000,4.000000,4.000000,4.000000,100.000000
1602005997.958552,79.000000,0.000000,4153.846191,4150.769043,4123.589844,4138.461426,4128.205078,4115.384766,4123.589844,4123.589844,4124.102539,4086.153809,4098.461426,4122.051270,4080.512939,4106.153809,841.000000,4.000000,,,,0.000000,4.000000,4.000000,4.000000,4.000000,4.000000,4.000000,4.000000,4.000000,4.000000,4.000000,4.000000,4.000000,4.000000,4.000000,100.000000
1602005997.966435,80.000000,0.000000,4160.000000,4150.769043,4123.589844,4137.948730,4124.102539,4106.153809,4121.025879,4129.230957,4122.051270,4097.948730,4097.436035,4119.487305,4080.000000,4104.102539,773.000000,4.000000,,,,0.000000,4.000000,4.000000,4.000000,4.000000,4.000000,4.000000,4.000000,4.000000,4.000000,4.000000,4.000000,4.000000,4.000000,4.000000,100.000000
1602005997.974318,81.000000,0.000000,4168.205078,4154.871582,4124.102539,4143.077148,4129.743652,4112.820313,4125.128418,4137.948730,4129.230957,4113.846191,4100.512695,4128.205078,4089.230713,4113.846191,751.000000,4.000000,,,,0.000000,4.000000,4.000000,4.000000,4.000000,4.000000,4.000000,4.000000,4.000000,4.000000,4.000000,4.000000,4.000000,4.000000,4.000000,100.000000
1602005997.982301,82.000000,0.000000,4166.666504,4152.820313,4126.666504,4142.563965,4136.410156,4125.641113,4135.897461,4142.051270,4139.487305,4122.563965,4104.615234,4138.461426,4092.307617,4123.589844,869.000000,4.000000,,,,0.000000,4.000000,4.000000,4.000000,4.000000,4.000000,4.000000,4.000000,4.000000,4.000000,4.000000,4.000000,4.000000,4.000000,4.000000,100.000000
1602005997.990184,83.000000,0.000000,4160.000000,4141.025879,4128.205078,4137.436035,4125.128418,4123.589844,4135.897461,4138.974121,4138.461426,4126.666504,4103.077148,4139.487305,4088.205078,4115.384766,841.000000,4.000000,,,,0.000000,4.000000,4.000000,4.000000,4.000000,4.000000,4.000000,4.000000,4.000000,4.000000,4.000000,4.000000,4.000000,4.000000,4.000000,100.000000
1602005997.998067,84.000000,0.000000,4155.897461,4134.358887,4125.641113,4130.256348,4116.922852,4126.666504,4131.794922,4130.769043,4131.794922,4110.256348,4098.974121,4135.897461,4088.718018,4104.615234,773.000000,4.000000,,,,0.000000,4.000000,4.000000,4.000000,4.000000,4.000000,4.000000,4.000000,4.000000,4.000000,4.000000,4.000000,4.000000,4.000000,4.000000,100.000000
1602005998.005950,85.000000,0.000000,4153.846191,4137.436035,4123.589844,4128.717773,4129.743652,4140.512695,4135.897461,4128.717773,4133.846191,4097.436035,4100.512695,4138.461426,4090.769287,4105.641113,751.000000,4.000000,,,,0.000000,4.000000,4.000000,4.000000,4.000000,4.000000,4.000000,4.000000,4.000000,4.000000,4.000000,4.000000,4.000000,4.000000,4.000000,100.000000
1602005998.013833,86.000000,0.000000,4147.692383,4137.948730,4122.051270,4133.333496,4139.487305,4140.512695,4138.461426,4134.358887,4135.384766,4113.846191,4104.102539,4141.538574,4089.230713,4106.153809,869.000000,4.000000,,,,0.000000,4.000000,4.000000,4.000000,4.000000,4.000000,4.000000,4.000000,4.000000,4.000000,4.000000,4.000000,4.000000,4.000000,4.000000,100.000000
1602005998.021716,87.000000,0.000000,4138.461426,4136.410156,4121.025879,4135.384766,4134.871582,4135.897461,4136.410156,4138.974121,4133.333496,4116.410156,4104.615234,4140.000000,4087.692383,4108.205078,841.000000,4.000000,,,,0.000000,4.000000,4.000000,4.000000,4.000000,4.000000,4.000000,4.000000,4.000000,4.000000,4.000000,4.000000,4.000000,4.000000,4.000000,100.000000
1602005998.029599,88.000000,0.000000,4137.948730,4140.000000,4118.974121,4135.384766,4133.846191,4140.000000,4135.384766,4137.436035,4135.897461,4106.666504,4103.589844,4138.461426,4089.230713,4120.000000,773.000000,4.000000,,,,0.000000,4.000000,4.000000,4.000000,4.000000,4.000000,4.000000,4.000000,4.000000,4.000000,4.000000,4.000000,4.000000,4.000000,4.000000,100.000000
1602005998.037482,89.000000,0.000000,4147.692383,4140.512695,4116.922852,4138.461426,4136.922852,4137.948730,4134.871582,4136.410156,4137.436035,4113.333496,4104.615234,4138.974121,4090.769287,4123.077148,751.000000,4.000000,,,,0.000000,4.000000,4.000000,4.000000,4.000000,4.000000,4.000000,4.000000,4.000000,4.000000,4.000000,4.000000,4.000000,4.000000,4.000000,100.000000
1602005998.045365,90.000000,0.000000,4156.410156,4145.128418,4125.128418,4141.025879,4137.436035,4128.717773,4135.384766,4140.000000,4137.948730,4124.102539,4109.230957,4142.051270,4097.436035,4121.025879,869.000000,4.000000,,,,0.000000,4.000000,4.000000,4.000000,4.000000,4.000000,4.000000,4.000000,4.000000,4.000000,4.000000,4.000000,4.000000,4.000000,4.000000,100.000000
1602005998.053346,91.000000,0.000000,4157.436035,4154.358887,4137.948730,4140.512695,4138.461426,4122.051270,4134.871582,4144.102539,4144.615234,4128.717773,4112.820313,4143.589844,4107.692383,4126.666504,841.000000,4.000000,,,,0.000000,4.000000,4.000000,4.000000,4.000000,4.000000,4.000000,4.000000,4.000000,4.000000,4.000000,4.000000,4.000000,4.000000,4.000000,100.000000
1602005998.061228,92.000000,0.000000,4155.384766,4150.256348,4134.871582,4141.538574,4137.948730,4119.487305,4133.846191,4144.615234,4147.692383,4128.205078,4108.205078,4143.077148,4109.230957,4126.666504,773.000000,4.000000,,,,0.000000,4.000000,4.000000,4.000000,4.000000,4.000000,4.000000,4.000000,4.000000,4.000000,4.000000,4.000000,4.000000,4.000000,4.000000,100.000000
1602005998.069109,93.000000,0.000000,4153.846191,4141.025879,4123.077148,4140.512695,4129.230957,4120.000000,4132.307617,4141.025879,4140.512695,4126.153809,4109.743652,4141.025879,4104.102539,4120.000000,751.000000,4.000000,,,,0.000000,4.000000,4.000000,4.000000,4.000000,4.000000,4.000000,4.000000,4.000000,4.000000,4.000000,4.000000,4.000000,4.000000,4.000000,100.000000
1602005998.077090,94.000000,0.000000,4152.820313,4141.025879,4123.589844,4137.436035,4120.512695,4121.025879,4128.717773,4138.974121,4137.948730,4138.974121,4123.077148,4138.974121,4106.666504,4118.974121,869.000000,4.000000,,,,0.000000,4.000000,4.000000,4.000000,4.000000,4.000000,4.000000,4.000000,4.000000,4.000000,4.000000,4.000000,4.000000,4.000000,4.000000,100.000000
1602005998.084971,95.000000,0.000000,4156.410156,4146.666504,4126.153809,4138.461426,4125.128418,4118.974121,4127.692383,4140.512695,4142.563965,4141.025879,4129.230957,4140.000000,4111.282227,4122.051270,841.000000,4.000000,,,,0.000000,4.000000,4.000000,4.000000,4.000000,4.000000,4.000000,4.000000,4.000000,4.000000,4.000000,4.000000,4.000000,4.000000,4.000000,100.000000
1602005998.092754,96.000000,0.000000,4161.025879,4148.717773,4122.051270,4141.025879,4136.410156,4118.974121,4129.743652,4137.948730,4141.025879,4111.282227,4125.641113,4140.512695,4110.769043,4133.333496,773.000000,4.000000,,,,0.000000,4.000000,4.000000,4.000000,4.000000,4.000000,4.000000,4.000000,4.000000,4.000000,4.000000,4.000000,4.000000,4.000000,4.000000,100.000000
1602005998.100636,97.000000,0.000000,4156.922852,4149.743652,4121.025879,4140.000000,4135.897461,4124.102539,4128.205078,4130.769043,4130.256348,4103.077148,4120.512695,4137.436035,4106.666504,4139.487305,751.000000,4.000000,,,,0.000000,4.000000,4.000000,4.000000,4.000000,4.000000,4.000000,4.000000,4.000000,4.000000,4.000000,4.000000,4.000000,4.000000,4.000000,100.000000
1602005998.108519,98.000000,0.000000,4154.871582,4152.307617,4123.589844,4144.102539,4132.820313,4124.615234,4125.128418,4130.769043,4123.077148,4130.256348,4118.461426,4137.948730,4104.615234,4130.256348,869.000000,4.000000,,,,0.000000,4.000000,4.000000,4.000000,4.000000,4.000000,4.000000,4.000000,4.000000,4.000000,4.000000,4.000000,4.000000,4.000000,4.000000,100.000000
1602005998.116401,99.000000,0.000000,4160.000000,4156.410156,4123.589844,4152.307617,4138.461426,4123.589844,4131.282227,4137.436035,4132.307617,4141.025879,4123.077148,4142.051270,4114.358887,4130.769043,841.000000,4.000000,,,,0.000000,4.000000,4.000000,4.000000,4.000000,4.000000,4.000000,4.000000,4.000000,4.000000,4.000000,4.000000,4.000000,4.000000,4.000000,100.000000
1602005998.124283,100.000000,0.000000,4159.487305,4156.922852,4124.615234,4153.846191,4140.512695,4127.179688,4135.897461,4138.461426,4137.436035,4131.794922,4123.077148,4142.563965,4117.948730,4138.461426,773.000000,4.000000,,,,0.000000,4.000000,4.000000,4.000000,4.000000,4.000000,4.000000,4.000000,4.000000,4.000000,4.000000,4.000000,4.000000,4.000000,4.000000,100.000000
1602005998.132166,101.000000,0.000000,4159.487305,4153.846191,4131.794922,4150.769043,4135.384766,4124.615234,4135.897461,4136.922852,4124.102539,4133.333496,4118.461426,4145.641113,4107.692383,4128.205078,751.000000,4.000000,,,,0.000000,4.000000,4.000000,4.000000,4.000000,4.000000,4.000000,4.000000,4.000000,4.000000,4.000000,4.000000,4.000000,4.000000,4.000000,100.000000
1602005998.140048,102.000000,0.000000,4168.717773,4152.307617,4136.410156,4151.794922,4134.871582,4121.538574,4134.358887,4138.974121,4123.077148,4133.333496,4129.230957,4152.307617,4110.769043,4128.717773,869.000000,4.000000,,,,0.000000,4.000000,4.000000,4.000000,4.000000,4.000000,4.000000,4.000000,4.000000,4.000000,4.000000,4.000000,4.000000,4.000000,4.000000,100.000000
1602005998.147831,103.000000,0.000000,4171.794922,4153.333496,4135.384766,4149.743652,4140.000000,4134.358887,4135.384766,4138.974121,4137.948730,4118.974121,4144.102539,4155.897461,4126.666504,4150.769043,841.000000,4.000000,,,,0.000000,4.000000,4.000000,4.000000,4.000000,4.000000,4.000000,4.000000,4.000000,4.000000,4.000000,4.000000,4.000000,4.000000,4.000000,100.000000
1602005998.155714,104.000000,0.000000,4169.230957,4156.410156,4136.922852,4144.102539,4142.051270,4145.128418,4139.487305,4138.974121,4143.077148,4122.563965,4144.102539,4151.282227,4130.256348,4150.769043,773.000000,4.000000,,,,0.000000,4.000000,4.000000,4.000000,4.000000,4.000000,4.000000,4.000000,4.000000,4.000000,4.000000,4.000000,4.000000,4.000000,4.000000,100.000000
1602005998.163597,105.000000,0.000000,4171.282227,4155.897461,4133.846191,4142.051270,4135.897461,4137.436035,4133.846191,4137.436035,4136.922852,4141.538574,4127.692383,4138.974121,4118.974121,4130.256348,751.000000,4.000000,,,,0.000000,4.000000,4.000000,4.000000,4.000000,4.000000,4.000000,4.000000,4.000000,4.000000,4.000000,4.000000,4.000000,4.000000,4.000000,100.000000
1602005998.171480,106.000000,0.000000,4165.641113,4151.794922,4122.563965,4142.051270,4133.333496,4131.794922,4123.589844,4130.256348,4128.205078,4138.974121,4113.333496,4129.230957,4107.179688,4117.948730,869.000000,4.000000,,,,0.000000,4.000000,4.000000,4.000000,4.000000,4.000000,4.000000,4.000000,4.000000,4.000000,4.000000,4.000000,4.000000,4.000000,4.000000,100.000000
1602005998.179362,107.000000,0.000000,4158.461426,4153.846191,4124.102539,4144.102539,4140.000000,4138.974121,4128.717773,4131.794922,4128.205078,4131.282227,4117.436035,4134.358887,4108.717773,4117.436035,841.000000,4.000000,,,,0.000000,4.000000,4.000000,4.000000,4.000000,4.000000,4.000000,4.000000,4.000000,4.000000,4.000000,4.000000,4.000000,4.000000,4.000000,100.000000
1602005998.187245,108.000000,0.000000,4156.410156,4155.384766,4129.230957,4143.077148,4143.077148,4142.051270,4140.512695,4135.897461,4131.794922,4141.025879,4123.077148,4141.025879,4116.410156,4123.077148,773.000000,4.000000,,,,0.000000,4.000000,4.000000,4.000000,4.000000,4.000000,4.000000,4.000000,4.000000,4.000000,4.000000,4.000000,4.000000,4.000000,4.000000,100.000000
1602005998.195128,109.000000,0.000000,4146.666504,4151.282227,4123.589844,4141.538574,4137.948730,4137.436035,4131.794922,4125.128418,4121.025879,4129.230957,4109.230957,4133.846191,4106.153809,4123.589844,751.000000,4.000000,,,,0.000000,4.000000,4.000000,4.000000,4.000000,4.000000,4.000000,4.000000,4.000000,4.000000,4.000000,4.000000,4.000000,4.000000,4.000000,100.000000
1602005998.203011,110.000000,0.000000,4142.563965,4150.256348,4126.666504,4145.128418,4135.384766,4133.846191,4122.051270,4117.948730,4111.282227,4107.692383,4102.051270,4133.333496,4097.948730,4123.589844,869.000000,4.000000,,,,0.000000,4.000000,4.000000,4.000000,4.000000,4.000000,4.000000,4.000000,4.000000,4.000000,4.000000,4.000000,4.000000,4.000000,4.000000,100.000000
1602005998.210992,111.000000,0.000000,4153.846191,4150.256348,4136.922852,4147.179688,4138.974121,4136.410156,4130.769043,4130.256348,4122.051270,4107.692383,4120.512695,4144.102539,4112.820313,4128.205078,841.000000,4.000000,,,,0.000000,4.000000,4.000000,4.000000,4.000000,4.000000,4.000000,4.000000,4.000000,4.000000,4.000000,4.000000,4.000000,4.000000,4.000000,100.000000
1602005998.218873,112.000000,0.000000,4154.358887,4143.589844,4137.436035,4143.589844,4143.077148,4141.025879,4137.436035,4138.974121,4129.743652,4112.307617,4130.769043,4145.128418,4118.461426,4126.153809,773.000000,4.000000,,,,0.000000,4.000000,4.000000,4.000000,4.000000,4.000000,4.000000,4.000000,4.000000,4.000000,4.000000,4.000000,4.000000,4.000000,4.000000,100.000000
1602005998.226855,113.000000,0.000000,4140.000000,4138.461426,4133.846191,4138.461426,4137.948730,4138.974121,4134.871582,4136.922852,4127.179688,4118.461426,4116.410156,4135.897461,4103.077148,4121.025879,751.000000,4.000000,,,,0.000000,4.000000,4.000000,4.000000,4.000000,4.000000,4.000000,4.000000,4.000000,4.000000,4.000000,4.000000,4.000000,4.000000,4.000000,100.000000
1602005998.234738,114.000000,0.000000,4138.461426,4138.461426,4135.897461,4137.948730,4126.153809,4130.256348,4135.384766,4135.384766,4123.077148,4126.666504,4107.692383,4134.871582,4094.358887,4124.615234,869.000000,4.000000,,,,0.000000,4.000000,4.000000,4.000000,4.000000,4.000000,4.000000,4.000000,4.000000,4.000000,4.000000,4.000000,4.000000,4.000000,4.000000,100.000000
1602005998.242620,115.000000,0.000000,4146.666504,4136.410156,4135.897461,4136.922852,4124.615234,4123.077148,4138.974121,4134.871582,4116.410156,4123.077148,4118.461426,4139.487305,4100.000000,4124.615234,841.000000,4.000000,,,,0.000000,4.000000,4.000000,4.000000,4.000000,4.000000,4.000000,4.000000,4.000000,4.000000,4.000000,4.000000,4.000000,4.000000,4.000000,100.000000
1602005998.250502,116.000000,0.000000,4149.743652,4138.974121,4136.410156,4136.410156,4134.358887,4130.769043,4140.000000,4134.871582,4118.974121,4116.922852,4128.205078,4141.025879,4109.230957,4121.538574,773.000000,4.000000,,,,0.000000,4.000000,4.000000,4.000000,4.000000,4.000000,4.000000,4.000000,4.000000,4.000000,4.000000,4.000000,4.000000,4.000000,4.000000,100.000000
1602005998.258385,117.000000,0.000000,4152.307617,4148.205078,4140.000000,4139.487305,4137.436035,4136.410156,4137.436035,4134.871582,4128.205078,4124.102539,4126.153809,4143.077148,4113.846191,4125.128418,751.000000,4.000000,,,,0.000000,4.000000,4.000000,4.000000,4.000000,4.000000,4.000000,4.000000,4.000000,4.000000,4.000000,4.000000,4.000000,4.000000,4.000000,100.000000
1602005998.266267,118.000000,0.000000,4150.769043,4147.692383,4135.384766,4139.487305,4136.922852,4124.615234,4130.769043,4128.205078,4120.000000,4128.717773,4120.512695,4143.077148,4110.256348,4126.153809,869.000000,4.000000,,,,0.000000,4.000000,4.000000,4.000000,4.000000,4.000000,4.000000,4.000000,4.000000,4.000000,4.000000,4.000000,4.000000,4.000000,4.000000,100.000000
1602005998.274149,119.000000,0.000000,4149.743652,4141.025879,4124.615234,4136.410156,4138.974121,4121.025879,4123.077148,4117.436035,4110.769043,4126.153809,4114.358887,4137.436035,4105.128418,4124.102539,841.000000,4.000000,,,,0.000000,4.000000,4.000000,4.000000,4.000000,4.000000,4.000000,4.000000,4.000000,4.000000,4.000000,4.000000,4.000000,4.000000,4.000000,100.000000
1602005998.281933,120.000000,0.000000,4152.307617,4145.641113,4120.512695,4136.410156,4142.563965,4136.410156,4121.025879,4115.384766,4115.384766,4111.794922,4106.153809,4132.820313,4105.641113,4124.615234,773.000000,4.000000,,,,0.000000,4.000000,4.000000,4.000000,4.000000,4.000000,4.000000,4.000000,4.000000,4.000000,4.000000,4.000000,4.000000,4.000000,4.000000,100.000000
1602005998.289816,121.000000,0.000000,4153.846191,4154.358887,4124.615234,4142.563965,4143.077148,4136.922852,4122.563965,4119.487305,4122.051270,4095.897461,4107.179688,4134.358887,4110.256348,4124.102539,751.000000,4.000000,,,,0.000000,4.000000,4.000000,4.000000,4.000000,4.000000,4.000000,4.000000,4.000000,4.000000,4.000000,4.000000,4.000000,4.000000,4.000000,100.000000
1602005998.297699,122.000000,0.000000,4153.846191,4151.282227,4131.282227,4142.051270,4133.333496,4121.538574,4120.512695,4120.512695,4123.077148,4103.077148,4114.871582,4136.410156,4106.153809,4122.563965,869.000000,4.000000,,,,0.000000,4.000000,4.000000,4.000000,4.000000,4.000000,4.000000,4.000000,4.000000,4.000000,4.000000,4.000000,4.000000,4.000000,4.000000,100.000000
1602005998.305582,123.000000,0.000000,4151.794922,4147.692383,4134.871582,4135.897461,4125.128418,4117.948730,4120.000000,4125.128418,4124.615234,4120.000000,4122.051270,4136.922852,4106.666504,4123.589844,841.000000,4.000000,,,,0.000000,4.000000,4.000000,4.000000,4.000000,4.000000,4.000000,4.000000,4.000000,4.000000,4.000000,4.000000,4.000000,4.000000,4.000000,100.000000
1602005998.313465,124.000000,0.000000,4152.307617,4153.333496,4138.461426,4141.025879,4131.282227,4122.563965,4128.205078,4135.384766,4129.743652,4129.230957,4125.641113,4143.077148,4117.948730,4125.128418,773.000000,4.000000,,,,0.000000,4.000000,4.000000,4.000000,4.000000,4.000000,4.000000,4.000000,4.000000,4.000000,4.000000,4.000000,4.000000,4.000000,4.000000,100.000000
1602005998.321348,125.000000,0.000000,4151.794922,4154.358887,4141.538574,4149.230957,4136.922852,4123.589844,4136.922852,4141.538574,4136.922852,4136.410156,4126.666504,4150.769043,4117.436035,4124.102539,751.000000,4.000000,,,,0.000000,4.000000,4.000000,4.000000,4.000000,4.000000,4.000000,4.000000,4.000000,4.000000,4.000000,4.000000,4.000000,4.000000,4.000000,100.000000
1602005998.329231,126.000000,0.000000,4148.205078,4151.794922,4144.102539,4147.692383,4134.871582,4124.102539,4137.436035,4141.025879,4138.461426,4141.538574,4129.230957,4152.820313,4107.179688,4122.563965,869.000000,4.000000,,,,0.000000,4.000000,4.000000,4.000000,4.000000,4.000000,4.000000,4.000000,4.000000,4.000000,4.000000,4.000000,4.000000,4.000000,4.000000,100.000000
1602005998.337114,127.000000,0.000000,4142.051270,4148.205078,4142.051270,4142.051270,4135.384766,4123.589844,4131.794922,4134.358887,4128.717773,4136.922852,4124.102539,4151.282227,4107.692383,4121.025879,841.000000,4.000000,,,,0.000000,4.000000,4.000000,4.000000,4.000000,4.000000,4.000000,4.000000,4.000000,4.000000,4.000000,4.000000,4.000000,4.000000,4.000000,100.000000
1602005998.344997,128.000000,0.000000,4140.512695,4143.589844,4138.974121,4140.000000,4129.743652,4120.512695,4124.615234,4123.077148,4117.436035,4119.487305,4114.358887,4144.615234,4109.230957,4121.538574,773.000000,4.000000,,,,0.000000,4.000000,4.000000,4.000000,4.000000,4.000000,4.000000,4.000000,4.000000,4.000000,4.000000,4.000000,4.000000,4.000000,4.000000,100.000000
1602005998.352780,0.000000,0.000000,4147.692383,4146.153809,4142.563965,4140.000000,4122.563965,4120.512695,4122.051270,4118.461426,4116.922852,4102.563965,4116.922852,4137.948730,4106.153809,4124.102539,799.000000,4.000000,,,,0.000000,4.000000,4.000000,4.000000,4.000000,4.000000,4.000000,4.000000,4.000000,4.000000,4.000000,4.000000,4.000000,4.000000,4.000000,100.000000
1602005998.360663,1.000000,0.000000,4154.358887,4152.307617,4143.077148,4140.000000,4131.794922,4123.077148,4120.512695,4121.025879,4125.128418,4110.256348,4125.641113,4138.461426,4109.743652,4124.102539,796.000000,4.000000,,,,0.000000,4.000000,4.000000,4.000000,4.000000,4.000000,4.000000,4.000000,4.000000,4.000000,4.000000,4.000000,4.000000,4.000000,4.000000,100.000000
1602005998.368546,2.000000,0.000000,4152.307617,4151.794922,4138.461426,4138.461426,4141.538574,4122.563965,4114.358887,4120.512695,4131.794922,4135.897461,4124.102539,4139.487305,4111.794922,4121.538574,853.000000,4.000000,,,,0.000000,4.000000,4.000000,4.000000,4.000000,4.000000,4.000000,4.000000,4.000000,4.000000,4.000000,4.000000,4.000000,4.000000,4.000000,100.000000
1602005998.376429,3.000000,0.000000,4150.256348,4150.256348,4137.436035,4142.563965,4137.948730,4121.538574,4112.820313,4117.948730,4127.179688,4141.025879,4117.436035,4138.974121,4112.820313,4126.153809,870.000000,4.000000,,,,0.000000,4.000000,4.000000,4.000000,4.000000,4.000000,4.000000,4.000000,4.000000,4.000000,4.000000,4.000000,4.000000,4.000000,4.000000,100.000000
1602005998.384311,4.000000,0.000000,4156.922852,4153.333496,4138.461426,4151.282227,4137.436035,4120.512695,4120.512695,4119.487305,4120.000000,4132.820313,4124.615234,4147.179688,4120.000000,4137.436035,815.000000,4.000000,,,,0.000000,4.000000,4.000000,4.000000,4.000000,4.000000,4.000000,4.000000,4.000000,4.000000,4.000000,4.000000,4.000000,4.000000,4.000000,100.000000
1602005998.392194,5.000000,0.000000,4158.974121,4156.922852,4138.974121,4147.692383,4139.487305,4121.025879,4123.077148,4123.077148,4122.051270,4136.410156,4134.358887,4150.769043,4122.051270,4138.974121,818.000000,4.000000,,,,0.000000,4.000000,4.000000,4.000000,4.000000,4.000000,4.000000,4.000000,4.000000,4.000000,4.000000,4.000000,4.000000,4.000000,4.000000,100.000000
1602005998.400077,6.000000,0.000000,4152.820313,4149.743652,4136.410156,4138.461426,4130.769043,4121.025879,4121.538574,4124.102539,4121.538574,4122.563965,4129.743652,4141.025879,4118.461426,4132.307617,766.000000,4.000000,,,,0.000000,4.000000,4.000000,4.000000,4.000000,4.000000,4.000000,4.000000,4.000000,4.000000,4.000000,4.000000,4.000000,4.000000,4.000000,100.000000
1602005998.407960,7.000000,0.000000,4150.769043,4137.948730,4136.922852,4138.461426,4126.153809,4121.025879,4128.717773,4121.538574,4114.358887,4104.615234,4127.179688,4136.922852,4121.025879,4134.358887,685.000000,4.000000,,,,0.000000,4.000000,4.000000,4.000000,4.000000,4.000000,4.000000,4.000000,4.000000,4.000000,4.000000,4.000000,4.000000,4.000000,4.000000,100.000000
1602005998.415843,8.000000,0.000000,4158.461426,4144.102539,4144.615234,4142.051270,4133.846191,4128.717773,4135.384766,4123.589844,4121.538574,4123.589844,4136.410156,4147.692383,4127.692383,4143.077148,785.000000,4.000000,,,,0.000000,4.000000,4.000000,4.000000,4.000000,4.000000,4.000000,4.000000,4.000000,4.000000,4.000000,4.000000,4.000000,4.000000,4.000000,100.000000
1602005998.423626,9.000000,0.000000,4160.000000,4154.871582,4149.230957,4142.563965,4137.948730,4135.384766,4136.410156,4132.307617,4137.948730,4144.615234,4137.948730,4156.922852,4125.641113,4136.922852,843.000000,4.000000,,,,0.000000,4.000000,4.000000,4.000000,4.000000,4.000000,4.000000,4.000000,4.000000,4.000000,4.000000,4.000000,4.000000,4.000000,4.000000,100.000000
1602005998.431509,10.000000,0.000000,4154.358887,4146.153809,4146.153809,4141.025879,4136.922852,4130.769043,4136.922852,4138.461426,4141.538574,4142.563965,4134.871582,4163.077148,4124.615234,4132.820313,869.000000,4.000000,,,,0.000000,4.000000,4.000000,4.000000,4.000000,4.000000,4.000000,4.000000,4.000000,4.000000,4.000000,4.000000,4.000000,4.000000,4.000000,100.000000
1602005998.439391,11.000000,0.000000,4156.410156,4136.922852,4147.692383,4140.512695,4138.461426,4122.563965,4131.794922,4135.897461,4136.922852,4153.333496,4141.025879,4167.692383,4134.358887,4152.307617,841.000000,4.000000,,,,0.000000,4.000000,4.000000,4.000000,4.000000,4.000000,4.000000,4.000000,4.000000,4.000000,4.000000,4.000000,4.000000,4.000000,4.000000,100.000000
1602005998.447274,12.000000,0.000000,4153.846191,4134.358887,4153.333496,4138.974121,4139.487305,4123.589844,4127.179688,4134.358887,4141.025879,4164.615234,4144.615234,4162.051270,4148.717773,4170.769043,772.000000,4.000000,,,,0.000000,4.000000,4.000000,4.000000,4.000000,4.000000,4.000000,4.000000,4.000000,4.000000,4.000000,4.000000,4.000000,4.000000,4.000000,100.000000
1602005998.455157,13.000000,0.000000,4142.051270,4127.692383,4147.179688,4133.333496,4137.948730,4130.256348,4133.333496,4134.871582,4140.512695,4131.794922,4146.153809,4155.897461,4156.922852,4170.769043,751.000000,4.000000,,,,0.000000,4.000000,4.000000,4.000000,4.000000,4.000000,4.000000,4.000000,4.000000,4.000000,4.000000,4.000000,4.000000,4.000000,4.000000,100.000000
1602005998.463040,14.000000,0.000000,4132.307617,4121.025879,4138.461426,4127.179688,4137.436035,4137.436035,4138.974121,4127.179688,4125.128418,4107.692383,4152.820313,4155.897461,4164.102539,4171.282227,869.000000,4.000000,,,,0.000000,4.000000,4.000000,4.000000,4.000000,4.000000,4.000000,4.000000,4.000000,4.000000,4.000000,4.000000,4.000000,4.000000,4.000000,100.000000
1602005998.470923,15.000000,0.000000,4121.025879,4108.205078,4136.922852,4120.512695,4135.897461,4140.000000,4136.410156,4121.025879,4117.948730,4131.282227,4151.282227,4154.358887,4168.717773,4171.282227,841.000000,4.000000,,,,0.000000,4.000000,4.000000,4.000000,4.000000,4.000000,4.000000,4.000000,4.000000,4.000000,4.000000,4.000000,4.000000,4.000000,4.000000,100.000000
1602005998.478806,16.000000,0.000000,4109.743652,4096.922852,4136.922852,4118.461426,4136.922852,4140.512695,4137.436035,4123.589844,4123.589844,4149.230957,4142.051270,4151.794922,4163.077148,4161.538574,0.000000,4.000000,,,,0.000000,4.000000,4.000000,4.000000,4.000000,4.000000,4.000000,4.000000,4.000000,4.000000,4.000000,4.000000,4.000000,4.000000,4.000000,100.000000
1602005998.486788,17.000000,0.000000,4108.205078,4100.000000,4135.897461,4116.922852,4140.000000,4137.948730,4133.846191,4125.128418,4118.974121,4135.897461,4138.461426,4149.230957,4153.846191,4152.820313,0.000000,4.000000,,,,0.000000,4.000000,4.000000,4.000000,4.000000,4.000000,4.000000,4.000000,4.000000,4.000000,4.000000,4.000000,4.000000,4.000000,4.000000,100.000000
1602005998.494670,18.000000,0.000000,4108.717773,4104.615234,4137.948730,4114.358887,4136.410156,4131.282227,4123.589844,4128.205078,4120.000000,4130.256348,4142.051270,4147.692383,4155.897461,4153.333496,0.000000,4.000000,,,,0.000000,4.000000,4.000000,4.000000,4.000000,4.000000,4.000000,4.000000,4.000000,4.000000,4.000000,4.000000,4.000000,4.000000,4.000000,100.000000
1602005998.502552,19.000000,0.000000,4109.743652,4098.974121,4142.563965,4116.922852,4129.230957,4128.717773,4127.179688,4141.538574,4135.897461,4143.589844,4152.307617,4156.410156,4170.256348,4160.000000,0.000000,4.000000,,,,0.000000,4.000000,4.000000,4.000000,4.000000,4.000000,4.000000,4.000000,4.000000,4.000000,4.000000,4.000000,4.000000,4.000000,4.000000,100.000000
1602005998.510434,20.000000,0.000000,4110.769043,4092.307617,4142.051270,4117.436035,4124.102539,4127.179688,4136.922852,4147.692383,4135.384766,4137.436035,4156.410156,4168.205078,4171.794922,4162.051270,0.000000,4.000000,,,,0.000000,4.000000,4.000000,4.000000,4.000000,4.000000,4.000000,4.000000,4.000000,4.000000,4.000000,4.000000,4.000000,4.000000,4.000000,100.000000
1602005998.518316,21.000000,0.000000,4100.512695,4086.666748,4137.436035,4109.230957,4124.102539,4123.589844,4138.461426,4141.025879,4124.615234,4126.153809,4148.205078,4166.153809,4158.974121,4153.333496,0.000000,4.000000,,,,0.000000,4.000000,4.000000,4.000000,4.000000,4.000000,4.000000,4.000000,4.000000,4.000000,4.000000,4.000000,4.000000,4.000000,4.000000,100.000000
1602005998.526198,22.000000,0.000000,4096.922852,4089.230713,4135.897461,4111.282227,4130.769043,4130.256348,4138.461426,4136.922852,4132.820313,4137.436035,4142.563965,4158.461426,4154.871582,4149.743652,0.000000,4.000000,,,,0.000000,4.000000,4.000000,4.000000,4.000000,4.000000,4.000000,4.000000,4.000000,4.000000,4.000000,4.000000,4.000000,4.000000,4.000000,100.000000
1602005998.533980,23.000000,0.000000,4105.128418,4101.538574,4137.436035,4121.538574,4135.897461,4140.000000,4140.000000,4136.410156,4139.487305,4147.692383,4142.563965,4155.897461,4158.974121,4155.384766,0.000000,4.000000,,,,0.000000,4.000000,4.000000,4.000000,4.000000,4.000000,4.000000,4.000000,4.000000,4.000000,4.000000,4.000000,4.000000,4.000000,4.000000,100.000000
1602005998.541863,24.000000,0.000000,4104.615234,4104.102539,4134.871582,4118.461426,4137.436035,4135.384766,4137.948730,4142.563965,4135.897461,4146.153809,4143.077148,4153.333496,4156.922852,4158.461426,0.000000,4.000000,,,,0.000000,4.000000,4.000000,4.000000,4.000000,4.000000,4.000000,4.000000,4.000000,4.000000,4.000000,4.000000,4.000000,4.000000,4.000000,100.000000
1602005998.549745,25.000000,0.000000,4106.153809,4096.410156,4128.717773,4110.769043,4138.974121,4126.153809,4140.000000,4152.820313,4143.077148,4153.333496,4147.179688,4155.384766,4157.436035,4157.948730,0.000000,4.000000,,,,0.000000,4.000000,4.000000,4.000000,4.000000,4.000000,4.000000,4.000000,4.000000,4.000000,4.000000,4.000000,4.000000,4.000000,4.000000,100.000000
1602005998.557627,26.000000,0.000000,4106.153809,4091.794922,4123.077148,4109.743652,4135.384766,4125.641113,4140.000000,4148.717773,4144.102539,4149.743652,4146.153809,4153.846191,4158.461426,4149.230957,0.000000,4.000000,,,,0.000000,4.000000,4.000000,4.000000,4.000000,4.000000,4.000000,4.000000,4.000000,4.000000,4.000000,4.000000,4.000000,4.000000,4.000000,100.000000
1602005998.565509,27.000000,0.000000,4093.846191,4090.769287,4120.000000,4106.666504,4125.641113,4121.538574,4126.666504,4131.794922,4124.102539,4134.358887,4137.948730,4141.538574,4148.205078,4136.410156,0.000000,4.000000,,,,0.000000,4.000000,4.000000,4.000000,4.000000,4.000000,4.000000,4.000000,4.000000,4.000000,4.000000,4.000000,4.000000,4.000000,4.000000,100.000000
1602005998.573391,28.000000,0.000000,4094.871826,4091.281982,4122.051270,4106.153809,4124.615234,4119.487305,4117.948730,4122.563965,4116.410156,4129.743652,4135.897461,4136.410156,4145.641113,4142.051270,0.000000,4.000000,,,,0.000000,4.000000,4.000000,4.000000,4.000000,4.000000,4.000000,4.000000,4.000000,4.000000,4.000000,4.000000,4.000000,4.000000,4.000000,100.000000
1602005998.581173,29.000000,0.000000,4107.692383,4093.333252,4129.230957,4110.769043,4129.743652,4128.205078,4121.538574,4124.615234,4123.077148,4126.666504,4138.461426,4146.666504,4154.358887,4154.871582,0.000000,4.000000,,,,0.000000,4.000000,4.000000,4.000000,4.000000,4.000000,4.000000,4.000000,4.000000,4.000000,4.000000,4.000000,4.000000,4.000000,4.000000,100.000000
1602005998.589056,30.000000,0.000000,4107.179688,4096.922852,4136.922852,4113.333496,4126.153809,4133.333496,4128.205078,4130.256348,4125.641113,4128.717773,4141.025879,4152.307617,4157.436035,4154.358887,0.000000,4.000000,,,,0.000000,4.000000,4.000000,4.000000,4.000000,4.000000,4.000000,4.000000,4.000000,4.000000,4.000000,4.000000,4.000000,4.000000,4.000000,100.000000
1602005998.596938,31.000000,0.000000,4103.589844,4097.948730,4140.000000,4112.307617,4121.025879,4131.282227,4133.846191,4135.384766,4127.179688,4136.410156,4147.179688,4151.794922,4156.410156,4154.358887,0.000000,4.000000,,,,0.000000,4.000000,4.000000,4.000000,4.000000,4.000000,4.000000,4.000000,4.000000,4.000000,4.000000,4.000000,4.000000,4.000000,4.000000,100.000000
1602005998.604821,32.000000,0.000000,4102.051270,4093.846191,4142.051270,4109.230957,4119.487305,4133.333496,4137.948730,4136.410156,4128.717773,4130.256348,4147.179688,4154.358887,4157.436035,4155.897461,0.000000,4.000000,,,,0.000000,4.000000,4.000000,4.000000,4.000000,4.000000,4.000000,4.000000,4.000000,4.000000,4.000000,4.000000,4.000000,4.000000,4.000000,100.000000
1602005998.612703,33.000000,0.000000,4094.871826,4091.281982,4138.974121,4106.153809,4120.512695,4137.948730,4139.487305,4134.358887,4122.563965,4122.051270,4139.487305,4149.230957,4153.846191,4148.717773,0.000000,4.000000,,,,0.000000,4.000000,4.000000,4.000000,4.000000,4.000000,4.000000,4.000000,4.000000,4.000000,4.000000,4.000000,4.000000,4.000000,4.000000,100.000000
1602005998.620585,34.000000,0.000000,4091.794922,4091.794922,4128.205078,4107.179688,4123.589844,4141.538574,4141.025879,4134.871582,4125.641113,4133.846191,4137.948730,4137.948730,4148.205078,4146.153809,0.000000,4.000000,,,,0.000000,4.000000,4.000000,4.000000,4.000000,4.000000,4.000000,4.000000,4.000000,4.000000,4.000000,4.000000,4.000000,4.000000,4.000000,100.000000
1602005998.628568,35.000000,0.000000,4094.871826,4092.307617,4121.538574,4108.205078,4124.102539,4144.615234,4144.102539,4137.948730,4138.461426,4147.179688,4141.025879,4138.974121,4152.820313,4152.820313,0.000000,4.000000,,,,0.000000,4.000000,4.000000,4.000000,4.000000,4.000000,4.000000,4.000000,4.000000,4.000000,4.000000,4.000000,4.000000,4.000000,4.000000,100.000000
1602005998.636450,36.000000,0.000000,4094.358887,4091.281982,4118.974121,4107.179688,4125.128418,4142.563965,4144.615234,4134.358887,4134.871582,4132.307617,4138.461426,4149.230957,4153.333496,4153.333496,0.000000,4.000000,,,,0.000000,4.000000,4.000000,4.000000,4.000000,4.000000,4.000000,4.000000,4.000000,4.000000,4.000000,4.000000,4.000000,4.000000,4.000000,100.000000
1602005998.644332,37.000000,0.000000,4101.538574,4101.025879,4120.000000,4112.820313,4132.307617,4138.974121,4140.512695,4128.717773,4121.538574,4105.128418,4135.384766,4149.743652,4140.512695,4150.769043,0.000000,4.000000,,,,0.000000,4.000000,4.000000,4.000000,4.000000,4.000000,4.000000,4.000000,4.000000,4.000000,4.000000,4.000000,4.000000,4.000000,4.000000,100.000000
1602005998.652215,38.000000,0.000000,4112.820313,4116.410156,4131.794922,4123.589844,4140.512695,4143.589844,4136.922852,4133.333496,4122.563965,4110.256348,4138.461426,4146.666504,4137.948730,4153.333496,0.000000,4.000000,,,,0.000000,4.000000,4.000000,4.000000,4.000000,4.000000,4.000000,4.000000,4.000000,4.000000,4.000000,4.000000,4.000000,4.000000,4.000000,100.000000
1602005998.660097,39.000000,0.000000,4113.846191,4116.922852,4138.974121,4126.666504,4140.512695,4144.102539,4138.461426,4137.948730,4129.230957,4146.666504,4143.077148,4146.666504,4149.743652,4155.384766,0.000000,4.000000,,,,0.000000,4.000000,4.000000,4.000000,4.000000,4.000000,4.000000,4.000000,4.000000,4.000000,4.000000,4.000000,4.000000,4.000000,4.000000,100.000000
1602005998.667979,40.000000,0.000000,4111.282227,4114.871582,4128.205078,4123.589844,4138.461426,4137.436035,4138.461426,4133.846191,4124.102539,4151.794922,4140.000000,4146.666504,4153.333496,4155.384766,0.000000,4.000000,,,,0.000000,4.000000,4.000000,4.000000,4.000000,4.000000,4.000000,4.000000,4.000000,4.000000,4.000000,4.000000,4.000000,4.000000,4.000000,100.000000
1602005998.675862,41.000000,0.000000,4109.230957,4119.487305,4122.051270,4122.051270,4139.487305,4136.410156,4141.025879,4133.846191,4122.563965,4126.666504,4136.922852,4149.743652,4150.256348,4155.384766,0.000000,4.000000,,,,0.000000,4.000000,4.000000,4.000000,4.000000,4.000000,4.000000,4.000000,4.000000,4.000000,4.000000,4.000000,4.000000,4.000000,4.000000,100.000000
1602005998.683644,42.000000,0.000000,4107.179688,4113.333496,4128.205078,4121.538574,4141.025879,4142.563965,4151.282227,4142.563965,4133.846191,4131.794922,4142.051270,4154.358887,4153.846191,4156.922852,0.000000,4.000000,,,,0.000000,4.000000,4.000000,4.000000,4.000000,4.000000,4.000000,4.000000,4.000000,4.000000,4.000000,4.000000,4.000000,4.000000,4.000000,100.000000
1602005998.691526,43.000000,0.000000,4110.256348,4104.102539,4130.769043,4120.000000,4142.563965,4145.128418,4151.282227,4146.153809,4140.000000,4148.205078,4143.077148,4153.846191,4158.461426,4155.897461,0.000000,4.000000,,,,0.000000,4.000000,4.000000,4.000000,4.000000,4.000000,4.000000,4.000000,4.000000,4.000000,4.000000,4.000000,4.000000,4.000000,4.000000,100.000000
1602005998.699409,44.000000,0.000000,4106.153809,4105.128418,4124.102539,4118.974121,4140.000000,4138.974121,4138.461426,4142.051270,4136.922852,4128.717773,4137.436035,4144.615234,4152.820313,4144.102539,0.000000,4.000000,,,,0.000000,4.000000,4.000000,4.000000,4.000000,4.000000,4.000000,4.000000,4.000000,4.000000,4.000000,4.000000,4.000000,4.000000,4.000000,100.000000
1602005998.707291,45.000000,0.000000,4093.846191,4107.179688,4113.846191,4117.948730,4134.871582,4134.358887,4134.358887,4136.922852,4135.384766,4109.230957,4136.410156,4131.794922,4143.077148,4132.820313,0.000000,4.000000,,,,0.000000,4.000000,4.000000,4.000000,4.000000,4.000000,4.000000,4.000000,4.000000,4.000000,4.000000,4.000000,4.000000,4.000000,4.000000,100.000000
1602005998.715174,46.000000,0.000000,4094.871826,4109.743652,4110.256348,4118.974121,4133.846191,4131.794922,4137.436035,4135.897461,4138.974121,4137.436035,4138.461426,4126.153809,4144.102539,4134.358887,0.000000,4.000000,,,,0.000000,4.000000,4.000000,4.000000,4.000000,4.000000,4.000000,4.000000,4.000000,4.000000,4.000000,4.000000,4.000000,4.000000,4.000000,100.000000
1602005998.723056,47.000000,0.000000,4108.205078,4120.512695,4115.897461,4121.538574,4137.436035,4127.179688,4129.743652,4136.922852,4140.000000,4166.153809,4138.461426,4133.333496,4151.794922,4142.563965,0.000000,4.000000,,,,0.000000,4.000000,4.000000,4.000000,4.000000,4.000000,4.000000,4.000000,4.000000,4.000000,4.000000,4.000000,4.000000,4.000000,4.000000,100.000000
1602005998.730938,48.000000,0.000000,4117.948730,4125.128418,4127.692383,4126.666504,4137.436035,4126.153809,4122.563965,4136.410156,4140.000000,4148.717773,4137.436035,4148.717773,4154.358887,4150.769043,0.000000,4.000000,,,,0.000000,4.000000,4.000000,4.000000,4.000000,4.000000,4.000000,4.000000,4.000000,4.000000,4.000000,4.000000,4.000000,4.000000,4.000000,100.000000
1602005998.738721,49.000000,0.000000,4125.128418,4125.641113,4135.384766,4133.333496,4136.922852,4128.717773,4129.230957,4138.461426,4144.102539,4142.563965,4138.974121,4158.974121,4154.871582,4157.436035,0.000000,4.000000,,,,0.000000,4.000000,4.000000,4.000000,4.000000,4.000000,4.000000,4.000000,4.000000,4.000000,4.000000,4.000000,4.000000,4.000000,4.000000,100.000000
1602005998.746604,50.000000,0.000000,4121.025879,4128.205078,4130.256348,4132.307617,4138.974121,4128.717773,4137.436035,4136.922852,4141.025879,4151.794922,4135.384766,4152.820313,4150.256348,4156.410156,0.000000,4.000000,,,,0.000000,4.000000,4.000000,4.000000,4.000000,4.000000,4.000000,4.000000,4.000000,4.000000,4.000000,4.000000,4.000000,4.000000,4.000000,100.000000
1602005998.754487,51.000000,0.000000,4106.666504,4126.153809,4121.025879,4124.615234,4132.307617,4126.666504,4137.436035,4131.282227,4126.153809,4131.794922,4128.717773,4140.512695,4139.487305,4146.153809,0.000000,4.000000,,,,0.000000,4.000000,4.000000,4.000000,4.000000,4.000000,4.000000,4.000000,4.000000,4.000000,4.000000,4.000000,4.000000,4.000000,4.000000,100.000000
1602005998.762370,52.000000,0.000000,4108.717773,4123.589844,4121.538574,4123.077148,4126.666504,4125.641113,4136.922852,4133.333496,4119.487305,4116.410156,4125.641113,4146.153809,4136.922852,4140.512695,0.000000,4.000000,,,,0.000000,4.000000,4.000000,4.000000,4.000000,4.000000,4.000000,4.000000,4.000000,4.000000,4.000000,4.000000,4.000000,4.000000,4.000000,100.000000
1602005998.770253,53.000000,0.000000,4115.897461,4122.563965,4125.128418,4124.102539,4131.794922,4123.077148,4136.922852,4138.461426,4123.589844,4120.000000,4129.743652,4158.461426,4138.461426,4145.128418,0.000000,4.000000,,,,0.000000,4.000000,4.000000,4.000000,4.000000,4.000000,4.000000,4.000000,4.000000,4.000000,4.000000,4.000000,4.000000,4.000000,4.000000,100.000000
1602005998.778135,54.000000,0.000000,4112.820313,4122.563965,4124.102539,4122.051270,4138.974121,4123.589844,4131.794922,4139.487305,4128.205078,4125.128418,4134.871582,4155.897461,4140.512695,4152.307617,0.000000,4.000000,,,,0.000000,4.000000,4.000000,4.000000,4.000000,4.000000,4.000000,4.000000,4.000000,4.000000,4.000000,4.000000,4.000000,4.000000,4.000000,100.000000
1602005998.786018,55.000000,0.000000,4116.410156,4125.128418,4127.692383,4123.589844,4140.000000,4127.179688,4126.153809,4142.051270,4136.922852,4145.128418,4143.077148,4154.871582,4152.820313,4157.948730,0.000000,4.000000,,,,0.000000,4.000000,4.000000,4.000000,4.000000,4.000000,4.000000,4.000000,4.000000,4.000000,4.000000,4.000000,4.000000,4.000000,4.000000,100.000000
1602005998.793901,56.000000,0.000000,4117.436035,4124.615234,4126.666504,4124.615234,4138.974121,4124.615234,4122.051270,4142.051270,4138.974121,4160.000000,4142.051270,4156.922852,4155.897461,4154.871582,0.000000,4.000000,,,,0.000000,4.000000,4.000000,4.000000,4.000000,4.000000,4.000000,4.000000,4.000000,4.000000,4.000000,4.000000,4.000000,4.000000,4.000000,100.000000
1602005998.801883,57.000000,0.000000,4106.153809,4119.487305,4118.461426,4120.000000,4137.948730,4123.077148,4118.461426,4130.769043,4124.102539,4146.153809,4125.641113,4149.743652,4136.922852,4141.025879,0.000000,4.000000,,,,0.000000,4.000000,4.000000,4.000000,4.000000,4.000000,4.000000,4.000000,4.000000,4.000000,4.000000,4.000000,4.000000,4.000000,4.000000,100.000000
1602005998.809766,58.000000,0.000000,4105.128418,4120.000000,4118.461426,4121.025879,4137.948730,4130.256348,4118.461426,4123.077148,4116.922852,4131.282227,4122.563965,4149.230957,4129.230957,4136.922852,0.000000,4.000000,,,,0.000000,4.000000,4.000000,4.000000,4.000000,4.000000,4.000000,4.000000,4.000000,4.000000,4.000000,4.000000,4.000000,4.000000,4.000000,100.000000
1602005998.817648,59.000000,0.000000,4115.897461,4128.205078,4124.615234,4127.179688,4137.948730,4136.410156,4121.538574,4129.230957,4124.615234,4127.692383,4137.948730,4157.948730,4146.153809,4150.256348,0.000000,4.000000,,,,0.000000,4.000000,4.000000,4.000000,4.000000,4.000000,4.000000,4.000000,4.000000,4.000000,4.000000,4.000000,4.000000,4.000000,4.000000,100.000000
1602005998.825530,60.000000,0.000000,4119.487305,4135.897461,4126.666504,4127.692383,4133.333496,4134.871582,4126.153809,4134.871582,4128.717773,4126.666504,4144.615234,4158.461426,4155.384766,4158.461426,0.000000,4.000000,,,,0.000000,4.000000,4.000000,4.000000,4.000000,4.000000,4.000000,4.000000,4.000000,4.000000,4.000000,4.000000,4.000000,4.000000,4.000000,100.000000
1602005998.833413,61.000000,0.000000,4122.563965,4140.000000,4131.282227,4132.820313,4136.410156,4136.922852,4134.358887,4134.871582,4129.743652,4133.333496,4137.948730,4153.333496,4151.282227,4155.384766,0.000000,4.000000,,,,0.000000,4.000000,4.000000,4.000000,4.000000,4.000000,4.000000,4.000000,4.000000,4.000000,4.000000,4.000000,4.000000,4.000000,4.000000,100.000000
1602005998.841295,62.000000,0.000000,4126.153809,4138.974121,4138.461426,4136.922852,4137.436035,4137.948730,4141.538574,4134.871582,4127.179688,4142.051270,4136.410156,4152.820313,4151.794922,4154.871582,0.000000,4.000000,,,,0.000000,4.000000,4.000000,4.000000,4.000000,4.000000,4.000000,4.000000,4.000000,4.000000,4.000000,4.000000,4.000000,4.000000,4.000000,100.000000
1602005998.849278,63.000000,0.000000,4121.025879,4134.358887,4137.436035,4131.282227,4126.153809,4125.641113,4134.358887,4134.358887,4125.641113,4151.282227,4137.436035,4151.794922,4148.205078,4154.358887,0.000000,4.000000,,,,0.000000,4.000000,4.000000,4.000000,4.000000,4.000000,4.000000,4.000000,4.000000,4.000000,4.000000,4.000000,4.000000,4.000000,4.000000,100.000000
1602005998.857161,64.000000,0.000000,4125.128418,4135.897461,4140.000000,4132.307617,4127.692383,4116.410156,4127.692383,4142.051270,4134.358887,4155.384766,4135.897461,4151.794922,4143.077148,4152.307617,799.000000,4.000000,,,,0.000000,4.000000,4.000000,4.000000,4.000000,4.000000,4.000000,4.000000,4.000000,4.000000,4.000000,4.000000,4.000000,4.000000,4.000000,100.000000
1602005998.865044,65.000000,0.000000,4138.461426,4140.512695,4146.153809,4140.512695,4138.461426,4123.589844,4133.333496,4150.256348,4142.051270,4145.128418,4141.025879,4156.922852,4148.717773,4152.820313,760.000000,4.000000,,,,0.000000,4.000000,4.000000,4.000000,4.000000,4.000000,4.000000,4.000000,4.000000,4.000000,4.000000,4.000000,4.000000,4.000000,4.000000,100.000000
1602005998.872927,66.000000,0.000000,4133.846191,4137.948730,4143.589844,4138.974121,4137.436035,4136.922852,4140.512695,4147.179688,4139.487305,4141.538574,4143.589844,4158.461426,4153.846191,4155.897461,853.000000,4.000000,,,,0.000000,4.000000,4.000000,4.000000,4.000000,4.000000,4.000000,4.000000,4.000000,4.000000,4.000000,4.000000,4.000000,4.000000,4.000000,100.000000
1602005998.880810,67.000000,0.000000,4122.051270,4135.384766,4137.948730,4130.256348,4135.384766,4138.461426,4140.512695,4142.051270,4140.000000,4143.077148,4142.051270,4151.282227,4149.230957,4155.384766,870.000000,4.000000,,,,0.000000,4.000000,4.000000,4.000000,4.000000,4.000000,4.000000,4.000000,4.000000,4.000000,4.000000,4.000000,4.000000,4.000000,4.000000,100.000000
1602005998.888693,68.000000,0.000000,4122.563965,4140.000000,4133.333496,4127.692383,4135.384766,4129.230957,4136.410156,4141.538574,4137.948730,4132.307617,4137.436035,4143.077148,4143.077148,4146.153809,813.000000,4.000000,,,,0.000000,4.000000,4.000000,4.000000,4.000000,4.000000,4.000000,4.000000,4.000000,4.000000,4.000000,4.000000,4.000000,4.000000,4.000000,100.000000
1602005998.896576,69.000000,0.000000,4120.512695,4133.846191,4127.179688,4122.051270,4126.666504,4121.025879,4130.769043,4136.922852,4126.666504,4128.205078,4126.153809,4136.410156,4131.282227,4135.384766,818.000000,4.000000,,,,0.000000,4.000000,4.000000,4.000000,4.000000,4.000000,4.000000,4.000000,4.000000,4.000000,4.000000,4.000000,4.000000,4.000000,4.000000,100.000000
1602005998.904460,70.000000,0.000000,4116.922852,4125.641113,4130.769043,4122.563965,4121.538574,4121.025879,4125.128418,4134.358887,4129.230957,4136.410156,4123.077148,4133.846191,4122.051270,4135.384766,766.000000,4.000000,,,,0.000000,4.000000,4.000000,4.000000,4.000000,4.000000,4.000000,4.000000,4.000000,4.000000,4.000000,4.000000,4.000000,4.000000,4.000000,100.000000
1602005998.912343,71.000000,0.000000,4124.102539,4135.897461,4144.102539,4136.410156,4130.256348,4122.051270,4125.128418,4139.487305,4138.974121,4141.025879,4135.384766,4145.641113,4133.846191,4140.000000,684.000000,4.000000,,,,0.000000,4.000000,4.000000,4.000000,4.000000,4.000000,4.000000,4.000000,4.000000,4.000000,4.000000,4.000000,4.000000,4.000000,4.000000,100.000000
1602005998.920325,72.000000,0.000000,4126.153809,4141.025879,4145.128418,4136.410156,4130.769043,4117.948730,4123.077148,4137.436035,4133.333496,4137.436035,4138.461426,4155.897461,4144.102539,4140.000000,785.000000,4.000000,,,,0.000000,4.000000,4.000000,4.000000,4.000000,4.000000,4.000000,4.000000,4.000000,4.000000,4.000000,4.000000,4.000000,4.000000,4.000000,100.000000
1602005998.928208,73.000000,0.000000,4122.563965,4128.205078,4137.436035,4122.563965,4123.077148,4118.461426,4118.974121,4132.820313,4123.589844,4133.333496,4128.205078,4143.589844,4134.871582,4137.436035,843.000000,4.000000,,,,0.000000,4.000000,4.000000,4.000000,4.000000,4.000000,4.000000,4.000000,4.000000,4.000000,4.000000,4.000000,4.000000,4.000000,4.000000,100.000000
1602005998.936091,74.000000,0.000000,4120.512695,4122.563965,4131.794922,4120.512695,4123.589844,4122.051270,4122.051270,4130.256348,4124.102539,4125.641113,4122.563965,4130.256348,4122.563965,4132.307617,869.000000,4.000000,,,,0.000000,4.000000,4.000000,4.000000,4.000000,4.000000,4.000000,4.000000,4.000000,4.000000,4.000000,4.000000,4.000000,4.000000,4.000000,100.000000
1602005998.943974,75.000000,0.000000,4109.743652,4125.128418,4125.641113,4125.128418,4125.641113,4122.051270,4125.128418,4128.205078,4121.025879,4112.307617,4118.461426,4132.820313,4120.512695,4125.128418,841.000000,4.000000,,,,0.000000,4.000000,4.000000,4.000000,4.000000,4.000000,4.000000,4.000000,4.000000,4.000000,4.000000,4.000000,4.000000,4.000000,4.000000,100.000000
1602005998.951857,76.000000,0.000000,4103.589844,4123.077148,4120.512695,4121.025879,4123.077148,4121.538574,4124.102539,4132.307617,4116.922852,4116.410156,4113.846191,4135.384766,4120.000000,4118.461426,771.000000,4.000000,,,,0.000000,4.000000,4.000000,4.000000,4.000000,4.000000,4.000000,4.000000,4.000000,4.000000,4.000000,4.000000,4.000000,4.000000,4.000000,100.000000
1602005998.959739,77.000000,0.000000,4112.307617,4124.615234,4121.025879,4118.974121,4127.692383,4125.641113,4128.205078,4137.436035,4128.205078,4137.948730,4123.077148,4134.358887,4125.128418,4120.512695,751.000000,4.000000,,,,0.000000,4.000000,4.000000,4.000000,4.000000,4.000000,4.000000,4.000000,4.000000,4.000000,4.000000,4.000000,4.000000,4.000000,4.000000,100.000000
1602005998.967622,78.000000,0.000000,4120.512695,4135.384766,4129.230957,4128.205078,4139.487305,4130.256348,4139.487305,4143.589844,4142.563965,4143.589844,4138.461426,4146.153809,4141.538574,4136.922852,869.000000,4.000000,,,,0.000000,4.000000,4.000000,4.000000,4.000000,4.000000,4.000000,4.000000,4.000000,4.000000,4.000000,4.000000,4.000000,4.000000,4.000000,100.000000
1602005998.975505,79.000000,0.000000,4127.692383,4141.025879,4137.436035,4130.769043,4137.436035,4126.666504,4141.538574,4150.769043,4143.589844,4136.922852,4143.589844,4161.025879,4155.384766,4152.820313,841.000000,4.000000,,,,0.000000,4.000000,4.000000,4.000000,4.000000,4.000000,4.000000,4.000000,4.000000,4.000000,4.000000,4.000000,4.000000,4.000000,4.000000,100.000000
1602005998.983388,80.000000,0.000000,4138.461426,4136.922852,4141.538574,4125.641113,4125.641113,4118.974121,4136.410156,4154.871582,4137.436035,4156.410156,4148.717773,4167.692383,4160.512695,4161.538574,771.000000,4.000000,,,,0.000000,4.000000,4.000000,4.000000,4.000000,4.000000,4.000000,4.000000,4.000000,4.000000,4.000000,4.000000,4.000000,4.000000,4.000000,100.000000
1602005998.991170,81.000000,0.000000,4143.589844,4136.410156,4146.666504,4128.205078,4125.641113,4118.974121,4134.871582,4152.307617,4138.974121,4173.846191,4153.846191,4172.307617,4162.563965,4169.230957,751.000000,4.000000,,,,0.000000,4.000000,4.000000,4.000000,4.000000,4.000000,4.000000,4.000000,4.000000,4.000000,4.000000,4.000000,4.000000,4.000000,4.000000,100.000000
1602005998.999051,82.000000,0.000000,4136.922852,4137.948730,4149.230957,4137.948730,4131.282227,4123.077148,4132.307617,4148.205078,4142.051270,4155.897461,4149.743652,4176.410156,4161.025879,4169.743652,869.000000,4.000000,,,,0.000000,4.000000,4.000000,4.000000,4.000000,4.000000,4.000000,4.000000,4.000000,4.000000,4.000000,4.000000,4.000000,4.000000,4.000000,100.000000
1602005999.006933,83.000000,0.000000,4126.153809,4130.769043,4141.538574,4132.307617,4125.641113,4116.410156,4123.589844,4137.436035,4128.205078,4138.974121,4141.025879,4166.666504,4153.333496,4157.436035,841.000000,4.000000,,,,0.000000,4.000000,4.000000,4.000000,4.000000,4.000000,4.000000,4.000000,4.000000,4.000000,4.000000,4.000000,4.000000,4.000000,4.000000,100.000000
1602005999.014914,84.000000,0.000000,4122.051270,4123.077148,4134.358887,4121.538574,4118.974121,4111.794922,4117.948730,4122.563965,4112.307617,4134.871582,4136.922852,4151.282227,4145.128418,4152.820313,771.000000,4.000000,,,,0.000000,4.000000,4.000000,4.000000,4.000000,4.000000,4.000000,4.000000,4.000000,4.000000,4.000000,4.000000,4.000000,4.000000,4.000000,100.000000
1602005999.022697,85.000000,0.000000,4124.102539,4124.615234,4131.794922,4125.128418,4123.589844,4120.000000,4124.102539,4121.538574,4112.307617,4119.487305,4137.436035,4150.769043,4144.102539,4160.512695,751.000000,4.000000,,,,0.000000,4.000000,4.000000,4.000000,4.000000,4.000000,4.000000,4.000000,4.000000,4.000000,4.000000,4.000000,4.000000,4.000000,4.000000,100.000000
1602005999.030579,86.000000,0.000000,4121.538574,4125.641113,4124.102539,4128.205078,4126.153809,4124.615234,4125.641113,4123.077148,4111.282227,4110.769043,4137.948730,4152.307617,4142.563965,4153.333496,869.000000,4.000000,,,,0.000000,4.000000,4.000000,4.000000,4.000000,4.000000,4.000000,4.000000,4.000000,4.000000,4.000000,4.000000,4.000000,4.000000,4.000000,100.000000
1602005999.038462,87.000000,0.000000,4116.410156,4121.538574,4118.461426,4122.563965,4123.589844,4120.512695,4122.051270,4121.025879,4103.077148,4125.641113,4135.384766,4143.589844,4141.025879,4136.410156,841.000000,4.000000,,,,0.000000,4.000000,4.000000,4.000000,4.000000,4.000000,4.000000,4.000000,4.000000,4.000000,4.000000,4.000000,4.000000,4.000000,4.000000,100.000000
1602005999.046344,88.000000,0.000000,4120.512695,4122.563965,4126.153809,4123.077148,4129.743652,4122.051270,4130.256348,4128.717773,4109.230957,4141.538574,4138.974121,4141.025879,4145.128418,4138.974121,771.000000,4.000000,,,,0.000000,4.000000,4.000000,4.000000,4.000000,4.000000,4.000000,4.000000,4.000000,4.000000,4.000000,4.000000,4.000000,4.000000,4.000000,100.000000
1602005999.054227,89.000000,0.000000,4123.589844,4125.128418,4131.282227,4132.820313,4139.487305,4127.179688,4137.436035,4138.974121,4122.051270,4143.589844,4137.436035,4140.512695,4145.641113,4144.102539,751.000000,4.000000,,,,0.000000,4.000000,4.000000,4.000000,4.000000,4.000000,4.000000,4.000000,4.000000,4.000000,4.000000,4.000000,4.000000,4.000000,4.000000,100.000000
1602005999.062110,90.000000,0.000000,4118.974121,4128.717773,4125.128418,4134.871582,4139.487305,4125.641113,4125.128418,4134.871582,4121.538574,4134.871582,4123.589844,4134.871582,4137.436035,4131.794922,869.000000,4.000000,,,,0.000000,4.000000,4.000000,4.000000,4.000000,4.000000,4.000000,4.000000,4.000000,4.000000,4.000000,4.000000,4.000000,4.000000,4.000000,100.000000
1602005999.069992,91.000000,0.000000,4121.538574,4134.871582,4124.102539,4131.794922,4136.410156,4123.077148,4111.794922,4129.743652,4120.512695,4130.256348,4125.128418,4136.410156,4138.974121,4129.743652,841.000000,4.000000,,,,0.000000,4.000000,4.000000,4.000000,4.000000,4.000000,4.000000,4.000000,4.000000,4.000000,4.000000,4.000000,4.000000,4.000000,4.000000,100.000000
1602005999.077975,92.000000,0.000000,4133.333496,4138.974121,4129.743652,4135.384766,4136.922852,4123.589844,4115.384766,4136.410156,4132.820313,4146.153809,4140.512695,4142.563965,4146.153809,4141.538574,771.000000,4.000000,,,,0.000000,4.000000,4.000000,4.000000,4.000000,4.000000,4.000000,4.000000,4.000000,4.000000,4.000000,4.000000,4.000000,4.000000,4.000000,100.000000
1602005999.085858,93.000000,0.000000,4138.461426,4137.948730,4132.307617,4139.487305,4137.436035,4127.179688,4122.051270,4137.436035,4142.563965,4161.538574,4137.436035,4138.974121,4140.512695,4137.948730,751.000000,4.000000,,,,0.000000,4.000000,4.000000,4.000000,4.000000,4.000000,4.000000,4.000000,4.000000,4.000000,4.000000,4.000000,4.000000,4.000000,4.000000,100.000000
1602005999.093741,94.000000,0.000000,4135.897461,4137.948730,4133.846191,4137.948730,4137.948730,4129.743652,4124.102539,4127.692383,4133.333496,4143.589844,4124.102539,4136.410156,4136.410156,4129.230957,869.000000,4.000000,,,,0.000000,4.000000,4.000000,4.000000,4.000000,4.000000,4.000000,4.000000,4.000000,4.000000,4.000000,4.000000,4.000000,4.000000,4.000000,100.000000
1602005999.101624,95.000000,0.000000,4133.333496,4139.487305,4132.820313,4135.897461,4137.948730,4125.128418,4124.102539,4118.461426,4113.333496,4122.051270,4122.563965,4140.000000,4136.922852,4135.384766,841.000000,4.000000,,,,0.000000,4.000000,4.000000,4.000000,4.000000,4.000000,4.000000,4.000000,4.000000,4.000000,4.000000,4.000000,4.000000,4.000000,4.000000,100.000000
1602005999.109507,96.000000,0.000000,4125.641113,4131.794922,4124.615234,4135.384766,4135.897461,4121.025879,4123.589844,4114.871582,4098.461426,4118.974121,4120.000000,4133.333496,4126.666504,4137.436035,771.000000,4.000000,,,,0.000000,4.000000,4.000000,4.000000,4.000000,4.000000,4.000000,4.000000,4.000000,4.000000,4.000000,4.000000,4.000000,4.000000,4.000000,100.000000
1602005999.117390,97.000000,0.000000,4116.922852,4123.589844,4121.538574,4134.871582,4134.871582,4122.051270,4123.589844,4114.871582,4096.922852,4113.846191,4115.384766,4122.563965,4117.948730,4132.820313,751.000000,4.000000,,,,0.000000,4.000000,4.000000,4.000000,4.000000,4.000000,4.000000,4.000000,4.000000,4.000000,4.000000,4.000000,4.000000,4.000000,4.000000,100.000000
1602005999.125274,98.000000,0.000000,4126.153809,4129.230957,4130.256348,4138.974121,4135.384766,4120.512695,4122.563965,4118.461426,4099.487305,4110.769043,4127.179688,4129.743652,4124.102539,4139.487305,869.000000,4.000000,,,,0.000000,4.000000,4.000000,4.000000,4.000000,4.000000,4.000000,4.000000,4.000000,4.000000,4.000000,4.000000,4.000000,4.000000,4.000000,100.000000
1602005999.133157,99.000000,0.000000,4140.000000,4139.487305,4138.974121,4143.589844,4135.897461,4119.487305,4128.205078,4129.743652,4108.717773,4127.179688,4137.948730,4149.230957,4135.897461,4150.256348,841.000000,4.000000,,,,0.000000,4.000000,4.000000,4.000000,4.000000,4.000000,4.000000,4.000000,4.000000,4.000000,4.000000,4.000000,4.000000,4.000000,4.000000,100.000000
1602005999.141040,100.000000,0.000000,4143.077148,4138.974121,4148.717773,4144.615234,4140.512695,4128.717773,4138.461426,4142.563965,4129.743652,4143.077148,4140.512695,4159.487305,4149.230957,4159.487305,771.000000,4.000000,,,,0.000000,4.000000,4.000000,4.000000,4.000000,4.000000,4.000000,4.000000,4.000000,4.000000,4.000000,4.000000,4.000000,4.000000,4.000000,100.000000
1602005999.149023,101.000000,0.000000,4145.128418,4138.461426,4154.871582,4144.102539,4142.051270,4132.820313,4137.436035,4144.615234,4141.025879,4140.000000,4148.717773,4158.461426,4161.538574,4168.205078,751.000000,4.000000,,,,0.000000,4.000000,4.000000,4.000000,4.000000,4.000000,4.000000,4.000000,4.000000,4.000000,4.000000,4.000000,4.000000,4.000000,4.000000,100.000000
1602005999.156906,102.000000,0.000000,4143.589844,4138.461426,4147.179688,4140.000000,4132.307617,4123.077148,4125.641113,4134.871582,4130.256348,4134.358887,4151.282227,4150.256348,4153.333496,4159.487305,869.000000,4.000000,,,,0.000000,4.000000,4.000000,4.000000,4.000000,4.000000,4.000000,4.000000,4.000000,4.000000,4.000000,4.000000,4.000000,4.000000,4.000000,100.000000
1602005999.164789,103.000000,0.000000,4137.436035,4130.769043,4137.948730,4134.871582,4126.153809,4121.538574,4122.051270,4124.615234,4118.461426,4138.461426,4134.358887,4138.974121,4135.384766,4142.051270,841.000000,4.000000,,,,0.000000,4.000000,4.000000,4.000000,4.000000,4.000000,4.000000,4.000000,4.000000,4.000000,4.000000,4.000000,4.000000,4.000000,4.000000,100.000000
1602005999.172672,104.000000,0.000000,4132.820313,4126.153809,4142.051270,4135.897461,4134.871582,4134.358887,4129.743652,4123.077148,4120.512695,4146.153809,4125.641113,4135.384766,4133.846191,4142.563965,771.000000,4.000000,,,,0.000000,4.000000,4.000000,4.000000,4.000000,4.000000,4.000000,4.000000,4.000000,4.000000,4.000000,4.000000,4.000000,4.000000,4.000000,100.000000
1602005999.180555,105.000000,0.000000,4128.205078,4125.641113,4145.641113,4136.410156,4141.538574,4140.000000,4135.897461,4124.615234,4128.717773,4151.282227,4135.897461,4138.461426,4141.025879,4143.077148,751.000000,4.000000,,,,0.000000,4.000000,4.000000,4.000000,4.000000,4.000000,4.000000,4.000000,4.000000,4.000000,4.000000,4.000000,4.000000,4.000000,4.000000,100.000000
1602005999.188438,106.000000,0.000000,4121.538574,4122.051270,4140.512695,4130.769043,4134.871582,4136.922852,4135.384766,4126.666504,4136.410156,4155.897461,4136.922852,4140.512695,4140.000000,4135.897461,869.000000,4.000000,,,,0.000000,4.000000,4.000000,4.000000,4.000000,4.000000,4.000000,4.000000,4.000000,4.000000,4.000000,4.000000,4.000000,4.000000,4.000000,100.000000
1602005999.196321,107.000000,0.000000,4121.025879,4120.512695,4137.436035,4126.153809,4127.179688,4135.384766,4136.410156,4128.205078,4133.846191,4147.692383,4127.692383,4138.974121,4136.922852,4137.436035,841.000000,4.000000,,,,0.000000,4.000000,4.000000,4.000000,4.000000,4.000000,4.000000,4.000000,4.000000,4.000000,4.000000,4.000000,4.000000,4.000000,4.000000,100.000000
1602005999.204204,108.000000,0.000000,4121.025879,4119.487305,4134.358887,4124.102539,4124.102539,4129.743652,4136.410156,4127.692383,4118.461426,4120.512695,4124.102539,4132.307617,4136.410156,4135.384766,771.000000,4.000000,,,,0.000000,4.000000,4.000000,4.000000,4.000000,4.000000,4.000000,4.000000,4.000000,4.000000,4.000000,4.000000,4.000000,4.000000,4.000000,100.000000
1602005999.212087,109.000000,0.000000,4117.948730,4116.410156,4128.717773,4125.128418,4122.563965,4126.666504,4128.205078,4124.615234,4110.256348,4101.538574,4122.051270,4125.128418,4130.769043,4124.615234,751.000000,4.000000,,,,0.000000,4.000000,4.000000,4.000000,4.000000,4.000000,4.000000,4.000000,4.000000,4.000000,4.000000,4.000000,4.000000,4.000000,4.000000,100.000000
1602005999.219869,110.000000,0.000000,4127.692383,4124.615234,4133.333496,4134.358887,4125.128418,4135.384766,4127.179688,4128.717773,4118.974121,4113.846191,4125.641113,4130.256348,4131.282227,4133.333496,869.000000,4.000000,,,,0.000000,4.000000,4.000000,4.000000,4.000000,4.000000,4.000000,4.000000,4.000000,4.000000,4.000000,4.000000,4.000000,4.000000,4.000000,100.000000
1602005999.227751,111.000000,0.000000,4144.102539,4138.461426,4149.230957,4142.051270,4130.769043,4135.384766,4133.846191,4138.461426,4133.333496,4143.589844,4135.384766,4146.153809,4146.666504,4160.512695,841.000000,4.000000,,,,0.000000,4.000000,4.000000,4.000000,4.000000,4.000000,4.000000,4.000000,4.000000,4.000000,4.000000,4.000000,4.000000,4.000000,4.000000,100.000000
1602005999.235632,112.000000,0.000000,4152.307617,4140.000000,4157.948730,4138.974121,4135.384766,4123.077148,4129.743652,4141.025879,4137.948730,4160.512695,4140.000000,4154.871582,4158.461426,4171.282227,771.000000,4.000000,,,,0.000000,4.000000,4.000000,4.000000,4.000000,4.000000,4.000000,4.000000,4.000000,4.000000,4.000000,4.000000,4.000000,4.000000,4.000000,100.000000
1602005999.243514,113.000000,0.000000,4155.384766,4139.487305,4157.948730,4137.948730,4136.410156,4120.000000,4123.077148,4138.461426,4137.948730,4164.615234,4146.666504,4157.436035,4158.974121,4161.025879,751.000000,4.000000,,,,0.000000,4.000000,4.000000,4.000000,4.000000,4.000000,4.000000,4.000000,4.000000,4.000000,4.000000,4.000000,4.000000,4.000000,4.000000,100.000000
1602005999.251296,114.000000,0.000000,4153.846191,4142.563965,4157.948730,4143.077148,4135.897461,4122.563965,4121.025879,4133.333496,4136.922852,4154.871582,4155.384766,4154.871582,4155.897461,4154.358887,869.000000,4.000000,,,,0.000000,4.000000,4.000000,4.000000,4.000000,4.000000,4.000000,4.000000,4.000000,4.000000,4.000000,4.000000,4.000000,4.000000,4.000000,100.000000
1602005999.259179,115.000000,0.000000,4143.077148,4139.487305,4157.436035,4141.538574,4136.410156,4121.025879,4120.000000,4125.128418,4128.205078,4128.717773,4146.153809,4144.615234,4147.692383,4150.256348,841.000000,4.000000,,,,0.000000,4.000000,4.000000,4.000000,4.000000,4.000000,4.000000,4.000000,4.000000,4.000000,4.000000,4.000000,4.000000,4.000000,4.000000,100.000000
1602005999.267061,116.000000,0.000000,4135.384766,4135.384766,4155.897461,4138.974121,4136.922852,4125.641113,4126.153809,4125.641113,4126.666504,4120.000000,4136.410156,4136.410156,4140.512695,4138.974121,771.000000,4.000000,,,,0.000000,4.000000,4.000000,4.000000,4.000000,4.000000,4.000000,4.000000,4.000000,4.000000,4.000000,4.000000,4.000000,4.000000,4.000000,100.000000
1602005999.274943,117.000000,0.000000,4137.948730,4137.948730,4153.846191,4140.000000,4137.436035,4135.897461,4141.025879,4135.384766,4137.948730,4144.102539,4141.538574,4141.025879,4143.589844,4140.000000,751.000000,4.000000,,,,0.000000,4.000000,4.000000,4.000000,4.000000,4.000000,4.000000,4.000000,4.000000,4.000000,4.000000,4.000000,4.000000,4.000000,4.000000,100.000000
1602005999.282826,118.000000,0.000000,4138.461426,4137.436035,4152.307617,4137.948730,4137.436035,4140.000000,4148.205078,4139.487305,4143.077148,4161.025879,4143.589844,4152.307617,4142.563965,4150.769043,869.000000,4.000000,,,,0.000000,4.000000,4.000000,4.000000,4.000000,4.000000,4.000000,4.000000,4.000000,4.000000,4.000000,4.000000,4.000000,4.000000,4.000000,100.000000
1602005999.290708,119.000000,0.000000,4135.384766,4134.871582,4152.307617,4135.384766,4137.948730,4137.948730,4143.589844,4137.948730,4135.897461,4154.871582,4140.000000,4156.410156,4136.922852,4146.153809,841.000000,4.000000,,,,0.000000,4.000000,4.000000,4.000000,4.000000,4.000000,4.000000,4.000000,4.000000,4.000000,4.000000,4.000000,4.000000,4.000000,4.000000,100.000000
1602005999.298691,120.000000,0.000000,4142.563965,4137.436035,4153.846191,4136.922852,4138.461426,4136.410156,4138.974121,4138.974121,4136.410156,4152.820313,4144.615234,4155.897461,4145.641113,4145.641113,771.000000,4.000000,,,,0.000000,4.000000,4.000000,4.000000,4.000000,4.000000,4.000000,4.000000,4.000000,4.000000,4.000000,4.000000,4.000000,4.000000,4.000000,100.000000
1602005999.306574,121.000000,0.000000,4153.333496,4140.512695,4152.307617,4138.974121,4139.487305,4133.333496,4134.358887,4138.461426,4140.512695,4154.358887,4142.563965,4153.846191,4154.871582,4163.589844,751.000000,4.000000,,,,0.000000,4.000000,4.000000,4.000000,4.000000,4.000000,4.000000,4.000000,4.000000,4.000000,4.000000,4.000000,4.000000,4.000000,4.000000,100.000000
1602005999.314457,122.000000,0.000000,4153.846191,4140.000000,4150.769043,4141.025879,4138.461426,4132.307617,4124.615234,4135.384766,4139.487305,4158.974121,4137.948730,4157.948730,4154.358887,4174.871582,869.000000,4.000000,,,,0.000000,4.000000,4.000000,4.000000,4.000000,4.000000,4.000000,4.000000,4.000000,4.000000,4.000000,4.000000,4.000000,4.000000,4.000000,100.000000
1602005999.322340,123.000000,0.000000,4153.333496,4138.974121,4154.358887,4142.563965,4141.538574,4134.871582,4120.512695,4140.512695,4146.666504,4166.666504,4155.384766,4167.692383,4163.077148,4173.333496,841.000000,4.000000,,,,0.000000,4.000000,4.000000,4.000000,4.000000,4.000000,4.000000,4.000000,4.000000,4.000000,4.000000,4.000000,4.000000,4.000000,4.000000,100.000000
1602005999.330223,124.000000,0.000000,4154.358887,4140.512695,4158.974121,4142.051270,4146.153809,4138.461426,4130.769043,4146.666504,4156.922852,4156.922852,4171.794922,4168.205078,4171.282227,4175.384766,771.000000,4.000000,,,,0.000000,4.000000,4.000000,4.000000,4.000000,4.000000,4.000000,4.000000,4.000000,4.000000,4.000000,4.000000,4.000000,4.000000,4.000000,100.000000
1602005999.338106,125.000000,0.000000,4149.743652,4137.948730,4155.384766,4139.487305,4144.102539,4143.077148,4137.436035,4141.025879,4150.256348,4148.717773,4160.000000,4157.436035,4160.000000,4169.743652,751.000000,4.000000,,,,0.000000,4.000000,4.000000,4.000000,4.000000,4.000000,4.000000,4.000000,4.000000,4.000000,4.000000,4.000000,4.000000,4.000000,4.000000,100.000000
1602005999.345990,126.000000,0.000000,4134.358887,4126.666504,4144.615234,4132.820313,4138.461426,4144.102539,4133.846191,4130.769043,4135.384766,4154.871582,4143.077148,4146.666504,4144.615234,4149.743652,869.000000,4.000000,,,,0.000000,4.000000,4.000000,4.000000,4.000000,4.000000,4.000000,4.000000,4.000000,4.000000,4.000000,4.000000,4.000000,4.000000,4.000000,100.000000
1602005999.353873,127.000000,0.000000,4114.358887,4119.487305,4135.384766,4124.615234,4138.461426,4142.051270,4135.384766,4131.794922,4135.384766,4150.769043,4140.512695,4139.487305,4137.948730,4135.897461,841.000000,4.000000,,,,0.000000,4.000000,4.000000,4.000000,4.000000,4.000000,4.000000,4.000000,4.000000,4.000000,4.000000,4.000000,4.000000,4.000000,4.000000,100.000000
1602005999.361756,128.000000,0.000000,4107.179688,4120.000000,4132.820313,4124.615234,4139.487305,4138.974121,4137.436035,4135.384766,4136.922852,4143.077148,4132.820313,4134.358887,4132.820313,4136.410156,771.000000,4.000000,,,,0.000000,4.000000,4.000000,4.000000,4.000000,4.000000,4.000000,4.000000,4.000000,4.000000,4.000000,4.000000,4.000000,4.000000,4.000000,100.000000
1602005999.369639,0.000000,0.000000,4123.077148,4125.128418,4142.563965,4132.820313,4137.436035,4138.974121,4133.333496,4135.897461,4138.461426,4163.077148,4127.692383,4143.589844,4136.922852,4143.077148,799.000000,4.000000,,,,0.000000,4.000000,4.000000,4.000000,4.000000,4.000000,4.000000,4.000000,4.000000,4.000000,4.000000,4.000000,4.000000,4.000000,4.000000,100.000000
1602005999.377422,1.000000,0.000000,4140.512695,4135.384766,4155.897461,4138.974121,4137.948730,4137.436035,4133.846191,4146.666504,4151.794922,4176.922852,4145.641113,4163.589844,4156.922852,4152.307617,780.000000,4.000000,,,,0.000000,4.000000,4.000000,4.000000,4.000000,4.000000,4.000000,4.000000,4.000000,4.000000,4.000000,4.000000,4.000000,4.000000,4.000000,100.000000
1602005999.385304,2.000000,0.000000,4143.077148,4140.512695,4158.974121,4138.974121,4138.461426,4129.230957,4132.307617,4154.871582,4157.948730,4156.410156,4157.948730,4170.769043,4172.307617,4158.974121,853.000000,4.000000,,,,0.000000,4.000000,4.000000,4.000000,4.000000,4.000000,4.000000,4.000000,4.000000,4.000000,4.000000,4.000000,4.000000,4.000000,4.000000,100.000000
1602005999.393187,3.000000,0.000000,4137.948730,4133.846191,4153.333496,4137.436035,4136.410156,4122.051270,4126.666504,4143.589844,4144.102539,4141.538574,4146.153809,4160.512695,4169.743652,4158.461426,870.000000,4.000000,,,,0.000000,4.000000,4.000000,4.000000,4.000000,4.000000,4.000000,4.000000,4.000000,4.000000,4.000000,4.000000,4.000000,4.000000,4.000000,100.000000
1602005999.401070,4.000000,0.000000,4133.846191,4132.820313,4153.846191,4138.461426,4142.563965,4127.692383,4124.615234,4133.846191,4126.666504,4152.307617,4134.871582,4146.153809,4152.820313,4155.384766,813.000000,4.000000,,,,0.000000,4.000000,4.000000,4.000000,4.000000,4.000000,4.000000,4.000000,4.000000,4.000000,4.000000,4.000000,4.000000,4.000000,4.000000,100.000000
1602005999.408953,5.000000,0.000000,4133.846191,4134.358887,4151.282227,4138.974121,4152.307617,4137.436035,4125.641113,4131.794922,4125.641113,4158.461426,4135.897461,4138.461426,4137.436035,4148.717773,818.000000,4.000000,,,,0.000000,4.000000,4.000000,4.000000,4.000000,4.000000,4.000000,4.000000,4.000000,4.000000,4.000000,4.000000,4.000000,4.000000,4.000000,100.000000
1602005999.416836,6.000000,0.000000,4133.333496,4130.256348,4139.487305,4136.410156,4154.358887,4140.512695,4122.563965,4129.743652,4134.871582,4149.230957,4137.948730,4137.948730,4134.871582,4139.487305,811.000000,4.000000,,,,0.000000,4.000000,4.000000,4.000000,4.000000,4.000000,4.000000,4.000000,4.000000,4.000000,4.000000,4.000000,4.000000,4.000000,4.000000,100.000000
1602005999.424719,7.000000,0.000000,4133.333496,4133.846191,4131.794922,4137.436035,4154.358887,4141.025879,4121.025879,4132.820313,4138.974121,4148.205078,4140.512695,4142.051270,4141.538574,4138.461426,684.000000,4.000000,,,,0.000000,4.000000,4.000000,4.000000,4.000000,4.000000,4.000000,4.000000,4.000000,4.000000,4.000000,4.000000,4.000000,4.000000,4.000000,100.000000
1602005999.432602,8.000000,0.000000,4141.538574,4140.000000,4140.512695,4137.948730,4157.436035,4144.615234,4130.256348,4136.922852,4142.051270,4154.871582,4146.666504,4151.794922,4148.205078,4145.128418,785.000000,4.000000,,,,0.000000,4.000000,4.000000,4.000000,4.000000,4.000000,4.000000,4.000000,4.000000,4.000000,4.000000,4.000000,4.000000,4.000000,4.000000,100.000000
1602005999.440584,9.000000,0.000000,4156.410156,4140.512695,4160.000000,4140.000000,4154.871582,4145.641113,4137.436035,4139.487305,4150.769043,4142.563965,4151.282227,4165.641113,4153.333496,4158.461426,843.000000,4.000000,,,,0.000000,4.000000,4.000000,4.000000,4.000000,4.000000,4.000000,4.000000,4.000000,4.000000,4.000000,4.000000,4.000000,4.000000,4.000000,100.000000
1602005999.448466,10.000000,0.000000,4165.641113,4147.692383,4172.820313,4148.205078,4151.282227,4138.461426,4138.974121,4149.743652,4156.410156,4123.077148,4160.512695,4173.333496,4162.051270,4171.282227,869.000000,4.000000,,,,0.000000,4.000000,4.000000,4.000000,4.000000,4.000000,4.000000,4.000000,4.000000,4.000000,4.000000,4.000000,4.000000,4.000000,4.000000,100.000000
1602005999.456348,11.000000,0.000000,4170.256348,4158.461426,4174.358887,4156.410156,4154.358887,4127.692383,4140.000000,4158.461426,4163.589844,4138.461426,4167.692383,4171.282227,4170.256348,4171.794922,841.000000,4.000000,,,,0.000000,4.000000,4.000000,4.000000,4.000000,4.000000,4.000000,4.000000,4.000000,4.000000,4.000000,4.000000,4.000000,4.000000,4.000000,100.000000
1602005999.464231,12.000000,0.000000,4169.230957,4153.846191,4170.769043,4151.794922,4155.897461,4123.077148,4142.051270,4157.948730,4171.282227,4181.025879,4161.538574,4172.820313,4173.333496,4167.692383,771.000000,4.000000,,,,0.000000,4.000000,4.000000,4.000000,4.000000,4.000000,4.000000,4.000000,4.000000,4.000000,4.000000,4.000000,4.000000,4.000000,4.000000,100.000000
1602005999.472113,13.000000,0.000000,4156.410156,4142.051270,4157.948730,4139.487305,4152.307617,4130.256348,4140.000000,4153.846191,4162.051270,4187.692383,4149.743652,4177.436035,4172.307617,4165.128418,751.000000,4.000000,,,,0.000000,4.000000,4.000000,4.000000,4.000000,4.000000,4.000000,4.000000,4.000000,4.000000,4.000000,4.000000,4.000000,4.000000,4.000000,100.000000
1602005999.479996,14.000000,0.000000,4142.563965,4136.410156,4139.487305,4133.333496,4150.256348,4139.487305,4137.948730,4145.128418,4150.769043,4160.512695,4150.256348,4171.282227,4165.128418,4159.487305,869.000000,4.000000,,,,0.000000,4.000000,4.000000,4.000000,4.000000,4.000000,4.000000,4.000000,4.000000,4.000000,4.000000,4.000000,4.000000,4.000000,4.000000,100.000000
1602005999.487978,15.000000,0.000000,4136.410156,4131.282227,4133.846191,4135.897461,4152.820313,4141.538574,4138.974121,4137.436035,4151.794922,4150.769043,4156.922852,4157.436035,4158.461426,4151.794922,841.000000,4.000000,,,,0.000000,4.000000,4.000000,4.000000,4.000000,4.000000,4.000000,4.000000,4.000000,4.000000,4.000000,4.000000,4.000000,4.000000,4.000000,100.000000
1602005999.495860,16.000000,0.000000,4132.307617,4124.102539,4135.384766,4133.333496,4147.692383,4138.461426,4136.922852,4136.922852,4143.077148,4143.077148,4147.692383,4151.794922,4154.871582,4143.589844,0.000000,4.000000,,,,0.000000,4.000000,4.000000,4.000000,4.000000,4.000000,4.000000,4.000000,4.000000,4.000000,4.000000,4.000000,4.000000,4.000000,4.000000,100.000000
1602005999.503743,17.000000,0.000000,4130.769043,4121.025879,4135.897461,4126.666504,4141.025879,4141.538574,4134.871582,4131.282227,4124.102539,4126.666504,4136.410156,4155.384766,4151.794922,4139.487305,0.000000,4.000000,,,,0.000000,4.000000,4.000000,4.000000,4.000000,4.000000,4.000000,4.000000,4.000000,4.000000,4.000000,4.000000,4.000000,4.000000,4.000000,100.000000
1602005999.511625,18.000000,0.000000,4128.717773,4123.589844,4143.589844,4131.282227,4141.538574,4149.230957,4135.897461,4122.563965,4123.589844,4125.641113,4144.615234,4163.589844,4155.384766,4150.769043,0.000000,4.000000,,,,0.000000,4.000000,4.000000,4.000000,4.000000,4.000000,4.000000,4.000000,4.000000,4.000000,4.000000,4.000000,4.000000,4.000000,4.000000,100.000000
1602005999.519507,19.000000,0.000000,4126.153809,4124.102539,4151.282227,4137.436035,4145.128418,4149.230957,4140.512695,4125.641113,4140.000000,4138.974121,4158.461426,4176.410156,4167.692383,4168.205078,0.000000,4.000000,,,,0.000000,4.000000,4.000000,4.000000,4.000000,4.000000,4.000000,4.000000,4.000000,4.000000,4.000000,4.000000,4.000000,4.000000,4.000000,100.000000
1602005999.527390,20.000000,0.000000,4130.256348,4124.615234,4152.820313,4132.820313,4146.666504,4142.051270,4146.153809,4137.436035,4151.282227,4155.384766,4157.436035,4185.641113,4173.333496,4167.179688,0.000000,4.000000,,,,0.000000,4.000000,4.000000,4.000000,4.000000,4.000000,4.000000,4.000000,4.000000,4.000000,4.000000,4.000000,4.000000,4.000000,4.000000,100.000000
1602005999.535272,21.000000,0.000000,4138.461426,4131.282227,4151.282227,4133.333496,4149.743652,4140.000000,4150.769043,4148.205078,4158.974121,4174.871582,4154.871582,4183.589844,4171.282227,4156.922852,0.000000,4.000000,,,,0.000000,4.000000,4.000000,4.000000,4.000000,4.000000,4.000000,4.000000,4.000000,4.000000,4.000000,4.000000,4.000000,4.000000,4.000000,100.000000
1602005999.543054,22.000000,0.000000,4141.025879,4140.512695,4146.666504,4142.563965,4153.333496,4143.589844,4154.871582,4154.358887,4169.230957,4177.948730,4158.974121,4176.410156,4175.384766,4160.512695,0.000000,4.000000,,,,0.000000,4.000000,4.000000,4.000000,4.000000,4.000000,4.000000,4.000000,4.000000,4.000000,4.000000,4.000000,4.000000,4.000000,4.000000,100.000000
1602005999.550937,23.000000,0.000000,4139.487305,4141.025879,4141.025879,4143.077148,4149.743652,4141.538574,4150.256348,4154.358887,4170.769043,4150.769043,4157.436035,4173.333496,4176.410156,4160.512695,0.000000,4.000000,,,,0.000000,4.000000,4.000000,4.000000,4.000000,4.000000,4.000000,4.000000,4.000000,4.000000,4.000000,4.000000,4.000000,4.000000,4.000000,100.000000
1602005999.558819,24.000000,0.000000,4138.461426,4136.922852,4138.461426,4134.871582,4140.000000,4134.358887,4138.974121,4152.307617,4161.025879,4138.974121,4155.384766,4173.333496,4166.153809,4143.589844,0.000000,4.000000,,,,0.000000,4.000000,4.000000,4.000000,4.000000,4.000000,4.000000,4.000000,4.000000,4.000000,4.000000,4.000000,4.000000,4.000000,4.000000,100.000000
1602005999.566701,25.000000,0.000000,4138.461426,4137.436035,4138.974121,4134.358887,4138.974121,4133.846191,4135.897461,4155.897461,4158.461426,4157.948730,4158.974121,4171.282227,4160.000000,4141.538574,0.000000,4.000000,,,,0.000000,4.000000,4.000000,4.000000,4.000000,4.000000,4.000000,4.000000,4.000000,4.000000,4.000000,4.000000,4.000000,4.000000,4.000000,100.000000
1602005999.574584,26.000000,0.000000,4141.025879,4140.512695,4136.922852,4137.436035,4150.769043,4138.461426,4143.077148,4159.487305,4160.000000,4161.538574,4157.948730,4163.077148,4163.589844,4157.436035,0.000000,4.000000,,,,0.000000,4.000000,4.000000,4.000000,4.000000,4.000000,4.000000,4.000000,4.000000,4.000000,4.000000,4.000000,4.000000,4.000000,4.000000,100.000000
1602005999.582466,27.000000,0.000000,4140.512695,4138.461426,4135.384766,4136.410156,4151.282227,4136.922852,4141.538574,4148.205078,4146.666504,4142.563965,4143.589844,4149.743652,4158.461426,4146.153809,0.000000,4.000000,,,,0.000000,4.000000,4.000000,4.000000,4.000000,4.000000,4.000000,4.000000,4.000000,4.000000,4.000000,4.000000,4.000000,4.000000,4.000000,100.000000
1602005999.590448,28.000000,0.000000,4134.871582,4131.794922,4142.051270,4136.922852,4138.461426,4134.358887,4136.410156,4135.897461,4130.769043,4133.846191,4135.384766,4142.563965,4142.051270,4120.000000,0.000000,4.000000,,,,0.000000,4.000000,4.000000,4.000000,4.000000,4.000000,4.000000,4.000000,4.000000,4.000000,4.000000,4.000000,4.000000,4.000000,4.000000,100.000000
1602005999.598330,29.000000,0.000000,4135.897461,4125.641113,4150.256348,4135.384766,4134.871582,4138.974121,4144.102539,4137.436035,4131.794922,4130.256348,4136.922852,4142.051270,4136.410156,4119.487305,0.000000,4.000000,,,,0.000000,4.000000,4.000000,4.000000,4.000000,4.000000,4.000000,4.000000,4.000000,4.000000,4.000000,4.000000,4.000000,4.000000,4.000000,100.000000
1602005999.606212,30.000000,0.000000,4138.974121,4121.538574,4145.641113,4124.615234,4138.974121,4145.641113,4153.333496,4138.461426,4138.974121,4122.563965,4125.641113,4140.512695,4136.922852,4129.230957,0.000000,4.000000,,,,0.000000,4.000000,4.000000,4.000000,4.000000,4.000000,4.000000,4.000000,4.000000,4.000000,4.000000,4.000000,4.000000,4.000000,4.000000,100.000000
1602005999.614095,31.000000,0.000000,4132.307617,4118.461426,4141.025879,4116.922852,4138.974121,4152.820313,4153.333496,4135.384766,4136.410156,4130.769043,4114.871582,4139.487305,4131.794922,4116.410156,0.000000,4.000000,,,,0.000000,4.000000,4.000000,4.000000,4.000000,4.000000,4.000000,4.000000,4.000000,4.000000,4.000000,4.000000,4.000000,4.000000,4.000000,100.000000
1602005999.621977,32.000000,0.000000,4124.102539,4118.974121,4144.615234,4121.025879,4136.410156,4151.794922,4150.256348,4136.922852,4136.410156,4142.563965,4126.153809,4140.000000,4132.307617,4103.077148,0.000000,4.000000,,,,0.000000,4.000000,4.000000,4.000000,4.000000,4.000000,4.000000,4.000000,4.000000,4.000000,4.000000,4.000000,4.000000,4.000000,4.000000,100.000000
1602005999.629859,33.000000,0.000000,4126.153809,4119.487305,4142.051270,4121.538574,4136.922852,4143.589844,4146.666504,4140.000000,4141.025879,4143.077148,4138.974121,4137.436035,4135.384766,4116.410156,0.000000,4.000000,,,,0.000000,4.000000,4.000000,4.000000,4.000000,4.000000,4.000000,4.000000,4.000000,4.000000,4.000000,4.000000,4.000000,4.000000,4.000000,100.000000
1602005999.637641,34.000000,0.000000,4127.692383,4112.820313,4136.922852,4117.436035,4135.897461,4135.384766,4142.563965,4144.615234,4136.922852,4131.794922,4138.461426,4134.871582,4133.333496,4128.717773,0.000000,4.000000,,,,0.000000,4.000000,4.000000,4.000000,4.000000,4.000000,4.000000,4.000000,4.000000,4.000000,4.000000,4.000000,4.000000,4.000000,4.000000,100.000000
1602005999.645524,35.000000,0.000000,4121.025879,4108.717773,4138.974121,4120.000000,4133.846191,4126.153809,4143.077148,4153.846191,4135.384766,4113.333496,4138.461426,4141.025879,4134.871582,4121.025879,0.000000,4.000000,,,,0.000000,4.000000,4.000000,4.000000,4.000000,4.000000,4.000000,4.000000,4.000000,4.000000,4.000000,4.000000,4.000000,4.000000,4.000000,100.000000
1602005999.653407,36.000000,0.000000,4118.974121,4116.410156,4138.461426,4121.025879,4134.358887,4118.974121,4145.641113,4154.871582,4138.974121,4113.846191,4129.743652,4151.282227,4140.000000,4119.487305,0.000000,4.000000,,,,0.000000,4.000000,4.000000,4.000000,4.000000,4.000000,4.000000,4.000000,4.000000,4.000000,4.000000,4.000000,4.000000,4.000000,4.000000,100.000000
1602005999.661289,37.000000,0.000000,4129.230957,4123.077148,4137.948730,4120.512695,4136.410156,4117.436035,4142.051270,4145.128418,4137.436035,4136.922852,4122.051270,4153.333496,4132.307617,4124.102539,0.000000,4.000000,,,,0.000000,4.000000,4.000000,4.000000,4.000000,4.000000,4.000000,4.000000,4.000000,4.000000,4.000000,4.000000,4.000000,4.000000,4.000000,100.000000
1602005999.669172,38.000000,0.000000,4137.948730,4126.153809,4147.179688,4127.692383,4138.461426,4125.128418,4139.487305,4139.487305,4132.307617,4147.692383,4131.282227,4150.256348,4127.692383,4122.051270,0.000000,4.000000,,,,0.000000,4.000000,4.000000,4.000000,4.000000,4.000000,4.000000,4.000000,4.000000,4.000000,4.000000,4.000000,4.000000,4.000000,4.000000,100.000000
1602005999.677054,39.000000,0.000000,4139.487305,4132.820313,4157.948730,4136.410156,4144.615234,4141.025879,4142.051270,4139.487305,4131.282227,4143.077148,4140.512695,4155.897461,4139.487305,4127.692383,0.000000,4.000000,,,,0.000000,4.000000,4.000000,4.000000,4.000000,4.000000,4.000000,4.000000,4.000000,4.000000,4.000000,4.000000,4.000000,4.000000,4.000000,100.000000
1602005999.684937,40.000000,0.000000,4142.051270,4137.436035,4159.487305,4136.410156,4150.256348,4153.846191,4143.077148,4138.974121,4136.410156,4143.589844,4141.025879,4167.179688,4150.769043,4138.974121,0.000000,4.000000,,,,0.000000,4.000000,4.000000,4.000000,4.000000,4.000000,4.000000,4.000000,4.000000,4.000000,4.000000,4.000000,4.000000,4.000000,4.000000,100.000000
1602005999.692920,41.000000,0.000000,4146.153809,4137.436035,4156.410156,4134.358887,4152.307617,4154.871582,4138.974121,4141.538574,4140.000000,4144.102539,4144.102539,4168.717773,4153.333496,4146.666504,0.000000,4.000000,,,,0.000000,4.000000,4.000000,4.000000,4.000000,4.000000,4.000000,4.000000,4.000000,4.000000,4.000000,4.000000,4.000000,4.000000,4.000000,100.000000
1602005999.700803,42.000000,0.000000,4143.077148,4135.897461,4155.897461,4135.897461,4153.333496,4154.871582,4138.461426,4144.102539,4139.487305,4138.974121,4146.153809,4166.153809,4156.922852,4150.256348,0.000000,4.000000,,,,0.000000,4.000000,4.000000,4.000000,4.000000,4.000000,4.000000,4.000000,4.000000,4.000000,4.000000,4.000000,4.000000,4.000000,4.000000,100.000000
1602005999.708686,43.000000,0.000000,4137.436035,4129.230957,4155.897461,4132.820313,4149.743652,4152.307617,4138.461426,4143.077148,4137.948730,4129.230957,4139.487305,4165.128418,4151.794922,4147.692383,0.000000,4.000000,,,,0.000000,4.000000,4.000000,4.000000,4.000000,4.000000,4.000000,4.000000,4.000000,4.000000,4.000000,4.000000,4.000000,4.000000,4.000000,100.000000
1602005999.716569,44.000000,0.000000,4135.897461,4121.538574,4153.846191,4124.102539,4137.436035,4133.846191,4134.871582,4140.000000,4136.410156,4119.487305,4136.410156,4160.000000,4136.922852,4135.897461,0.000000,4.000000,,,,0.000000,4.000000,4.000000,4.000000,4.000000,4.000000,4.000000,4.000000,4.000000,4.000000,4.000000,4.000000,4.000000,4.000000,4.000000,100.000000
1602005999.724452,45.000000,0.000000,4135.384766,4120.000000,4156.410156,4121.538574,4132.307617,4122.051270,4142.563965,4139.487305,4137.436035,4127.179688,4138.461426,4154.358887,4133.846191,4125.128418,0.000000,4.000000,,,,0.000000,4.000000,4.000000,4.000000,4.000000,4.000000,4.000000,4.000000,4.000000,4.000000,4.000000,4.000000,4.000000,4.000000,4.000000,100.000000
1602005999.732335,46.000000,0.000000,4135.384766,4121.538574,4160.512695,4125.128418,4137.436035,4124.615234,4152.307617,4139.487305,4135.384766,4141.025879,4136.922852,4155.384766,4136.922852,4120.000000,0.000000,4.000000,,,,0.000000,4.000000,4.000000,4.000000,4.000000,4.000000,4.000000,4.000000,4.000000,4.000000,4.000000,4.000000,4.000000,4.000000,4.000000,100.000000
1602005999.740218,47.000000,0.000000,4130.256348,4122.051270,4160.000000,4125.641113,4133.333496,4120.512695,4144.615234,4140.000000,4126.153809,4135.384766,4136.410156,4155.897461,4136.922852,4121.025879,0.000000,4.000000,,,,0.000000,4.000000,4.000000,4.000000,4.000000,4.000000,4.000000,4.000000,4.000000,4.000000,4.000000,4.000000,4.000000,4.000000,4.000000,100.000000
1602005999.748102,48.000000,0.000000,4122.051270,4122.563965,4148.717773,4120.512695,4126.666504,4117.436035,4139.487305,4143.589844,4126.153809,4129.230957,4137.436035,4153.846191,4138.461426,4124.615234,0.000000,4.000000,,,,0.000000,4.000000,4.000000,4.000000,4.000000,4.000000,4.000000,4.000000,4.000000,4.000000,4.000000,4.000000,4.000000,4.000000,4.000000,100.000000
1602005999.755985,49.000000,0.000000,4122.563965,4125.128418,4137.948730,4119.487305,4133.846191,4129.743652,4143.077148,4145.128418,4137.436035,4134.871582,4135.897461,4151.282227,4136.410156,4121.538574,0.000000,4.000000,,,,0.000000,4.000000,4.000000,4.000000,4.000000,4.000000,4.000000,4.000000,4.000000,4.000000,4.000000,4.000000,4.000000,4.000000,4.000000,100.000000
1602005999.763767,50.000000,0.000000,4130.769043,4133.846191,4141.538574,4129.230957,4147.692383,4145.128418,4141.538574,4142.563965,4141.538574,4140.000000,4140.512695,4151.282227,4138.974121,4126.153809,0.000000,4.000000,,,,0.000000,4.000000,4.000000,4.000000,4.000000,4.000000,4.000000,4.000000,4.000000,4.000000,4.000000,4.000000,4.000000,4.000000,4.000000,100.000000
1602005999.771648,51.000000,0.000000,4141.025879,4141.025879,4153.333496,4140.000000,4153.846191,4153.333496,4140.512695,4142.563965,4141.538574,4145.641113,4151.794922,4158.974121,4155.384766,4141.538574,0.000000,4.000000,,,,0.000000,4.000000,4.000000,4.000000,4.000000,4.000000,4.000000,4.000000,4.000000,4.000000,4.000000,4.000000,4.000000,4.000000,4.000000,100.000000
1602005999.779530,52.000000,0.000000,4140.512695,4141.538574,4156.922852,4141.025879,4149.230957,4153.333496,4140.512695,4138.461426,4144.102539,4152.820313,4150.256348,4162.563965,4157.948730,4144.102539,0.000000,4.000000,,,,0.000000,4.000000,4.000000,4.000000,4.000000,4.000000,4.000000,4.000000,4.000000,4.000000,4.000000,4.000000,4.000000,4.000000,4.000000,100.000000
1602005999.787412,53.000000,0.000000,4127.692383,4136.922852,4151.794922,4133.846191,4141.025879,4144.102539,4130.256348,4126.153809,4133.333496,4143.077148,4134.358887,4148.717773,4135.384766,4127.179688,0.000000,4.000000,,,,0.000000,4.000000,4.000000,4.000000,4.000000,4.000000,4.000000,4.000000,4.000000,4.000000,4.000000,4.000000,4.000000,4.000000,4.000000,100.000000
1602005999.795294,54.000000,0.000000,4120.512695,4127.179688,4144.102539,4126.666504,4136.410156,4137.436035,4127.692383,4118.974121,4115.897461,4116.922852,4122.563965,4132.820313,4119.487305,4116.922852,0.000000,4.000000,,,,0.000000,4.000000,4.000000,4.000000,4.000000,4.000000,4.000000,4.000000,4.000000,4.000000,4.000000,4.000000,4.000000,4.000000,4.000000,100.000000
1602005999.803077,55.000000,0.000000,4122.563965,4118.461426,4137.436035,4123.589844,4137.948730,4135.897461,4136.410156,4120.512695,4105.128418,4106.666504,4118.461426,4134.358887,4120.000000,4120.512695,0.000000,4.000000,,,,0.000000,4.000000,4.000000,4.000000,4.000000,4.000000,4.000000,4.000000,4.000000,4.000000,4.000000,4.000000,4.000000,4.000000,4.000000,100.000000
1602005999.810959,56.000000,0.000000,4123.589844,4119.487305,4142.563965,4124.615234,4135.384766,4129.743652,4141.025879,4124.615234,4097.948730,4116.410156,4125.128418,4146.666504,4121.538574,4123.589844,0.000000,4.000000,,,,0.000000,4.000000,4.000000,4.000000,4.000000,4.000000,4.000000,4.000000,4.000000,4.000000,4.000000,4.000000,4.000000,4.000000,4.000000,100.000000
1602005999.818841,57.000000,0.000000,4128.205078,4121.538574,4152.307617,4125.128418,4125.128418,4123.077148,4142.051270,4129.230957,4098.461426,4123.077148,4134.871582,4153.333496,4123.077148,4121.025879,0.000000,4.000000,,,,0.000000,4.000000,4.000000,4.000000,4.000000,4.000000,4.000000,4.000000,4.000000,4.000000,4.000000,4.000000,4.000000,4.000000,4.000000,100.000000
1602005999.826724,58.000000,0.000000,4138.974121,4122.563965,4153.846191,4128.717773,4124.102539,4122.563965,4143.589844,4136.922852,4110.769043,4122.563965,4137.436035,4161.025879,4133.846191,4118.974121,0.000000,4.000000,,,,0.000000,4.000000,4.000000,4.000000,4.000000,4.000000,4.000000,4.000000,4.000000,4.000000,4.000000,4.000000,4.000000,4.000000,4.000000,100.000000
1602005999.834606,59.000000,0.000000,4141.538574,4133.846191,4156.922852,4138.461426,4134.358887,4123.589844,4139.487305,4143.589844,4129.230957,4131.282227,4147.179688,4171.794922,4150.256348,4127.692383,0.000000,4.000000,,,,0.000000,4.000000,4.000000,4.000000,4.000000,4.000000,4.000000,4.000000,4.000000,4.000000,4.000000,4.000000,4.000000,4.000000,4.000000,100.000000
1602005999.842488,60.000000,0.000000,4137.948730,4145.641113,4159.487305,4141.538574,4138.461426,4124.102539,4136.922852,4144.615234,4141.538574,4142.051270,4155.897461,4169.230957,4156.922852,4139.487305,0.000000,4.000000,,,,0.000000,4.000000,4.000000,4.000000,4.000000,4.000000,4.000000,4.000000,4.000000,4.000000,4.000000,4.000000,4.000000,4.000000,4.000000,100.000000
1602005999.850471,61.000000,0.000000,4139.487305,4146.153809,4156.410156,4139.487305,4142.563965,4130.769043,4140.000000,4143.589844,4141.025879,4143.589844,4144.615234,4157.436035,4152.820313,4142.051270,0.000000,4.000000,,,,0.000000,4.000000,4.000000,4.000000,4.000000,4.000000,4.000000,4.000000,4.000000,4.000000,4.000000,4.000000,4.000000,4.000000,4.000000,100.000000
1602005999.858354,62.000000,0.000000,4134.871582,4142.051270,4148.717773,4140.512695,4152.307617,4138.974121,4139.487305,4141.538574,4139.487305,4154.358887,4132.307617,4153.846191,4154.358887,4142.051270,0.000000,4.000000,,,,0.000000,4.000000,4.000000,4.000000,4.000000,4.000000,4.000000,4.000000,4.000000,4.000000,4.000000,4.000000,4.000000,4.000000,4.000000,100.000000
1602005999.866237,63.000000,0.000000,4124.615234,4140.000000,4138.461426,4137.436035,4150.769043,4146.666504,4135.897461,4141.025879,4143.077148,4158.974121,4141.538574,4151.794922,4155.897461,4141.025879,0.000000,4.000000,,,,0.000000,4.000000,4.000000,4.000000,4.000000,4.000000,4.000000,4.000000,4.000000,4.000000,4.000000,4.000000,4.000000,4.000000,4.000000,100.000000
1602005999.874120,64.000000,0.000000,4124.102539,4135.897461,4134.871582,4128.205078,4141.538574,4153.846191,4137.436035,4135.384766,4135.897461,4141.025879,4148.717773,4143.077148,4144.102539,4131.282227,799.000000,4.000000,,,,0.000000,4.000000,4.000000,4.000000,4.000000,4.000000,4.000000,4.000000,4.000000,4.000000,4.000000,4.000000,4.000000,4.000000,4.000000,100.000000
1602005999.882002,65.000000,0.000000,4122.563965,4120.512695,4137.436035,4117.436035,4133.846191,4153.333496,4139.487305,4124.102539,4115.384766,4130.256348,4133.333496,4139.487305,4129.230957,4115.384766,788.000000,4.000000,,,,0.000000,4.000000,4.000000,4.000000,4.000000,4.000000,4.000000,4.000000,4.000000,4.000000,4.000000,4.000000,4.000000,4.000000,4.000000,100.000000
1602005999.889885,66.000000,0.000000,4109.743652,4106.153809,4133.333496,4108.717773,4122.051270,4142.051270,4137.436035,4118.461426,4104.102539,4121.025879,4120.000000,4138.461426,4122.051270,4107.692383,853.000000,4.000000,,,,0.000000,4.000000,4.000000,4.000000,4.000000,4.000000,4.000000,4.000000,4.000000,4.000000,4.000000,4.000000,4.000000,4.000000,4.000000,100.000000
1602005999.897768,67.000000,0.000000,4103.077148,4110.256348,4127.692383,4113.333496,4117.436035,4130.769043,4138.461426,4120.512695,4103.589844,4086.666748,4122.051270,4135.384766,4118.461426,4111.794922,870.000000,4.000000,,,,0.000000,4.000000,4.000000,4.000000,4.000000,4.000000,4.000000,4.000000,4.000000,4.000000,4.000000,4.000000,4.000000,4.000000,4.000000,100.000000
1602005999.905651,68.000000,0.000000,4108.205078,4121.025879,4127.692383,4120.512695,4124.102539,4122.563965,4134.358887,4123.077148,4102.563965,4070.256348,4122.563965,4138.461426,4116.410156,4124.615234,813.000000,4.000000,,,,0.000000,4.000000,4.000000,4.000000,4.000000,4.000000,4.000000,4.000000,4.000000,4.000000,4.000000,4.000000,4.000000,4.000000,4.000000,100.000000
1602005999.913634,69.000000,0.000000,4108.205078,4118.461426,4124.102539,4113.846191,4122.563965,4110.769043,4118.461426,4121.025879,4105.641113,4104.615234,4116.922852,4139.487305,4120.512695,4123.077148,818.000000,4.000000,,,,0.000000,4.000000,4.000000,4.000000,4.000000,4.000000,4.000000,4.000000,4.000000,4.000000,4.000000,4.000000,4.000000,4.000000,4.000000,100.000000
1602005999.921517,70.000000,0.000000,4105.641113,4115.384766,4120.000000,4109.230957,4116.922852,4110.256348,4112.307617,4121.025879,4117.948730,4133.333496,4118.974121,4131.794922,4123.589844,4107.692383,788.000000,4.000000,,,,0.000000,4.000000,4.000000,4.000000,4.000000,4.000000,4.000000,4.000000,4.000000,4.000000,4.000000,4.000000,4.000000,4.000000,4.000000,100.000000
1602005999.929401,71.000000,0.000000,4110.769043,4122.563965,4121.025879,4117.436035,4121.538574,4120.000000,4122.563965,4129.230957,4125.128418,4127.179688,4123.589844,4131.794922,4122.563965,4111.282227,684.000000,4.000000,,,,0.000000,4.000000,4.000000,4.000000,4.000000,4.000000,4.000000,4.000000,4.000000,4.000000,4.000000,4.000000,4.000000,4.000000,4.000000,100.000000
1602005999.937284,72.000000,0.000000,4111.282227,4123.077148,4120.000000,4118.461426,4128.717773,4127.692383,4132.820313,4135.897461,4121.538574,4126.153809,4127.692383,4137.948730,4128.717773,4122.563965,785.000000,4.000000,,,,0.000000,4.000000,4.000000,4.000000,4.000000,4.000000,4.000000,4.000000,4.000000,4.000000,4.000000,4.000000,4.000000,4.000000,4.000000,100.000000
1602005999.945167,73.000000,0.000000,4113.333496,4121.025879,4117.948730,4116.410156,4133.846191,4136.922852,4136.922852,4136.922852,4127.179688,4127.179688,4137.948730,4142.563965,4143.077148,4125.641113,843.000000,4.000000,,,,0.000000,4.000000,4.000000,4.000000,4.000000,4.000000,4.000000,4.000000,4.000000,4.000000,4.000000,4.000000,4.000000,4.000000,4.000000,100.000000
1602005999.953051,74.000000,0.000000,4121.025879,4133.333496,4121.538574,4123.589844,4139.487305,4146.666504,4139.487305,4140.000000,4141.538574,4120.512695,4142.051270,4143.077148,4145.128418,4132.307617,869.000000,4.000000,,,,0.000000,4.000000,4.000000,4.000000,4.000000,4.000000,4.000000,4.000000,4.000000,4.000000,4.000000,4.000000,4.000000,4.000000,4.000000,100.000000
1602005999.960934,75.000000,0.000000,4115.384766,4134.358887,4117.948730,4125.641113,4140.512695,4143.589844,4139.487305,4136.410156,4135.384766,4128.717773,4125.128418,4132.820313,4129.743652,4130.256348,841.000000,4.000000,,,,0.000000,4.000000,4.000000,4.000000,4.000000,4.000000,4.000000,4.000000,4.000000,4.000000,4.000000,4.000000,4.000000,4.000000,4.000000,100.000000
1602005999.968817,76.000000,0.000000,4107.692383,4123.589844,4112.820313,4121.538574,4136.410156,4137.948730,4134.358887,4124.102539,4118.461426,4137.436035,4111.794922,4118.461426,4120.512695,4111.282227,771.000000,4.000000,,,,0.000000,4.000000,4.000000,4.000000,4.000000,4.000000,4.000000,4.000000,4.000000,4.000000,4.000000,4.000000,4.000000,4.000000,4.000000,100.000000
1602005999.976701,77.000000,0.000000,4117.436035,4127.179688,4117.436035,4122.563965,4136.410156,4140.000000,4127.179688,4121.538574,4120.000000,4127.692383,4117.948730,4117.948730,4124.102539,4104.615234,751.000000,4.000000,,,,0.000000,4.000000,4.000000,4.000000,4.000000,4.000000,4.000000,4.000000,4.000000,4.000000,4.000000,4.000000,4.000000,4.000000,4.000000,100.000000
1602005999.984584,78.000000,0.000000,4117.436035,4129.743652,4118.461426,4121.025879,4134.358887,4132.307617,4122.051270,4125.128418,4123.589844,4119.487305,4120.512695,4123.589844,4116.922852,4105.641113,869.000000,4.000000,,,,0.000000,4.000000,4.000000,4.000000,4.000000,4.000000,4.000000,4.000000,4.000000,4.000000,4.000000,4.000000,4.000000,4.000000,4.000000,100.000000
1602005999.992367,79.000000,0.000000,4103.589844,4120.512695,4114.871582,4113.846191,4124.615234,4124.102539,4121.538574,4120.512695,4119.487305,4126.666504,4115.897461,4118.974121,4106.666504,4095.897461,841.000000,4.000000,,,,0.000000,4.000000,4.000000,4.000000,4.000000,4.000000,4.000000,4.000000,4.000000,4.000000,4.000000,4.000000,4.000000,4.000000,4.000000,100.000000
1602006000.000249,80.000000,0.000000,4112.307617,4119.487305,4120.000000,4114.871582,4119.487305,4128.717773,4123.589844,4120.000000,4125.641113,4121.538574,4120.000000,4119.487305,4114.358887,4106.666504,771.000000,4.000000,,,,0.000000,4.000000,4.000000,4.000000,4.000000,4.000000,4.000000,4.000000,4.000000,4.000000,4.000000,4.000000,4.000000,4.000000,4.000000,100.000000
1602006000.008132,81.000000,0.000000,4127.179688,4127.179688,4132.307617,4121.025879,4126.666504,4130.256348,4123.589844,4125.641113,4130.256348,4104.615234,4124.102539,4132.307617,4125.641113,4124.615234,751.000000,4.000000,,,,0.000000,4.000000,4.000000,4.000000,4.000000,4.000000,4.000000,4.000000,4.000000,4.000000,4.000000,4.000000,4.000000,4.000000,4.000000,100.000000
1602006000.016014,82.000000,0.000000,4122.563965,4131.794922,4139.487305,4123.589844,4135.897461,4125.128418,4122.051270,4124.102539,4123.077148,4109.743652,4126.666504,4140.000000,4129.230957,4125.128418,869.000000,4.000000,,,,0.000000,4.000000,4.000000,4.000000,4.000000,4.000000,4.000000,4.000000,4.000000,4.000000,4.000000,4.000000,4.000000,4.000000,4.000000,100.000000
1602006000.023897,83.000000,0.000000,4127.179688,4140.000000,4142.563965,4127.179688,4137.436035,4124.615234,4120.512695,4121.538574,4128.205078,4134.871582,4136.410156,4140.512695,4136.410156,4131.794922,841.000000,4.000000,,,,0.000000,4.000000,4.000000,4.000000,4.000000,4.000000,4.000000,4.000000,4.000000,4.000000,4.000000,4.000000,4.000000,4.000000,4.000000,100.000000
1602006000.031780,84.000000,0.000000,4140.000000,4142.051270,4143.077148,4128.205078,4136.922852,4125.128418,4125.128418,4125.641113,4136.922852,4156.922852,4143.077148,4147.179688,4145.128418,4140.512695,771.000000,4.000000,,,,0.000000,4.000000,4.000000,4.000000,4.000000,4.000000,4.000000,4.000000,4.000000,4.000000,4.000000,4.000000,4.000000,4.000000,4.000000,100.000000
