Timestamp,EEG.Counter,EEG.Interpolated,EEG.AF3,EEG.F7,EEG.F3,EEG.FC5,EEG.T7,EEG.P7,EEG.O1,EEG.O2,EEG.P8,EEG.T8,EEG.FC6,EEG.F4,EEG.F8,EEG.AF4,EEG.RawCq,EEG.Battery,MarkerIndex,MarkerType,MarkerValueInt,EEG.MarkerHardware,CQ.AF3,CQ.F7,CQ.F3,CQ.FC5,CQ.T7,CQ.P7,CQ.O1,CQ.O2,CQ.P8,CQ.T8,CQ.FC6,CQ.F4,CQ.F8,CQ.AF4,CQ.Overall
1602006013.452685,110.000000,0.000000,4156.410156,4137.948730,4143.077148,4136.922852,4130.769043,4139.487305,4145.128418,4147.692383,4148.717773,4125.641113,4124.615234,4141.025879,4121.538574,4142.563965,870.000000,4.000000,,,,0.000000,4.000000,4.000000,4.000000,4.000000,4.000000,4.000000,4.000000,4.000000,4.000000,4.000000,4.000000,4.000000,4.000000,4.000000,100.000000
1602006013.460567,111.000000,0.000000,4157.948730,4136.922852,4142.051270,4133.846191,4134.358887,4138.461426,4141.538574,4147.692383,4142.563965,4113.333496,4123.589844,4134.358887,4123.589844,4137.948730,837.000000,4.000000,,,,0.000000,4.000000,4.000000,4.000000,4.000000,4.000000,4.000000,4.000000,4.000000,4.000000,4.000000,4.000000,4.000000,4.000000,4.000000,100.000000
1602006013.468448,112.000000,0.000000,4145.128418,4130.256348,4131.282227,4123.077148,4130.769043,4136.922852,4140.000000,4149.743652,4147.179688,4107.692383,4122.051270,4136.922852,4123.589844,4124.102539,770.000000,4.000000,,,,0.000000,4.000000,4.000000,4.000000,4.000000,4.000000,4.000000,4.000000,4.000000,4.000000,4.000000,4.000000,4.000000,4.000000,4.000000,100.000000
1602006013.476330,113.000000,0.000000,4136.410156,4130.256348,4120.512695,4127.179688,4139.487305,4144.615234,4138.974121,4152.820313,4155.897461,4125.128418,4120.000000,4140.512695,4121.538574,4126.153809,751.000000,4.000000,,,,0.000000,4.000000,4.000000,4.000000,4.000000,4.000000,4.000000,4.000000,4.000000,4.000000,4.000000,4.000000,4.000000,4.000000,4.000000,100.000000
1602006013.484212,114.000000,0.000000,4140.000000,4141.025879,4121.025879,4137.436035,4154.358887,4153.846191,4143.589844,4150.769043,4156.922852,4144.615234,4122.563965,4136.922852,4125.128418,4128.717773,870.000000,4.000000,,,,0.000000,4.000000,4.000000,4.000000,4.000000,4.000000,4.000000,4.000000,4.000000,4.000000,4.000000,4.000000,4.000000,4.000000,4.000000,100.000000
1602006013.492194,115.000000,0.000000,4140.512695,4150.769043,4124.102539,4140.512695,4155.897461,4154.871582,4142.051270,4142.051270,4152.307617,4141.538574,4121.538574,4128.717773,4125.641113,4119.487305,837.000000,4.000000,,,,0.000000,4.000000,4.000000,4.000000,4.000000,4.000000,4.000000,4.000000,4.000000,4.000000,4.000000,4.000000,4.000000,4.000000,4.000000,100.000000
1602006013.500077,116.000000,0.000000,4135.384766,4161.025879,4127.179688,4147.179688,4155.897461,4154.871582,4135.384766,4135.897461,4151.282227,4134.871582,4117.948730,4128.717773,4124.615234,4116.922852,770.000000,4.000000,,,,0.000000,4.000000,4.000000,4.000000,4.000000,4.000000,4.000000,4.000000,4.000000,4.000000,4.000000,4.000000,4.000000,4.000000,4.000000,100.000000
1602006013.507960,117.000000,0.000000,4140.000000,4170.769043,4134.871582,4156.922852,4158.461426,4159.487305,4134.871582,4138.461426,4150.256348,4141.025879,4123.589844,4136.410156,4127.692383,4126.153809,751.000000,4.000000,,,,0.000000,4.000000,4.000000,4.000000,4.000000,4.000000,4.000000,4.000000,4.000000,4.000000,4.000000,4.000000,4.000000,4.000000,4.000000,100.000000
1602006013.515843,118.000000,0.000000,4155.384766,4172.820313,4141.025879,4158.461426,4149.743652,4156.410156,4132.820313,4137.948730,4138.461426,4126.153809,4124.102539,4137.436035,4125.128418,4126.666504,870.000000,4.000000,,,,0.000000,4.000000,4.000000,4.000000,4.000000,4.000000,4.000000,4.000000,4.000000,4.000000,4.000000,4.000000,4.000000,4.000000,4.000000,100.000000
1602006013.523726,119.000000,0.000000,4154.871582,4166.153809,4137.436035,4152.307617,4136.922852,4140.512695,4127.692383,4125.128418,4119.487305,4098.974121,4110.769043,4135.384766,4117.436035,4115.384766,837.000000,4.000000,,,,0.000000,4.000000,4.000000,4.000000,4.000000,4.000000,4.000000,4.000000,4.000000,4.000000,4.000000,4.000000,4.000000,4.000000,4.000000,100.000000
1602006013.531609,120.000000,0.000000,4145.641113,4158.974121,4133.846191,4143.589844,4133.846191,4138.461426,4129.230957,4121.538574,4114.871582,4105.641113,4103.589844,4139.487305,4111.282227,4115.897461,770.000000,4.000000,,,,0.000000,4.000000,4.000000,4.000000,4.000000,4.000000,4.000000,4.000000,4.000000,4.000000,4.000000,4.000000,4.000000,4.000000,4.000000,100.000000
1602006013.539491,121.000000,0.000000,4150.256348,4152.307617,4136.410156,4140.000000,4129.743652,4150.256348,4140.000000,4134.358887,4127.692383,4126.153809,4107.692383,4145.128418,4108.205078,4126.153809,751.000000,4.000000,,,,0.000000,4.000000,4.000000,4.000000,4.000000,4.000000,4.000000,4.000000,4.000000,4.000000,4.000000,4.000000,4.000000,4.000000,4.000000,100.000000
1602006013.547374,122.000000,0.000000,4147.692383,4142.563965,4136.410156,4136.410156,4123.589844,4149.230957,4151.282227,4142.051270,4135.897461,4127.692383,4108.717773,4141.538574,4108.205078,4118.461426,870.000000,4.000000,,,,0.000000,4.000000,4.000000,4.000000,4.000000,4.000000,4.000000,4.000000,4.000000,4.000000,4.000000,4.000000,4.000000,4.000000,4.000000,100.000000
1602006013.555356,123.000000,0.000000,4129.230957,4129.743652,4127.179688,4126.666504,4120.512695,4139.487305,4151.794922,4139.487305,4133.846191,4114.871582,4105.128418,4131.794922,4104.102539,4104.102539,837.000000,4.000000,,,,0.000000,4.000000,4.000000,4.000000,4.000000,4.000000,4.000000,4.000000,4.000000,4.000000,4.000000,4.000000,4.000000,4.000000,4.000000,100.000000
1602006013.563238,124.000000,0.000000,4114.358887,4119.487305,4112.820313,4116.410156,4120.512695,4144.102539,4143.589844,4137.436035,4125.641113,4107.692383,4103.589844,4119.487305,4091.281982,4104.615234,770.000000,4.000000,,,,0.000000,4.000000,4.000000,4.000000,4.000000,4.000000,4.000000,4.000000,4.000000,4.000000,4.000000,4.000000,4.000000,4.000000,4.000000,100.000000
1602006013.571120,125.000000,0.000000,4106.666504,4115.897461,4104.102539,4114.871582,4126.666504,4153.333496,4137.436035,4136.922852,4121.538574,4112.307617,4106.153809,4109.230957,4091.281982,4104.615234,751.000000,4.000000,,,,0.000000,4.000000,4.000000,4.000000,4.000000,4.000000,4.000000,4.000000,4.000000,4.000000,4.000000,4.000000,4.000000,4.000000,4.000000,100.000000
1602006013.579002,126.000000,0.000000,4106.153809,4122.051270,4105.641113,4120.000000,4142.051270,4154.358887,4140.512695,4136.922852,4128.717773,4116.410156,4108.205078,4108.205078,4104.615234,4104.102539,870.000000,4.000000,,,,0.000000,4.000000,4.000000,4.000000,4.000000,4.000000,4.000000,4.000000,4.000000,4.000000,4.000000,4.000000,4.000000,4.000000,4.000000,100.000000
1602006013.586884,127.000000,0.000000,4115.897461,4132.820313,4110.256348,4126.666504,4150.769043,4154.871582,4138.974121,4131.794922,4139.487305,4113.846191,4104.102539,4115.384766,4107.692383,4105.641113,837.000000,4.000000,,,,0.000000,4.000000,4.000000,4.000000,4.000000,4.000000,4.000000,4.000000,4.000000,4.000000,4.000000,4.000000,4.000000,4.000000,4.000000,100.000000
1602006013.594867,128.000000,0.000000,4117.948730,4138.974121,4109.743652,4131.794922,4146.153809,4151.282227,4128.717773,4127.179688,4143.589844,4125.128418,4108.717773,4119.487305,4111.282227,4103.589844,770.000000,4.000000,,,,0.000000,4.000000,4.000000,4.000000,4.000000,4.000000,4.000000,4.000000,4.000000,4.000000,4.000000,4.000000,4.000000,4.000000,4.000000,100.000000
1602006013.602750,0.000000,0.000000,4118.461426,4139.487305,4116.410156,4137.436035,4140.000000,4143.077148,4127.179688,4132.307617,4148.205078,4150.769043,4124.615234,4122.051270,4122.563965,4109.743652,799.000000,4.000000,,,,0.000000,4.000000,4.000000,4.000000,4.000000,4.000000,4.000000,4.000000,4.000000,4.000000,4.000000,4.000000,4.000000,4.000000,4.000000,100.000000
1602006013.610633,1.000000,0.000000,4129.230957,4139.487305,4133.333496,4140.000000,4136.922852,4136.922852,4134.358887,4138.974121,4154.871582,4157.948730,4131.282227,4136.922852,4126.153809,4130.769043,798.000000,4.000000,,,,0.000000,4.000000,4.000000,4.000000,4.000000,4.000000,4.000000,4.000000,4.000000,4.000000,4.000000,4.000000,4.000000,4.000000,4.000000,100.000000
1602006013.618516,2.000000,0.000000,4150.769043,4147.179688,4148.717773,4141.025879,4135.384766,4139.487305,4138.461426,4142.563965,4153.846191,4149.743652,4131.794922,4155.384766,4132.307617,4147.179688,851.000000,4.000000,,,,0.000000,4.000000,4.000000,4.000000,4.000000,4.000000,4.000000,4.000000,4.000000,4.000000,4.000000,4.000000,4.000000,4.000000,4.000000,100.000000
1602006013.626399,3.000000,0.000000,4178.974121,4158.461426,4164.102539,4150.256348,4138.461426,4142.051270,4138.974121,4151.282227,4150.256348,4151.794922,4141.025879,4162.563965,4144.102539,4155.384766,870.000000,4.000000,,,,0.000000,4.000000,4.000000,4.000000,4.000000,4.000000,4.000000,4.000000,4.000000,4.000000,4.000000,4.000000,4.000000,4.000000,4.000000,100.000000
1602006013.634282,4.000000,0.000000,4187.692383,4160.512695,4169.230957,4151.794922,4134.871582,4134.358887,4140.000000,4157.436035,4153.846191,4157.948730,4149.743652,4158.974121,4144.102539,4158.461426,807.000000,4.000000,,,,0.000000,4.000000,4.000000,4.000000,4.000000,4.000000,4.000000,4.000000,4.000000,4.000000,4.000000,4.000000,4.000000,4.000000,4.000000,100.000000
1602006013.642165,5.000000,0.000000,4172.820313,4153.846191,4159.487305,4140.000000,4125.641113,4126.666504,4146.153809,4157.948730,4152.307617,4148.205078,4141.538574,4155.897461,4140.512695,4150.256348,829.000000,4.000000,,,,0.000000,4.000000,4.000000,4.000000,4.000000,4.000000,4.000000,4.000000,4.000000,4.000000,4.000000,4.000000,4.000000,4.000000,4.000000,100.000000
1602006013.650048,6.000000,0.000000,4167.179688,4143.589844,4155.897461,4134.358887,4121.025879,4124.102539,4148.717773,4153.333496,4137.436035,4124.615234,4127.692383,4152.307617,4130.769043,4142.051270,775.000000,4.000000,,,,0.000000,4.000000,4.000000,4.000000,4.000000,4.000000,4.000000,4.000000,4.000000,4.000000,4.000000,4.000000,4.000000,4.000000,4.000000,100.000000
1602006013.657931,7.000000,0.000000,4168.717773,4133.846191,4159.487305,4135.897461,4116.922852,4123.589844,4142.563965,4136.410156,4118.461426,4115.384766,4119.487305,4144.102539,4109.743652,4136.410156,686.000000,4.000000,,,,0.000000,4.000000,4.000000,4.000000,4.000000,4.000000,4.000000,4.000000,4.000000,4.000000,4.000000,4.000000,4.000000,4.000000,4.000000,100.000000
1602006013.665814,8.000000,0.000000,4160.512695,4130.769043,4157.948730,4131.794922,4114.358887,4124.615234,4136.410156,4122.563965,4112.307617,4123.077148,4113.333496,4137.948730,4102.563965,4126.666504,785.000000,4.000000,,,,0.000000,4.000000,4.000000,4.000000,4.000000,4.000000,4.000000,4.000000,4.000000,4.000000,4.000000,4.000000,4.000000,4.000000,4.000000,100.000000
1602006013.673597,9.000000,0.000000,4153.333496,4133.333496,4155.384766,4125.641113,4118.974121,4126.153809,4134.871582,4123.077148,4106.153809,4121.538574,4107.179688,4137.436035,4108.205078,4123.589844,842.000000,4.000000,,,,0.000000,4.000000,4.000000,4.000000,4.000000,4.000000,4.000000,4.000000,4.000000,4.000000,4.000000,4.000000,4.000000,4.000000,4.000000,100.000000
1602006013.681480,10.000000,0.000000,4153.846191,4134.358887,4151.282227,4126.153809,4123.589844,4122.563965,4125.128418,4119.487305,4094.358887,4113.333496,4103.077148,4130.256348,4101.025879,4117.948730,871.000000,4.000000,,,,0.000000,4.000000,4.000000,4.000000,4.000000,4.000000,4.000000,4.000000,4.000000,4.000000,4.000000,4.000000,4.000000,4.000000,4.000000,100.000000
1602006013.689362,11.000000,0.000000,4153.846191,4133.846191,4141.025879,4130.769043,4123.589844,4118.461426,4116.410156,4113.846191,4097.948730,4107.179688,4104.102539,4124.615234,4092.820557,4104.102539,837.000000,4.000000,,,,0.000000,4.000000,4.000000,4.000000,4.000000,4.000000,4.000000,4.000000,4.000000,4.000000,4.000000,4.000000,4.000000,4.000000,4.000000,100.000000
1602006013.697245,12.000000,0.000000,4147.692383,4136.410156,4136.410156,4135.897461,4123.589844,4119.487305,4120.512695,4117.436035,4107.179688,4103.589844,4108.717773,4132.820313,4101.538574,4107.692383,770.000000,4.000000,,,,0.000000,4.000000,4.000000,4.000000,4.000000,4.000000,4.000000,4.000000,4.000000,4.000000,4.000000,4.000000,4.000000,4.000000,4.000000,100.000000
1602006013.705127,13.000000,0.000000,4139.487305,4144.102539,4135.384766,4137.948730,4128.717773,4120.000000,4123.077148,4121.025879,4101.538574,4105.641113,4114.871582,4140.000000,4108.205078,4125.641113,751.000000,4.000000,,,,0.000000,4.000000,4.000000,4.000000,4.000000,4.000000,4.000000,4.000000,4.000000,4.000000,4.000000,4.000000,4.000000,4.000000,4.000000,100.000000
1602006013.713010,14.000000,0.000000,4145.128418,4152.820313,4134.871582,4140.000000,4134.358887,4117.436035,4126.153809,4120.512695,4091.794922,4108.717773,4118.974121,4140.000000,4107.692383,4127.692383,871.000000,4.000000,,,,0.000000,4.000000,4.000000,4.000000,4.000000,4.000000,4.000000,4.000000,4.000000,4.000000,4.000000,4.000000,4.000000,4.000000,4.000000,100.000000
1602006013.720892,15.000000,0.000000,4156.922852,4157.436035,4136.922852,4143.589844,4133.333496,4120.000000,4133.846191,4121.538574,4097.948730,4112.307617,4122.563965,4141.538574,4115.897461,4123.077148,837.000000,4.000000,,,,0.000000,4.000000,4.000000,4.000000,4.000000,4.000000,4.000000,4.000000,4.000000,4.000000,4.000000,4.000000,4.000000,4.000000,4.000000,100.000000
1602006013.728775,16.000000,0.000000,4150.256348,4153.333496,4139.487305,4143.077148,4125.641113,4120.512695,4137.948730,4123.077148,4103.589844,4123.589844,4123.589844,4142.563965,4123.589844,4126.153809,0.000000,4.000000,,,,0.000000,4.000000,4.000000,4.000000,4.000000,4.000000,4.000000,4.000000,4.000000,4.000000,4.000000,4.000000,4.000000,4.000000,4.000000,100.000000
1602006013.736758,17.000000,0.000000,4130.769043,4136.922852,4145.641113,4138.461426,4117.436035,4109.743652,4138.461426,4126.153809,4100.000000,4136.410156,4115.897461,4138.461426,4116.410156,4123.589844,0.000000,4.000000,,,,0.000000,4.000000,4.000000,4.000000,4.000000,4.000000,4.000000,4.000000,4.000000,4.000000,4.000000,4.000000,4.000000,4.000000,4.000000,100.000000
1602006013.744641,18.000000,0.000000,4122.563965,4125.641113,4153.846191,4134.871582,4109.230957,4108.205078,4138.461426,4133.333496,4104.615234,4139.487305,4110.256348,4136.410156,4105.128418,4120.000000,0.000000,4.000000,,,,0.000000,4.000000,4.000000,4.000000,4.000000,4.000000,4.000000,4.000000,4.000000,4.000000,4.000000,4.000000,4.000000,4.000000,4.000000,100.000000
1602006013.752523,19.000000,0.000000,4130.256348,4132.820313,4155.897461,4136.922852,4110.769043,4126.666504,4140.512695,4143.077148,4127.179688,4135.384766,4117.948730,4140.512695,4107.179688,4124.615234,0.000000,4.000000,,,,0.000000,4.000000,4.000000,4.000000,4.000000,4.000000,4.000000,4.000000,4.000000,4.000000,4.000000,4.000000,4.000000,4.000000,4.000000,100.000000
1602006013.760406,20.000000,0.000000,4138.974121,4141.538574,4149.743652,4140.512695,4123.589844,4141.538574,4143.589844,4148.717773,4145.128418,4125.641113,4125.128418,4137.948730,4115.384766,4124.102539,0.000000,4.000000,,,,0.000000,4.000000,4.000000,4.000000,4.000000,4.000000,4.000000,4.000000,4.000000,4.000000,4.000000,4.000000,4.000000,4.000000,4.000000,100.000000
1602006013.768289,21.000000,0.000000,4129.743652,4129.743652,4137.436035,4131.282227,4124.102539,4136.410156,4143.589844,4142.563965,4133.846191,4116.410156,4115.897461,4124.615234,4107.692383,4110.256348,0.000000,4.000000,,,,0.000000,4.000000,4.000000,4.000000,4.000000,4.000000,4.000000,4.000000,4.000000,4.000000,4.000000,4.000000,4.000000,4.000000,4.000000,100.000000
1602006013.776172,22.000000,0.000000,4118.461426,4117.948730,4123.589844,4120.000000,4117.436035,4128.717773,4133.333496,4130.769043,4117.948730,4112.820313,4104.102539,4117.948730,4089.743652,4101.538574,0.000000,4.000000,,,,0.000000,4.000000,4.000000,4.000000,4.000000,4.000000,4.000000,4.000000,4.000000,4.000000,4.000000,4.000000,4.000000,4.000000,4.000000,100.000000
1602006013.784055,23.000000,0.000000,4123.077148,4124.615234,4120.000000,4124.102539,4128.717773,4134.358887,4124.615234,4126.153809,4118.461426,4116.410156,4105.128418,4123.589844,4092.307617,4107.179688,0.000000,4.000000,,,,0.000000,4.000000,4.000000,4.000000,4.000000,4.000000,4.000000,4.000000,4.000000,4.000000,4.000000,4.000000,4.000000,4.000000,4.000000,100.000000
1602006013.791938,24.000000,0.000000,4123.077148,4124.102539,4122.563965,4127.692383,4142.563965,4139.487305,4121.538574,4121.538574,4116.410156,4125.641113,4109.230957,4123.589844,4108.717773,4108.717773,0.000000,4.000000,,,,0.000000,4.000000,4.000000,4.000000,4.000000,4.000000,4.000000,4.000000,4.000000,4.000000,4.000000,4.000000,4.000000,4.000000,4.000000,100.000000
1602006013.799920,25.000000,0.000000,4116.922852,4117.436035,4122.563965,4124.102539,4140.512695,4130.256348,4113.846191,4112.820313,4106.153809,4135.897461,4107.179688,4119.487305,4105.128418,4102.563965,0.000000,4.000000,,,,0.000000,4.000000,4.000000,4.000000,4.000000,4.000000,4.000000,4.000000,4.000000,4.000000,4.000000,4.000000,4.000000,4.000000,4.000000,100.000000
1602006013.807802,26.000000,0.000000,4138.461426,4141.538574,4134.871582,4137.948730,4136.922852,4125.641113,4108.205078,4111.794922,4106.153809,4138.461426,4109.743652,4125.641113,4103.077148,4109.743652,0.000000,4.000000,,,,0.000000,4.000000,4.000000,4.000000,4.000000,4.000000,4.000000,4.000000,4.000000,4.000000,4.000000,4.000000,4.000000,4.000000,4.000000,100.000000
1602006013.815685,27.000000,0.000000,4184.615234,4184.102539,4160.000000,4165.128418,4143.077148,4136.922852,4115.384766,4120.512695,4121.538574,4139.487305,4122.563965,4138.974121,4121.025879,4133.846191,0.000000,4.000000,,,,0.000000,4.000000,4.000000,4.000000,4.000000,4.000000,4.000000,4.000000,4.000000,4.000000,4.000000,4.000000,4.000000,4.000000,4.000000,100.000000
1602006013.823567,28.000000,0.000000,4206.153809,4197.948730,4173.333496,4169.743652,4143.589844,4139.487305,4127.179688,4129.230957,4127.179688,4137.436035,4128.717773,4146.153809,4122.051270,4147.179688,0.000000,4.000000,,,,0.000000,4.000000,4.000000,4.000000,4.000000,4.000000,4.000000,4.000000,4.000000,4.000000,4.000000,4.000000,4.000000,4.000000,4.000000,100.000000
1602006013.831449,29.000000,0.000000,4194.358887,4184.102539,4173.333496,4157.948730,4130.769043,4124.102539,4128.205078,4135.384766,4123.589844,4133.333496,4123.589844,4144.615234,4107.179688,4135.897461,0.000000,4.000000,,,,0.000000,4.000000,4.000000,4.000000,4.000000,4.000000,4.000000,4.000000,4.000000,4.000000,4.000000,4.000000,4.000000,4.000000,4.000000,100.000000
1602006013.839332,30.000000,0.000000,4185.641113,4172.820313,4169.743652,4153.846191,4120.512695,4115.384766,4123.589844,4140.512695,4128.205078,4140.000000,4117.948730,4143.589844,4105.128418,4124.102539,0.000000,4.000000,,,,0.000000,4.000000,4.000000,4.000000,4.000000,4.000000,4.000000,4.000000,4.000000,4.000000,4.000000,4.000000,4.000000,4.000000,4.000000,100.000000
1602006013.847214,31.000000,0.000000,4187.179688,4172.307617,4162.563965,4156.922852,4127.692383,4120.000000,4122.051270,4139.487305,4136.922852,4142.051270,4113.846191,4142.563965,4103.077148,4122.563965,0.000000,4.000000,,,,0.000000,4.000000,4.000000,4.000000,4.000000,4.000000,4.000000,4.000000,4.000000,4.000000,4.000000,4.000000,4.000000,4.000000,4.000000,100.000000
1602006013.854997,32.000000,0.000000,4181.025879,4174.871582,4154.871582,4155.897461,4143.589844,4130.769043,4123.589844,4135.384766,4132.307617,4128.717773,4107.179688,4130.256348,4091.794922,4113.333496,0.000000,4.000000,,,,0.000000,4.000000,4.000000,4.000000,4.000000,4.000000,4.000000,4.000000,4.000000,4.000000,4.000000,4.000000,4.000000,4.000000,4.000000,100.000000
1602006013.862879,33.000000,0.000000,4172.820313,4173.333496,4148.717773,4153.846191,4147.692383,4136.922852,4122.563965,4134.358887,4130.256348,4124.102539,4104.615234,4116.922852,4085.641113,4103.077148,0.000000,4.000000,,,,0.000000,4.000000,4.000000,4.000000,4.000000,4.000000,4.000000,4.000000,4.000000,4.000000,4.000000,4.000000,4.000000,4.000000,4.000000,100.000000
1602006013.870762,34.000000,0.000000,4170.256348,4171.282227,4142.051270,4155.384766,4142.051270,4140.000000,4122.563965,4135.897461,4135.897461,4140.512695,4106.666504,4117.948730,4085.128174,4104.615234,0.000000,4.000000,,,,0.000000,4.000000,4.000000,4.000000,4.000000,4.000000,4.000000,4.000000,4.000000,4.000000,4.000000,4.000000,4.000000,4.000000,4.000000,100.000000
1602006013.878645,35.000000,0.000000,4162.563965,4168.717773,4133.333496,4150.769043,4137.948730,4144.102539,4130.769043,4137.436035,4133.846191,4143.589844,4105.128418,4118.461426,4085.128174,4101.538574,0.000000,4.000000,,,,0.000000,4.000000,4.000000,4.000000,4.000000,4.000000,4.000000,4.000000,4.000000,4.000000,4.000000,4.000000,4.000000,4.000000,4.000000,100.000000
1602006013.886527,36.000000,0.000000,4150.769043,4158.974121,4127.692383,4140.000000,4129.743652,4142.051270,4136.410156,4131.282227,4126.153809,4117.436035,4104.102539,4113.333496,4089.230713,4092.820557,0.000000,4.000000,,,,0.000000,4.000000,4.000000,4.000000,4.000000,4.000000,4.000000,4.000000,4.000000,4.000000,4.000000,4.000000,4.000000,4.000000,4.000000,100.000000
1602006013.894410,37.000000,0.000000,4151.794922,4153.333496,4130.256348,4136.922852,4123.589844,4137.436035,4133.846191,4124.615234,4122.563965,4107.179688,4110.256348,4116.410156,4091.281982,4099.487305,0.000000,4.000000,,,,0.000000,4.000000,4.000000,4.000000,4.000000,4.000000,4.000000,4.000000,4.000000,4.000000,4.000000,4.000000,4.000000,4.000000,4.000000,100.000000
1602006013.902292,38.000000,0.000000,4156.922852,4155.384766,4140.512695,4140.512695,4121.025879,4141.538574,4134.358887,4125.128418,4123.589844,4132.820313,4110.256348,4121.538574,4092.307617,4118.461426,0.000000,4.000000,,,,0.000000,4.000000,4.000000,4.000000,4.000000,4.000000,4.000000,4.000000,4.000000,4.000000,4.000000,4.000000,4.000000,4.000000,4.000000,100.000000
1602006013.910175,39.000000,0.000000,4156.410156,4154.358887,4148.717773,4138.974121,4109.743652,4138.974121,4136.922852,4128.205078,4122.563965,4147.692383,4103.589844,4118.974121,4090.769287,4121.025879,0.000000,4.000000,,,,0.000000,4.000000,4.000000,4.000000,4.000000,4.000000,4.000000,4.000000,4.000000,4.000000,4.000000,4.000000,4.000000,4.000000,4.000000,100.000000
1602006013.917957,40.000000,0.000000,4156.410156,4150.256348,4149.230957,4137.436035,4109.230957,4124.102539,4136.410156,4130.256348,4118.974121,4124.615234,4104.102539,4114.358887,4083.589844,4100.512695,0.000000,4.000000,,,,0.000000,4.000000,4.000000,4.000000,4.000000,4.000000,4.000000,4.000000,4.000000,4.000000,4.000000,4.000000,4.000000,4.000000,4.000000,100.000000
1602006013.925839,41.000000,0.000000,4158.974121,4149.743652,4152.307617,4140.512695,4124.615234,4116.922852,4137.948730,4137.436035,4117.948730,4105.641113,4107.692383,4113.846191,4077.435791,4085.641113,0.000000,4.000000,,,,0.000000,4.000000,4.000000,4.000000,4.000000,4.000000,4.000000,4.000000,4.000000,4.000000,4.000000,4.000000,4.000000,4.000000,4.000000,100.000000
1602006013.933721,42.000000,0.000000,4158.461426,4153.846191,4151.794922,4140.000000,4130.256348,4120.000000,4140.000000,4141.538574,4121.025879,4107.179688,4105.641113,4118.974121,4077.948730,4097.948730,0.000000,4.000000,,,,0.000000,4.000000,4.000000,4.000000,4.000000,4.000000,4.000000,4.000000,4.000000,4.000000,4.000000,4.000000,4.000000,4.000000,4.000000,100.000000
1602006013.941603,43.000000,0.000000,4156.410156,4153.333496,4144.615234,4136.922852,4128.717773,4122.051270,4136.922852,4138.974121,4122.051270,4105.641113,4105.128418,4120.512695,4082.051270,4109.230957,0.000000,4.000000,,,,0.000000,4.000000,4.000000,4.000000,4.000000,4.000000,4.000000,4.000000,4.000000,4.000000,4.000000,4.000000,4.000000,4.000000,4.000000,100.000000
1602006013.949484,44.000000,0.000000,4148.205078,4139.487305,4132.820313,4132.820313,4133.333496,4122.563965,4136.410156,4138.974121,4124.615234,4112.307617,4105.641113,4111.282227,4087.692383,4096.922852,0.000000,4.000000,,,,0.000000,4.000000,4.000000,4.000000,4.000000,4.000000,4.000000,4.000000,4.000000,4.000000,4.000000,4.000000,4.000000,4.000000,4.000000,100.000000
1602006013.957267,45.000000,0.000000,4143.589844,4138.461426,4127.692383,4134.871582,4138.974121,4128.717773,4134.871582,4135.897461,4126.666504,4124.102539,4104.615234,4103.077148,4090.256348,4086.153809,0.000000,4.000000,,,,0.000000,4.000000,4.000000,4.000000,4.000000,4.000000,4.000000,4.000000,4.000000,4.000000,4.000000,4.000000,4.000000,4.000000,4.000000,100.000000
1602006013.965150,46.000000,0.000000,4151.794922,4161.025879,4134.358887,4145.128418,4143.077148,4138.461426,4129.230957,4126.666504,4116.922852,4122.563965,4097.948730,4104.102539,4083.589844,4088.205078,0.000000,4.000000,,,,0.000000,4.000000,4.000000,4.000000,4.000000,4.000000,4.000000,4.000000,4.000000,4.000000,4.000000,4.000000,4.000000,4.000000,4.000000,100.000000
1602006013.973032,47.000000,0.000000,4158.461426,4170.256348,4140.512695,4152.307617,4143.589844,4143.077148,4131.282227,4121.538574,4108.717773,4116.922852,4088.718018,4104.615234,4073.846191,4090.769287,0.000000,4.000000,,,,0.000000,4.000000,4.000000,4.000000,4.000000,4.000000,4.000000,4.000000,4.000000,4.000000,4.000000,4.000000,4.000000,4.000000,4.000000,100.000000
1602006013.980915,48.000000,0.000000,4157.436035,4159.487305,4139.487305,4154.871582,4138.974121,4141.538574,4136.410156,4118.461426,4108.717773,4112.307617,4093.846191,4104.102539,4076.923096,4094.871826,0.000000,4.000000,,,,0.000000,4.000000,4.000000,4.000000,4.000000,4.000000,4.000000,4.000000,4.000000,4.000000,4.000000,4.000000,4.000000,4.000000,4.000000,100.000000
1602006013.988797,49.000000,0.000000,4159.487305,4157.948730,4140.512695,4150.256348,4133.846191,4137.948730,4134.871582,4114.871582,4106.666504,4094.871826,4104.102539,4112.307617,4085.641113,4095.897461,0.000000,4.000000,,,,0.000000,4.000000,4.000000,4.000000,4.000000,4.000000,4.000000,4.000000,4.000000,4.000000,4.000000,4.000000,4.000000,4.000000,4.000000,100.000000
1602006013.996680,50.000000,0.000000,4166.153809,4161.538574,4147.692383,4143.077148,4127.179688,4136.922852,4135.384766,4123.589844,4109.743652,4085.128174,4108.717773,4129.230957,4089.743652,4095.384521,0.000000,4.000000,,,,0.000000,4.000000,4.000000,4.000000,4.000000,4.000000,4.000000,4.000000,4.000000,4.000000,4.000000,4.000000,4.000000,4.000000,4.000000,100.000000
1602006014.004563,51.000000,0.000000,4173.333496,4158.974121,4153.333496,4145.641113,4124.102539,4141.025879,4142.051270,4137.948730,4127.692383,4111.282227,4117.436035,4142.563965,4098.974121,4110.769043,0.000000,4.000000,,,,0.000000,4.000000,4.000000,4.000000,4.000000,4.000000,4.000000,4.000000,4.000000,4.000000,4.000000,4.000000,4.000000,4.000000,4.000000,100.000000
1602006014.012445,52.000000,0.000000,4174.871582,4157.436035,4155.384766,4151.794922,4129.230957,4143.589844,4142.051270,4140.512695,4142.563965,4146.666504,4127.692383,4145.128418,4111.794922,4131.282227,0.000000,4.000000,,,,0.000000,4.000000,4.000000,4.000000,4.000000,4.000000,4.000000,4.000000,4.000000,4.000000,4.000000,4.000000,4.000000,4.000000,4.000000,100.000000
1602006014.020428,53.000000,0.000000,4164.102539,4152.820313,4152.307617,4148.205078,4129.743652,4137.948730,4138.461426,4136.922852,4145.641113,4154.358887,4128.205078,4141.538574,4113.846191,4125.128418,0.000000,4.000000,,,,0.000000,4.000000,4.000000,4.000000,4.000000,4.000000,4.000000,4.000000,4.000000,4.000000,4.000000,4.000000,4.000000,4.000000,4.000000,100.000000
1602006014.028311,54.000000,0.000000,4153.333496,4144.102539,4144.615234,4142.051270,4123.077148,4136.922852,4139.487305,4138.461426,4145.128418,4146.153809,4119.487305,4134.871582,4104.615234,4106.666504,0.000000,4.000000,,,,0.000000,4.000000,4.000000,4.000000,4.000000,4.000000,4.000000,4.000000,4.000000,4.000000,4.000000,4.000000,4.000000,4.000000,4.000000,100.000000
1602006014.036194,55.000000,0.000000,4150.769043,4138.974121,4138.974121,4137.948730,4121.025879,4136.922852,4141.025879,4139.487305,4142.563965,4142.051270,4111.282227,4125.641113,4096.922852,4104.615234,0.000000,4.000000,,,,0.000000,4.000000,4.000000,4.000000,4.000000,4.000000,4.000000,4.000000,4.000000,4.000000,4.000000,4.000000,4.000000,4.000000,4.000000,100.000000
1602006014.044076,56.000000,0.000000,4151.794922,4138.461426,4135.897461,4133.333496,4120.512695,4130.256348,4140.000000,4137.948730,4136.410156,4125.641113,4106.666504,4120.512695,4092.307617,4109.743652,0.000000,4.000000,,,,0.000000,4.000000,4.000000,4.000000,4.000000,4.000000,4.000000,4.000000,4.000000,4.000000,4.000000,4.000000,4.000000,4.000000,4.000000,100.000000
1602006014.051959,57.000000,0.000000,4154.358887,4140.000000,4136.922852,4133.846191,4121.025879,4126.666504,4140.000000,4134.871582,4130.769043,4100.512695,4107.179688,4121.538574,4092.820557,4105.128418,0.000000,4.000000,,,,0.000000,4.000000,4.000000,4.000000,4.000000,4.000000,4.000000,4.000000,4.000000,4.000000,4.000000,4.000000,4.000000,4.000000,4.000000,100.000000
1602006014.059842,58.000000,0.000000,4156.410156,4141.025879,4134.871582,4138.974121,4131.282227,4130.769043,4139.487305,4128.717773,4128.205078,4097.436035,4109.230957,4122.563965,4097.436035,4100.512695,0.000000,4.000000,,,,0.000000,4.000000,4.000000,4.000000,4.000000,4.000000,4.000000,4.000000,4.000000,4.000000,4.000000,4.000000,4.000000,4.000000,4.000000,100.000000
1602006014.067725,59.000000,0.000000,4149.230957,4144.102539,4126.666504,4138.974121,4139.487305,4135.384766,4135.897461,4123.077148,4126.153809,4115.384766,4108.717773,4121.538574,4095.384521,4109.230957,0.000000,4.000000,,,,0.000000,4.000000,4.000000,4.000000,4.000000,4.000000,4.000000,4.000000,4.000000,4.000000,4.000000,4.000000,4.000000,4.000000,4.000000,100.000000
1602006014.075608,60.000000,0.000000,4139.487305,4147.692383,4119.487305,4138.461426,4137.948730,4136.410156,4134.871582,4123.589844,4126.153809,4131.282227,4107.179688,4119.487305,4094.358887,4113.333496,0.000000,4.000000,,,,0.000000,4.000000,4.000000,4.000000,4.000000,4.000000,4.000000,4.000000,4.000000,4.000000,4.000000,4.000000,4.000000,4.000000,4.000000,100.000000
1602006014.083491,61.000000,0.000000,4138.974121,4153.333496,4121.025879,4144.102539,4144.615234,4137.436035,4134.871582,4126.153809,4134.358887,4138.461426,4107.179688,4120.512695,4098.974121,4105.641113,0.000000,4.000000,,,,0.000000,4.000000,4.000000,4.000000,4.000000,4.000000,4.000000,4.000000,4.000000,4.000000,4.000000,4.000000,4.000000,4.000000,4.000000,100.000000
1602006014.091274,62.000000,0.000000,4143.077148,4164.102539,4128.205078,4153.333496,4154.358887,4137.948730,4133.846191,4129.743652,4144.102539,4140.512695,4107.692383,4127.692383,4106.153809,4108.717773,0.000000,4.000000,,,,0.000000,4.000000,4.000000,4.000000,4.000000,4.000000,4.000000,4.000000,4.000000,4.000000,4.000000,4.000000,4.000000,4.000000,4.000000,100.000000
1602006014.099156,63.000000,0.000000,4151.794922,4172.820313,4134.358887,4161.538574,4147.692383,4136.922852,4134.871582,4136.410156,4143.077148,4145.128418,4113.333496,4134.871582,4113.846191,4118.461426,0.000000,4.000000,,,,0.000000,4.000000,4.000000,4.000000,4.000000,4.000000,4.000000,4.000000,4.000000,4.000000,4.000000,4.000000,4.000000,4.000000,4.000000,100.000000
1602006014.107039,64.000000,0.000000,4167.179688,4177.948730,4145.128418,4168.205078,4139.487305,4137.948730,4136.922852,4135.384766,4141.025879,4149.743652,4126.666504,4142.563965,4123.589844,4128.205078,799.000000,4.000000,,,,0.000000,4.000000,4.000000,4.000000,4.000000,4.000000,4.000000,4.000000,4.000000,4.000000,4.000000,4.000000,4.000000,4.000000,4.000000,100.000000
1602006014.114922,65.000000,0.000000,4176.922852,4180.512695,4151.794922,4170.769043,4143.077148,4135.384766,4135.897461,4125.641113,4136.922852,4128.205078,4128.205078,4146.153809,4125.641113,4139.487305,798.000000,4.000000,,,,0.000000,4.000000,4.000000,4.000000,4.000000,4.000000,4.000000,4.000000,4.000000,4.000000,4.000000,4.000000,4.000000,4.000000,4.000000,100.000000
1602006014.122805,66.000000,0.000000,4172.820313,4175.897461,4145.128418,4170.769043,4141.025879,4126.153809,4129.230957,4121.025879,4126.666504,4095.897461,4114.358887,4135.384766,4113.333496,4135.897461,851.000000,4.000000,,,,0.000000,4.000000,4.000000,4.000000,4.000000,4.000000,4.000000,4.000000,4.000000,4.000000,4.000000,4.000000,4.000000,4.000000,4.000000,100.000000
1602006014.130688,67.000000,0.000000,4168.205078,4168.717773,4137.436035,4164.615234,4136.410156,4119.487305,4126.153809,4122.051270,4123.077148,4100.512695,4108.717773,4126.666504,4105.641113,4122.563965,870.000000,4.000000,,,,0.000000,4.000000,4.000000,4.000000,4.000000,4.000000,4.000000,4.000000,4.000000,4.000000,4.000000,4.000000,4.000000,4.000000,4.000000,100.000000
1602006014.138571,68.000000,0.000000,4167.692383,4165.128418,4138.974121,4156.410156,4139.487305,4117.436035,4128.717773,4122.563965,4125.641113,4128.717773,4109.743652,4132.820313,4108.205078,4122.051270,807.000000,4.000000,,,,0.000000,4.000000,4.000000,4.000000,4.000000,4.000000,4.000000,4.000000,4.000000,4.000000,4.000000,4.000000,4.000000,4.000000,4.000000,100.000000
1602006014.146453,69.000000,0.000000,4162.563965,4158.461426,4137.436035,4154.358887,4136.922852,4116.922852,4129.230957,4123.589844,4124.102539,4128.717773,4105.641113,4134.871582,4103.589844,4121.538574,829.000000,4.000000,,,,0.000000,4.000000,4.000000,4.000000,4.000000,4.000000,4.000000,4.000000,4.000000,4.000000,4.000000,4.000000,4.000000,4.000000,4.000000,100.000000
1602006014.154336,70.000000,0.000000,4156.922852,4151.794922,4127.179688,4153.333496,4127.179688,4120.000000,4128.717773,4127.692383,4128.717773,4114.871582,4104.102539,4124.615234,4095.897461,4109.230957,775.000000,4.000000,,,,0.000000,4.000000,4.000000,4.000000,4.000000,4.000000,4.000000,4.000000,4.000000,4.000000,4.000000,4.000000,4.000000,4.000000,4.000000,100.000000
1602006014.162319,71.000000,0.000000,4154.358887,4152.307617,4119.487305,4141.538574,4121.025879,4121.025879,4133.846191,4131.282227,4136.410156,4123.077148,4107.179688,4122.563965,4102.563965,4105.128418,686.000000,4.000000,,,,0.000000,4.000000,4.000000,4.000000,4.000000,4.000000,4.000000,4.000000,4.000000,4.000000,4.000000,4.000000,4.000000,4.000000,4.000000,100.000000
1602006014.170202,72.000000,0.000000,4158.974121,4156.410156,4125.128418,4138.974121,4123.077148,4118.461426,4139.487305,4129.743652,4134.358887,4133.333496,4116.922852,4131.794922,4111.282227,4116.410156,785.000000,4.000000,,,,0.000000,4.000000,4.000000,4.000000,4.000000,4.000000,4.000000,4.000000,4.000000,4.000000,4.000000,4.000000,4.000000,4.000000,4.000000,100.000000
1602006014.178085,73.000000,0.000000,4169.743652,4162.051270,4137.948730,4152.307617,4129.230957,4121.025879,4136.922852,4125.128418,4132.307617,4125.641113,4125.641113,4137.436035,4109.230957,4135.384766,842.000000,4.000000,,,,0.000000,4.000000,4.000000,4.000000,4.000000,4.000000,4.000000,4.000000,4.000000,4.000000,4.000000,4.000000,4.000000,4.000000,4.000000,100.000000
1602006014.185967,74.000000,0.000000,4166.666504,4159.487305,4134.358887,4151.794922,4127.179688,4125.128418,4129.230957,4119.487305,4128.717773,4110.769043,4117.436035,4137.436035,4106.666504,4140.512695,872.000000,4.000000,,,,0.000000,4.000000,4.000000,4.000000,4.000000,4.000000,4.000000,4.000000,4.000000,4.000000,4.000000,4.000000,4.000000,4.000000,4.000000,100.000000
1602006014.193850,75.000000,0.000000,4156.410156,4151.794922,4121.538574,4142.563965,4127.179688,4121.025879,4121.538574,4117.948730,4126.153809,4112.307617,4106.666504,4132.820313,4108.717773,4124.615234,837.000000,4.000000,,,,0.000000,4.000000,4.000000,4.000000,4.000000,4.000000,4.000000,4.000000,4.000000,4.000000,4.000000,4.000000,4.000000,4.000000,4.000000,100.000000
1602006014.201733,76.000000,0.000000,4163.077148,4160.512695,4128.717773,4150.769043,4138.461426,4124.102539,4123.077148,4122.563965,4135.897461,4133.333496,4109.743652,4130.256348,4110.769043,4116.410156,770.000000,4.000000,,,,0.000000,4.000000,4.000000,4.000000,4.000000,4.000000,4.000000,4.000000,4.000000,4.000000,4.000000,4.000000,4.000000,4.000000,4.000000,100.000000
1602006014.209616,77.000000,0.000000,4170.256348,4171.282227,4138.974121,4160.000000,4142.563965,4132.307617,4124.615234,4126.153809,4142.051270,4142.051270,4113.333496,4127.179688,4113.333496,4124.102539,751.000000,4.000000,,,,0.000000,4.000000,4.000000,4.000000,4.000000,4.000000,4.000000,4.000000,4.000000,4.000000,4.000000,4.000000,4.000000,4.000000,4.000000,100.000000
1602006014.217499,78.000000,0.000000,4165.641113,4168.205078,4134.358887,4155.384766,4138.974121,4131.282227,4127.179688,4129.743652,4135.897461,4134.358887,4112.307617,4122.051270,4109.743652,4126.666504,872.000000,4.000000,,,,0.000000,4.000000,4.000000,4.000000,4.000000,4.000000,4.000000,4.000000,4.000000,4.000000,4.000000,4.000000,4.000000,4.000000,4.000000,100.000000
1602006014.225382,79.000000,0.000000,4165.641113,4167.179688,4134.871582,4153.333496,4144.102539,4126.666504,4133.846191,4137.948730,4138.461426,4135.897461,4116.922852,4128.205078,4108.717773,4123.077148,837.000000,4.000000,,,,0.000000,4.000000,4.000000,4.000000,4.000000,4.000000,4.000000,4.000000,4.000000,4.000000,4.000000,4.000000,4.000000,4.000000,4.000000,100.000000
1602006014.233363,80.000000,0.000000,4171.282227,4164.102539,4140.512695,4151.794922,4139.487305,4120.000000,4132.307617,4134.871582,4141.025879,4133.333496,4123.077148,4133.846191,4110.256348,4125.641113,770.000000,4.000000,,,,0.000000,4.000000,4.000000,4.000000,4.000000,4.000000,4.000000,4.000000,4.000000,4.000000,4.000000,4.000000,4.000000,4.000000,4.000000,100.000000
1602006014.241245,81.000000,0.000000,4169.230957,4154.358887,4142.563965,4145.641113,4124.102539,4111.794922,4129.230957,4121.538574,4127.179688,4121.025879,4123.589844,4134.871582,4110.769043,4135.897461,751.000000,4.000000,,,,0.000000,4.000000,4.000000,4.000000,4.000000,4.000000,4.000000,4.000000,4.000000,4.000000,4.000000,4.000000,4.000000,4.000000,4.000000,100.000000
1602006014.249126,82.000000,0.000000,4168.717773,4153.846191,4150.769043,4148.717773,4122.563965,4114.871582,4139.487305,4121.538574,4121.025879,4122.563965,4124.615234,4146.153809,4116.410156,4143.077148,872.000000,4.000000,,,,0.000000,4.000000,4.000000,4.000000,4.000000,4.000000,4.000000,4.000000,4.000000,4.000000,4.000000,4.000000,4.000000,4.000000,4.000000,100.000000
1602006014.257008,83.000000,0.000000,4170.256348,4156.410156,4155.384766,4152.820313,4126.153809,4123.589844,4142.563965,4126.153809,4127.179688,4128.717773,4124.615234,4151.794922,4123.589844,4140.000000,837.000000,4.000000,,,,0.000000,4.000000,4.000000,4.000000,4.000000,4.000000,4.000000,4.000000,4.000000,4.000000,4.000000,4.000000,4.000000,4.000000,4.000000,100.000000
1602006014.264991,84.000000,0.000000,4169.230957,4153.846191,4151.794922,4149.230957,4120.000000,4120.000000,4128.717773,4121.538574,4123.077148,4120.000000,4120.512695,4143.589844,4120.000000,4134.358887,770.000000,4.000000,,,,0.000000,4.000000,4.000000,4.000000,4.000000,4.000000,4.000000,4.000000,4.000000,4.000000,4.000000,4.000000,4.000000,4.000000,4.000000,100.000000
1602006014.272874,85.000000,0.000000,4170.256348,4154.358887,4153.333496,4150.769043,4121.538574,4118.974121,4124.615234,4118.974121,4113.846191,4123.589844,4120.512695,4145.128418,4112.820313,4138.461426,751.000000,4.000000,,,,0.000000,4.000000,4.000000,4.000000,4.000000,4.000000,4.000000,4.000000,4.000000,4.000000,4.000000,4.000000,4.000000,4.000000,4.000000,100.000000
1602006014.280757,86.000000,0.000000,4166.666504,4157.948730,4151.282227,4155.897461,4132.307617,4127.179688,4128.717773,4122.051270,4114.358887,4139.487305,4124.615234,4148.717773,4111.794922,4139.487305,872.000000,4.000000,,,,0.000000,4.000000,4.000000,4.000000,4.000000,4.000000,4.000000,4.000000,4.000000,4.000000,4.000000,4.000000,4.000000,4.000000,4.000000,100.000000
1602006014.288640,87.000000,0.000000,4153.333496,4154.871582,4137.948730,4152.820313,4136.410156,4120.000000,4123.077148,4122.051270,4120.512695,4128.205078,4117.436035,4135.897461,4106.666504,4123.589844,837.000000,4.000000,,,,0.000000,4.000000,4.000000,4.000000,4.000000,4.000000,4.000000,4.000000,4.000000,4.000000,4.000000,4.000000,4.000000,4.000000,4.000000,100.000000
1602006014.296523,88.000000,0.000000,4147.179688,4151.794922,4132.307617,4149.743652,4135.384766,4105.641113,4117.436035,4122.051270,4122.563965,4111.794922,4108.205078,4134.358887,4100.000000,4116.922852,770.000000,4.000000,,,,0.000000,4.000000,4.000000,4.000000,4.000000,4.000000,4.000000,4.000000,4.000000,4.000000,4.000000,4.000000,4.000000,4.000000,4.000000,100.000000
1602006014.304406,89.000000,0.000000,4150.256348,4152.820313,4139.487305,4153.333496,4135.384766,4113.333496,4117.436035,4124.615234,4120.000000,4126.153809,4116.922852,4146.153809,4110.256348,4134.358887,751.000000,4.000000,,,,0.000000,4.000000,4.000000,4.000000,4.000000,4.000000,4.000000,4.000000,4.000000,4.000000,4.000000,4.000000,4.000000,4.000000,4.000000,100.000000
1602006014.312290,90.000000,0.000000,4153.846191,4155.384766,4140.000000,4156.410156,4137.436035,4125.128418,4121.538574,4122.563965,4123.589844,4145.128418,4125.641113,4141.538574,4122.051270,4142.051270,872.000000,4.000000,,,,0.000000,4.000000,4.000000,4.000000,4.000000,4.000000,4.000000,4.000000,4.000000,4.000000,4.000000,4.000000,4.000000,4.000000,4.000000,100.000000
1602006014.320173,91.000000,0.000000,4161.538574,4159.487305,4138.974121,4154.358887,4142.051270,4123.077148,4131.282227,4126.153809,4136.410156,4137.948730,4120.000000,4138.974121,4119.487305,4137.948730,837.000000,4.000000,,,,0.000000,4.000000,4.000000,4.000000,4.000000,4.000000,4.000000,4.000000,4.000000,4.000000,4.000000,4.000000,4.000000,4.000000,4.000000,100.000000
1602006014.328056,92.000000,0.000000,4167.692383,4162.051270,4147.179688,4154.358887,4143.589844,4125.641113,4138.974121,4136.410156,4141.025879,4126.666504,4118.461426,4150.256348,4116.410156,4149.743652,770.000000,4.000000,,,,0.000000,4.000000,4.000000,4.000000,4.000000,4.000000,4.000000,4.000000,4.000000,4.000000,4.000000,4.000000,4.000000,4.000000,4.000000,100.000000
1602006014.335939,93.000000,0.000000,4167.692383,4158.974121,4155.384766,4156.922852,4140.512695,4136.410156,4144.102539,4141.538574,4141.538574,4138.461426,4126.153809,4156.410156,4124.102539,4159.487305,751.000000,4.000000,,,,0.000000,4.000000,4.000000,4.000000,4.000000,4.000000,4.000000,4.000000,4.000000,4.000000,4.000000,4.000000,4.000000,4.000000,4.000000,100.000000
1602006014.343721,94.000000,0.000000,4169.230957,4153.846191,4152.307617,4150.769043,4138.974121,4132.307617,4152.820313,4142.563965,4152.820313,4157.436035,4129.743652,4149.743652,4128.717773,4150.769043,872.000000,4.000000,,,,0.000000,4.000000,4.000000,4.000000,4.000000,4.000000,4.000000,4.000000,4.000000,4.000000,4.000000,4.000000,4.000000,4.000000,4.000000,100.000000
1602006014.351604,95.000000,0.000000,4163.589844,4148.717773,4144.615234,4139.487305,4135.384766,4120.512695,4151.794922,4143.077148,4157.948730,4164.615234,4129.230957,4143.077148,4126.153809,4140.512695,837.000000,4.000000,,,,0.000000,4.000000,4.000000,4.000000,4.000000,4.000000,4.000000,4.000000,4.000000,4.000000,4.000000,4.000000,4.000000,4.000000,4.000000,100.000000
1602006014.359487,96.000000,0.000000,4152.307617,4140.000000,4145.128418,4134.871582,4125.128418,4118.974121,4138.461426,4141.538574,4144.615234,4151.282227,4127.692383,4146.153809,4123.589844,4132.307617,770.000000,4.000000,,,,0.000000,4.000000,4.000000,4.000000,4.000000,4.000000,4.000000,4.000000,4.000000,4.000000,4.000000,4.000000,4.000000,4.000000,4.000000,100.000000
1602006014.367369,97.000000,0.000000,4157.436035,4134.358887,4151.794922,4135.384766,4121.025879,4120.000000,4133.333496,4135.384766,4128.717773,4136.922852,4129.743652,4152.820313,4123.077148,4131.794922,751.000000,4.000000,,,,0.000000,4.000000,4.000000,4.000000,4.000000,4.000000,4.000000,4.000000,4.000000,4.000000,4.000000,4.000000,4.000000,4.000000,4.000000,100.000000
1602006014.375252,98.000000,0.000000,4174.358887,4144.615234,4158.974121,4138.461426,4131.282227,4120.000000,4138.974121,4128.717773,4123.077148,4137.948730,4137.436035,4162.051270,4130.256348,4151.794922,872.000000,4.000000,,,,0.000000,4.000000,4.000000,4.000000,4.000000,4.000000,4.000000,4.000000,4.000000,4.000000,4.000000,4.000000,4.000000,4.000000,4.000000,100.000000
1602006014.383134,99.000000,0.000000,4177.436035,4153.846191,4161.538574,4144.615234,4135.897461,4124.102539,4135.897461,4124.615234,4122.051270,4135.897461,4139.487305,4164.102539,4135.897461,4165.128418,837.000000,4.000000,,,,0.000000,4.000000,4.000000,4.000000,4.000000,4.000000,4.000000,4.000000,4.000000,4.000000,4.000000,4.000000,4.000000,4.000000,4.000000,100.000000
1602006014.391017,100.000000,0.000000,4172.307617,4146.666504,4156.922852,4144.102539,4127.692383,4126.153809,4127.692383,4124.102539,4116.922852,4129.743652,4124.615234,4155.384766,4126.153809,4153.846191,770.000000,4.000000,,,,0.000000,4.000000,4.000000,4.000000,4.000000,4.000000,4.000000,4.000000,4.000000,4.000000,4.000000,4.000000,4.000000,4.000000,4.000000,100.000000
1602006014.398900,101.000000,0.000000,4168.205078,4143.589844,4150.256348,4140.512695,4127.692383,4123.589844,4129.743652,4123.589844,4111.794922,4132.307617,4110.769043,4146.666504,4112.820313,4137.436035,751.000000,4.000000,,,,0.000000,4.000000,4.000000,4.000000,4.000000,4.000000,4.000000,4.000000,4.000000,4.000000,4.000000,4.000000,4.000000,4.000000,4.000000,100.000000
1602006014.406682,102.000000,0.000000,4168.205078,4151.794922,4150.256348,4146.666504,4136.410156,4125.128418,4137.436035,4126.666504,4117.436035,4136.410156,4119.487305,4146.666504,4114.358887,4136.410156,872.000000,4.000000,,,,0.000000,4.000000,4.000000,4.000000,4.000000,4.000000,4.000000,4.000000,4.000000,4.000000,4.000000,4.000000,4.000000,4.000000,4.000000,100.000000
1602006014.414564,103.000000,0.000000,4171.282227,4156.922852,4154.871582,4155.897461,4137.948730,4129.230957,4138.461426,4136.410156,4132.307617,4136.922852,4133.333496,4151.794922,4123.077148,4143.077148,837.000000,4.000000,,,,0.000000,4.000000,4.000000,4.000000,4.000000,4.000000,4.000000,4.000000,4.000000,4.000000,4.000000,4.000000,4.000000,4.000000,4.000000,100.000000
1602006014.422446,104.000000,0.000000,4165.128418,4154.358887,4154.871582,4154.871582,4136.410156,4124.615234,4136.410156,4141.538574,4136.922852,4137.436035,4129.230957,4152.307617,4122.563965,4142.563965,770.000000,4.000000,,,,0.000000,4.000000,4.000000,4.000000,4.000000,4.000000,4.000000,4.000000,4.000000,4.000000,4.000000,4.000000,4.000000,4.000000,4.000000,100.000000
1602006014.430328,105.000000,0.000000,4151.794922,4151.282227,4150.769043,4148.205078,4138.461426,4123.589844,4136.410156,4136.922852,4128.717773,4127.692383,4124.615234,4150.256348,4120.000000,4136.410156,751.000000,4.000000,,,,0.000000,4.000000,4.000000,4.000000,4.000000,4.000000,4.000000,4.000000,4.000000,4.000000,4.000000,4.000000,4.000000,4.000000,4.000000,100.000000
1602006014.438210,106.000000,0.000000,4153.333496,4144.615234,4145.128418,4143.589844,4139.487305,4134.871582,4135.897461,4129.743652,4124.615234,4123.589844,4131.794922,4151.282227,4123.077148,4137.948730,872.000000,4.000000,,,,0.000000,4.000000,4.000000,4.000000,4.000000,4.000000,4.000000,4.000000,4.000000,4.000000,4.000000,4.000000,4.000000,4.000000,4.000000,100.000000
1602006014.446092,107.000000,0.000000,4160.000000,4138.974121,4139.487305,4138.974121,4137.436035,4137.948730,4133.333496,4124.615234,4126.153809,4135.384766,4133.333496,4151.282227,4123.589844,4142.563965,837.000000,4.000000,,,,0.000000,4.000000,4.000000,4.000000,4.000000,4.000000,4.000000,4.000000,4.000000,4.000000,4.000000,4.000000,4.000000,4.000000,4.000000,100.000000
1602006014.454073,108.000000,0.000000,4149.230957,4138.974121,4135.897461,4133.846191,4133.333496,4126.666504,4129.230957,4121.025879,4123.589844,4141.025879,4127.692383,4142.051270,4122.051270,4131.282227,770.000000,4.000000,,,,0.000000,4.000000,4.000000,4.000000,4.000000,4.000000,4.000000,4.000000,4.000000,4.000000,4.000000,4.000000,4.000000,4.000000,4.000000,100.000000
1602006014.461955,109.000000,0.000000,4137.436035,4134.358887,4135.897461,4134.358887,4125.641113,4122.051270,4126.666504,4120.512695,4119.487305,4140.512695,4124.615234,4136.922852,4119.487305,4126.666504,751.000000,4.000000,,,,0.000000,4.000000,4.000000,4.000000,4.000000,4.000000,4.000000,4.000000,4.000000,4.000000,4.000000,4.000000,4.000000,4.000000,4.000000,100.000000
1602006014.469937,110.000000,0.000000,4143.077148,4126.666504,4138.461426,4135.384766,4121.538574,4122.051270,4124.615234,4124.102539,4120.512695,4143.077148,4120.512695,4144.615234,4112.820313,4131.282227,872.000000,4.000000,,,,0.000000,4.000000,4.000000,4.000000,4.000000,4.000000,4.000000,4.000000,4.000000,4.000000,4.000000,4.000000,4.000000,4.000000,4.000000,100.000000
1602006014.477819,111.000000,0.000000,4147.692383,4129.743652,4138.461426,4134.871582,4128.205078,4122.563965,4123.077148,4127.692383,4121.025879,4131.794922,4118.974121,4152.307617,4116.410156,4126.153809,837.000000,4.000000,,,,0.000000,4.000000,4.000000,4.000000,4.000000,4.000000,4.000000,4.000000,4.000000,4.000000,4.000000,4.000000,4.000000,4.000000,4.000000,100.000000
1602006014.485702,112.000000,0.000000,4142.051270,4141.538574,4134.871582,4138.974121,4135.384766,4128.717773,4123.589844,4127.692383,4120.512695,4111.282227,4127.179688,4150.256348,4123.589844,4128.717773,770.000000,4.000000,,,,0.000000,4.000000,4.000000,4.000000,4.000000,4.000000,4.000000,4.000000,4.000000,4.000000,4.000000,4.000000,4.000000,4.000000,4.000000,100.000000
1602006014.493584,113.000000,0.000000,4134.358887,4140.000000,4126.666504,4138.461426,4132.820313,4129.230957,4123.077148,4125.128418,4123.077148,4117.436035,4128.717773,4141.025879,4115.384766,4137.436035,751.000000,4.000000,,,,0.000000,4.000000,4.000000,4.000000,4.000000,4.000000,4.000000,4.000000,4.000000,4.000000,4.000000,4.000000,4.000000,4.000000,4.000000,100.000000
1602006014.501466,114.000000,0.000000,4128.717773,4125.641113,4121.025879,4127.692383,4126.153809,4120.000000,4120.000000,4122.563965,4123.589844,4142.051270,4122.563965,4131.282227,4109.230957,4130.769043,872.000000,4.000000,,,,0.000000,4.000000,4.000000,4.000000,4.000000,4.000000,4.000000,4.000000,4.000000,4.000000,4.000000,4.000000,4.000000,4.000000,4.000000,100.000000
1602006014.509349,115.000000,0.000000,4129.230957,4121.025879,4117.948730,4122.563965,4124.615234,4121.025879,4120.000000,4121.538574,4123.077148,4145.641113,4125.128418,4129.743652,4117.948730,4122.563965,837.000000,4.000000,,,,0.000000,4.000000,4.000000,4.000000,4.000000,4.000000,4.000000,4.000000,4.000000,4.000000,4.000000,4.000000,4.000000,4.000000,4.000000,100.000000
1602006014.517231,116.000000,0.000000,4134.871582,4126.666504,4119.487305,4125.641113,4126.153809,4130.769043,4125.128418,4122.051270,4124.615234,4136.922852,4129.743652,4137.948730,4124.102539,4129.230957,770.000000,4.000000,,,,0.000000,4.000000,4.000000,4.000000,4.000000,4.000000,4.000000,4.000000,4.000000,4.000000,4.000000,4.000000,4.000000,4.000000,4.000000,100.000000
1602006014.525013,117.000000,0.000000,4134.871582,4125.641113,4123.077148,4125.128418,4127.692383,4130.769043,4125.641113,4121.538574,4124.615234,4148.717773,4124.615234,4142.563965,4123.589844,4128.205078,751.000000,4.000000,,,,0.000000,4.000000,4.000000,4.000000,4.000000,4.000000,4.000000,4.000000,4.000000,4.000000,4.000000,4.000000,4.000000,4.000000,4.000000,100.000000
1602006014.532895,118.000000,0.000000,4133.333496,4119.487305,4123.077148,4121.538574,4127.692383,4124.102539,4123.077148,4121.025879,4118.461426,4152.820313,4118.461426,4135.384766,4120.000000,4117.948730,872.000000,4.000000,,,,0.000000,4.000000,4.000000,4.000000,4.000000,4.000000,4.000000,4.000000,4.000000,4.000000,4.000000,4.000000,4.000000,4.000000,4.000000,100.000000
1602006014.540777,119.000000,0.000000,4136.922852,4122.051270,4125.641113,4123.589844,4126.666504,4118.461426,4122.051270,4122.051270,4115.384766,4125.641113,4120.512695,4128.717773,4114.358887,4123.077148,837.000000,4.000000,,,,0.000000,4.000000,4.000000,4.000000,4.000000,4.000000,4.000000,4.000000,4.000000,4.000000,4.000000,4.000000,4.000000,4.000000,4.000000,100.000000
1602006014.548659,120.000000,0.000000,4138.974121,4132.820313,4134.871582,4131.794922,4126.153809,4118.974121,4123.589844,4124.615234,4120.512695,4113.333496,4125.641113,4134.358887,4118.974121,4136.410156,770.000000,4.000000,,,,0.000000,4.000000,4.000000,4.000000,4.000000,4.000000,4.000000,4.000000,4.000000,4.000000,4.000000,4.000000,4.000000,4.000000,4.000000,100.000000
1602006014.556541,121.000000,0.000000,4148.205078,4139.487305,4143.077148,4138.461426,4126.153809,4122.563965,4124.615234,4126.666504,4125.641113,4128.717773,4128.717773,4140.512695,4128.717773,4136.922852,751.000000,4.000000,,,,0.000000,4.000000,4.000000,4.000000,4.000000,4.000000,4.000000,4.000000,4.000000,4.000000,4.000000,4.000000,4.000000,4.000000,4.000000,100.000000
1602006014.564322,122.000000,0.000000,4151.794922,4140.000000,4140.512695,4137.948730,4130.769043,4121.025879,4121.538574,4126.153809,4125.641113,4141.538574,4127.692383,4140.512695,4126.666504,4126.153809,872.000000,4.000000,,,,0.000000,4.000000,4.000000,4.000000,4.000000,4.000000,4.000000,4.000000,4.000000,4.000000,4.000000,4.000000,4.000000,4.000000,4.000000,100.000000
1602006014.572203,123.000000,0.000000,4141.538574,4138.461426,4131.282227,4135.384766,4137.948730,4122.563965,4120.000000,4123.589844,4118.974121,4141.538574,4124.102539,4138.974121,4121.538574,4132.307617,837.000000,4.000000,,,,0.000000,4.000000,4.000000,4.000000,4.000000,4.000000,4.000000,4.000000,4.000000,4.000000,4.000000,4.000000,4.000000,4.000000,4.000000,100.000000
1602006014.580085,124.000000,0.000000,4137.436035,4136.410156,4123.589844,4134.358887,4137.436035,4127.179688,4121.538574,4118.974121,4110.256348,4132.820313,4123.589844,4136.410156,4120.512695,4146.666504,770.000000,4.000000,,,,0.000000,4.000000,4.000000,4.000000,4.000000,4.000000,4.000000,4.000000,4.000000,4.000000,4.000000,4.000000,4.000000,4.000000,4.000000,100.000000
1602006014.587966,125.000000,0.000000,4134.871582,4129.743652,4117.948730,4128.717773,4128.717773,4125.641113,4121.025879,4111.282227,4104.102539,4118.461426,4121.025879,4125.128418,4112.820313,4130.769043,751.000000,4.000000,,,,0.000000,4.000000,4.000000,4.000000,4.000000,4.000000,4.000000,4.000000,4.000000,4.000000,4.000000,4.000000,4.000000,4.000000,4.000000,100.000000
1602006014.595749,126.000000,0.000000,4122.051270,4122.563965,4113.846191,4123.589844,4122.051270,4123.077148,4120.000000,4105.128418,4104.615234,4113.333496,4108.717773,4115.897461,4103.077148,4111.282227,872.000000,4.000000,,,,0.000000,4.000000,4.000000,4.000000,4.000000,4.000000,4.000000,4.000000,4.000000,4.000000,4.000000,4.000000,4.000000,4.000000,4.000000,100.000000
1602006014.603632,127.000000,0.000000,4115.897461,4121.025879,4113.846191,4123.077148,4122.563965,4118.461426,4121.025879,4106.153809,4107.692383,4129.230957,4101.538574,4118.974121,4100.512695,4115.384766,837.000000,4.000000,,,,0.000000,4.000000,4.000000,4.000000,4.000000,4.000000,4.000000,4.000000,4.000000,4.000000,4.000000,4.000000,4.000000,4.000000,4.000000,100.000000
1602006014.611516,128.000000,0.000000,4121.025879,4122.563965,4119.487305,4122.051270,4122.051270,4108.717773,4123.077148,4115.384766,4108.205078,4143.077148,4111.794922,4123.077148,4102.563965,4122.051270,770.000000,4.000000,,,,0.000000,4.000000,4.000000,4.000000,4.000000,4.000000,4.000000,4.000000,4.000000,4.000000,4.000000,4.000000,4.000000,4.000000,4.000000,100.000000
1602006014.619399,0.000000,0.000000,4121.025879,4127.692383,4128.205078,4124.102539,4117.436035,4108.205078,4124.102539,4123.077148,4110.769043,4126.666504,4120.512695,4124.102539,4110.256348,4124.102539,799.000000,4.000000,,,,0.000000,4.000000,4.000000,4.000000,4.000000,4.000000,4.000000,4.000000,4.000000,4.000000,4.000000,4.000000,4.000000,4.000000,4.000000,100.000000
1602006014.627282,1.000000,0.000000,4126.153809,4136.410156,4135.897461,4132.820313,4123.077148,4121.025879,4123.589844,4125.641113,4120.512695,4116.410156,4123.589844,4132.307617,4117.948730,4132.820313,798.000000,4.000000,,,,0.000000,4.000000,4.000000,4.000000,4.000000,4.000000,4.000000,4.000000,4.000000,4.000000,4.000000,4.000000,4.000000,4.000000,4.000000,100.000000
1602006014.635165,2.000000,0.000000,4145.128418,4145.128418,4143.589844,4141.025879,4137.436035,4126.666504,4122.051270,4130.256348,4129.230957,4137.436035,4132.820313,4149.743652,4123.077148,4146.666504,851.000000,4.000000,,,,0.000000,4.000000,4.000000,4.000000,4.000000,4.000000,4.000000,4.000000,4.000000,4.000000,4.000000,4.000000,4.000000,4.000000,4.000000,100.000000
1602006014.643048,3.000000,0.000000,4156.922852,4145.128418,4147.179688,4140.000000,4141.538574,4122.051270,4120.512695,4138.974121,4129.230957,4149.743652,4142.051270,4157.436035,4131.282227,4154.358887,870.000000,4.000000,,,,0.000000,4.000000,4.000000,4.000000,4.000000,4.000000,4.000000,4.000000,4.000000,4.000000,4.000000,4.000000,4.000000,4.000000,4.000000,100.000000
1602006014.650931,4.000000,0.000000,4155.897461,4141.538574,4146.153809,4136.922852,4135.384766,4121.538574,4119.487305,4137.948730,4119.487305,4136.410156,4141.538574,4152.307617,4135.897461,4161.025879,809.000000,4.000000,,,,0.000000,4.000000,4.000000,4.000000,4.000000,4.000000,4.000000,4.000000,4.000000,4.000000,4.000000,4.000000,4.000000,4.000000,4.000000,100.000000
1602006014.658814,5.000000,0.000000,4154.358887,4140.000000,4143.589844,4137.436035,4130.769043,4125.641113,4118.974121,4126.666504,4109.230957,4133.846191,4136.922852,4145.641113,4127.179688,4157.436035,829.000000,4.000000,,,,0.000000,4.000000,4.000000,4.000000,4.000000,4.000000,4.000000,4.000000,4.000000,4.000000,4.000000,4.000000,4.000000,4.000000,4.000000,100.000000
1602006014.666697,6.000000,0.000000,4152.307617,4133.333496,4140.000000,4133.846191,4126.666504,4129.230957,4123.589844,4121.025879,4103.077148,4144.102539,4128.205078,4140.512695,4116.410156,4148.205078,775.000000,4.000000,,,,0.000000,4.000000,4.000000,4.000000,4.000000,4.000000,4.000000,4.000000,4.000000,4.000000,4.000000,4.000000,4.000000,4.000000,4.000000,100.000000
1602006014.674480,7.000000,0.000000,4140.512695,4124.615234,4138.461426,4126.153809,4122.051270,4128.717773,4135.384766,4122.051270,4096.410156,4141.538574,4120.000000,4137.436035,4115.384766,4143.077148,685.000000,4.000000,,,,0.000000,4.000000,4.000000,4.000000,4.000000,4.000000,4.000000,4.000000,4.000000,4.000000,4.000000,4.000000,4.000000,4.000000,4.000000,100.000000
1602006014.682362,8.000000,0.000000,4127.692383,4121.538574,4134.358887,4123.077148,4122.051270,4125.641113,4140.512695,4117.436035,4094.871826,4134.871582,4122.563965,4137.436035,4114.358887,4132.820313,785.000000,4.000000,,,,0.000000,4.000000,4.000000,4.000000,4.000000,4.000000,4.000000,4.000000,4.000000,4.000000,4.000000,4.000000,4.000000,4.000000,4.000000,100.000000
1602006014.690245,9.000000,0.000000,4124.615234,4114.871582,4124.615234,4120.000000,4120.512695,4125.128418,4133.333496,4107.692383,4101.025879,4115.384766,4117.948730,4132.820313,4106.666504,4124.102539,842.000000,4.000000,,,,0.000000,4.000000,4.000000,4.000000,4.000000,4.000000,4.000000,4.000000,4.000000,4.000000,4.000000,4.000000,4.000000,4.000000,4.000000,100.000000
1602006014.698128,10.000000,0.000000,4122.563965,4105.641113,4118.974121,4116.922852,4118.461426,4124.615234,4124.615234,4102.051270,4100.512695,4090.256348,4106.153809,4123.589844,4104.102539,4118.974121,851.000000,4.000000,,,,0.000000,4.000000,4.000000,4.000000,4.000000,4.000000,4.000000,4.000000,4.000000,4.000000,4.000000,4.000000,4.000000,4.000000,4.000000,100.000000
1602006014.706010,11.000000,0.000000,4120.512695,4111.794922,4122.051270,4121.025879,4125.641113,4123.589844,4116.922852,4105.128418,4100.512695,4107.692383,4110.769043,4122.563965,4110.256348,4113.846191,837.000000,4.000000,,,,0.000000,4.000000,4.000000,4.000000,4.000000,4.000000,4.000000,4.000000,4.000000,4.000000,4.000000,4.000000,4.000000,4.000000,4.000000,100.000000
1602006014.713893,12.000000,0.000000,4120.512695,4120.512695,4121.538574,4123.589844,4128.717773,4124.102539,4106.666504,4111.794922,4114.358887,4147.692383,4122.051270,4125.128418,4108.717773,4114.358887,770.000000,4.000000,,,,0.000000,4.000000,4.000000,4.000000,4.000000,4.000000,4.000000,4.000000,4.000000,4.000000,4.000000,4.000000,4.000000,4.000000,4.000000,100.000000
1602006014.721775,13.000000,0.000000,4122.563965,4118.974121,4118.974121,4125.128418,4123.077148,4126.153809,4105.641113,4124.102539,4127.692383,4158.974121,4125.641113,4129.743652,4106.153809,4127.179688,751.000000,4.000000,,,,0.000000,4.000000,4.000000,4.000000,4.000000,4.000000,4.000000,4.000000,4.000000,4.000000,4.000000,4.000000,4.000000,4.000000,4.000000,100.000000
1602006014.729758,14.000000,0.000000,4128.205078,4124.102539,4126.666504,4132.307617,4125.128418,4127.179688,4118.974121,4138.974121,4128.717773,4157.436035,4127.179688,4142.563965,4118.461426,4142.563965,851.000000,4.000000,,,,0.000000,4.000000,4.000000,4.000000,4.000000,4.000000,4.000000,4.000000,4.000000,4.000000,4.000000,4.000000,4.000000,4.000000,4.000000,100.000000
1602006014.737641,15.000000,0.000000,4126.666504,4123.077148,4129.743652,4131.794922,4129.743652,4124.615234,4124.615234,4140.512695,4126.153809,4157.436035,4129.230957,4147.692383,4123.589844,4138.974121,837.000000,4.000000,,,,0.000000,4.000000,4.000000,4.000000,4.000000,4.000000,4.000000,4.000000,4.000000,4.000000,4.000000,4.000000,4.000000,4.000000,4.000000,100.000000
1602006014.745524,16.000000,0.000000,4122.051270,4111.282227,4123.589844,4120.512695,4124.615234,4120.512695,4122.051270,4134.871582,4123.589844,4141.025879,4128.717773,4137.948730,4114.358887,4123.589844,0.000000,4.000000,,,,0.000000,4.000000,4.000000,4.000000,4.000000,4.000000,4.000000,4.000000,4.000000,4.000000,4.000000,4.000000,4.000000,4.000000,4.000000,100.000000
1602006014.753407,17.000000,0.000000,4125.128418,4113.846191,4123.589844,4117.948730,4120.512695,4119.487305,4129.743652,4133.846191,4115.897461,4118.461426,4128.717773,4138.974121,4117.436035,4124.102539,0.000000,4.000000,,,,0.000000,4.000000,4.000000,4.000000,4.000000,4.000000,4.000000,4.000000,4.000000,4.000000,4.000000,4.000000,4.000000,4.000000,4.000000,100.000000
1602006014.761289,18.000000,0.000000,4128.205078,4124.102539,4133.846191,4124.102539,4123.589844,4124.102539,4135.897461,4131.794922,4109.743652,4109.743652,4125.128418,4153.846191,4124.102539,4137.948730,0.000000,4.000000,,,,0.000000,4.000000,4.000000,4.000000,4.000000,4.000000,4.000000,4.000000,4.000000,4.000000,4.000000,4.000000,4.000000,4.000000,4.000000,100.000000
1602006014.769172,19.000000,0.000000,4129.743652,4121.538574,4135.384766,4123.077148,4123.589844,4125.128418,4128.717773,4123.077148,4102.563965,4112.307617,4117.436035,4154.358887,4119.487305,4140.000000,0.000000,4.000000,,,,0.000000,4.000000,4.000000,4.000000,4.000000,4.000000,4.000000,4.000000,4.000000,4.000000,4.000000,4.000000,4.000000,4.000000,4.000000,100.000000
1602006014.777055,20.000000,0.000000,4134.358887,4120.000000,4126.153809,4121.025879,4121.025879,4118.461426,4122.051270,4117.948730,4098.461426,4120.000000,4117.948730,4140.512695,4118.461426,4133.333496,0.000000,4.000000,,,,0.000000,4.000000,4.000000,4.000000,4.000000,4.000000,4.000000,4.000000,4.000000,4.000000,4.000000,4.000000,4.000000,4.000000,4.000000,100.000000
1602006014.784938,21.000000,0.000000,4137.948730,4125.128418,4121.538574,4125.641113,4121.538574,4120.000000,4124.102539,4122.563965,4106.153809,4130.769043,4124.102539,4137.948730,4122.051270,4135.897461,0.000000,4.000000,,,,0.000000,4.000000,4.000000,4.000000,4.000000,4.000000,4.000000,4.000000,4.000000,4.000000,4.000000,4.000000,4.000000,4.000000,4.000000,100.000000
1602006014.792821,22.000000,0.000000,4137.436035,4125.128418,4124.615234,4128.717773,4126.153809,4131.794922,4124.615234,4126.153809,4119.487305,4138.974121,4126.666504,4145.641113,4122.051270,4141.025879,0.000000,4.000000,,,,0.000000,4.000000,4.000000,4.000000,4.000000,4.000000,4.000000,4.000000,4.000000,4.000000,4.000000,4.000000,4.000000,4.000000,4.000000,100.000000
1602006014.800602,23.000000,0.000000,4137.436035,4125.641113,4125.128418,4127.179688,4126.153809,4129.230957,4121.025879,4122.051270,4122.563965,4132.820313,4125.641113,4143.589844,4122.563965,4135.897461,0.000000,4.000000,,,,0.000000,4.000000,4.000000,4.000000,4.000000,4.000000,4.000000,4.000000,4.000000,4.000000,4.000000,4.000000,4.000000,4.000000,4.000000,100.000000
1602006014.808484,24.000000,0.000000,4135.384766,4125.128418,4121.538574,4124.102539,4120.512695,4120.000000,4121.025879,4121.538574,4120.000000,4128.205078,4124.102539,4139.487305,4120.000000,4124.102539,0.000000,4.000000,,,,0.000000,4.000000,4.000000,4.000000,4.000000,4.000000,4.000000,4.000000,4.000000,4.000000,4.000000,4.000000,4.000000,4.000000,4.000000,100.000000
1602006014.816366,25.000000,0.000000,4133.846191,4123.589844,4121.538574,4123.077148,4127.179688,4129.230957,4126.666504,4133.333496,4128.717773,4147.179688,4129.230957,4150.256348,4118.461426,4117.948730,0.000000,4.000000,,,,0.000000,4.000000,4.000000,4.000000,4.000000,4.000000,4.000000,4.000000,4.000000,4.000000,4.000000,4.000000,4.000000,4.000000,4.000000,100.000000
1602006014.824247,26.000000,0.000000,4135.897461,4130.256348,4124.615234,4127.692383,4141.025879,4136.410156,4132.307617,4141.025879,4139.487305,4156.410156,4135.384766,4163.077148,4123.077148,4128.205078,0.000000,4.000000,,,,0.000000,4.000000,4.000000,4.000000,4.000000,4.000000,4.000000,4.000000,4.000000,4.000000,4.000000,4.000000,4.000000,4.000000,4.000000,100.000000
1602006014.832029,27.000000,0.000000,4138.461426,4138.974121,4129.743652,4137.948730,4142.051270,4129.230957,4129.230957,4140.000000,4137.948730,4140.000000,4132.307617,4161.538574,4127.179688,4144.102539,0.000000,4.000000,,,,0.000000,4.000000,4.000000,4.000000,4.000000,4.000000,4.000000,4.000000,4.000000,4.000000,4.000000,4.000000,4.000000,4.000000,4.000000,100.000000
1602006014.839910,28.000000,0.000000,4138.461426,4140.512695,4129.743652,4142.051270,4137.436035,4126.666504,4123.589844,4136.922852,4125.128418,4137.948730,4123.077148,4155.384766,4125.641113,4144.102539,0.000000,4.000000,,,,0.000000,4.000000,4.000000,4.000000,4.000000,4.000000,4.000000,4.000000,4.000000,4.000000,4.000000,4.000000,4.000000,4.000000,4.000000,100.000000
1602006014.847693,29.000000,0.000000,4136.922852,4135.384766,4124.102539,4134.358887,4137.436035,4124.615234,4122.563965,4127.692383,4112.307617,4135.897461,4124.615234,4157.948730,4128.717773,4134.358887,0.000000,4.000000,,,,0.000000,4.000000,4.000000,4.000000,4.000000,4.000000,4.000000,4.000000,4.000000,4.000000,4.000000,4.000000,4.000000,4.000000,4.000000,100.000000
1602006014.855576,30.000000,0.000000,4136.410156,4128.717773,4122.051270,4126.666504,4133.333496,4115.384766,4121.025879,4118.461426,4105.128418,4118.974121,4136.922852,4163.589844,4135.897461,4135.384766,0.000000,4.000000,,,,0.000000,4.000000,4.000000,4.000000,4.000000,4.000000,4.000000,4.000000,4.000000,4.000000,4.000000,4.000000,4.000000,4.000000,4.000000,100.000000
1602006014.863458,31.000000,0.000000,4131.794922,4123.077148,4122.051270,4124.615234,4123.589844,4110.769043,4119.487305,4117.948730,4097.436035,4122.563965,4137.436035,4159.487305,4130.769043,4142.051270,0.000000,4.000000,,,,0.000000,4.000000,4.000000,4.000000,4.000000,4.000000,4.000000,4.000000,4.000000,4.000000,4.000000,4.000000,4.000000,4.000000,4.000000,100.000000
1602006014.871341,32.000000,0.000000,4132.307617,4122.563965,4122.563965,4124.102539,4121.538574,4108.717773,4121.025879,4120.000000,4097.948730,4143.077148,4129.230957,4152.820313,4123.077148,4135.897461,0.000000,4.000000,,,,0.000000,4.000000,4.000000,4.000000,4.000000,4.000000,4.000000,4.000000,4.000000,4.000000,4.000000,4.000000,4.000000,4.000000,4.000000,100.000000
1602006014.879224,33.000000,0.000000,4135.897461,4123.589844,4121.025879,4124.102539,4121.538574,4110.769043,4123.589844,4118.974121,4115.897461,4148.205078,4131.282227,4151.282227,4128.205078,4126.153809,0.000000,4.000000,,,,0.000000,4.000000,4.000000,4.000000,4.000000,4.000000,4.000000,4.000000,4.000000,4.000000,4.000000,4.000000,4.000000,4.000000,4.000000,100.000000
1602006014.887107,34.000000,0.000000,4130.256348,4124.615234,4119.487305,4125.128418,4120.000000,4119.487305,4123.077148,4119.487305,4133.333496,4138.974121,4139.487305,4149.743652,4137.948730,4125.128418,0.000000,4.000000,,,,0.000000,4.000000,4.000000,4.000000,4.000000,4.000000,4.000000,4.000000,4.000000,4.000000,4.000000,4.000000,4.000000,4.000000,4.000000,100.000000
1602006014.894990,35.000000,0.000000,4127.692383,4127.179688,4123.077148,4127.692383,4123.589844,4117.948730,4123.077148,4127.179688,4144.615234,4135.384766,4140.512695,4149.743652,4138.974121,4123.589844,0.000000,4.000000,,,,0.000000,4.000000,4.000000,4.000000,4.000000,4.000000,4.000000,4.000000,4.000000,4.000000,4.000000,4.000000,4.000000,4.000000,4.000000,100.000000
1602006014.902873,36.000000,0.000000,4134.358887,4130.256348,4125.128418,4130.769043,4125.128418,4105.641113,4122.563965,4136.922852,4153.333496,4142.051270,4137.436035,4153.333496,4135.897461,4125.128418,0.000000,4.000000,,,,0.000000,4.000000,4.000000,4.000000,4.000000,4.000000,4.000000,4.000000,4.000000,4.000000,4.000000,4.000000,4.000000,4.000000,4.000000,100.000000
1602006014.910755,37.000000,0.000000,4138.974121,4134.358887,4123.077148,4135.897461,4125.128418,4106.666504,4116.410156,4134.871582,4149.230957,4147.179688,4128.717773,4155.384766,4136.922852,4137.436035,0.000000,4.000000,,,,0.000000,4.000000,4.000000,4.000000,4.000000,4.000000,4.000000,4.000000,4.000000,4.000000,4.000000,4.000000,4.000000,4.000000,4.000000,100.000000
1602006014.918538,38.000000,0.000000,4136.922852,4139.487305,4126.153809,4138.974121,4133.846191,4120.512695,4111.282227,4125.128418,4135.384766,4135.384766,4118.974121,4154.871582,4137.436035,4145.128418,0.000000,4.000000,,,,0.000000,4.000000,4.000000,4.000000,4.000000,4.000000,4.000000,4.000000,4.000000,4.000000,4.000000,4.000000,4.000000,4.000000,4.000000,100.000000
1602006014.926421,39.000000,0.000000,4127.692383,4135.384766,4125.128418,4132.307617,4137.436035,4120.512695,4108.717773,4115.384766,4123.589844,4122.051270,4122.563965,4156.922852,4128.205078,4130.256348,0.000000,4.000000,,,,0.000000,4.000000,4.000000,4.000000,4.000000,4.000000,4.000000,4.000000,4.000000,4.000000,4.000000,4.000000,4.000000,4.000000,4.000000,100.000000
1602006014.934303,40.000000,0.000000,4116.922852,4124.615234,4113.846191,4123.077148,4128.205078,4110.769043,4109.230957,4109.230957,4112.307617,4124.102539,4123.589844,4154.358887,4116.922852,4115.384766,0.000000,4.000000,,,,0.000000,4.000000,4.000000,4.000000,4.000000,4.000000,4.000000,4.000000,4.000000,4.000000,4.000000,4.000000,4.000000,4.000000,4.000000,100.000000
1602006014.942186,41.000000,0.000000,4124.102539,4122.563965,4114.358887,4122.563965,4124.615234,4112.820313,4116.922852,4113.846191,4112.820313,4127.692383,4123.589844,4152.307617,4123.589844,4127.692383,0.000000,4.000000,,,,0.000000,4.000000,4.000000,4.000000,4.000000,4.000000,4.000000,4.000000,4.000000,4.000000,4.000000,4.000000,4.000000,4.000000,4.000000,100.000000
1602006014.950069,42.000000,0.000000,4138.974121,4131.794922,4123.589844,4126.153809,4128.717773,4123.077148,4125.641113,4123.077148,4129.743652,4129.230957,4136.922852,4163.077148,4137.948730,4143.589844,0.000000,4.000000,,,,0.000000,4.000000,4.000000,4.000000,4.000000,4.000000,4.000000,4.000000,4.000000,4.000000,4.000000,4.000000,4.000000,4.000000,4.000000,100.000000
1602006014.957951,43.000000,0.000000,4140.512695,4136.410156,4121.025879,4125.641113,4128.205078,4124.615234,4127.179688,4122.051270,4136.922852,4132.820313,4142.051270,4170.769043,4141.538574,4140.512695,0.000000,4.000000,,,,0.000000,4.000000,4.000000,4.000000,4.000000,4.000000,4.000000,4.000000,4.000000,4.000000,4.000000,4.000000,4.000000,4.000000,4.000000,100.000000
1602006014.965834,44.000000,0.000000,4140.000000,4135.897461,4123.077148,4128.205078,4125.641113,4122.051270,4127.179688,4121.025879,4137.436035,4140.512695,4139.487305,4171.794922,4141.025879,4143.589844,0.000000,4.000000,,,,0.000000,4.000000,4.000000,4.000000,4.000000,4.000000,4.000000,4.000000,4.000000,4.000000,4.000000,4.000000,4.000000,4.000000,4.000000,100.000000
1602006014.973716,45.000000,0.000000,4145.128418,4140.000000,4137.436035,4138.974121,4123.077148,4127.179688,4129.743652,4127.179688,4138.974121,4142.051270,4142.563965,4174.871582,4145.641113,4156.922852,0.000000,4.000000,,,,0.000000,4.000000,4.000000,4.000000,4.000000,4.000000,4.000000,4.000000,4.000000,4.000000,4.000000,4.000000,4.000000,4.000000,4.000000,100.000000
1602006014.981699,46.000000,0.000000,4143.589844,4136.410156,4140.512695,4136.922852,4122.563965,4121.538574,4124.102539,4121.538574,4126.153809,4127.692383,4134.871582,4172.820313,4142.051270,4152.307617,0.000000,4.000000,,,,0.000000,4.000000,4.000000,4.000000,4.000000,4.000000,4.000000,4.000000,4.000000,4.000000,4.000000,4.000000,4.000000,4.000000,4.000000,100.000000
1602006014.989582,47.000000,0.000000,4138.461426,4129.230957,4134.871582,4129.743652,4122.563965,4106.153809,4111.794922,4112.307617,4113.333496,4117.948730,4128.717773,4164.615234,4134.358887,4143.077148,0.000000,4.000000,,,,0.000000,4.000000,4.000000,4.000000,4.000000,4.000000,4.000000,4.000000,4.000000,4.000000,4.000000,4.000000,4.000000,4.000000,4.000000,100.000000
1602006014.997465,48.000000,0.000000,4142.563965,4135.384766,4136.922852,4133.333496,4121.538574,4108.717773,4108.717773,4114.358887,4118.461426,4125.641113,4144.615234,4167.179688,4143.077148,4152.307617,0.000000,4.000000,,,,0.000000,4.000000,4.000000,4.000000,4.000000,4.000000,4.000000,4.000000,4.000000,4.000000,4.000000,4.000000,4.000000,4.000000,4.000000,100.000000
1602006015.005348,49.000000,0.000000,4138.974121,4136.410156,4137.436035,4133.333496,4128.717773,4124.615234,4118.461426,4121.538574,4120.512695,4124.615234,4144.615234,4170.769043,4146.153809,4149.230957,0.000000,4.000000,,,,0.000000,4.000000,4.000000,4.000000,4.000000,4.000000,4.000000,4.000000,4.000000,4.000000,4.000000,4.000000,4.000000,4.000000,4.000000,100.000000
1602006015.013230,50.000000,0.000000,4124.102539,4120.512695,4129.230957,4124.102539,4136.922852,4130.769043,4124.615234,4126.666504,4117.436035,4119.487305,4124.102539,4163.077148,4126.666504,4125.128418,0.000000,4.000000,,,,0.000000,4.000000,4.000000,4.000000,4.000000,4.000000,4.000000,4.000000,4.000000,4.000000,4.000000,4.000000,4.000000,4.000000,4.000000,100.000000
1602006015.021113,51.000000,0.000000,4120.000000,4109.743652,4121.025879,4117.436035,4130.256348,4122.051270,4122.563965,4125.128418,4125.641113,4129.743652,4126.153809,4155.384766,4121.025879,4121.025879,0.000000,4.000000,,,,0.000000,4.000000,4.000000,4.000000,4.000000,4.000000,4.000000,4.000000,4.000000,4.000000,4.000000,4.000000,4.000000,4.000000,4.000000,100.000000
1602006015.028996,52.000000,0.000000,4120.512695,4109.230957,4119.487305,4114.358887,4120.512695,4121.025879,4129.230957,4127.179688,4135.384766,4138.974121,4142.051270,4153.846191,4145.641113,4140.512695,0.000000,4.000000,,,,0.000000,4.000000,4.000000,4.000000,4.000000,4.000000,4.000000,4.000000,4.000000,4.000000,4.000000,4.000000,4.000000,4.000000,4.000000,100.000000
1602006015.036879,53.000000,0.000000,4112.820313,4109.230957,4125.128418,4111.282227,4125.128418,4133.333496,4143.077148,4135.897461,4144.615234,4145.128418,4144.615234,4160.512695,4167.179688,4153.846191,0.000000,4.000000,,,,0.000000,4.000000,4.000000,4.000000,4.000000,4.000000,4.000000,4.000000,4.000000,4.000000,4.000000,4.000000,4.000000,4.000000,4.000000,100.000000
1602006015.044762,54.000000,0.000000,4108.717773,4103.589844,4129.230957,4110.256348,4127.179688,4135.897461,4142.563965,4138.974121,4153.333496,4154.871582,4150.769043,4169.743652,4178.461426,4162.563965,0.000000,4.000000,,,,0.000000,4.000000,4.000000,4.000000,4.000000,4.000000,4.000000,4.000000,4.000000,4.000000,4.000000,4.000000,4.000000,4.000000,4.000000,100.000000
1602006015.052545,55.000000,0.000000,4108.717773,4091.281982,4127.179688,4106.153809,4118.461426,4121.025879,4134.871582,4134.871582,4153.333496,4155.384766,4167.179688,4171.794922,4191.282227,4173.846191,0.000000,4.000000,,,,0.000000,4.000000,4.000000,4.000000,4.000000,4.000000,4.000000,4.000000,4.000000,4.000000,4.000000,4.000000,4.000000,4.000000,4.000000,100.000000
1602006015.060427,56.000000,0.000000,4100.512695,4087.179443,4124.615234,4104.615234,4118.974121,4117.948730,4137.948730,4138.974121,4154.358887,4150.769043,4168.205078,4171.794922,4194.871582,4177.436035,0.000000,4.000000,,,,0.000000,4.000000,4.000000,4.000000,4.000000,4.000000,4.000000,4.000000,4.000000,4.000000,4.000000,4.000000,4.000000,4.000000,4.000000,100.000000
1602006015.068310,57.000000,0.000000,4091.281982,4089.743652,4121.538574,4108.205078,4125.641113,4130.769043,4136.410156,4139.487305,4152.820313,4155.384766,4149.743652,4171.282227,4187.692383,4166.153809,0.000000,4.000000,,,,0.000000,4.000000,4.000000,4.000000,4.000000,4.000000,4.000000,4.000000,4.000000,4.000000,4.000000,4.000000,4.000000,4.000000,4.000000,100.000000
1602006015.076193,58.000000,0.000000,4089.743652,4084.615479,4117.948730,4107.179688,4126.153809,4135.384766,4124.615234,4125.641113,4140.000000,4156.410156,4142.051270,4160.512695,4182.563965,4157.436035,0.000000,4.000000,,,,0.000000,4.000000,4.000000,4.000000,4.000000,4.000000,4.000000,4.000000,4.000000,4.000000,4.000000,4.000000,4.000000,4.000000,4.000000,100.000000
1602006015.084076,59.000000,0.000000,4090.256348,4081.538574,4116.922852,4106.666504,4127.692383,4137.436035,4128.205078,4124.102539,4141.538574,4155.897461,4153.846191,4155.897461,4184.615234,4165.128418,0.000000,4.000000,,,,0.000000,4.000000,4.000000,4.000000,4.000000,4.000000,4.000000,4.000000,4.000000,4.000000,4.000000,4.000000,4.000000,4.000000,4.000000,100.000000
1602006015.091959,60.000000,0.000000,4092.307617,4082.564209,4121.538574,4107.692383,4125.128418,4138.461426,4137.948730,4131.794922,4154.358887,4156.410156,4160.512695,4167.692383,4187.692383,4176.922852,0.000000,4.000000,,,,0.000000,4.000000,4.000000,4.000000,4.000000,4.000000,4.000000,4.000000,4.000000,4.000000,4.000000,4.000000,4.000000,4.000000,4.000000,100.000000
1602006015.099842,61.000000,0.000000,4091.281982,4080.000000,4124.102539,4106.153809,4113.846191,4127.179688,4132.820313,4125.641113,4145.641113,4142.563965,4153.846191,4167.692383,4185.641113,4169.230957,0.000000,4.000000,,,,0.000000,4.000000,4.000000,4.000000,4.000000,4.000000,4.000000,4.000000,4.000000,4.000000,4.000000,4.000000,4.000000,4.000000,4.000000,100.000000
1602006015.107724,62.000000,0.000000,4087.692383,4080.512939,4120.512695,4104.615234,4113.846191,4117.948730,4129.230957,4117.948730,4131.282227,4141.538574,4150.256348,4157.436035,4181.538574,4153.333496,0.000000,4.000000,,,,0.000000,4.000000,4.000000,4.000000,4.000000,4.000000,4.000000,4.000000,4.000000,4.000000,4.000000,4.000000,4.000000,4.000000,4.000000,100.000000
1602006015.115707,63.000000,0.000000,4083.076904,4078.461426,4111.282227,4102.563965,4125.128418,4124.615234,4137.948730,4126.153809,4133.333496,4158.974121,4148.205078,4155.384766,4180.512695,4153.333496,0.000000,4.000000,,,,0.000000,4.000000,4.000000,4.000000,4.000000,4.000000,4.000000,4.000000,4.000000,4.000000,4.000000,4.000000,4.000000,4.000000,4.000000,100.000000
1602006015.123591,64.000000,0.000000,4081.025635,4079.487061,4103.077148,4103.077148,4126.666504,4130.256348,4141.025879,4136.410156,4134.358887,4150.256348,4149.743652,4151.282227,4182.563965,4157.948730,799.000000,4.000000,,,,0.000000,4.000000,4.000000,4.000000,4.000000,4.000000,4.000000,4.000000,4.000000,4.000000,4.000000,4.000000,4.000000,4.000000,4.000000,100.000000
1602006015.131474,65.000000,0.000000,4084.102539,4089.743652,4105.641113,4108.717773,4122.563965,4124.102539,4136.922852,4140.000000,4132.820313,4129.743652,4151.794922,4140.000000,4183.077148,4155.897461,798.000000,4.000000,,,,0.000000,4.000000,4.000000,4.000000,4.000000,4.000000,4.000000,4.000000,4.000000,4.000000,4.000000,4.000000,4.000000,4.000000,4.000000,100.000000
1602006015.139357,66.000000,0.000000,4092.820557,4094.358887,4116.410156,4113.846191,4122.051270,4127.179688,4135.897461,4144.102539,4137.436035,4144.102539,4141.538574,4136.922852,4175.897461,4152.820313,851.000000,4.000000,,,,0.000000,4.000000,4.000000,4.000000,4.000000,4.000000,4.000000,4.000000,4.000000,4.000000,4.000000,4.000000,4.000000,4.000000,4.000000,100.000000
1602006015.147240,67.000000,0.000000,4104.615234,4091.281982,4123.077148,4111.794922,4123.589844,4136.410156,4138.461426,4144.615234,4141.025879,4155.897461,4135.897461,4146.153809,4171.282227,4154.871582,870.000000,4.000000,,,,0.000000,4.000000,4.000000,4.000000,4.000000,4.000000,4.000000,4.000000,4.000000,4.000000,4.000000,4.000000,4.000000,4.000000,4.000000,100.000000
1602006015.155123,68.000000,0.000000,4105.128418,4091.281982,4121.025879,4108.717773,4123.589844,4131.794922,4137.948730,4140.000000,4143.077148,4142.051270,4149.743652,4153.846191,4176.922852,4155.897461,809.000000,4.000000,,,,0.000000,4.000000,4.000000,4.000000,4.000000,4.000000,4.000000,4.000000,4.000000,4.000000,4.000000,4.000000,4.000000,4.000000,4.000000,100.000000
1602006015.163006,69.000000,0.000000,4089.743652,4091.281982,4116.922852,4106.666504,4117.948730,4120.000000,4130.256348,4138.974121,4150.769043,4151.794922,4159.487305,4154.358887,4177.436035,4150.256348,829.000000,4.000000,,,,0.000000,4.000000,4.000000,4.000000,4.000000,4.000000,4.000000,4.000000,4.000000,4.000000,4.000000,4.000000,4.000000,4.000000,4.000000,100.000000
1602006015.170889,70.000000,0.000000,4085.641113,4089.230713,4112.820313,4105.641113,4115.897461,4127.179688,4129.230957,4141.025879,4156.410156,4163.077148,4148.205078,4146.153809,4172.307617,4147.692383,797.000000,4.000000,,,,0.000000,4.000000,4.000000,4.000000,4.000000,4.000000,4.000000,4.000000,4.000000,4.000000,4.000000,4.000000,4.000000,4.000000,4.000000,100.000000
1602006015.178772,71.000000,0.000000,4092.820557,4091.281982,4107.179688,4107.179688,4123.589844,4139.487305,4137.948730,4140.000000,4148.205078,4144.615234,4136.410156,4135.897461,4169.230957,4150.769043,685.000000,4.000000,,,,0.000000,4.000000,4.000000,4.000000,4.000000,4.000000,4.000000,4.000000,4.000000,4.000000,4.000000,4.000000,4.000000,4.000000,4.000000,100.000000
1602006015.186655,72.000000,0.000000,4092.307617,4094.871826,4113.333496,4110.256348,4126.153809,4133.333496,4137.948730,4140.000000,4144.615234,4141.538574,4142.051270,4141.025879,4168.717773,4156.410156,785.000000,4.000000,,,,0.000000,4.000000,4.000000,4.000000,4.000000,4.000000,4.000000,4.000000,4.000000,4.000000,4.000000,4.000000,4.000000,4.000000,4.000000,100.000000
1602006015.194438,73.000000,0.000000,4094.358887,4095.897461,4128.717773,4109.230957,4122.051270,4123.589844,4135.897461,4143.589844,4155.384766,4154.358887,4155.897461,4156.922852,4172.307617,4162.051270,842.000000,4.000000,,,,0.000000,4.000000,4.000000,4.000000,4.000000,4.000000,4.000000,4.000000,4.000000,4.000000,4.000000,4.000000,4.000000,4.000000,4.000000,100.000000
1602006015.202320,74.000000,0.000000,4102.051270,4092.820557,4131.282227,4107.179688,4116.922852,4121.025879,4136.922852,4142.051270,4151.794922,4140.000000,4149.230957,4161.025879,4173.333496,4162.563965,862.000000,4.000000,,,,0.000000,4.000000,4.000000,4.000000,4.000000,4.000000,4.000000,4.000000,4.000000,4.000000,4.000000,4.000000,4.000000,4.000000,4.000000,100.000000
1602006015.210202,75.000000,0.000000,4098.461426,4091.794922,4124.615234,4108.717773,4118.974121,4121.538574,4135.384766,4138.974121,4137.436035,4127.179688,4132.820313,4154.358887,4168.717773,4158.461426,837.000000,4.000000,,,,0.000000,4.000000,4.000000,4.000000,4.000000,4.000000,4.000000,4.000000,4.000000,4.000000,4.000000,4.000000,4.000000,4.000000,4.000000,100.000000
1602006015.218085,76.000000,0.000000,4090.256348,4093.846191,4116.410156,4106.153809,4130.256348,4125.128418,4135.384766,4138.461426,4140.000000,4146.666504,4143.589844,4155.897461,4167.692383,4154.871582,770.000000,4.000000,,,,0.000000,4.000000,4.000000,4.000000,4.000000,4.000000,4.000000,4.000000,4.000000,4.000000,4.000000,4.000000,4.000000,4.000000,4.000000,100.000000
1602006015.225967,77.000000,0.000000,4090.256348,4090.769287,4109.230957,4103.589844,4133.333496,4129.743652,4138.461426,4133.333496,4137.436035,4155.384766,4154.871582,4157.436035,4170.256348,4143.589844,751.000000,4.000000,,,,0.000000,4.000000,4.000000,4.000000,4.000000,4.000000,4.000000,4.000000,4.000000,4.000000,4.000000,4.000000,4.000000,4.000000,4.000000,100.000000
1602006015.233849,78.000000,0.000000,4096.922852,4094.358887,4111.794922,4112.820313,4126.666504,4127.692383,4135.384766,4126.666504,4121.538574,4143.589844,4140.512695,4150.769043,4167.692383,4139.487305,862.000000,4.000000,,,,0.000000,4.000000,4.000000,4.000000,4.000000,4.000000,4.000000,4.000000,4.000000,4.000000,4.000000,4.000000,4.000000,4.000000,4.000000,100.000000
1602006015.241732,79.000000,0.000000,4106.666504,4106.153809,4123.077148,4118.974121,4127.692383,4121.538574,4134.358887,4133.333496,4128.205078,4149.743652,4138.974121,4154.358887,4168.717773,4159.487305,837.000000,4.000000,,,,0.000000,4.000000,4.000000,4.000000,4.000000,4.000000,4.000000,4.000000,4.000000,4.000000,4.000000,4.000000,4.000000,4.000000,4.000000,100.000000
1602006015.249514,80.000000,0.000000,4110.256348,4103.589844,4129.230957,4114.358887,4129.743652,4124.615234,4140.512695,4140.000000,4143.077148,4157.948730,4154.358887,4167.179688,4173.846191,4171.794922,770.000000,4.000000,,,,0.000000,4.000000,4.000000,4.000000,4.000000,4.000000,4.000000,4.000000,4.000000,4.000000,4.000000,4.000000,4.000000,4.000000,4.000000,100.000000
1602006015.257397,81.000000,0.000000,4108.205078,4095.897461,4132.307617,4117.436035,4126.153809,4130.769043,4142.563965,4137.948730,4140.512695,4145.128418,4156.410156,4172.307617,4177.436035,4168.205078,751.000000,4.000000,,,,0.000000,4.000000,4.000000,4.000000,4.000000,4.000000,4.000000,4.000000,4.000000,4.000000,4.000000,4.000000,4.000000,4.000000,4.000000,100.000000
1602006015.265279,82.000000,0.000000,4105.641113,4102.563965,4131.794922,4118.974121,4125.128418,4128.205078,4138.461426,4146.666504,4137.948730,4140.512695,4153.846191,4167.179688,4176.410156,4167.179688,862.000000,4.000000,,,,0.000000,4.000000,4.000000,4.000000,4.000000,4.000000,4.000000,4.000000,4.000000,4.000000,4.000000,4.000000,4.000000,4.000000,4.000000,100.000000
1602006015.273161,83.000000,0.000000,4102.563965,4104.102539,4116.922852,4107.692383,4124.615234,4126.153809,4141.538574,4155.384766,4142.051270,4156.922852,4148.717773,4153.846191,4163.077148,4161.538574,837.000000,4.000000,,,,0.000000,4.000000,4.000000,4.000000,4.000000,4.000000,4.000000,4.000000,4.000000,4.000000,4.000000,4.000000,4.000000,4.000000,4.000000,100.000000
1602006015.281044,84.000000,0.000000,4102.563965,4095.384521,4109.230957,4109.743652,4125.128418,4135.384766,4152.307617,4153.846191,4141.538574,4160.512695,4135.897461,4139.487305,4155.384766,4153.846191,770.000000,4.000000,,,,0.000000,4.000000,4.000000,4.000000,4.000000,4.000000,4.000000,4.000000,4.000000,4.000000,4.000000,4.000000,4.000000,4.000000,4.000000,100.000000
1602006015.288926,85.000000,0.000000,4107.692383,4097.948730,4120.512695,4123.077148,4129.743652,4140.000000,4155.384766,4155.384766,4140.000000,4147.179688,4141.538574,4136.922852,4164.102539,4155.897461,751.000000,4.000000,,,,0.000000,4.000000,4.000000,4.000000,4.000000,4.000000,4.000000,4.000000,4.000000,4.000000,4.000000,4.000000,4.000000,4.000000,4.000000,100.000000
1602006015.296808,86.000000,0.000000,4107.179688,4100.000000,4124.615234,4114.871582,4124.615234,4128.205078,4143.589844,4151.282227,4133.846191,4145.641113,4155.384766,4145.641113,4164.102539,4154.871582,862.000000,4.000000,,,,0.000000,4.000000,4.000000,4.000000,4.000000,4.000000,4.000000,4.000000,4.000000,4.000000,4.000000,4.000000,4.000000,4.000000,4.000000,100.000000
1602006015.304790,87.000000,0.000000,4108.205078,4095.384521,4120.512695,4104.615234,4115.897461,4125.641113,4136.922852,4137.948730,4122.051270,4148.205078,4147.692383,4151.282227,4155.384766,4150.256348,837.000000,4.000000,,,,0.000000,4.000000,4.000000,4.000000,4.000000,4.000000,4.000000,4.000000,4.000000,4.000000,4.000000,4.000000,4.000000,4.000000,4.000000,100.000000
1602006015.312672,88.000000,0.000000,4114.358887,4100.512695,4125.128418,4118.461426,4121.538574,4136.410156,4142.051270,4133.846191,4122.051270,4141.538574,4135.897461,4150.256348,4157.436035,4155.384766,770.000000,4.000000,,,,0.000000,4.000000,4.000000,4.000000,4.000000,4.000000,4.000000,4.000000,4.000000,4.000000,4.000000,4.000000,4.000000,4.000000,4.000000,100.000000
1602006015.320555,89.000000,0.000000,4110.769043,4108.717773,4127.692383,4123.077148,4128.717773,4132.820313,4138.461426,4130.769043,4123.077148,4130.769043,4140.000000,4141.538574,4161.025879,4154.358887,751.000000,4.000000,,,,0.000000,4.000000,4.000000,4.000000,4.000000,4.000000,4.000000,4.000000,4.000000,4.000000,4.000000,4.000000,4.000000,4.000000,4.000000,100.000000
1602006015.328437,90.000000,0.000000,4103.077148,4103.589844,4121.025879,4110.769043,4127.179688,4118.461426,4129.230957,4121.025879,4118.461426,4122.051270,4140.000000,4132.820313,4152.820313,4140.000000,862.000000,4.000000,,,,0.000000,4.000000,4.000000,4.000000,4.000000,4.000000,4.000000,4.000000,4.000000,4.000000,4.000000,4.000000,4.000000,4.000000,4.000000,100.000000
1602006015.336319,91.000000,0.000000,4110.256348,4104.102539,4123.077148,4114.358887,4131.794922,4125.128418,4131.794922,4125.128418,4125.641113,4125.641113,4139.487305,4142.563965,4150.769043,4143.589844,837.000000,4.000000,,,,0.000000,4.000000,4.000000,4.000000,4.000000,4.000000,4.000000,4.000000,4.000000,4.000000,4.000000,4.000000,4.000000,4.000000,4.000000,100.000000
1602006015.344201,92.000000,0.000000,4122.051270,4115.897461,4129.230957,4124.615234,4141.538574,4136.410156,4137.948730,4137.436035,4139.487305,4144.102539,4147.692383,4154.871582,4162.563965,4165.641113,770.000000,4.000000,,,,0.000000,4.000000,4.000000,4.000000,4.000000,4.000000,4.000000,4.000000,4.000000,4.000000,4.000000,4.000000,4.000000,4.000000,4.000000,100.000000
1602006015.351984,93.000000,0.000000,4123.589844,4114.871582,4126.666504,4122.051270,4135.897461,4126.666504,4134.871582,4137.948730,4148.205078,4161.025879,4148.205078,4151.282227,4170.256348,4173.846191,751.000000,4.000000,,,,0.000000,4.000000,4.000000,4.000000,4.000000,4.000000,4.000000,4.000000,4.000000,4.000000,4.000000,4.000000,4.000000,4.000000,4.000000,100.000000
1602006015.359866,94.000000,0.000000,4126.666504,4107.692383,4128.205078,4121.025879,4124.615234,4118.974121,4133.846191,4137.948730,4150.769043,4164.102539,4142.051270,4147.179688,4166.666504,4161.538574,862.000000,4.000000,,,,0.000000,4.000000,4.000000,4.000000,4.000000,4.000000,4.000000,4.000000,4.000000,4.000000,4.000000,4.000000,4.000000,4.000000,4.000000,100.000000
1602006015.367749,95.000000,0.000000,4131.282227,4109.230957,4137.436035,4123.589844,4124.615234,4124.102539,4136.410156,4147.692383,4146.153809,4162.563965,4143.077148,4150.769043,4159.487305,4154.358887,837.000000,4.000000,,,,0.000000,4.000000,4.000000,4.000000,4.000000,4.000000,4.000000,4.000000,4.000000,4.000000,4.000000,4.000000,4.000000,4.000000,4.000000,100.000000
1602006015.375631,96.000000,0.000000,4125.128418,4109.743652,4137.436035,4120.000000,4127.179688,4127.692383,4136.410156,4153.846191,4138.974121,4153.333496,4147.179688,4153.333496,4155.897461,4157.436035,770.000000,4.000000,,,,0.000000,4.000000,4.000000,4.000000,4.000000,4.000000,4.000000,4.000000,4.000000,4.000000,4.000000,4.000000,4.000000,4.000000,4.000000,100.000000
1602006015.383514,97.000000,0.000000,4121.025879,4104.615234,4132.820313,4120.512695,4131.282227,4132.820313,4145.641113,4151.794922,4137.948730,4150.256348,4152.307617,4151.794922,4160.512695,4163.589844,751.000000,4.000000,,,,0.000000,4.000000,4.000000,4.000000,4.000000,4.000000,4.000000,4.000000,4.000000,4.000000,4.000000,4.000000,4.000000,4.000000,4.000000,100.000000
1602006015.391397,98.000000,0.000000,4124.615234,4106.153809,4136.410156,4122.051270,4137.436035,4143.589844,4157.436035,4153.846191,4143.077148,4161.025879,4159.487305,4154.358887,4168.717773,4169.743652,862.000000,4.000000,,,,0.000000,4.000000,4.000000,4.000000,4.000000,4.000000,4.000000,4.000000,4.000000,4.000000,4.000000,4.000000,4.000000,4.000000,4.000000,100.000000
1602006015.399279,99.000000,0.000000,4117.436035,4107.179688,4134.358887,4112.820313,4133.333496,4145.128418,4149.230957,4153.846191,4145.641113,4155.384766,4157.948730,4156.410156,4165.128418,4166.153809,837.000000,4.000000,,,,0.000000,4.000000,4.000000,4.000000,4.000000,4.000000,4.000000,4.000000,4.000000,4.000000,4.000000,4.000000,4.000000,4.000000,4.000000,100.000000
1602006015.407162,100.000000,0.000000,4105.128418,4094.871826,4122.563965,4104.102539,4128.717773,4139.487305,4136.922852,4145.641113,4141.025879,4138.461426,4150.769043,4151.282227,4152.307617,4154.871582,770.000000,4.000000,,,,0.000000,4.000000,4.000000,4.000000,4.000000,4.000000,4.000000,4.000000,4.000000,4.000000,4.000000,4.000000,4.000000,4.000000,4.000000,100.000000
1602006015.414944,101.000000,0.000000,4105.641113,4090.769287,4121.025879,4104.615234,4134.871582,4139.487305,4139.487305,4142.563965,4143.077148,4144.615234,4153.333496,4153.333496,4151.794922,4151.282227,751.000000,4.000000,,,,0.000000,4.000000,4.000000,4.000000,4.000000,4.000000,4.000000,4.000000,4.000000,4.000000,4.000000,4.000000,4.000000,4.000000,4.000000,100.000000
1602006015.422827,102.000000,0.000000,4110.769043,4101.538574,4132.307617,4106.153809,4138.974121,4140.512695,4145.128418,4143.589844,4149.743652,4164.615234,4152.307617,4162.563965,4158.461426,4153.333496,862.000000,4.000000,,,,0.000000,4.000000,4.000000,4.000000,4.000000,4.000000,4.000000,4.000000,4.000000,4.000000,4.000000,4.000000,4.000000,4.000000,4.000000,100.000000
1602006015.430709,103.000000,0.000000,4109.743652,4107.692383,4137.948730,4109.743652,4136.410156,4138.461426,4142.563965,4140.000000,4144.102539,4169.743652,4146.666504,4163.589844,4159.487305,4152.307617,837.000000,4.000000,,,,0.000000,4.000000,4.000000,4.000000,4.000000,4.000000,4.000000,4.000000,4.000000,4.000000,4.000000,4.000000,4.000000,4.000000,4.000000,100.000000
1602006015.438591,104.000000,0.000000,4111.794922,4105.641113,4136.922852,4117.436035,4137.948730,4135.897461,4142.563965,4145.128418,4143.589844,4163.077148,4148.717773,4162.051270,4157.948730,4149.743652,770.000000,4.000000,,,,0.000000,4.000000,4.000000,4.000000,4.000000,4.000000,4.000000,4.000000,4.000000,4.000000,4.000000,4.000000,4.000000,4.000000,4.000000,100.000000
1602006015.446474,105.000000,0.000000,4120.000000,4109.230957,4139.487305,4122.563965,4137.436035,4134.358887,4143.589844,4151.282227,4152.307617,4162.051270,4156.922852,4165.128418,4157.948730,4149.230957,751.000000,4.000000,,,,0.000000,4.000000,4.000000,4.000000,4.000000,4.000000,4.000000,4.000000,4.000000,4.000000,4.000000,4.000000,4.000000,4.000000,4.000000,100.000000
1602006015.454356,106.000000,0.000000,4124.102539,4113.846191,4140.512695,4122.563965,4135.384766,4129.230957,4137.436035,4143.077148,4144.102539,4155.384766,4154.358887,4160.512695,4157.436035,4154.871582,862.000000,4.000000,,,,0.000000,4.000000,4.000000,4.000000,4.000000,4.000000,4.000000,4.000000,4.000000,4.000000,4.000000,4.000000,4.000000,4.000000,4.000000,100.000000
1602006015.462238,107.000000,0.000000,4121.025879,4112.820313,4137.948730,4121.025879,4134.358887,4124.615234,4132.820313,4136.410156,4131.282227,4143.589844,4143.077148,4152.820313,4150.256348,4154.871582,837.000000,4.000000,,,,0.000000,4.000000,4.000000,4.000000,4.000000,4.000000,4.000000,4.000000,4.000000,4.000000,4.000000,4.000000,4.000000,4.000000,4.000000,100.000000
1602006015.470020,108.000000,0.000000,4118.974121,4115.384766,4137.436035,4124.102539,4132.820313,4128.717773,4134.358887,4142.051270,4137.436035,4140.512695,4138.974121,4154.871582,4140.000000,4143.077148,770.000000,4.000000,,,,0.000000,4.000000,4.000000,4.000000,4.000000,4.000000,4.000000,4.000000,4.000000,4.000000,4.000000,4.000000,4.000000,4.000000,4.000000,100.000000
1602006015.477902,109.000000,0.000000,4122.051270,4121.025879,4136.922852,4126.666504,4134.871582,4135.897461,4132.820313,4141.538574,4138.461426,4140.512695,4141.025879,4155.897461,4137.436035,4133.333496,751.000000,4.000000,,,,0.000000,4.000000,4.000000,4.000000,4.000000,4.000000,4.000000,4.000000,4.000000,4.000000,4.000000,4.000000,4.000000,4.000000,4.000000,100.000000
1602006015.485784,110.000000,0.000000,4124.615234,4123.589844,4135.897461,4126.153809,4141.025879,4138.461426,4128.717773,4135.384766,4126.153809,4143.077148,4141.538574,4150.769043,4140.000000,4135.384766,862.000000,4.000000,,,,0.000000,4.000000,4.000000,4.000000,4.000000,4.000000,4.000000,4.000000,4.000000,4.000000,4.000000,4.000000,4.000000,4.000000,4.000000,100.000000
1602006015.493666,111.000000,0.000000,4122.563965,4122.051270,4135.897461,4123.077148,4138.974121,4132.307617,4130.256348,4132.820313,4118.461426,4151.794922,4136.922852,4152.307617,4138.974121,4137.436035,837.000000,4.000000,,,,0.000000,4.000000,4.000000,4.000000,4.000000,4.000000,4.000000,4.000000,4.000000,4.000000,4.000000,4.000000,4.000000,4.000000,4.000000,100.000000
1602006015.501548,112.000000,0.000000,4118.461426,4116.922852,4136.410156,4119.487305,4127.179688,4123.589844,4136.922852,4133.333496,4123.077148,4154.871582,4135.384766,4154.358887,4140.000000,4136.922852,770.000000,4.000000,,,,0.000000,4.000000,4.000000,4.000000,4.000000,4.000000,4.000000,4.000000,4.000000,4.000000,4.000000,4.000000,4.000000,4.000000,4.000000,100.000000
1602006015.509531,113.000000,0.000000,4120.512695,4114.358887,4138.461426,4120.000000,4126.153809,4122.051270,4141.538574,4137.948730,4133.846191,4151.794922,4147.692383,4155.384766,4149.230957,4142.051270,751.000000,4.000000,,,,0.000000,4.000000,4.000000,4.000000,4.000000,4.000000,4.000000,4.000000,4.000000,4.000000,4.000000,4.000000,4.000000,4.000000,4.000000,100.000000
1602006015.517414,114.000000,0.000000,4123.077148,4112.820313,4140.512695,4121.025879,4136.410156,4126.666504,4142.051270,4142.051270,4136.922852,4148.205078,4157.436035,4156.410156,4157.436035,4143.589844,862.000000,4.000000,,,,0.000000,4.000000,4.000000,4.000000,4.000000,4.000000,4.000000,4.000000,4.000000,4.000000,4.000000,4.000000,4.000000,4.000000,4.000000,100.000000
1602006015.525297,115.000000,0.000000,4116.410156,4108.717773,4137.436035,4112.820313,4138.974121,4123.589844,4138.974121,4135.384766,4125.128418,4137.948730,4147.692383,4151.282227,4150.769043,4134.871582,837.000000,4.000000,,,,0.000000,4.000000,4.000000,4.000000,4.000000,4.000000,4.000000,4.000000,4.000000,4.000000,4.000000,4.000000,4.000000,4.000000,4.000000,100.000000
1602006015.533180,116.000000,0.000000,4109.743652,4104.102539,4132.307617,4107.692383,4137.436035,4121.538574,4135.384766,4128.717773,4118.974121,4136.922852,4135.384766,4143.077148,4138.974121,4125.128418,770.000000,4.000000,,,,0.000000,4.000000,4.000000,4.000000,4.000000,4.000000,4.000000,4.000000,4.000000,4.000000,4.000000,4.000000,4.000000,4.000000,4.000000,100.000000
1602006015.541063,117.000000,0.000000,4108.205078,4105.641113,4129.230957,4114.871582,4140.512695,4129.743652,4134.871582,4134.871582,4133.846191,4153.846191,4138.461426,4144.615234,4138.461426,4126.153809,751.000000,4.000000,,,,0.000000,4.000000,4.000000,4.000000,4.000000,4.000000,4.000000,4.000000,4.000000,4.000000,4.000000,4.000000,4.000000,4.000000,4.000000,100.000000
1602006015.548946,118.000000,0.000000,4101.538574,4104.615234,4125.641113,4114.871582,4138.461426,4133.846191,4136.410156,4140.512695,4136.922852,4156.922852,4142.051270,4151.282227,4142.051270,4137.948730,862.000000,4.000000,,,,0.000000,4.000000,4.000000,4.000000,4.000000,4.000000,4.000000,4.000000,4.000000,4.000000,4.000000,4.000000,4.000000,4.000000,4.000000,100.000000
1602006015.556829,119.000000,0.000000,4097.436035,4100.512695,4123.589844,4107.179688,4134.871582,4131.794922,4134.358887,4135.897461,4126.153809,4149.743652,4134.871582,4145.128418,4138.974121,4137.948730,837.000000,4.000000,,,,0.000000,4.000000,4.000000,4.000000,4.000000,4.000000,4.000000,4.000000,4.000000,4.000000,4.000000,4.000000,4.000000,4.000000,4.000000,100.000000
1602006015.564712,120.000000,0.000000,4104.615234,4102.563965,4129.743652,4114.358887,4134.871582,4133.333496,4132.820313,4133.846191,4128.717773,4153.846191,4133.333496,4136.410156,4135.897461,4122.051270,770.000000,4.000000,,,,0.000000,4.000000,4.000000,4.000000,4.000000,4.000000,4.000000,4.000000,4.000000,4.000000,4.000000,4.000000,4.000000,4.000000,4.000000,100.000000
1602006015.572595,121.000000,0.000000,4110.256348,4107.692383,4138.461426,4120.512695,4128.205078,4131.794922,4137.436035,4136.922852,4131.794922,4141.538574,4143.589844,4145.128418,4138.461426,4123.077148,751.000000,4.000000,,,,0.000000,4.000000,4.000000,4.000000,4.000000,4.000000,4.000000,4.000000,4.000000,4.000000,4.000000,4.000000,4.000000,4.000000,4.000000,100.000000
1602006015.580478,122.000000,0.000000,4109.743652,4105.641113,4137.948730,4110.769043,4122.051270,4123.077148,4140.000000,4138.974121,4121.025879,4117.948730,4149.743652,4157.436035,4138.461426,4138.461426,862.000000,4.000000,,,,0.000000,4.000000,4.000000,4.000000,4.000000,4.000000,4.000000,4.000000,4.000000,4.000000,4.000000,4.000000,4.000000,4.000000,4.000000,100.000000
1602006015.588261,123.000000,0.000000,4107.692383,4102.563965,4132.307617,4108.717773,4123.077148,4119.487305,4137.948730,4138.974121,4118.974121,4131.282227,4148.205078,4156.410156,4134.358887,4134.358887,837.000000,4.000000,,,,0.000000,4.000000,4.000000,4.000000,4.000000,4.000000,4.000000,4.000000,4.000000,4.000000,4.000000,4.000000,4.000000,4.000000,4.000000,100.000000
1602006015.596144,124.000000,0.000000,4104.615234,4103.077148,4135.897461,4117.948730,4123.589844,4121.025879,4136.922852,4140.000000,4131.794922,4168.205078,4149.230957,4154.871582,4142.563965,4126.666504,770.000000,4.000000,,,,0.000000,4.000000,4.000000,4.000000,4.000000,4.000000,4.000000,4.000000,4.000000,4.000000,4.000000,4.000000,4.000000,4.000000,4.000000,100.000000
1602006015.604027,125.000000,0.000000,4109.743652,4108.717773,4146.666504,4122.563965,4128.717773,4117.948730,4135.897461,4147.179688,4140.000000,4176.922852,4155.384766,4160.512695,4152.820313,4135.384766,751.000000,4.000000,,,,0.000000,4.000000,4.000000,4.000000,4.000000,4.000000,4.000000,4.000000,4.000000,4.000000,4.000000,4.000000,4.000000,4.000000,4.000000,100.000000
1602006015.611910,126.000000,0.000000,4121.538574,4117.948730,4150.256348,4125.641113,4141.538574,4121.025879,4136.922852,4153.333496,4144.102539,4166.153809,4155.897461,4162.563965,4147.692383,4145.128418,862.000000,4.000000,,,,0.000000,4.000000,4.000000,4.000000,4.000000,4.000000,4.000000,4.000000,4.000000,4.000000,4.000000,4.000000,4.000000,4.000000,4.000000,100.000000
1602006015.619793,127.000000,0.000000,4122.563965,4121.538574,4142.563965,4128.205078,4144.615234,4130.769043,4138.461426,4147.179688,4138.461426,4155.897461,4144.615234,4150.769043,4138.974121,4143.077148,837.000000,4.000000,,,,0.000000,4.000000,4.000000,4.000000,4.000000,4.000000,4.000000,4.000000,4.000000,4.000000,4.000000,4.000000,4.000000,4.000000,4.000000,100.000000
1602006015.627676,128.000000,0.000000,4113.333496,4112.820313,4132.820313,4124.102539,4136.922852,4137.948730,4136.410156,4135.897461,4122.051270,4125.128418,4136.410156,4141.025879,4133.333496,4131.794922,770.000000,4.000000,,,,0.000000,4.000000,4.000000,4.000000,4.000000,4.000000,4.000000,4.000000,4.000000,4.000000,4.000000,4.000000,4.000000,4.000000,4.000000,100.000000
1602006015.635558,0.000000,0.000000,4106.153809,4104.615234,4129.230957,4120.000000,4133.846191,4138.461426,4136.410156,4130.256348,4111.794922,4101.538574,4138.461426,4141.538574,4126.666504,4121.538574,799.000000,4.000000,,,,0.000000,4.000000,4.000000,4.000000,4.000000,4.000000,4.000000,4.000000,4.000000,4.000000,4.000000,4.000000,4.000000,4.000000,4.000000,100.000000
1602006015.643441,1.000000,0.000000,4107.179688,4108.717773,4130.256348,4121.538574,4135.384766,4137.948730,4139.487305,4127.692383,4108.717773,4124.615234,4135.384766,4142.051270,4123.589844,4123.077148,798.000000,4.000000,,,,0.000000,4.000000,4.000000,4.000000,4.000000,4.000000,4.000000,4.000000,4.000000,4.000000,4.000000,4.000000,4.000000,4.000000,4.000000,100.000000
1602006015.651324,2.000000,0.000000,4110.769043,4111.794922,4129.230957,4123.589844,4135.384766,4138.461426,4134.358887,4123.589844,4106.666504,4146.153809,4131.282227,4133.333496,4125.128418,4127.179688,851.000000,4.000000,,,,0.000000,4.000000,4.000000,4.000000,4.000000,4.000000,4.000000,4.000000,4.000000,4.000000,4.000000,4.000000,4.000000,4.000000,4.000000,100.000000
1602006015.659106,3.000000,0.000000,4103.077148,4107.179688,4117.436035,4117.948730,4134.358887,4127.179688,4125.128418,4122.051270,4104.102539,4130.256348,4135.384766,4125.641113,4122.563965,4112.820313,870.000000,4.000000,,,,0.000000,4.000000,4.000000,4.000000,4.000000,4.000000,4.000000,4.000000,4.000000,4.000000,4.000000,4.000000,4.000000,4.000000,4.000000,100.000000
1602006015.666988,4.000000,0.000000,4091.281982,4104.615234,4105.128418,4110.256348,4130.256348,4111.794922,4121.025879,4121.538574,4103.077148,4114.358887,4133.333496,4123.077148,4120.000000,4101.025879,809.000000,4.000000,,,,0.000000,4.000000,4.000000,4.000000,4.000000,4.000000,4.000000,4.000000,4.000000,4.000000,4.000000,4.000000,4.000000,4.000000,4.000000,100.000000
1602006015.674871,5.000000,0.000000,4094.871826,4106.666504,4111.282227,4113.333496,4125.641113,4112.820313,4123.589844,4124.102539,4109.230957,4127.692383,4129.230957,4126.666504,4121.025879,4111.794922,825.000000,4.000000,,,,0.000000,4.000000,4.000000,4.000000,4.000000,4.000000,4.000000,4.000000,4.000000,4.000000,4.000000,4.000000,4.000000,4.000000,4.000000,100.000000
1602006015.682753,6.000000,0.000000,4107.179688,4115.384766,4129.743652,4122.051270,4127.179688,4122.563965,4133.846191,4132.820313,4122.051270,4128.205078,4137.948730,4143.077148,4130.256348,4124.102539,778.000000,4.000000,,,,0.000000,4.000000,4.000000,4.000000,4.000000,4.000000,4.000000,4.000000,4.000000,4.000000,4.000000,4.000000,4.000000,4.000000,4.000000,100.000000
1602006015.690635,7.000000,0.000000,4115.384766,4121.538574,4141.538574,4124.102539,4126.153809,4120.000000,4136.922852,4136.922852,4124.102539,4099.487305,4142.051270,4155.384766,4139.487305,4122.563965,682.000000,4.000000,,,,0.000000,4.000000,4.000000,4.000000,4.000000,4.000000,4.000000,4.000000,4.000000,4.000000,4.000000,4.000000,4.000000,4.000000,4.000000,100.000000
1602006015.698517,8.000000,0.000000,4116.922852,4120.512695,4138.461426,4120.512695,4123.589844,4113.846191,4126.153809,4131.282227,4119.487305,4100.000000,4140.000000,4148.205078,4136.922852,4128.205078,785.000000,4.000000,,,,0.000000,4.000000,4.000000,4.000000,4.000000,4.000000,4.000000,4.000000,4.000000,4.000000,4.000000,4.000000,4.000000,4.000000,4.000000,100.000000
1602006015.706499,9.000000,0.000000,4111.282227,4113.846191,4127.179688,4116.922852,4129.743652,4120.000000,4120.512695,4125.641113,4123.077148,4135.897461,4144.102539,4138.974121,4135.384766,4140.000000,842.000000,4.000000,,,,0.000000,4.000000,4.000000,4.000000,4.000000,4.000000,4.000000,4.000000,4.000000,4.000000,4.000000,4.000000,4.000000,4.000000,4.000000,100.000000
1602006015.714382,10.000000,0.000000,4101.025879,4108.205078,4114.871582,4108.717773,4137.436035,4122.563965,4122.563965,4124.615234,4125.641113,4149.230957,4141.538574,4138.461426,4141.025879,4133.846191,868.000000,4.000000,,,,0.000000,4.000000,4.000000,4.000000,4.000000,4.000000,4.000000,4.000000,4.000000,4.000000,4.000000,4.000000,4.000000,4.000000,4.000000,100.000000
1602006015.722265,11.000000,0.000000,4098.461426,4106.153809,4109.743652,4107.179688,4137.436035,4119.487305,4122.563965,4122.051270,4122.563965,4138.974121,4134.871582,4142.051270,4142.563965,4121.025879,837.000000,4.000000,,,,0.000000,4.000000,4.000000,4.000000,4.000000,4.000000,4.000000,4.000000,4.000000,4.000000,4.000000,4.000000,4.000000,4.000000,4.000000,100.000000
1602006015.730147,12.000000,0.000000,4105.641113,4108.205078,4118.461426,4116.410156,4136.922852,4123.077148,4129.743652,4122.563965,4122.563965,4134.358887,4137.948730,4150.769043,4140.512695,4124.615234,770.000000,4.000000,,,,0.000000,4.000000,4.000000,4.000000,4.000000,4.000000,4.000000,4.000000,4.000000,4.000000,4.000000,4.000000,4.000000,4.000000,4.000000,100.000000
1602006015.738030,13.000000,0.000000,4106.153809,4112.307617,4131.794922,4121.538574,4137.948730,4126.666504,4139.487305,4126.666504,4122.563965,4126.666504,4138.974121,4157.436035,4141.025879,4132.307617,751.000000,4.000000,,,,0.000000,4.000000,4.000000,4.000000,4.000000,4.000000,4.000000,4.000000,4.000000,4.000000,4.000000,4.000000,4.000000,4.000000,4.000000,100.000000
1602006015.745912,14.000000,0.000000,4100.000000,4110.769043,4134.358887,4120.000000,4134.871582,4120.000000,4135.384766,4123.589844,4121.025879,4116.410156,4136.922852,4154.871582,4141.025879,4136.922852,868.000000,4.000000,,,,0.000000,4.000000,4.000000,4.000000,4.000000,4.000000,4.000000,4.000000,4.000000,4.000000,4.000000,4.000000,4.000000,4.000000,4.000000,100.000000
1602006015.753795,15.000000,0.000000,4097.436035,4113.333496,4128.205078,4122.051270,4134.358887,4117.436035,4133.333496,4123.077148,4120.512695,4118.974121,4138.461426,4154.871582,4142.051270,4138.461426,837.000000,4.000000,,,,0.000000,4.000000,4.000000,4.000000,4.000000,4.000000,4.000000,4.000000,4.000000,4.000000,4.000000,4.000000,4.000000,4.000000,4.000000,100.000000
1602006015.761678,16.000000,0.000000,4101.025879,4119.487305,4121.538574,4126.666504,4138.974121,4124.102539,4140.512695,4135.384766,4125.641113,4128.717773,4140.000000,4155.897461,4141.538574,4135.384766,0.000000,4.000000,,,,0.000000,4.000000,4.000000,4.000000,4.000000,4.000000,4.000000,4.000000,4.000000,4.000000,4.000000,4.000000,4.000000,4.000000,4.000000,100.000000
1602006015.769660,17.000000,0.000000,4087.692383,4112.820313,4107.179688,4120.512695,4132.307617,4117.948730,4134.871582,4141.538574,4132.820313,4134.358887,4139.487305,4139.487305,4138.461426,4125.641113,0.000000,4.000000,,,,0.000000,4.000000,4.000000,4.000000,4.000000,4.000000,4.000000,4.000000,4.000000,4.000000,4.000000,4.000000,4.000000,4.000000,4.000000,100.000000
1602006015.777543,18.000000,0.000000,4073.846191,4104.102539,4091.794922,4114.358887,4120.000000,4105.641113,4124.615234,4135.897461,4135.897461,4140.512695,4134.358887,4122.051270,4134.358887,4117.436035,0.000000,4.000000,,,,0.000000,4.000000,4.000000,4.000000,4.000000,4.000000,4.000000,4.000000,4.000000,4.000000,4.000000,4.000000,4.000000,4.000000,4.000000,100.000000
1602006015.785425,19.000000,0.000000,4091.281982,4113.846191,4102.051270,4121.025879,4125.641113,4111.794922,4131.282227,4138.974121,4137.948730,4147.692383,4131.794922,4130.256348,4134.358887,4123.589844,0.000000,4.000000,,,,0.000000,4.000000,4.000000,4.000000,4.000000,4.000000,4.000000,4.000000,4.000000,4.000000,4.000000,4.000000,4.000000,4.000000,4.000000,100.000000
1602006015.793308,20.000000,0.000000,4111.282227,4126.153809,4128.205078,4125.128418,4139.487305,4123.077148,4140.000000,4149.743652,4143.077148,4146.666504,4143.077148,4149.230957,4146.666504,4134.358887,0.000000,4.000000,,,,0.000000,4.000000,4.000000,4.000000,4.000000,4.000000,4.000000,4.000000,4.000000,4.000000,4.000000,4.000000,4.000000,4.000000,4.000000,100.000000
1602006015.801190,21.000000,0.000000,4110.769043,4122.563965,4141.538574,4123.589844,4139.487305,4123.077148,4139.487305,4146.666504,4142.051270,4147.179688,4154.358887,4155.897461,4158.461426,4137.948730,0.000000,4.000000,,,,0.000000,4.000000,4.000000,4.000000,4.000000,4.000000,4.000000,4.000000,4.000000,4.000000,4.000000,4.000000,4.000000,4.000000,4.000000,100.000000
1602006015.809073,22.000000,0.000000,4113.846191,4118.974121,4140.512695,4126.153809,4137.436035,4129.743652,4138.461426,4137.436035,4138.974121,4158.461426,4152.307617,4152.307617,4156.410156,4136.922852,0.000000,4.000000,,,,0.000000,4.000000,4.000000,4.000000,4.000000,4.000000,4.000000,4.000000,4.000000,4.000000,4.000000,4.000000,4.000000,4.000000,4.000000,100.000000
1602006015.816956,23.000000,0.000000,4121.025879,4120.512695,4131.794922,4127.692383,4137.948730,4141.538574,4139.487305,4136.922852,4143.077148,4157.948730,4150.769043,4150.769043,4153.333496,4131.794922,0.000000,4.000000,,,,0.000000,4.000000,4.000000,4.000000,4.000000,4.000000,4.000000,4.000000,4.000000,4.000000,4.000000,4.000000,4.000000,4.000000,4.000000,100.000000
1602006015.824838,24.000000,0.000000,4112.820313,4120.000000,4121.025879,4122.563965,4130.769043,4136.410156,4133.333496,4135.384766,4144.102539,4136.922852,4147.692383,4149.230957,4154.871582,4131.794922,0.000000,4.000000,,,,0.000000,4.000000,4.000000,4.000000,4.000000,4.000000,4.000000,4.000000,4.000000,4.000000,4.000000,4.000000,4.000000,4.000000,4.000000,100.000000
1602006015.832621,25.000000,0.000000,4107.179688,4120.000000,4117.948730,4123.077148,4132.307617,4125.641113,4129.230957,4127.179688,4138.461426,4132.820313,4137.948730,4144.102539,4148.205078,4135.384766,0.000000,4.000000,,,,0.000000,4.000000,4.000000,4.000000,4.000000,4.000000,4.000000,4.000000,4.000000,4.000000,4.000000,4.000000,4.000000,4.000000,4.000000,100.000000
1602006015.840504,26.000000,0.000000,4116.410156,4121.538574,4119.487305,4126.153809,4136.922852,4125.128418,4132.820313,4125.128418,4134.871582,4140.000000,4133.333496,4138.974121,4136.410156,4129.743652,0.000000,4.000000,,,,0.000000,4.000000,4.000000,4.000000,4.000000,4.000000,4.000000,4.000000,4.000000,4.000000,4.000000,4.000000,4.000000,4.000000,4.000000,100.000000
1602006015.848386,27.000000,0.000000,4122.051270,4122.051270,4122.051270,4126.153809,4129.230957,4119.487305,4133.846191,4131.282227,4134.871582,4130.769043,4131.282227,4145.128418,4136.410156,4126.666504,0.000000,4.000000,,,,0.000000,4.000000,4.000000,4.000000,4.000000,4.000000,4.000000,4.000000,4.000000,4.000000,4.000000,4.000000,4.000000,4.000000,4.000000,100.000000
1602006015.856269,28.000000,0.000000,4122.051270,4128.205078,4136.410156,4133.846191,4129.743652,4112.820313,4135.384766,4137.436035,4136.410156,4136.922852,4136.922852,4156.410156,4144.102539,4147.179688,0.000000,4.000000,,,,0.000000,4.000000,4.000000,4.000000,4.000000,4.000000,4.000000,4.000000,4.000000,4.000000,4.000000,4.000000,4.000000,4.000000,4.000000,100.000000
1602006015.864151,29.000000,0.000000,4121.025879,4133.333496,4155.897461,4142.051270,4134.871582,4123.589844,4147.179688,4146.153809,4141.025879,4159.487305,4149.743652,4160.512695,4145.641113,4157.436035,0.000000,4.000000,,,,0.000000,4.000000,4.000000,4.000000,4.000000,4.000000,4.000000,4.000000,4.000000,4.000000,4.000000,4.000000,4.000000,4.000000,4.000000,100.000000
1602006015.872034,30.000000,0.000000,4124.102539,4129.230957,4158.461426,4135.384766,4127.179688,4138.461426,4158.974121,4154.871582,4147.179688,4154.358887,4148.717773,4155.897461,4145.641113,4142.563965,0.000000,4.000000,,,,0.000000,4.000000,4.000000,4.000000,4.000000,4.000000,4.000000,4.000000,4.000000,4.000000,4.000000,4.000000,4.000000,4.000000,4.000000,100.000000
1602006015.879916,31.000000,0.000000,4124.102539,4123.589844,4148.717773,4124.102539,4122.051270,4138.974121,4158.974121,4157.436035,4153.846191,4136.410156,4145.641113,4147.179688,4151.794922,4138.974121,0.000000,4.000000,,,,0.000000,4.000000,4.000000,4.000000,4.000000,4.000000,4.000000,4.000000,4.000000,4.000000,4.000000,4.000000,4.000000,4.000000,4.000000,100.000000
1602006015.887799,32.000000,0.000000,4113.846191,4123.077148,4135.897461,4122.051270,4125.128418,4135.897461,4152.307617,4157.436035,4157.948730,4148.717773,4151.794922,4141.025879,4154.871582,4144.615234,0.000000,4.000000,,,,0.000000,4.000000,4.000000,4.000000,4.000000,4.000000,4.000000,4.000000,4.000000,4.000000,4.000000,4.000000,4.000000,4.000000,4.000000,100.000000
1602006015.895781,33.000000,0.000000,4111.794922,4123.077148,4124.615234,4123.077148,4122.563965,4138.461426,4143.589844,4153.846191,4154.871582,4157.948730,4145.641113,4139.487305,4147.692383,4140.512695,0.000000,4.000000,,,,0.000000,4.000000,4.000000,4.000000,4.000000,4.000000,4.000000,4.000000,4.000000,4.000000,4.000000,4.000000,4.000000,4.000000,4.000000,100.000000
1602006015.903663,34.000000,0.000000,4117.948730,4114.871582,4118.974121,4115.897461,4121.538574,4136.922852,4136.410156,4143.077148,4150.769043,4137.436035,4134.358887,4136.922852,4139.487305,4133.846191,0.000000,4.000000,,,,0.000000,4.000000,4.000000,4.000000,4.000000,4.000000,4.000000,4.000000,4.000000,4.000000,4.000000,4.000000,4.000000,4.000000,4.000000,100.000000
1602006015.911545,35.000000,0.000000,4113.846191,4106.153809,4120.512695,4104.615234,4123.589844,4134.871582,4137.948730,4136.410156,4151.282227,4135.897461,4139.487305,4131.794922,4138.461426,4132.820313,0.000000,4.000000,,,,0.000000,4.000000,4.000000,4.000000,4.000000,4.000000,4.000000,4.000000,4.000000,4.000000,4.000000,4.000000,4.000000,4.000000,4.000000,100.000000
1602006015.919426,36.000000,0.000000,4104.102539,4105.128418,4120.512695,4104.615234,4123.589844,4135.384766,4141.025879,4136.922852,4151.282227,4153.333496,4134.358887,4131.282227,4138.974121,4137.948730,0.000000,4.000000,,,,0.000000,4.000000,4.000000,4.000000,4.000000,4.000000,4.000000,4.000000,4.000000,4.000000,4.000000,4.000000,4.000000,4.000000,4.000000,100.000000
1602006015.927308,37.000000,0.000000,4110.769043,4107.692383,4121.538574,4115.897461,4126.666504,4129.230957,4138.461426,4136.922852,4146.666504,4145.641113,4119.487305,4133.846191,4135.384766,4135.897461,0.000000,4.000000,,,,0.000000,4.000000,4.000000,4.000000,4.000000,4.000000,4.000000,4.000000,4.000000,4.000000,4.000000,4.000000,4.000000,4.000000,4.000000,100.000000
1602006015.935290,38.000000,0.000000,4121.025879,4111.282227,4125.641113,4122.051270,4128.717773,4121.538574,4135.897461,4134.358887,4138.461426,4124.102539,4127.692383,4127.692383,4127.179688,4124.102539,0.000000,4.000000,,,,0.000000,4.000000,4.000000,4.000000,4.000000,4.000000,4.000000,4.000000,4.000000,4.000000,4.000000,4.000000,4.000000,4.000000,4.000000,100.000000
1602006015.943171,39.000000,0.000000,4120.000000,4116.922852,4125.641113,4121.538574,4133.333496,4125.128418,4135.897461,4133.846191,4132.820313,4120.512695,4140.000000,4120.512695,4124.102539,4124.102539,0.000000,4.000000,,,,0.000000,4.000000,4.000000,4.000000,4.000000,4.000000,4.000000,4.000000,4.000000,4.000000,4.000000,4.000000,4.000000,4.000000,4.000000,100.000000
1602006015.951052,40.000000,0.000000,4120.512695,4122.051270,4123.077148,4123.589844,4135.897461,4135.384766,4138.461426,4135.897461,4133.333496,4127.692383,4132.820313,4127.179688,4129.743652,4137.436035,0.000000,4.000000,,,,0.000000,4.000000,4.000000,4.000000,4.000000,4.000000,4.000000,4.000000,4.000000,4.000000,4.000000,4.000000,4.000000,4.000000,4.000000,100.000000
1602006015.959034,41.000000,0.000000,4122.563965,4123.589844,4121.538574,4123.589844,4126.666504,4138.974121,4138.974121,4138.974121,4136.410156,4126.153809,4122.563965,4133.846191,4134.871582,4140.512695,0.000000,4.000000,,,,0.000000,4.000000,4.000000,4.000000,4.000000,4.000000,4.000000,4.000000,4.000000,4.000000,4.000000,4.000000,4.000000,4.000000,4.000000,100.000000
1602006015.966916,42.000000,0.000000,4124.615234,4125.128418,4121.538574,4121.025879,4120.000000,4137.436035,4138.974121,4138.974121,4133.333496,4118.461426,4128.717773,4132.820313,4134.871582,4137.436035,0.000000,4.000000,,,,0.000000,4.000000,4.000000,4.000000,4.000000,4.000000,4.000000,4.000000,4.000000,4.000000,4.000000,4.000000,4.000000,4.000000,4.000000,100.000000
