Timestamp,EEG.Counter,EEG.Interpolated,EEG.AF3,EEG.F7,EEG.F3,EEG.FC5,EEG.T7,EEG.P7,EEG.O1,EEG.O2,EEG.P8,EEG.T8,EEG.FC6,EEG.F4,EEG.F8,EEG.AF4,EEG.RawCq,EEG.Battery,MarkerIndex,MarkerType,MarkerValueInt,EEG.MarkerHardware,CQ.AF3,CQ.F7,CQ.F3,CQ.FC5,CQ.T7,CQ.P7,CQ.O1,CQ.O2,CQ.P8,CQ.T8,CQ.FC6,CQ.F4,CQ.F8,CQ.AF4,CQ.Overall
1602006028.276276,56.000000,0.000000,4106.666504,4129.743652,4125.128418,4123.077148,4128.717773,4138.461426,4137.948730,4145.128418,4157.436035,4130.256348,4123.589844,4123.077148,4113.333496,4091.794922,0.000000,4.000000,,,,0.000000,4.000000,4.000000,4.000000,4.000000,4.000000,4.000000,4.000000,4.000000,4.000000,4.000000,4.000000,4.000000,4.000000,4.000000,100.000000
1602006028.284058,57.000000,0.000000,4103.077148,4122.563965,4120.512695,4118.461426,4124.102539,4135.897461,4135.897461,4140.512695,4148.717773,4123.589844,4125.128418,4120.512695,4111.794922,4095.384521,0.000000,4.000000,,,,0.000000,4.000000,4.000000,4.000000,4.000000,4.000000,4.000000,4.000000,4.000000,4.000000,4.000000,4.000000,4.000000,4.000000,4.000000,100.000000
1602006028.291940,58.000000,0.000000,4094.871826,4119.487305,4117.436035,4121.025879,4119.487305,4136.410156,4134.358887,4127.179688,4130.256348,4122.051270,4115.897461,4121.538574,4104.615234,4088.718018,0.000000,4.000000,,,,0.000000,4.000000,4.000000,4.000000,4.000000,4.000000,4.000000,4.000000,4.000000,4.000000,4.000000,4.000000,4.000000,4.000000,4.000000,100.000000
1602006028.299822,59.000000,0.000000,4097.436035,4121.025879,4121.538574,4120.512695,4121.538574,4137.436035,4132.307617,4121.025879,4121.025879,4121.538574,4108.717773,4132.307617,4108.717773,4095.384521,0.000000,4.000000,,,,0.000000,4.000000,4.000000,4.000000,4.000000,4.000000,4.000000,4.000000,4.000000,4.000000,4.000000,4.000000,4.000000,4.000000,4.000000,100.000000
1602006028.307704,60.000000,0.000000,4102.563965,4126.666504,4128.205078,4123.077148,4128.205078,4137.948730,4130.769043,4122.563965,4122.051270,4113.333496,4117.948730,4141.538574,4121.538574,4109.743652,0.000000,4.000000,,,,0.000000,4.000000,4.000000,4.000000,4.000000,4.000000,4.000000,4.000000,4.000000,4.000000,4.000000,4.000000,4.000000,4.000000,4.000000,100.000000
1602006028.315585,61.000000,0.000000,4097.948730,4133.333496,4130.769043,4127.692383,4134.871582,4136.922852,4132.820313,4122.563965,4119.487305,4105.128418,4124.102539,4140.512695,4121.025879,4103.077148,0.000000,4.000000,,,,0.000000,4.000000,4.000000,4.000000,4.000000,4.000000,4.000000,4.000000,4.000000,4.000000,4.000000,4.000000,4.000000,4.000000,4.000000,100.000000
1602006028.323568,62.000000,0.000000,4100.512695,4134.358887,4132.307617,4126.666504,4137.948730,4135.384766,4134.358887,4128.205078,4121.538574,4118.461426,4120.512695,4146.153809,4115.897461,4097.436035,0.000000,4.000000,,,,0.000000,4.000000,4.000000,4.000000,4.000000,4.000000,4.000000,4.000000,4.000000,4.000000,4.000000,4.000000,4.000000,4.000000,4.000000,100.000000
1602006028.331451,63.000000,0.000000,4112.307617,4136.410156,4139.487305,4130.769043,4140.512695,4135.897461,4135.897461,4139.487305,4133.333496,4138.974121,4130.256348,4155.897461,4127.692383,4110.256348,0.000000,4.000000,,,,0.000000,4.000000,4.000000,4.000000,4.000000,4.000000,4.000000,4.000000,4.000000,4.000000,4.000000,4.000000,4.000000,4.000000,4.000000,100.000000
1602006028.339335,64.000000,0.000000,4112.307617,4137.948730,4138.974121,4137.436035,4137.436035,4130.256348,4137.948730,4140.512695,4140.000000,4136.410156,4138.461426,4146.666504,4135.897461,4111.794922,797.000000,4.000000,,,,0.000000,4.000000,4.000000,4.000000,4.000000,4.000000,4.000000,4.000000,4.000000,4.000000,4.000000,4.000000,4.000000,4.000000,4.000000,100.000000
1602006028.347218,65.000000,0.000000,4102.563965,4130.256348,4124.615234,4131.794922,4126.153809,4122.563965,4136.410156,4135.897461,4138.461426,4129.230957,4126.666504,4129.230957,4124.615234,4102.051270,796.000000,4.000000,,,,0.000000,4.000000,4.000000,4.000000,4.000000,4.000000,4.000000,4.000000,4.000000,4.000000,4.000000,4.000000,4.000000,4.000000,4.000000,100.000000
1602006028.355101,66.000000,0.000000,4100.512695,4126.153809,4120.512695,4128.717773,4121.538574,4129.230957,4131.282227,4138.974121,4133.333496,4127.179688,4116.410156,4131.794922,4118.974121,4105.641113,846.000000,4.000000,,,,0.000000,4.000000,4.000000,4.000000,4.000000,4.000000,4.000000,4.000000,4.000000,4.000000,4.000000,4.000000,4.000000,4.000000,4.000000,100.000000
1602006028.362984,67.000000,0.000000,4102.563965,4134.358887,4125.128418,4135.897461,4125.641113,4134.358887,4126.153809,4136.410156,4128.205078,4105.128418,4121.538574,4142.563965,4121.025879,4110.769043,869.000000,4.000000,,,,0.000000,4.000000,4.000000,4.000000,4.000000,4.000000,4.000000,4.000000,4.000000,4.000000,4.000000,4.000000,4.000000,4.000000,4.000000,100.000000
1602006028.370867,68.000000,0.000000,4104.615234,4137.948730,4122.563965,4136.410156,4126.153809,4125.641113,4121.025879,4126.153809,4129.230957,4086.153809,4122.051270,4142.563965,4113.333496,4105.128418,815.000000,4.000000,,,,0.000000,4.000000,4.000000,4.000000,4.000000,4.000000,4.000000,4.000000,4.000000,4.000000,4.000000,4.000000,4.000000,4.000000,4.000000,100.000000
1602006028.378750,69.000000,0.000000,4114.358887,4137.948730,4126.666504,4133.333496,4129.230957,4123.077148,4118.461426,4125.641113,4137.948730,4106.666504,4120.512695,4141.538574,4111.794922,4105.641113,825.000000,4.000000,,,,0.000000,4.000000,4.000000,4.000000,4.000000,4.000000,4.000000,4.000000,4.000000,4.000000,4.000000,4.000000,4.000000,4.000000,4.000000,100.000000
1602006028.386633,70.000000,0.000000,4122.563965,4144.102539,4141.538574,4138.974121,4136.922852,4130.769043,4120.512695,4131.282227,4143.589844,4137.948730,4131.282227,4149.743652,4133.333496,4110.256348,779.000000,4.000000,,,,0.000000,4.000000,4.000000,4.000000,4.000000,4.000000,4.000000,4.000000,4.000000,4.000000,4.000000,4.000000,4.000000,4.000000,4.000000,100.000000
1602006028.394516,71.000000,0.000000,4115.897461,4146.153809,4138.974121,4140.000000,4137.948730,4128.205078,4121.025879,4127.179688,4140.512695,4143.077148,4133.846191,4152.307617,4141.538574,4110.769043,685.000000,4.000000,,,,0.000000,4.000000,4.000000,4.000000,4.000000,4.000000,4.000000,4.000000,4.000000,4.000000,4.000000,4.000000,4.000000,4.000000,4.000000,100.000000
1602006028.402298,72.000000,0.000000,4105.128418,4140.000000,4123.589844,4134.358887,4135.384766,4117.948730,4119.487305,4121.538574,4135.384766,4133.846191,4122.563965,4144.102539,4124.102539,4106.153809,784.000000,4.000000,,,,0.000000,4.000000,4.000000,4.000000,4.000000,4.000000,4.000000,4.000000,4.000000,4.000000,4.000000,4.000000,4.000000,4.000000,4.000000,100.000000
1602006028.410179,73.000000,0.000000,4105.641113,4136.922852,4122.563965,4134.358887,4135.897461,4123.077148,4121.025879,4122.051270,4133.333496,4128.717773,4120.512695,4134.871582,4123.077148,4102.051270,849.000000,4.000000,,,,0.000000,4.000000,4.000000,4.000000,4.000000,4.000000,4.000000,4.000000,4.000000,4.000000,4.000000,4.000000,4.000000,4.000000,4.000000,100.000000
1602006028.418060,74.000000,0.000000,4109.230957,4135.897461,4125.641113,4137.436035,4137.436035,4136.922852,4129.230957,4124.615234,4137.436035,4130.256348,4125.128418,4129.743652,4141.538574,4103.589844,876.000000,4.000000,,,,0.000000,4.000000,4.000000,4.000000,4.000000,4.000000,4.000000,4.000000,4.000000,4.000000,4.000000,4.000000,4.000000,4.000000,4.000000,100.000000
1602006028.425842,75.000000,0.000000,4104.615234,4134.358887,4121.025879,4136.922852,4138.974121,4140.512695,4133.333496,4129.743652,4138.461426,4125.128418,4118.461426,4126.153809,4136.410156,4097.948730,838.000000,4.000000,,,,0.000000,4.000000,4.000000,4.000000,4.000000,4.000000,4.000000,4.000000,4.000000,4.000000,4.000000,4.000000,4.000000,4.000000,4.000000,100.000000
1602006028.433723,76.000000,0.000000,4100.512695,4135.897461,4122.563965,4135.897461,4135.384766,4138.461426,4129.230957,4135.897461,4136.410156,4117.948730,4123.589844,4131.794922,4123.077148,4093.846191,772.000000,4.000000,,,,0.000000,4.000000,4.000000,4.000000,4.000000,4.000000,4.000000,4.000000,4.000000,4.000000,4.000000,4.000000,4.000000,4.000000,4.000000,100.000000
1602006028.441605,77.000000,0.000000,4112.307617,4139.487305,4133.333496,4140.000000,4127.692383,4135.384766,4127.692383,4135.897461,4141.025879,4130.256348,4142.563965,4138.974121,4136.410156,4112.820313,752.000000,4.000000,,,,0.000000,4.000000,4.000000,4.000000,4.000000,4.000000,4.000000,4.000000,4.000000,4.000000,4.000000,4.000000,4.000000,4.000000,4.000000,100.000000
1602006028.449587,78.000000,0.000000,4121.538574,4140.000000,4137.948730,4142.051270,4130.256348,4128.717773,4127.692383,4129.743652,4138.461426,4143.589844,4141.538574,4137.948730,4141.538574,4123.589844,876.000000,4.000000,,,,0.000000,4.000000,4.000000,4.000000,4.000000,4.000000,4.000000,4.000000,4.000000,4.000000,4.000000,4.000000,4.000000,4.000000,4.000000,100.000000
1602006028.457469,79.000000,0.000000,4110.256348,4138.461426,4135.897461,4138.974121,4137.436035,4122.051270,4124.102539,4126.666504,4125.128418,4137.948730,4131.282227,4135.897461,4127.692383,4111.282227,838.000000,4.000000,,,,0.000000,4.000000,4.000000,4.000000,4.000000,4.000000,4.000000,4.000000,4.000000,4.000000,4.000000,4.000000,4.000000,4.000000,4.000000,100.000000
1602006028.465352,80.000000,0.000000,4105.641113,4137.436035,4138.461426,4137.436035,4135.384766,4122.563965,4124.102539,4125.128418,4117.436035,4123.589844,4135.384766,4139.487305,4129.743652,4112.307617,772.000000,4.000000,,,,0.000000,4.000000,4.000000,4.000000,4.000000,4.000000,4.000000,4.000000,4.000000,4.000000,4.000000,4.000000,4.000000,4.000000,4.000000,100.000000
1602006028.473234,81.000000,0.000000,4122.051270,4137.948730,4143.589844,4138.461426,4128.717773,4124.615234,4126.153809,4125.641113,4125.641113,4118.461426,4143.589844,4147.179688,4142.051270,4128.205078,752.000000,4.000000,,,,0.000000,4.000000,4.000000,4.000000,4.000000,4.000000,4.000000,4.000000,4.000000,4.000000,4.000000,4.000000,4.000000,4.000000,4.000000,100.000000
1602006028.481116,82.000000,0.000000,4131.282227,4136.922852,4142.563965,4138.461426,4127.179688,4123.077148,4122.563965,4128.205078,4136.410156,4130.769043,4140.000000,4153.333496,4138.974121,4126.666504,876.000000,4.000000,,,,0.000000,4.000000,4.000000,4.000000,4.000000,4.000000,4.000000,4.000000,4.000000,4.000000,4.000000,4.000000,4.000000,4.000000,4.000000,100.000000
1602006028.488999,83.000000,0.000000,4126.666504,4134.358887,4140.512695,4137.948730,4126.666504,4119.487305,4123.077148,4130.256348,4137.948730,4138.461426,4124.102539,4153.333496,4127.692383,4119.487305,838.000000,4.000000,,,,0.000000,4.000000,4.000000,4.000000,4.000000,4.000000,4.000000,4.000000,4.000000,4.000000,4.000000,4.000000,4.000000,4.000000,4.000000,100.000000
1602006028.496881,84.000000,0.000000,4126.153809,4135.384766,4148.205078,4139.487305,4126.666504,4124.615234,4129.743652,4135.384766,4136.410156,4138.461426,4120.000000,4156.922852,4123.589844,4122.051270,772.000000,4.000000,,,,0.000000,4.000000,4.000000,4.000000,4.000000,4.000000,4.000000,4.000000,4.000000,4.000000,4.000000,4.000000,4.000000,4.000000,4.000000,100.000000
1602006028.504763,85.000000,0.000000,4125.128418,4138.974121,4151.282227,4140.000000,4128.205078,4138.461426,4131.282227,4136.410156,4142.051270,4142.563965,4131.282227,4158.974121,4124.615234,4125.641113,752.000000,4.000000,,,,0.000000,4.000000,4.000000,4.000000,4.000000,4.000000,4.000000,4.000000,4.000000,4.000000,4.000000,4.000000,4.000000,4.000000,4.000000,100.000000
1602006028.512545,86.000000,0.000000,4115.897461,4135.897461,4141.025879,4138.974121,4126.666504,4142.563965,4123.589844,4127.692383,4144.615234,4127.179688,4132.820313,4146.666504,4121.025879,4123.589844,876.000000,4.000000,,,,0.000000,4.000000,4.000000,4.000000,4.000000,4.000000,4.000000,4.000000,4.000000,4.000000,4.000000,4.000000,4.000000,4.000000,4.000000,100.000000
1602006028.520426,87.000000,0.000000,4107.179688,4126.666504,4129.743652,4136.410156,4122.563965,4131.282227,4113.846191,4118.461426,4129.230957,4101.538574,4122.051270,4130.256348,4111.282227,4106.666504,838.000000,4.000000,,,,0.000000,4.000000,4.000000,4.000000,4.000000,4.000000,4.000000,4.000000,4.000000,4.000000,4.000000,4.000000,4.000000,4.000000,4.000000,100.000000
1602006028.528308,88.000000,0.000000,4104.615234,4119.487305,4122.051270,4135.897461,4120.512695,4122.563965,4110.256348,4113.333496,4113.846191,4101.538574,4112.307617,4121.025879,4103.077148,4089.743652,772.000000,4.000000,,,,0.000000,4.000000,4.000000,4.000000,4.000000,4.000000,4.000000,4.000000,4.000000,4.000000,4.000000,4.000000,4.000000,4.000000,4.000000,100.000000
1602006028.536189,89.000000,0.000000,4103.077148,4122.563965,4116.922852,4136.410156,4121.025879,4122.051270,4110.256348,4113.333496,4114.358887,4108.205078,4108.205078,4117.436035,4100.000000,4095.897461,752.000000,4.000000,,,,0.000000,4.000000,4.000000,4.000000,4.000000,4.000000,4.000000,4.000000,4.000000,4.000000,4.000000,4.000000,4.000000,4.000000,4.000000,100.000000
1602006028.543972,90.000000,0.000000,4105.128418,4132.820313,4125.641113,4137.436035,4123.589844,4118.461426,4111.282227,4114.871582,4117.436035,4109.230957,4116.410156,4129.743652,4105.641113,4106.666504,876.000000,4.000000,,,,0.000000,4.000000,4.000000,4.000000,4.000000,4.000000,4.000000,4.000000,4.000000,4.000000,4.000000,4.000000,4.000000,4.000000,4.000000,100.000000
1602006028.551854,91.000000,0.000000,4118.461426,4141.025879,4145.128418,4144.615234,4131.794922,4114.358887,4116.410156,4122.051270,4122.051270,4128.205078,4128.205078,4149.230957,4116.922852,4110.769043,838.000000,4.000000,,,,0.000000,4.000000,4.000000,4.000000,4.000000,4.000000,4.000000,4.000000,4.000000,4.000000,4.000000,4.000000,4.000000,4.000000,4.000000,100.000000
1602006028.559736,92.000000,0.000000,4129.230957,4145.128418,4155.384766,4152.307617,4136.922852,4117.948730,4125.128418,4133.846191,4135.897461,4143.589844,4129.743652,4157.436035,4123.077148,4117.948730,772.000000,4.000000,,,,0.000000,4.000000,4.000000,4.000000,4.000000,4.000000,4.000000,4.000000,4.000000,4.000000,4.000000,4.000000,4.000000,4.000000,4.000000,100.000000
1602006028.567619,93.000000,0.000000,4126.153809,4145.641113,4153.333496,4148.717773,4131.794922,4125.128418,4129.230957,4136.410156,4140.512695,4132.307617,4134.358887,4157.948730,4131.282227,4126.153809,752.000000,4.000000,,,,0.000000,4.000000,4.000000,4.000000,4.000000,4.000000,4.000000,4.000000,4.000000,4.000000,4.000000,4.000000,4.000000,4.000000,4.000000,100.000000
1602006028.575501,94.000000,0.000000,4122.563965,4142.563965,4144.102539,4139.487305,4124.615234,4123.589844,4129.743652,4129.743652,4128.717773,4120.000000,4141.538574,4152.307617,4138.461426,4128.205078,876.000000,4.000000,,,,0.000000,4.000000,4.000000,4.000000,4.000000,4.000000,4.000000,4.000000,4.000000,4.000000,4.000000,4.000000,4.000000,4.000000,4.000000,100.000000
1602006028.583383,95.000000,0.000000,4127.179688,4140.512695,4140.512695,4139.487305,4122.563965,4122.563965,4134.871582,4133.333496,4123.077148,4120.512695,4135.897461,4146.153809,4133.846191,4127.692383,838.000000,4.000000,,,,0.000000,4.000000,4.000000,4.000000,4.000000,4.000000,4.000000,4.000000,4.000000,4.000000,4.000000,4.000000,4.000000,4.000000,4.000000,100.000000
1602006028.591266,96.000000,0.000000,4126.666504,4136.922852,4142.563965,4141.538574,4123.589844,4134.871582,4140.000000,4142.563965,4128.717773,4122.051270,4129.743652,4149.743652,4126.666504,4121.025879,772.000000,4.000000,,,,0.000000,4.000000,4.000000,4.000000,4.000000,4.000000,4.000000,4.000000,4.000000,4.000000,4.000000,4.000000,4.000000,4.000000,4.000000,100.000000
1602006028.599148,97.000000,0.000000,4111.794922,4125.128418,4135.897461,4132.307617,4122.051270,4143.077148,4138.974121,4136.922852,4131.794922,4121.538574,4123.077148,4151.282227,4119.487305,4111.794922,752.000000,4.000000,,,,0.000000,4.000000,4.000000,4.000000,4.000000,4.000000,4.000000,4.000000,4.000000,4.000000,4.000000,4.000000,4.000000,4.000000,4.000000,100.000000
1602006028.606930,98.000000,0.000000,4094.358887,4117.436035,4121.025879,4121.538574,4121.538574,4139.487305,4132.307617,4126.666504,4130.256348,4122.051270,4115.384766,4134.871582,4108.717773,4109.743652,876.000000,4.000000,,,,0.000000,4.000000,4.000000,4.000000,4.000000,4.000000,4.000000,4.000000,4.000000,4.000000,4.000000,4.000000,4.000000,4.000000,4.000000,100.000000
1602006028.614812,99.000000,0.000000,4091.281982,4118.461426,4116.410156,4123.589844,4123.077148,4137.436035,4124.615234,4124.102539,4125.128418,4123.589844,4111.282227,4120.512695,4102.563965,4101.025879,838.000000,4.000000,,,,0.000000,4.000000,4.000000,4.000000,4.000000,4.000000,4.000000,4.000000,4.000000,4.000000,4.000000,4.000000,4.000000,4.000000,4.000000,100.000000
1602006028.622694,100.000000,0.000000,4101.538574,4119.487305,4119.487305,4134.871582,4124.615234,4141.025879,4122.051270,4124.102539,4122.051270,4121.538574,4108.717773,4126.153809,4106.153809,4092.307617,772.000000,4.000000,,,,0.000000,4.000000,4.000000,4.000000,4.000000,4.000000,4.000000,4.000000,4.000000,4.000000,4.000000,4.000000,4.000000,4.000000,4.000000,100.000000
1602006028.630576,101.000000,0.000000,4111.282227,4123.589844,4120.512695,4140.000000,4122.563965,4141.025879,4119.487305,4122.051270,4124.615234,4118.461426,4111.794922,4128.717773,4105.641113,4098.461426,752.000000,4.000000,,,,0.000000,4.000000,4.000000,4.000000,4.000000,4.000000,4.000000,4.000000,4.000000,4.000000,4.000000,4.000000,4.000000,4.000000,4.000000,100.000000
1602006028.638458,102.000000,0.000000,4111.794922,4126.666504,4118.974121,4134.871582,4122.563965,4138.974121,4115.384766,4119.487305,4124.615234,4110.256348,4120.000000,4121.538574,4108.205078,4112.307617,876.000000,4.000000,,,,0.000000,4.000000,4.000000,4.000000,4.000000,4.000000,4.000000,4.000000,4.000000,4.000000,4.000000,4.000000,4.000000,4.000000,4.000000,100.000000
1602006028.646339,103.000000,0.000000,4113.846191,4127.179688,4120.000000,4133.333496,4129.743652,4136.922852,4116.922852,4121.025879,4122.051270,4104.102539,4123.077148,4124.615234,4118.974121,4118.974121,838.000000,4.000000,,,,0.000000,4.000000,4.000000,4.000000,4.000000,4.000000,4.000000,4.000000,4.000000,4.000000,4.000000,4.000000,4.000000,4.000000,4.000000,100.000000
1602006028.654122,104.000000,0.000000,4122.563965,4133.846191,4129.743652,4140.000000,4136.922852,4134.871582,4121.025879,4122.563965,4128.205078,4120.512695,4123.589844,4141.025879,4130.256348,4120.512695,772.000000,4.000000,,,,0.000000,4.000000,4.000000,4.000000,4.000000,4.000000,4.000000,4.000000,4.000000,4.000000,4.000000,4.000000,4.000000,4.000000,4.000000,100.000000
1602006028.662005,105.000000,0.000000,4132.820313,4142.563965,4145.128418,4144.615234,4140.512695,4136.410156,4123.589844,4125.641113,4138.974121,4147.179688,4134.358887,4157.436035,4138.974121,4132.307617,752.000000,4.000000,,,,0.000000,4.000000,4.000000,4.000000,4.000000,4.000000,4.000000,4.000000,4.000000,4.000000,4.000000,4.000000,4.000000,4.000000,4.000000,100.000000
1602006028.669887,106.000000,0.000000,4139.487305,4144.102539,4154.871582,4143.077148,4137.436035,4134.358887,4127.179688,4131.794922,4142.563965,4157.948730,4150.256348,4167.692383,4146.666504,4149.230957,876.000000,4.000000,,,,0.000000,4.000000,4.000000,4.000000,4.000000,4.000000,4.000000,4.000000,4.000000,4.000000,4.000000,4.000000,4.000000,4.000000,4.000000,100.000000
1602006028.677770,107.000000,0.000000,4140.512695,4140.000000,4156.410156,4139.487305,4128.717773,4125.128418,4127.692383,4129.230957,4133.333496,4151.282227,4158.974121,4174.358887,4148.717773,4150.256348,838.000000,4.000000,,,,0.000000,4.000000,4.000000,4.000000,4.000000,4.000000,4.000000,4.000000,4.000000,4.000000,4.000000,4.000000,4.000000,4.000000,4.000000,100.000000
1602006028.685653,108.000000,0.000000,4138.461426,4136.410156,4153.333496,4136.410156,4121.538574,4118.974121,4126.153809,4122.563965,4122.563965,4143.589844,4151.794922,4172.820313,4145.128418,4141.538574,772.000000,4.000000,,,,0.000000,4.000000,4.000000,4.000000,4.000000,4.000000,4.000000,4.000000,4.000000,4.000000,4.000000,4.000000,4.000000,4.000000,4.000000,100.000000
1602006028.693535,109.000000,0.000000,4136.922852,4139.487305,4149.230957,4138.974121,4122.051270,4120.000000,4124.615234,4123.589844,4122.051270,4134.871582,4129.230957,4158.461426,4135.897461,4137.948730,752.000000,4.000000,,,,0.000000,4.000000,4.000000,4.000000,4.000000,4.000000,4.000000,4.000000,4.000000,4.000000,4.000000,4.000000,4.000000,4.000000,4.000000,100.000000
1602006028.701418,110.000000,0.000000,4123.077148,4133.333496,4145.641113,4140.512695,4124.102539,4121.538574,4121.025879,4124.102539,4123.589844,4117.436035,4117.436035,4143.077148,4123.077148,4130.769043,876.000000,4.000000,,,,0.000000,4.000000,4.000000,4.000000,4.000000,4.000000,4.000000,4.000000,4.000000,4.000000,4.000000,4.000000,4.000000,4.000000,4.000000,100.000000
1602006028.709300,111.000000,0.000000,4100.000000,4113.333496,4135.384766,4130.256348,4123.077148,4123.589844,4112.820313,4116.922852,4116.922852,4110.256348,4121.025879,4135.384766,4116.922852,4121.025879,838.000000,4.000000,,,,0.000000,4.000000,4.000000,4.000000,4.000000,4.000000,4.000000,4.000000,4.000000,4.000000,4.000000,4.000000,4.000000,4.000000,4.000000,100.000000
1602006028.717183,112.000000,0.000000,4103.589844,4117.948730,4122.051270,4127.692383,4120.512695,4122.051270,4108.717773,4109.743652,4112.820313,4119.487305,4120.000000,4128.205078,4120.512695,4121.025879,772.000000,4.000000,,,,0.000000,4.000000,4.000000,4.000000,4.000000,4.000000,4.000000,4.000000,4.000000,4.000000,4.000000,4.000000,4.000000,4.000000,4.000000,100.000000
1602006028.724966,113.000000,0.000000,4134.871582,4150.256348,4117.948730,4144.615234,4123.077148,4122.563965,4112.307617,4109.743652,4122.563965,4132.307617,4120.000000,4123.077148,4120.000000,4125.128418,752.000000,4.000000,,,,0.000000,4.000000,4.000000,4.000000,4.000000,4.000000,4.000000,4.000000,4.000000,4.000000,4.000000,4.000000,4.000000,4.000000,4.000000,100.000000
1602006028.732848,114.000000,0.000000,4153.333496,4169.230957,4128.205078,4156.922852,4135.384766,4132.307617,4119.487305,4112.307617,4126.666504,4137.436035,4128.717773,4126.666504,4109.230957,4118.461426,876.000000,4.000000,,,,0.000000,4.000000,4.000000,4.000000,4.000000,4.000000,4.000000,4.000000,4.000000,4.000000,4.000000,4.000000,4.000000,4.000000,4.000000,100.000000
1602006028.740731,115.000000,0.000000,4144.615234,4171.282227,4136.410156,4155.384766,4143.589844,4134.358887,4120.512695,4109.743652,4115.384766,4138.461426,4126.153809,4128.717773,4098.974121,4104.102539,838.000000,4.000000,,,,0.000000,4.000000,4.000000,4.000000,4.000000,4.000000,4.000000,4.000000,4.000000,4.000000,4.000000,4.000000,4.000000,4.000000,4.000000,100.000000
1602006028.748613,116.000000,0.000000,4141.538574,4174.871582,4138.461426,4162.563965,4139.487305,4131.794922,4118.974121,4111.282227,4110.256348,4133.846191,4116.410156,4132.307617,4100.512695,4107.692383,772.000000,4.000000,,,,0.000000,4.000000,4.000000,4.000000,4.000000,4.000000,4.000000,4.000000,4.000000,4.000000,4.000000,4.000000,4.000000,4.000000,4.000000,100.000000
1602006028.756496,117.000000,0.000000,4157.436035,4176.922852,4143.589844,4167.692383,4137.436035,4132.307617,4124.102539,4121.538574,4117.948730,4115.384766,4121.025879,4144.615234,4109.230957,4120.000000,752.000000,4.000000,,,,0.000000,4.000000,4.000000,4.000000,4.000000,4.000000,4.000000,4.000000,4.000000,4.000000,4.000000,4.000000,4.000000,4.000000,4.000000,100.000000
1602006028.764379,118.000000,0.000000,4161.025879,4170.256348,4143.077148,4156.922852,4138.974121,4126.153809,4126.666504,4126.153809,4122.051270,4105.641113,4124.615234,4145.641113,4108.717773,4114.871582,876.000000,4.000000,,,,0.000000,4.000000,4.000000,4.000000,4.000000,4.000000,4.000000,4.000000,4.000000,4.000000,4.000000,4.000000,4.000000,4.000000,4.000000,100.000000
1602006028.772261,119.000000,0.000000,4151.282227,4158.461426,4136.410156,4148.205078,4131.794922,4120.000000,4123.589844,4124.615234,4117.948730,4114.358887,4115.897461,4136.410156,4100.000000,4105.128418,838.000000,4.000000,,,,0.000000,4.000000,4.000000,4.000000,4.000000,4.000000,4.000000,4.000000,4.000000,4.000000,4.000000,4.000000,4.000000,4.000000,4.000000,100.000000
1602006028.780144,120.000000,0.000000,4148.717773,4153.333496,4136.410156,4150.256348,4124.615234,4128.717773,4127.692383,4130.256348,4120.512695,4125.128418,4110.769043,4140.000000,4097.436035,4116.410156,772.000000,4.000000,,,,0.000000,4.000000,4.000000,4.000000,4.000000,4.000000,4.000000,4.000000,4.000000,4.000000,4.000000,4.000000,4.000000,4.000000,4.000000,100.000000
1602006028.788126,121.000000,0.000000,4154.871582,4162.563965,4141.538574,4152.820313,4130.769043,4138.461426,4136.410156,4136.922852,4126.153809,4130.256348,4111.794922,4153.333496,4101.025879,4127.179688,752.000000,4.000000,,,,0.000000,4.000000,4.000000,4.000000,4.000000,4.000000,4.000000,4.000000,4.000000,4.000000,4.000000,4.000000,4.000000,4.000000,4.000000,100.000000
1602006028.796009,122.000000,0.000000,4157.948730,4164.102539,4141.025879,4153.333496,4132.307617,4137.948730,4138.974121,4136.922852,4124.615234,4138.974121,4113.333496,4160.000000,4098.461426,4117.436035,876.000000,4.000000,,,,0.000000,4.000000,4.000000,4.000000,4.000000,4.000000,4.000000,4.000000,4.000000,4.000000,4.000000,4.000000,4.000000,4.000000,4.000000,100.000000
1602006028.803891,123.000000,0.000000,4149.743652,4154.358887,4139.487305,4152.820313,4126.153809,4138.974121,4138.461426,4135.384766,4120.000000,4137.948730,4115.384766,4155.897461,4094.358887,4110.256348,838.000000,4.000000,,,,0.000000,4.000000,4.000000,4.000000,4.000000,4.000000,4.000000,4.000000,4.000000,4.000000,4.000000,4.000000,4.000000,4.000000,4.000000,100.000000
1602006028.811774,124.000000,0.000000,4142.563965,4153.333496,4141.025879,4151.282227,4132.307617,4139.487305,4141.538574,4135.384766,4117.948730,4120.000000,4121.538574,4157.948730,4101.025879,4119.487305,772.000000,4.000000,,,,0.000000,4.000000,4.000000,4.000000,4.000000,4.000000,4.000000,4.000000,4.000000,4.000000,4.000000,4.000000,4.000000,4.000000,4.000000,100.000000
1602006028.819657,125.000000,0.000000,4149.743652,4158.461426,4140.512695,4153.333496,4142.563965,4140.000000,4143.589844,4135.897461,4118.461426,4114.871582,4128.205078,4165.641113,4109.230957,4124.102539,752.000000,4.000000,,,,0.000000,4.000000,4.000000,4.000000,4.000000,4.000000,4.000000,4.000000,4.000000,4.000000,4.000000,4.000000,4.000000,4.000000,4.000000,100.000000
1602006028.827539,126.000000,0.000000,4158.461426,4157.436035,4140.000000,4153.846191,4141.025879,4142.563965,4144.102539,4134.871582,4118.461426,4133.333496,4130.256348,4164.615234,4107.692383,4118.974121,876.000000,4.000000,,,,0.000000,4.000000,4.000000,4.000000,4.000000,4.000000,4.000000,4.000000,4.000000,4.000000,4.000000,4.000000,4.000000,4.000000,4.000000,100.000000
1602006028.835422,127.000000,0.000000,4154.358887,4154.358887,4141.538574,4150.256348,4134.358887,4136.922852,4143.077148,4133.846191,4120.512695,4141.025879,4127.179688,4157.436035,4105.128418,4123.077148,838.000000,4.000000,,,,0.000000,4.000000,4.000000,4.000000,4.000000,4.000000,4.000000,4.000000,4.000000,4.000000,4.000000,4.000000,4.000000,4.000000,4.000000,100.000000
1602006028.843304,128.000000,0.000000,4151.282227,4156.410156,4143.589844,4149.743652,4129.743652,4128.717773,4138.974121,4135.897461,4126.666504,4125.128418,4125.128418,4157.948730,4108.717773,4125.641113,772.000000,4.000000,,,,0.000000,4.000000,4.000000,4.000000,4.000000,4.000000,4.000000,4.000000,4.000000,4.000000,4.000000,4.000000,4.000000,4.000000,4.000000,100.000000
1602006028.851087,0.000000,0.000000,4150.769043,4154.358887,4142.051270,4150.256348,4128.717773,4124.615234,4136.410156,4134.358887,4126.666504,4124.102539,4122.051270,4156.922852,4109.230957,4119.487305,797.000000,4.000000,,,,0.000000,4.000000,4.000000,4.000000,4.000000,4.000000,4.000000,4.000000,4.000000,4.000000,4.000000,4.000000,4.000000,4.000000,4.000000,100.000000
1602006028.858969,1.000000,0.000000,4150.769043,4152.307617,4139.487305,4150.769043,4134.871582,4129.230957,4136.922852,4127.692383,4123.589844,4146.666504,4121.025879,4153.846191,4111.794922,4123.077148,796.000000,4.000000,,,,0.000000,4.000000,4.000000,4.000000,4.000000,4.000000,4.000000,4.000000,4.000000,4.000000,4.000000,4.000000,4.000000,4.000000,4.000000,100.000000
1602006028.866852,2.000000,0.000000,4155.897461,4164.102539,4140.000000,4153.333496,4141.025879,4137.436035,4136.410156,4124.615234,4124.615234,4142.563965,4131.282227,4163.589844,4120.000000,4128.717773,846.000000,4.000000,,,,0.000000,4.000000,4.000000,4.000000,4.000000,4.000000,4.000000,4.000000,4.000000,4.000000,4.000000,4.000000,4.000000,4.000000,4.000000,100.000000
1602006028.874734,3.000000,0.000000,4157.436035,4169.230957,4141.025879,4153.846191,4137.948730,4134.358887,4136.410156,4127.179688,4124.102539,4124.102539,4141.025879,4167.692383,4121.538574,4123.589844,869.000000,4.000000,,,,0.000000,4.000000,4.000000,4.000000,4.000000,4.000000,4.000000,4.000000,4.000000,4.000000,4.000000,4.000000,4.000000,4.000000,4.000000,100.000000
1602006028.882616,4.000000,0.000000,4155.897461,4160.000000,4137.436035,4151.794922,4130.256348,4126.153809,4137.948730,4128.205078,4128.717773,4133.333496,4140.512695,4161.025879,4115.384766,4120.000000,815.000000,4.000000,,,,0.000000,4.000000,4.000000,4.000000,4.000000,4.000000,4.000000,4.000000,4.000000,4.000000,4.000000,4.000000,4.000000,4.000000,4.000000,100.000000
1602006028.890499,5.000000,0.000000,4149.230957,4155.384766,4125.641113,4150.256348,4123.589844,4125.641113,4136.922852,4127.179688,4133.846191,4148.717773,4135.384766,4149.230957,4109.230957,4118.974121,825.000000,4.000000,,,,0.000000,4.000000,4.000000,4.000000,4.000000,4.000000,4.000000,4.000000,4.000000,4.000000,4.000000,4.000000,4.000000,4.000000,4.000000,100.000000
1602006028.898381,6.000000,0.000000,4136.410156,4157.436035,4114.871582,4146.666504,4128.717773,4127.179688,4137.436035,4131.282227,4127.179688,4141.538574,4124.102539,4134.358887,4100.000000,4109.743652,774.000000,4.000000,,,,0.000000,4.000000,4.000000,4.000000,4.000000,4.000000,4.000000,4.000000,4.000000,4.000000,4.000000,4.000000,4.000000,4.000000,4.000000,100.000000
1602006028.906364,7.000000,0.000000,4129.230957,4152.307617,4109.230957,4138.461426,4136.410156,4121.025879,4138.461426,4136.922852,4119.487305,4123.589844,4108.717773,4128.717773,4087.692383,4093.846191,685.000000,4.000000,,,,0.000000,4.000000,4.000000,4.000000,4.000000,4.000000,4.000000,4.000000,4.000000,4.000000,4.000000,4.000000,4.000000,4.000000,4.000000,100.000000
1602006028.914247,8.000000,0.000000,4133.333496,4151.282227,4105.128418,4134.358887,4135.384766,4118.974121,4137.436035,4138.461426,4128.717773,4119.487305,4110.256348,4134.358887,4092.820557,4092.820557,784.000000,4.000000,,,,0.000000,4.000000,4.000000,4.000000,4.000000,4.000000,4.000000,4.000000,4.000000,4.000000,4.000000,4.000000,4.000000,4.000000,4.000000,100.000000
1602006028.922129,9.000000,0.000000,4135.897461,4155.897461,4107.179688,4143.077148,4135.897461,4125.128418,4133.333496,4136.922852,4137.948730,4124.615234,4123.589844,4137.948730,4109.230957,4106.666504,848.000000,4.000000,,,,0.000000,4.000000,4.000000,4.000000,4.000000,4.000000,4.000000,4.000000,4.000000,4.000000,4.000000,4.000000,4.000000,4.000000,4.000000,100.000000
1602006028.930012,10.000000,0.000000,4134.871582,4154.871582,4116.410156,4151.282227,4138.461426,4121.538574,4126.153809,4132.820313,4129.743652,4128.205078,4124.615234,4136.410156,4110.769043,4111.794922,876.000000,4.000000,,,,0.000000,4.000000,4.000000,4.000000,4.000000,4.000000,4.000000,4.000000,4.000000,4.000000,4.000000,4.000000,4.000000,4.000000,4.000000,100.000000
1602006028.937895,11.000000,0.000000,4135.897461,4152.820313,4120.000000,4143.589844,4136.410156,4108.717773,4121.538574,4125.128418,4121.538574,4136.922852,4124.615234,4137.436035,4105.641113,4105.128418,838.000000,4.000000,,,,0.000000,4.000000,4.000000,4.000000,4.000000,4.000000,4.000000,4.000000,4.000000,4.000000,4.000000,4.000000,4.000000,4.000000,4.000000,100.000000
1602006028.945778,12.000000,0.000000,4137.436035,4152.307617,4124.102539,4135.384766,4133.846191,4105.128418,4120.000000,4120.512695,4120.000000,4143.589844,4128.205078,4139.487305,4107.692383,4103.589844,772.000000,4.000000,,,,0.000000,4.000000,4.000000,4.000000,4.000000,4.000000,4.000000,4.000000,4.000000,4.000000,4.000000,4.000000,4.000000,4.000000,4.000000,100.000000
1602006028.953661,13.000000,0.000000,4142.051270,4152.307617,4137.948730,4145.128418,4134.358887,4115.384766,4122.051270,4122.051270,4122.563965,4138.461426,4129.230957,4148.717773,4109.230957,4114.358887,752.000000,4.000000,,,,0.000000,4.000000,4.000000,4.000000,4.000000,4.000000,4.000000,4.000000,4.000000,4.000000,4.000000,4.000000,4.000000,4.000000,4.000000,100.000000
1602006028.961544,14.000000,0.000000,4144.615234,4153.333496,4144.615234,4153.333496,4136.922852,4123.589844,4130.769043,4123.077148,4122.051270,4133.846191,4134.358887,4159.487305,4110.769043,4126.153809,876.000000,4.000000,,,,0.000000,4.000000,4.000000,4.000000,4.000000,4.000000,4.000000,4.000000,4.000000,4.000000,4.000000,4.000000,4.000000,4.000000,4.000000,100.000000
1602006028.969426,15.000000,0.000000,4141.025879,4150.256348,4139.487305,4144.615234,4135.384766,4124.615234,4134.871582,4121.025879,4116.410156,4133.846191,4136.410156,4157.948730,4107.692383,4123.077148,838.000000,4.000000,,,,0.000000,4.000000,4.000000,4.000000,4.000000,4.000000,4.000000,4.000000,4.000000,4.000000,4.000000,4.000000,4.000000,4.000000,4.000000,100.000000
1602006028.977408,16.000000,0.000000,4135.897461,4142.563965,4138.974121,4137.948730,4127.179688,4125.128418,4131.282227,4119.487305,4110.256348,4114.871582,4124.615234,4156.922852,4094.871826,4108.205078,0.000000,4.000000,,,,0.000000,4.000000,4.000000,4.000000,4.000000,4.000000,4.000000,4.000000,4.000000,4.000000,4.000000,4.000000,4.000000,4.000000,4.000000,100.000000
1602006028.985290,17.000000,0.000000,4128.717773,4134.358887,4136.922852,4134.871582,4121.025879,4123.077148,4132.820313,4118.461426,4105.128418,4093.846191,4115.897461,4163.077148,4088.718018,4102.563965,0.000000,4.000000,,,,0.000000,4.000000,4.000000,4.000000,4.000000,4.000000,4.000000,4.000000,4.000000,4.000000,4.000000,4.000000,4.000000,4.000000,4.000000,100.000000
1602006028.993171,18.000000,0.000000,4123.589844,4126.153809,4127.692383,4125.641113,4121.538574,4124.615234,4136.410156,4121.538574,4110.769043,4098.461426,4113.333496,4157.948730,4091.281982,4106.666504,0.000000,4.000000,,,,0.000000,4.000000,4.000000,4.000000,4.000000,4.000000,4.000000,4.000000,4.000000,4.000000,4.000000,4.000000,4.000000,4.000000,4.000000,100.000000
1602006029.001053,19.000000,0.000000,4121.538574,4123.077148,4123.589844,4118.974121,4123.589844,4133.846191,4137.436035,4131.794922,4123.077148,4115.897461,4107.692383,4142.563965,4086.153809,4103.589844,0.000000,4.000000,,,,0.000000,4.000000,4.000000,4.000000,4.000000,4.000000,4.000000,4.000000,4.000000,4.000000,4.000000,4.000000,4.000000,4.000000,4.000000,100.000000
1602006029.008935,20.000000,0.000000,4112.820313,4122.563965,4117.948730,4120.000000,4122.563965,4138.461426,4140.000000,4139.487305,4128.717773,4118.461426,4103.589844,4131.794922,4077.948730,4099.487305,0.000000,4.000000,,,,0.000000,4.000000,4.000000,4.000000,4.000000,4.000000,4.000000,4.000000,4.000000,4.000000,4.000000,4.000000,4.000000,4.000000,4.000000,100.000000
1602006029.016717,21.000000,0.000000,4108.205078,4122.051270,4108.205078,4121.025879,4124.615234,4135.384766,4141.538574,4140.000000,4130.256348,4118.974121,4108.717773,4131.282227,4084.102539,4101.538574,0.000000,4.000000,,,,0.000000,4.000000,4.000000,4.000000,4.000000,4.000000,4.000000,4.000000,4.000000,4.000000,4.000000,4.000000,4.000000,4.000000,4.000000,100.000000
1602006029.024600,22.000000,0.000000,4119.487305,4131.282227,4112.307617,4128.205078,4133.333496,4136.410156,4145.128418,4146.666504,4147.179688,4152.820313,4125.641113,4137.436035,4104.102539,4112.820313,0.000000,4.000000,,,,0.000000,4.000000,4.000000,4.000000,4.000000,4.000000,4.000000,4.000000,4.000000,4.000000,4.000000,4.000000,4.000000,4.000000,4.000000,100.000000
1602006029.032482,23.000000,0.000000,4129.743652,4142.051270,4129.743652,4138.974121,4140.000000,4140.000000,4151.282227,4153.333496,4159.487305,4202.563965,4141.025879,4150.769043,4120.512695,4124.102539,0.000000,4.000000,,,,0.000000,4.000000,4.000000,4.000000,4.000000,4.000000,4.000000,4.000000,4.000000,4.000000,4.000000,4.000000,4.000000,4.000000,4.000000,100.000000
1602006029.040365,24.000000,0.000000,4127.179688,4138.974121,4136.922852,4137.948730,4139.487305,4142.051270,4149.230957,4145.641113,4145.641113,4231.282227,4140.512695,4162.051270,4121.538574,4125.641113,0.000000,4.000000,,,,0.000000,4.000000,4.000000,4.000000,4.000000,4.000000,4.000000,4.000000,4.000000,4.000000,4.000000,4.000000,4.000000,4.000000,4.000000,100.000000
1602006029.048248,25.000000,0.000000,4124.102539,4133.333496,4130.256348,4132.820313,4137.436035,4137.948730,4141.025879,4132.820313,4129.230957,4236.410156,4132.307617,4163.589844,4115.384766,4123.077148,0.000000,4.000000,,,,0.000000,4.000000,4.000000,4.000000,4.000000,4.000000,4.000000,4.000000,4.000000,4.000000,4.000000,4.000000,4.000000,4.000000,4.000000,100.000000
1602006029.056130,26.000000,0.000000,4125.128418,4137.436035,4124.615234,4135.897461,4136.410156,4127.692383,4134.871582,4126.153809,4123.589844,4245.641113,4130.769043,4162.563965,4113.846191,4120.512695,0.000000,4.000000,,,,0.000000,4.000000,4.000000,4.000000,4.000000,4.000000,4.000000,4.000000,4.000000,4.000000,4.000000,4.000000,4.000000,4.000000,4.000000,100.000000
1602006029.064013,27.000000,0.000000,4123.077148,4137.436035,4124.615234,4136.410156,4135.384766,4121.025879,4127.179688,4120.000000,4119.487305,4261.538574,4126.666504,4155.897461,4110.256348,4110.769043,0.000000,4.000000,,,,0.000000,4.000000,4.000000,4.000000,4.000000,4.000000,4.000000,4.000000,4.000000,4.000000,4.000000,4.000000,4.000000,4.000000,4.000000,100.000000
1602006029.071895,28.000000,0.000000,4115.897461,4134.871582,4120.512695,4130.256348,4139.487305,4126.666504,4118.461426,4117.948730,4116.922852,4260.000000,4115.384766,4144.102539,4105.128418,4103.589844,0.000000,4.000000,,,,0.000000,4.000000,4.000000,4.000000,4.000000,4.000000,4.000000,4.000000,4.000000,4.000000,4.000000,4.000000,4.000000,4.000000,4.000000,100.000000
1602006029.079677,29.000000,0.000000,4107.692383,4136.410156,4111.794922,4130.769043,4140.512695,4132.307617,4120.000000,4121.538574,4118.461426,4250.769043,4107.692383,4136.922852,4102.563965,4106.666504,0.000000,4.000000,,,,0.000000,4.000000,4.000000,4.000000,4.000000,4.000000,4.000000,4.000000,4.000000,4.000000,4.000000,4.000000,4.000000,4.000000,4.000000,100.000000
1602006029.087559,30.000000,0.000000,4105.641113,4138.461426,4112.307617,4136.922852,4138.461426,4128.717773,4131.794922,4126.153809,4123.077148,4250.256348,4106.153809,4135.897461,4100.000000,4100.000000,0.000000,4.000000,,,,0.000000,4.000000,4.000000,4.000000,4.000000,4.000000,4.000000,4.000000,4.000000,4.000000,4.000000,4.000000,4.000000,4.000000,4.000000,100.000000
1602006029.095440,31.000000,0.000000,4108.205078,4142.051270,4116.922852,4138.974121,4137.436035,4126.666504,4136.410156,4132.820313,4132.820313,4262.563965,4111.794922,4135.897461,4096.410156,4086.666748,0.000000,4.000000,,,,0.000000,4.000000,4.000000,4.000000,4.000000,4.000000,4.000000,4.000000,4.000000,4.000000,4.000000,4.000000,4.000000,4.000000,4.000000,100.000000
1602006029.103322,32.000000,0.000000,4113.333496,4142.051270,4117.436035,4138.974121,4129.743652,4124.615234,4126.666504,4135.897461,4138.461426,4280.512695,4118.461426,4134.871582,4096.410156,4086.153809,0.000000,4.000000,,,,0.000000,4.000000,4.000000,4.000000,4.000000,4.000000,4.000000,4.000000,4.000000,4.000000,4.000000,4.000000,4.000000,4.000000,4.000000,100.000000
1602006029.111305,33.000000,0.000000,4120.512695,4142.563965,4121.538574,4141.025879,4126.153809,4117.436035,4120.512695,4131.794922,4136.922852,4298.461426,4121.025879,4141.538574,4101.538574,4095.897461,0.000000,4.000000,,,,0.000000,4.000000,4.000000,4.000000,4.000000,4.000000,4.000000,4.000000,4.000000,4.000000,4.000000,4.000000,4.000000,4.000000,4.000000,100.000000
1602006029.119187,34.000000,0.000000,4125.128418,4145.128418,4124.615234,4140.512695,4136.410156,4113.846191,4122.051270,4124.615234,4137.948730,4300.512695,4121.538574,4151.282227,4111.794922,4102.563965,0.000000,4.000000,,,,0.000000,4.000000,4.000000,4.000000,4.000000,4.000000,4.000000,4.000000,4.000000,4.000000,4.000000,4.000000,4.000000,4.000000,4.000000,100.000000
1602006029.127070,35.000000,0.000000,4122.563965,4142.051270,4122.563965,4136.410156,4138.461426,4117.948730,4118.461426,4124.102539,4136.410156,4291.282227,4127.692383,4155.897461,4118.461426,4111.794922,0.000000,4.000000,,,,0.000000,4.000000,4.000000,4.000000,4.000000,4.000000,4.000000,4.000000,4.000000,4.000000,4.000000,4.000000,4.000000,4.000000,4.000000,100.000000
1602006029.134952,36.000000,0.000000,4127.692383,4137.948730,4126.666504,4134.358887,4133.333496,4128.717773,4121.025879,4133.333496,4136.410156,4285.641113,4136.922852,4160.512695,4123.077148,4129.230957,0.000000,4.000000,,,,0.000000,4.000000,4.000000,4.000000,4.000000,4.000000,4.000000,4.000000,4.000000,4.000000,4.000000,4.000000,4.000000,4.000000,4.000000,100.000000
1602006029.142835,37.000000,0.000000,4145.128418,4148.205078,4136.410156,4136.410156,4146.666504,4139.487305,4133.846191,4141.538574,4143.077148,4281.538574,4141.538574,4170.256348,4131.282227,4140.512695,0.000000,4.000000,,,,0.000000,4.000000,4.000000,4.000000,4.000000,4.000000,4.000000,4.000000,4.000000,4.000000,4.000000,4.000000,4.000000,4.000000,4.000000,100.000000
1602006029.150718,38.000000,0.000000,4153.846191,4151.282227,4141.025879,4138.461426,4155.897461,4140.512695,4137.948730,4136.410156,4142.563965,4284.102539,4134.871582,4172.307617,4133.333496,4139.487305,0.000000,4.000000,,,,0.000000,4.000000,4.000000,4.000000,4.000000,4.000000,4.000000,4.000000,4.000000,4.000000,4.000000,4.000000,4.000000,4.000000,4.000000,100.000000
1602006029.158600,39.000000,0.000000,4147.179688,4142.051270,4149.743652,4139.487305,4142.563965,4134.871582,4136.410156,4128.205078,4131.282227,4294.358887,4124.102539,4167.179688,4125.128418,4141.538574,0.000000,4.000000,,,,0.000000,4.000000,4.000000,4.000000,4.000000,4.000000,4.000000,4.000000,4.000000,4.000000,4.000000,4.000000,4.000000,4.000000,4.000000,100.000000
1602006029.166483,40.000000,0.000000,4144.615234,4147.692383,4156.410156,4143.077148,4133.333496,4133.846191,4136.410156,4123.589844,4122.563965,4296.922852,4128.717773,4167.179688,4121.538574,4146.153809,0.000000,4.000000,,,,0.000000,4.000000,4.000000,4.000000,4.000000,4.000000,4.000000,4.000000,4.000000,4.000000,4.000000,4.000000,4.000000,4.000000,4.000000,100.000000
1602006029.174465,41.000000,0.000000,4146.153809,4155.384766,4144.615234,4143.589844,4135.897461,4131.794922,4128.205078,4112.820313,4115.384766,4291.282227,4134.871582,4161.538574,4124.615234,4138.974121,0.000000,4.000000,,,,0.000000,4.000000,4.000000,4.000000,4.000000,4.000000,4.000000,4.000000,4.000000,4.000000,4.000000,4.000000,4.000000,4.000000,4.000000,100.000000
1602006029.182346,42.000000,0.000000,4133.846191,4145.641113,4125.641113,4141.025879,4137.436035,4127.692383,4120.512695,4107.692383,4106.153809,4269.743652,4125.128418,4145.128418,4121.025879,4126.666504,0.000000,4.000000,,,,0.000000,4.000000,4.000000,4.000000,4.000000,4.000000,4.000000,4.000000,4.000000,4.000000,4.000000,4.000000,4.000000,4.000000,4.000000,100.000000
1602006029.190228,43.000000,0.000000,4119.487305,4135.897461,4116.410156,4135.897461,4138.461426,4128.717773,4124.615234,4115.384766,4102.563965,4242.051270,4115.897461,4136.410156,4109.230957,4115.384766,0.000000,4.000000,,,,0.000000,4.000000,4.000000,4.000000,4.000000,4.000000,4.000000,4.000000,4.000000,4.000000,4.000000,4.000000,4.000000,4.000000,4.000000,100.000000
1602006029.198110,44.000000,0.000000,4119.487305,4135.897461,4109.743652,4130.256348,4140.000000,4126.153809,4128.717773,4121.025879,4114.871582,4249.230957,4118.974121,4135.897461,4103.077148,4110.256348,0.000000,4.000000,,,,0.000000,4.000000,4.000000,4.000000,4.000000,4.000000,4.000000,4.000000,4.000000,4.000000,4.000000,4.000000,4.000000,4.000000,4.000000,100.000000
1602006029.205992,45.000000,0.000000,4119.487305,4137.948730,4103.077148,4130.256348,4141.538574,4126.153809,4125.128418,4126.153809,4137.948730,4271.794922,4129.230957,4140.512695,4115.897461,4123.589844,0.000000,4.000000,,,,0.000000,4.000000,4.000000,4.000000,4.000000,4.000000,4.000000,4.000000,4.000000,4.000000,4.000000,4.000000,4.000000,4.000000,4.000000,100.000000
1602006029.213773,46.000000,0.000000,4117.948730,4141.538574,4106.666504,4136.410156,4151.794922,4133.846191,4123.589844,4140.512695,4155.384766,4270.769043,4140.512695,4149.743652,4134.358887,4142.563965,0.000000,4.000000,,,,0.000000,4.000000,4.000000,4.000000,4.000000,4.000000,4.000000,4.000000,4.000000,4.000000,4.000000,4.000000,4.000000,4.000000,4.000000,100.000000
1602006029.221654,47.000000,0.000000,4126.666504,4141.538574,4116.922852,4137.948730,4152.307617,4138.974121,4125.641113,4154.871582,4166.666504,4276.410156,4140.512695,4154.871582,4139.487305,4136.410156,0.000000,4.000000,,,,0.000000,4.000000,4.000000,4.000000,4.000000,4.000000,4.000000,4.000000,4.000000,4.000000,4.000000,4.000000,4.000000,4.000000,4.000000,100.000000
1602006029.229636,48.000000,0.000000,4135.384766,4142.563965,4127.179688,4134.871582,4144.615234,4134.871582,4132.820313,4158.461426,4168.717773,4301.538574,4138.974121,4158.461426,4145.641113,4124.615234,0.000000,4.000000,,,,0.000000,4.000000,4.000000,4.000000,4.000000,4.000000,4.000000,4.000000,4.000000,4.000000,4.000000,4.000000,4.000000,4.000000,4.000000,100.000000
1602006029.237518,49.000000,0.000000,4137.948730,4150.256348,4136.410156,4136.410156,4149.743652,4138.974121,4136.922852,4151.794922,4161.025879,4302.051270,4152.307617,4167.179688,4158.974121,4140.512695,0.000000,4.000000,,,,0.000000,4.000000,4.000000,4.000000,4.000000,4.000000,4.000000,4.000000,4.000000,4.000000,4.000000,4.000000,4.000000,4.000000,4.000000,100.000000
1602006029.245399,50.000000,0.000000,4142.563965,4156.410156,4145.128418,4141.025879,4152.820313,4152.820313,4137.436035,4140.512695,4151.282227,4283.077148,4161.025879,4174.358887,4165.128418,4163.589844,0.000000,4.000000,,,,0.000000,4.000000,4.000000,4.000000,4.000000,4.000000,4.000000,4.000000,4.000000,4.000000,4.000000,4.000000,4.000000,4.000000,4.000000,100.000000
1602006029.253281,51.000000,0.000000,4144.615234,4149.230957,4145.641113,4138.974121,4137.948730,4154.358887,4141.538574,4133.333496,4141.025879,4280.000000,4150.256348,4172.820313,4154.358887,4157.948730,0.000000,4.000000,,,,0.000000,4.000000,4.000000,4.000000,4.000000,4.000000,4.000000,4.000000,4.000000,4.000000,4.000000,4.000000,4.000000,4.000000,4.000000,100.000000
1602006029.261062,52.000000,0.000000,4140.000000,4140.000000,4135.897461,4134.871582,4125.641113,4140.512695,4145.641113,4124.102539,4122.563965,4269.743652,4136.410156,4160.000000,4133.846191,4131.794922,0.000000,4.000000,,,,0.000000,4.000000,4.000000,4.000000,4.000000,4.000000,4.000000,4.000000,4.000000,4.000000,4.000000,4.000000,4.000000,4.000000,4.000000,100.000000
1602006029.268944,53.000000,0.000000,4141.025879,4137.948730,4127.692383,4136.410156,4128.205078,4127.179688,4140.512695,4107.692383,4104.102539,4240.512695,4126.153809,4136.922852,4119.487305,4121.025879,0.000000,4.000000,,,,0.000000,4.000000,4.000000,4.000000,4.000000,4.000000,4.000000,4.000000,4.000000,4.000000,4.000000,4.000000,4.000000,4.000000,4.000000,100.000000
1602006029.276825,54.000000,0.000000,4134.358887,4132.307617,4122.051270,4132.307617,4129.230957,4123.589844,4129.230957,4100.000000,4098.974121,4217.948730,4107.179688,4117.948730,4099.487305,4113.846191,0.000000,4.000000,,,,0.000000,4.000000,4.000000,4.000000,4.000000,4.000000,4.000000,4.000000,4.000000,4.000000,4.000000,4.000000,4.000000,4.000000,4.000000,100.000000
1602006029.284707,55.000000,0.000000,4119.487305,4124.615234,4119.487305,4126.153809,4134.871582,4130.256348,4125.128418,4110.769043,4107.692383,4216.922852,4097.436035,4119.487305,4077.948730,4096.410156,0.000000,4.000000,,,,0.000000,4.000000,4.000000,4.000000,4.000000,4.000000,4.000000,4.000000,4.000000,4.000000,4.000000,4.000000,4.000000,4.000000,4.000000,100.000000
1602006029.292489,56.000000,0.000000,4126.666504,4134.871582,4118.461426,4134.871582,4148.205078,4137.948730,4124.102539,4121.025879,4129.230957,4228.205078,4116.922852,4131.794922,4093.846191,4107.179688,0.000000,4.000000,,,,0.000000,4.000000,4.000000,4.000000,4.000000,4.000000,4.000000,4.000000,4.000000,4.000000,4.000000,4.000000,4.000000,4.000000,4.000000,100.000000
1602006029.300372,57.000000,0.000000,4141.025879,4149.743652,4121.025879,4143.077148,4156.922852,4135.384766,4113.846191,4126.666504,4147.692383,4238.974121,4136.922852,4142.051270,4131.794922,4145.128418,0.000000,4.000000,,,,0.000000,4.000000,4.000000,4.000000,4.000000,4.000000,4.000000,4.000000,4.000000,4.000000,4.000000,4.000000,4.000000,4.000000,4.000000,100.000000
1602006029.308255,58.000000,0.000000,4136.410156,4144.615234,4127.179688,4140.000000,4158.974121,4129.230957,4104.615234,4132.820313,4156.922852,4245.128418,4142.051270,4153.333496,4149.743652,4161.538574,0.000000,4.000000,,,,0.000000,4.000000,4.000000,4.000000,4.000000,4.000000,4.000000,4.000000,4.000000,4.000000,4.000000,4.000000,4.000000,4.000000,4.000000,100.000000
1602006029.316137,59.000000,0.000000,4133.846191,4133.333496,4137.436035,4140.000000,4153.846191,4132.307617,4110.256348,4139.487305,4163.589844,4251.282227,4155.384766,4169.743652,4168.205078,4169.230957,0.000000,4.000000,,,,0.000000,4.000000,4.000000,4.000000,4.000000,4.000000,4.000000,4.000000,4.000000,4.000000,4.000000,4.000000,4.000000,4.000000,4.000000,100.000000
1602006029.324020,60.000000,0.000000,4143.077148,4126.666504,4150.769043,4137.436035,4145.641113,4140.512695,4127.179688,4149.230957,4170.256348,4264.615234,4173.846191,4184.615234,4202.563965,4200.000000,0.000000,4.000000,,,,0.000000,4.000000,4.000000,4.000000,4.000000,4.000000,4.000000,4.000000,4.000000,4.000000,4.000000,4.000000,4.000000,4.000000,4.000000,100.000000
1602006029.331902,61.000000,0.000000,4142.051270,4113.846191,4161.538574,4123.077148,4135.897461,4149.230957,4149.743652,4164.615234,4177.948730,4277.436035,4182.051270,4198.461426,4218.974121,4222.051270,0.000000,4.000000,,,,0.000000,4.000000,4.000000,4.000000,4.000000,4.000000,4.000000,4.000000,4.000000,4.000000,4.000000,4.000000,4.000000,4.000000,4.000000,100.000000
1602006029.339785,62.000000,0.000000,4138.461426,4108.717773,4171.794922,4118.461426,4123.589844,4154.358887,4170.769043,4173.846191,4181.025879,4282.051270,4189.743652,4213.333496,4220.512695,4221.538574,0.000000,4.000000,,,,0.000000,4.000000,4.000000,4.000000,4.000000,4.000000,4.000000,4.000000,4.000000,4.000000,4.000000,4.000000,4.000000,4.000000,4.000000,100.000000
1602006029.347668,63.000000,0.000000,4143.077148,4114.871582,4173.333496,4127.179688,4119.487305,4156.410156,4178.461426,4170.256348,4174.358887,4274.358887,4194.358887,4214.871582,4224.615234,4221.025879,0.000000,4.000000,,,,0.000000,4.000000,4.000000,4.000000,4.000000,4.000000,4.000000,4.000000,4.000000,4.000000,4.000000,4.000000,4.000000,4.000000,4.000000,100.000000
1602006029.355650,64.000000,0.000000,4134.871582,4111.794922,4160.512695,4129.743652,4128.717773,4155.897461,4171.282227,4155.897461,4155.384766,4256.922852,4183.589844,4195.384766,4212.307617,4210.256348,797.000000,4.000000,,,,0.000000,4.000000,4.000000,4.000000,4.000000,4.000000,4.000000,4.000000,4.000000,4.000000,4.000000,4.000000,4.000000,4.000000,4.000000,100.000000
1602006029.363533,65.000000,0.000000,4116.922852,4106.153809,4140.000000,4123.589844,4138.974121,4143.589844,4154.358887,4133.333496,4133.333496,4234.871582,4166.153809,4168.205078,4185.641113,4185.128418,795.000000,4.000000,,,,0.000000,4.000000,4.000000,4.000000,4.000000,4.000000,4.000000,4.000000,4.000000,4.000000,4.000000,4.000000,4.000000,4.000000,4.000000,100.000000
1602006029.371416,66.000000,0.000000,4104.615234,4107.179688,4123.077148,4121.025879,4141.538574,4127.179688,4134.358887,4118.974121,4121.025879,4214.358887,4148.717773,4150.769043,4169.230957,4165.128418,846.000000,4.000000,,,,0.000000,4.000000,4.000000,4.000000,4.000000,4.000000,4.000000,4.000000,4.000000,4.000000,4.000000,4.000000,4.000000,4.000000,4.000000,100.000000
1602006029.379299,67.000000,0.000000,4093.333252,4098.974121,4112.307617,4119.487305,4137.948730,4121.025879,4119.487305,4118.461426,4116.410156,4197.948730,4136.922852,4137.948730,4162.051270,4146.153809,869.000000,4.000000,,,,0.000000,4.000000,4.000000,4.000000,4.000000,4.000000,4.000000,4.000000,4.000000,4.000000,4.000000,4.000000,4.000000,4.000000,4.000000,100.000000
1602006029.387182,68.000000,0.000000,4086.153809,4088.718018,4105.641113,4114.871582,4140.000000,4126.153809,4113.846191,4122.051270,4125.641113,4202.051270,4131.794922,4124.102539,4153.846191,4125.128418,815.000000,4.000000,,,,0.000000,4.000000,4.000000,4.000000,4.000000,4.000000,4.000000,4.000000,4.000000,4.000000,4.000000,4.000000,4.000000,4.000000,4.000000,100.000000
1602006029.395064,69.000000,0.000000,4088.205078,4090.256348,4102.563965,4109.743652,4151.282227,4133.846191,4113.846191,4132.307617,4145.128418,4224.615234,4131.794922,4124.102539,4151.282227,4129.230957,825.000000,4.000000,,,,0.000000,4.000000,4.000000,4.000000,4.000000,4.000000,4.000000,4.000000,4.000000,4.000000,4.000000,4.000000,4.000000,4.000000,4.000000,100.000000
1602006029.402947,70.000000,0.000000,4088.718018,4086.666748,4100.512695,4107.179688,4152.820313,4140.000000,4125.641113,4148.717773,4156.922852,4229.743652,4138.974121,4132.307617,4154.358887,4152.820313,773.000000,4.000000,,,,0.000000,4.000000,4.000000,4.000000,4.000000,4.000000,4.000000,4.000000,4.000000,4.000000,4.000000,4.000000,4.000000,4.000000,4.000000,100.000000
1602006029.410830,71.000000,0.000000,4085.128174,4079.487061,4106.666504,4106.153809,4141.538574,4147.692383,4145.641113,4162.051270,4161.025879,4210.256348,4151.794922,4145.128418,4159.487305,4152.820313,685.000000,4.000000,,,,0.000000,4.000000,4.000000,4.000000,4.000000,4.000000,4.000000,4.000000,4.000000,4.000000,4.000000,4.000000,4.000000,4.000000,4.000000,100.000000
1602006029.418713,72.000000,0.000000,4095.897461,4085.128174,4120.512695,4105.641113,4137.948730,4154.358887,4156.410156,4168.717773,4174.358887,4206.153809,4164.102539,4162.563965,4172.820313,4146.153809,784.000000,4.000000,,,,0.000000,4.000000,4.000000,4.000000,4.000000,4.000000,4.000000,4.000000,4.000000,4.000000,4.000000,4.000000,4.000000,4.000000,4.000000,100.000000
1602006029.426495,73.000000,0.000000,4116.922852,4092.820557,4140.000000,4112.307617,4137.436035,4155.897461,4163.077148,4173.333496,4189.230957,4230.256348,4172.820313,4174.871582,4187.179688,4173.333496,846.000000,4.000000,,,,0.000000,4.000000,4.000000,4.000000,4.000000,4.000000,4.000000,4.000000,4.000000,4.000000,4.000000,4.000000,4.000000,4.000000,4.000000,100.000000
1602006029.434377,74.000000,0.000000,4125.641113,4092.307617,4154.871582,4116.922852,4123.589844,4149.230957,4170.769043,4169.230957,4185.641113,4250.769043,4174.358887,4177.948730,4191.282227,4198.461426,876.000000,4.000000,,,,0.000000,4.000000,4.000000,4.000000,4.000000,4.000000,4.000000,4.000000,4.000000,4.000000,4.000000,4.000000,4.000000,4.000000,4.000000,100.000000
1602006029.442259,75.000000,0.000000,4125.128418,4091.281982,4159.487305,4112.820313,4107.692383,4141.538574,4169.230957,4161.025879,4173.846191,4245.641113,4169.743652,4182.563965,4188.717773,4186.666504,838.000000,4.000000,,,,0.000000,4.000000,4.000000,4.000000,4.000000,4.000000,4.000000,4.000000,4.000000,4.000000,4.000000,4.000000,4.000000,4.000000,4.000000,100.000000
1602006029.450141,76.000000,0.000000,4130.256348,4093.846191,4166.153809,4115.384766,4110.769043,4138.461426,4161.025879,4158.461426,4170.769043,4237.436035,4172.307617,4192.820313,4187.692383,4175.384766,772.000000,4.000000,,,,0.000000,4.000000,4.000000,4.000000,4.000000,4.000000,4.000000,4.000000,4.000000,4.000000,4.000000,4.000000,4.000000,4.000000,4.000000,100.000000
1602006029.458022,77.000000,0.000000,4132.820313,4096.410156,4170.256348,4124.615234,4122.563965,4141.025879,4158.974121,4152.307617,4168.717773,4231.282227,4172.307617,4191.282227,4185.128418,4178.974121,752.000000,4.000000,,,,0.000000,4.000000,4.000000,4.000000,4.000000,4.000000,4.000000,4.000000,4.000000,4.000000,4.000000,4.000000,4.000000,4.000000,4.000000,100.000000
1602006029.465904,78.000000,0.000000,4120.512695,4092.820557,4154.871582,4118.974121,4122.051270,4142.051270,4156.922852,4140.000000,4158.461426,4204.615234,4155.384766,4177.436035,4172.307617,4167.179688,876.000000,4.000000,,,,0.000000,4.000000,4.000000,4.000000,4.000000,4.000000,4.000000,4.000000,4.000000,4.000000,4.000000,4.000000,4.000000,4.000000,4.000000,100.000000
1602006029.473686,79.000000,0.000000,4109.230957,4093.846191,4137.948730,4108.717773,4119.487305,4137.948730,4146.153809,4136.410156,4153.333496,4181.025879,4142.563965,4164.102539,4154.358887,4146.666504,838.000000,4.000000,,,,0.000000,4.000000,4.000000,4.000000,4.000000,4.000000,4.000000,4.000000,4.000000,4.000000,4.000000,4.000000,4.000000,4.000000,4.000000,100.000000
1602006029.481568,80.000000,0.000000,4110.769043,4103.589844,4138.974121,4116.922852,4131.282227,4133.846191,4136.922852,4140.000000,4161.538574,4191.794922,4150.256348,4158.461426,4150.769043,4147.692383,772.000000,4.000000,,,,0.000000,4.000000,4.000000,4.000000,4.000000,4.000000,4.000000,4.000000,4.000000,4.000000,4.000000,4.000000,4.000000,4.000000,4.000000,100.000000
1602006029.489450,81.000000,0.000000,4114.358887,4110.256348,4137.436035,4127.179688,4142.051270,4132.820313,4129.743652,4140.000000,4163.077148,4201.025879,4157.948730,4157.436035,4157.436035,4156.922852,752.000000,4.000000,,,,0.000000,4.000000,4.000000,4.000000,4.000000,4.000000,4.000000,4.000000,4.000000,4.000000,4.000000,4.000000,4.000000,4.000000,4.000000,100.000000
1602006029.497332,82.000000,0.000000,4107.179688,4103.077148,4121.538574,4122.051270,4140.000000,4131.794922,4121.538574,4132.307617,4151.794922,4191.282227,4142.051270,4152.820313,4151.282227,4157.436035,876.000000,4.000000,,,,0.000000,4.000000,4.000000,4.000000,4.000000,4.000000,4.000000,4.000000,4.000000,4.000000,4.000000,4.000000,4.000000,4.000000,4.000000,100.000000
1602006029.505214,83.000000,0.000000,4092.307617,4092.307617,4103.589844,4114.358887,4136.410156,4126.666504,4117.948730,4122.051270,4136.410156,4177.436035,4121.538574,4142.051270,4136.410156,4148.717773,838.000000,4.000000,,,,0.000000,4.000000,4.000000,4.000000,4.000000,4.000000,4.000000,4.000000,4.000000,4.000000,4.000000,4.000000,4.000000,4.000000,4.000000,100.000000
1602006029.513197,84.000000,0.000000,4081.538574,4089.230713,4090.769287,4109.743652,4135.897461,4122.051270,4120.000000,4115.897461,4122.051270,4149.230957,4116.410156,4127.179688,4130.256348,4133.846191,772.000000,4.000000,,,,0.000000,4.000000,4.000000,4.000000,4.000000,4.000000,4.000000,4.000000,4.000000,4.000000,4.000000,4.000000,4.000000,4.000000,4.000000,100.000000
1602006029.521079,85.000000,0.000000,4082.051270,4093.846191,4090.256348,4111.282227,4138.461426,4120.000000,4125.641113,4117.948730,4118.461426,4133.846191,4120.512695,4123.077148,4135.384766,4133.333496,752.000000,4.000000,,,,0.000000,4.000000,4.000000,4.000000,4.000000,4.000000,4.000000,4.000000,4.000000,4.000000,4.000000,4.000000,4.000000,4.000000,4.000000,100.000000
1602006029.528962,86.000000,0.000000,4091.794922,4101.538574,4100.000000,4117.436035,4136.410156,4115.384766,4130.769043,4125.128418,4123.077148,4155.897461,4129.743652,4132.307617,4144.102539,4146.153809,876.000000,4.000000,,,,0.000000,4.000000,4.000000,4.000000,4.000000,4.000000,4.000000,4.000000,4.000000,4.000000,4.000000,4.000000,4.000000,4.000000,4.000000,100.000000
1602006029.536845,87.000000,0.000000,4104.615234,4107.692383,4113.846191,4123.589844,4127.179688,4116.410156,4134.871582,4134.358887,4130.769043,4160.512695,4148.205078,4151.282227,4156.410156,4153.333496,838.000000,4.000000,,,,0.000000,4.000000,4.000000,4.000000,4.000000,4.000000,4.000000,4.000000,4.000000,4.000000,4.000000,4.000000,4.000000,4.000000,4.000000,100.000000
1602006029.544728,88.000000,0.000000,4111.794922,4110.256348,4125.641113,4125.641113,4125.128418,4130.256348,4140.512695,4144.615234,4146.666504,4150.769043,4165.641113,4171.794922,4171.794922,4164.102539,772.000000,4.000000,,,,0.000000,4.000000,4.000000,4.000000,4.000000,4.000000,4.000000,4.000000,4.000000,4.000000,4.000000,4.000000,4.000000,4.000000,4.000000,100.000000
1602006029.552611,89.000000,0.000000,4109.743652,4108.205078,4127.692383,4123.589844,4122.563965,4137.948730,4143.589844,4151.282227,4159.487305,4172.820313,4164.615234,4170.769043,4176.922852,4179.487305,752.000000,4.000000,,,,0.000000,4.000000,4.000000,4.000000,4.000000,4.000000,4.000000,4.000000,4.000000,4.000000,4.000000,4.000000,4.000000,4.000000,4.000000,100.000000
1602006029.560494,90.000000,0.000000,4113.333496,4105.641113,4126.153809,4120.000000,4117.948730,4135.384766,4146.153809,4153.333496,4160.512695,4190.256348,4161.538574,4160.000000,4175.897461,4178.974121,876.000000,4.000000,,,,0.000000,4.000000,4.000000,4.000000,4.000000,4.000000,4.000000,4.000000,4.000000,4.000000,4.000000,4.000000,4.000000,4.000000,4.000000,100.000000
1602006029.568376,91.000000,0.000000,4122.563965,4105.128418,4127.179688,4120.000000,4127.692383,4142.051270,4149.743652,4151.282227,4162.563965,4174.871582,4167.179688,4160.512695,4180.512695,4170.256348,838.000000,4.000000,,,,0.000000,4.000000,4.000000,4.000000,4.000000,4.000000,4.000000,4.000000,4.000000,4.000000,4.000000,4.000000,4.000000,4.000000,4.000000,100.000000
1602006029.576259,92.000000,0.000000,4126.666504,4106.666504,4129.230957,4123.589844,4141.025879,4153.846191,4154.358887,4152.307617,4170.769043,4168.205078,4172.820313,4165.128418,4184.102539,4169.230957,772.000000,4.000000,,,,0.000000,4.000000,4.000000,4.000000,4.000000,4.000000,4.000000,4.000000,4.000000,4.000000,4.000000,4.000000,4.000000,4.000000,4.000000,100.000000
1602006029.584142,93.000000,0.000000,4123.077148,4107.179688,4130.256348,4122.563965,4139.487305,4153.846191,4154.871582,4153.333496,4170.769043,4175.384766,4162.051270,4158.461426,4171.282227,4162.051270,752.000000,4.000000,,,,0.000000,4.000000,4.000000,4.000000,4.000000,4.000000,4.000000,4.000000,4.000000,4.000000,4.000000,4.000000,4.000000,4.000000,4.000000,100.000000
1602006029.591924,94.000000,0.000000,4111.794922,4096.410156,4125.641113,4112.820313,4135.897461,4139.487305,4147.179688,4143.589844,4154.871582,4157.436035,4137.436035,4140.512695,4147.179688,4141.025879,876.000000,4.000000,,,,0.000000,4.000000,4.000000,4.000000,4.000000,4.000000,4.000000,4.000000,4.000000,4.000000,4.000000,4.000000,4.000000,4.000000,4.000000,100.000000
1602006029.599806,95.000000,0.000000,4101.538574,4084.102539,4118.461426,4108.717773,4138.974121,4127.179688,4137.436035,4132.307617,4135.897461,4121.538574,4127.692383,4131.282227,4133.333496,4128.717773,838.000000,4.000000,,,,0.000000,4.000000,4.000000,4.000000,4.000000,4.000000,4.000000,4.000000,4.000000,4.000000,4.000000,4.000000,4.000000,4.000000,4.000000,100.000000
1602006029.607688,96.000000,0.000000,4105.641113,4090.256348,4127.179688,4117.948730,4137.948730,4122.563965,4128.717773,4125.641113,4128.205078,4109.230957,4128.717773,4142.051270,4132.307617,4137.436035,772.000000,4.000000,,,,0.000000,4.000000,4.000000,4.000000,4.000000,4.000000,4.000000,4.000000,4.000000,4.000000,4.000000,4.000000,4.000000,4.000000,4.000000,100.000000
1602006029.615571,97.000000,0.000000,4116.410156,4103.077148,4139.487305,4125.128418,4136.922852,4123.589844,4123.589844,4121.025879,4132.820313,4120.000000,4129.743652,4155.384766,4138.974121,4152.820313,752.000000,4.000000,,,,0.000000,4.000000,4.000000,4.000000,4.000000,4.000000,4.000000,4.000000,4.000000,4.000000,4.000000,4.000000,4.000000,4.000000,4.000000,100.000000
1602006029.623453,98.000000,0.000000,4118.461426,4105.641113,4136.410156,4122.563965,4137.948730,4122.563965,4118.461426,4123.077148,4137.436035,4124.615234,4135.897461,4154.871582,4146.666504,4156.410156,876.000000,4.000000,,,,0.000000,4.000000,4.000000,4.000000,4.000000,4.000000,4.000000,4.000000,4.000000,4.000000,4.000000,4.000000,4.000000,4.000000,4.000000,100.000000
1602006029.631335,99.000000,0.000000,4118.461426,4102.051270,4134.358887,4120.512695,4130.256348,4118.974121,4116.922852,4131.794922,4140.000000,4122.563965,4143.077148,4150.769043,4146.666504,4149.230957,838.000000,4.000000,,,,0.000000,4.000000,4.000000,4.000000,4.000000,4.000000,4.000000,4.000000,4.000000,4.000000,4.000000,4.000000,4.000000,4.000000,4.000000,100.000000
1602006029.639118,100.000000,0.000000,4126.153809,4109.230957,4137.948730,4125.128418,4128.205078,4126.666504,4126.666504,4141.538574,4151.282227,4125.128418,4147.179688,4153.333496,4149.230957,4149.230957,772.000000,4.000000,,,,0.000000,4.000000,4.000000,4.000000,4.000000,4.000000,4.000000,4.000000,4.000000,4.000000,4.000000,4.000000,4.000000,4.000000,4.000000,100.000000
1602006029.647001,101.000000,0.000000,4133.333496,4122.051270,4138.974121,4132.307617,4145.128418,4140.000000,4138.461426,4150.769043,4169.743652,4135.384766,4161.025879,4171.282227,4172.307617,4170.769043,752.000000,4.000000,,,,0.000000,4.000000,4.000000,4.000000,4.000000,4.000000,4.000000,4.000000,4.000000,4.000000,4.000000,4.000000,4.000000,4.000000,4.000000,100.000000
1602006029.654883,102.000000,0.000000,4141.025879,4129.230957,4149.743652,4137.948730,4153.333496,4145.641113,4146.153809,4162.563965,4186.666504,4157.948730,4181.025879,4196.922852,4199.487305,4201.025879,876.000000,4.000000,,,,0.000000,4.000000,4.000000,4.000000,4.000000,4.000000,4.000000,4.000000,4.000000,4.000000,4.000000,4.000000,4.000000,4.000000,4.000000,100.000000
1602006029.662766,103.000000,0.000000,4152.820313,4129.230957,4164.102539,4136.922852,4142.563965,4144.102539,4153.333496,4172.820313,4197.436035,4168.717773,4186.153809,4205.128418,4206.666504,4212.820313,838.000000,4.000000,,,,0.000000,4.000000,4.000000,4.000000,4.000000,4.000000,4.000000,4.000000,4.000000,4.000000,4.000000,4.000000,4.000000,4.000000,4.000000,100.000000
1602006029.670649,104.000000,0.000000,4151.282227,4117.948730,4160.512695,4126.153809,4137.948730,4141.538574,4157.948730,4172.820313,4197.436035,4156.922852,4182.051270,4200.512695,4201.025879,4202.563965,772.000000,4.000000,,,,0.000000,4.000000,4.000000,4.000000,4.000000,4.000000,4.000000,4.000000,4.000000,4.000000,4.000000,4.000000,4.000000,4.000000,4.000000,100.000000
1602006029.678532,105.000000,0.000000,4128.717773,4096.410156,4148.205078,4111.282227,4141.538574,4137.436035,4156.410156,4162.563965,4184.102539,4151.794922,4174.358887,4200.000000,4191.282227,4190.769043,752.000000,4.000000,,,,0.000000,4.000000,4.000000,4.000000,4.000000,4.000000,4.000000,4.000000,4.000000,4.000000,4.000000,4.000000,4.000000,4.000000,4.000000,100.000000
1602006029.686415,106.000000,0.000000,4102.051270,4077.435791,4133.846191,4098.974121,4135.897461,4136.410156,4150.256348,4151.282227,4169.743652,4141.538574,4161.538574,4188.205078,4172.820313,4177.436035,876.000000,4.000000,,,,0.000000,4.000000,4.000000,4.000000,4.000000,4.000000,4.000000,4.000000,4.000000,4.000000,4.000000,4.000000,4.000000,4.000000,4.000000,100.000000
1602006029.694298,107.000000,0.000000,4082.051270,4068.718018,4113.333496,4092.307617,4134.358887,4137.436035,4136.922852,4136.922852,4152.820313,4108.205078,4140.000000,4156.922852,4146.153809,4148.717773,838.000000,4.000000,,,,0.000000,4.000000,4.000000,4.000000,4.000000,4.000000,4.000000,4.000000,4.000000,4.000000,4.000000,4.000000,4.000000,4.000000,4.000000,100.000000
1602006029.702180,108.000000,0.000000,4071.794922,4072.307617,4095.897461,4094.871826,4139.487305,4134.358887,4125.641113,4121.538574,4131.794922,4088.718018,4113.333496,4133.333496,4119.487305,4119.487305,772.000000,4.000000,,,,0.000000,4.000000,4.000000,4.000000,4.000000,4.000000,4.000000,4.000000,4.000000,4.000000,4.000000,4.000000,4.000000,4.000000,4.000000,100.000000
1602006029.710163,109.000000,0.000000,4070.769287,4083.076904,4088.718018,4102.563965,4137.436035,4131.282227,4121.538574,4110.769043,4118.461426,4080.000000,4104.615234,4130.256348,4102.051270,4111.282227,752.000000,4.000000,,,,0.000000,4.000000,4.000000,4.000000,4.000000,4.000000,4.000000,4.000000,4.000000,4.000000,4.000000,4.000000,4.000000,4.000000,4.000000,100.000000
1602006029.718046,110.000000,0.000000,4074.358887,4095.384521,4090.256348,4109.743652,4140.512695,4129.230957,4115.384766,4108.205078,4116.922852,4055.897461,4117.948730,4134.358887,4105.641113,4121.025879,876.000000,4.000000,,,,0.000000,4.000000,4.000000,4.000000,4.000000,4.000000,4.000000,4.000000,4.000000,4.000000,4.000000,4.000000,4.000000,4.000000,4.000000,100.000000
1602006029.725928,111.000000,0.000000,4088.205078,4108.205078,4107.692383,4121.538574,4151.794922,4124.615234,4115.384766,4113.846191,4118.974121,4061.025635,4130.256348,4144.615234,4122.563965,4132.820313,838.000000,4.000000,,,,0.000000,4.000000,4.000000,4.000000,4.000000,4.000000,4.000000,4.000000,4.000000,4.000000,4.000000,4.000000,4.000000,4.000000,4.000000,100.000000
1602006029.733811,112.000000,0.000000,4114.871582,4126.666504,4133.333496,4138.461426,4156.922852,4120.512695,4124.615234,4123.589844,4126.153809,4095.384521,4135.897461,4156.410156,4136.922852,4138.461426,772.000000,4.000000,,,,0.000000,4.000000,4.000000,4.000000,4.000000,4.000000,4.000000,4.000000,4.000000,4.000000,4.000000,4.000000,4.000000,4.000000,4.000000,100.000000
1602006029.741693,113.000000,0.000000,4126.153809,4137.948730,4139.487305,4143.589844,4149.743652,4115.897461,4125.128418,4126.153809,4134.358887,4089.743652,4140.512695,4155.897461,4138.461426,4139.487305,752.000000,4.000000,,,,0.000000,4.000000,4.000000,4.000000,4.000000,4.000000,4.000000,4.000000,4.000000,4.000000,4.000000,4.000000,4.000000,4.000000,4.000000,100.000000
1602006029.749576,114.000000,0.000000,4121.538574,4138.461426,4135.897461,4138.461426,4143.589844,4108.717773,4120.000000,4125.128418,4134.871582,4074.871826,4141.538574,4148.205078,4137.948730,4142.051270,876.000000,4.000000,,,,0.000000,4.000000,4.000000,4.000000,4.000000,4.000000,4.000000,4.000000,4.000000,4.000000,4.000000,4.000000,4.000000,4.000000,4.000000,100.000000
1602006029.757458,115.000000,0.000000,4128.717773,4140.512695,4146.153809,4143.589844,4141.025879,4109.230957,4127.179688,4131.794922,4135.897461,4099.487305,4142.051270,4155.897461,4149.230957,4143.589844,838.000000,4.000000,,,,0.000000,4.000000,4.000000,4.000000,4.000000,4.000000,4.000000,4.000000,4.000000,4.000000,4.000000,4.000000,4.000000,4.000000,4.000000,100.000000
1602006029.765341,116.000000,0.000000,4140.512695,4147.692383,4154.871582,4153.846191,4137.948730,4118.461426,4135.897461,4137.436035,4137.436035,4107.179688,4147.179688,4165.128418,4157.436035,4146.666504,772.000000,4.000000,,,,0.000000,4.000000,4.000000,4.000000,4.000000,4.000000,4.000000,4.000000,4.000000,4.000000,4.000000,4.000000,4.000000,4.000000,4.000000,100.000000
1602006029.773324,117.000000,0.000000,4140.512695,4155.897461,4145.641113,4154.871582,4146.153809,4125.128418,4138.461426,4136.922852,4136.410156,4089.230713,4150.256348,4162.563965,4156.410156,4156.922852,752.000000,4.000000,,,,0.000000,4.000000,4.000000,4.000000,4.000000,4.000000,4.000000,4.000000,4.000000,4.000000,4.000000,4.000000,4.000000,4.000000,4.000000,100.000000
1602006029.781207,118.000000,0.000000,4138.461426,4152.307617,4136.410156,4153.333496,4151.794922,4130.256348,4141.538574,4141.538574,4146.153809,4106.666504,4153.333496,4166.153809,4155.384766,4160.000000,876.000000,4.000000,,,,0.000000,4.000000,4.000000,4.000000,4.000000,4.000000,4.000000,4.000000,4.000000,4.000000,4.000000,4.000000,4.000000,4.000000,4.000000,100.000000
1602006029.789089,119.000000,0.000000,4136.922852,4141.538574,4144.615234,4154.358887,4145.641113,4137.436035,4143.077148,4148.205078,4157.948730,4115.384766,4157.436035,4182.563965,4157.948730,4154.358887,838.000000,4.000000,,,,0.000000,4.000000,4.000000,4.000000,4.000000,4.000000,4.000000,4.000000,4.000000,4.000000,4.000000,4.000000,4.000000,4.000000,4.000000,100.000000
1602006029.796972,120.000000,0.000000,4132.820313,4137.948730,4155.897461,4150.256348,4140.000000,4135.897461,4141.025879,4145.128418,4149.743652,4077.948730,4152.307617,4191.282227,4155.897461,4155.897461,772.000000,4.000000,,,,0.000000,4.000000,4.000000,4.000000,4.000000,4.000000,4.000000,4.000000,4.000000,4.000000,4.000000,4.000000,4.000000,4.000000,4.000000,100.000000
1602006029.804855,121.000000,0.000000,4133.333496,4138.461426,4154.358887,4143.589844,4141.025879,4127.179688,4135.897461,4139.487305,4140.000000,4066.153809,4142.051270,4187.692383,4149.230957,4161.538574,752.000000,4.000000,,,,0.000000,4.000000,4.000000,4.000000,4.000000,4.000000,4.000000,4.000000,4.000000,4.000000,4.000000,4.000000,4.000000,4.000000,4.000000,100.000000
1602006029.812738,122.000000,0.000000,4126.153809,4129.743652,4138.974121,4138.461426,4138.461426,4127.179688,4129.230957,4139.487305,4142.563965,4084.102539,4136.922852,4181.538574,4142.563965,4156.410156,876.000000,4.000000,,,,0.000000,4.000000,4.000000,4.000000,4.000000,4.000000,4.000000,4.000000,4.000000,4.000000,4.000000,4.000000,4.000000,4.000000,4.000000,100.000000
1602006029.820621,123.000000,0.000000,4107.179688,4111.794922,4121.025879,4126.153809,4133.333496,4126.666504,4122.051270,4134.871582,4143.077148,4081.025635,4128.717773,4173.846191,4132.307617,4144.615234,838.000000,4.000000,,,,0.000000,4.000000,4.000000,4.000000,4.000000,4.000000,4.000000,4.000000,4.000000,4.000000,4.000000,4.000000,4.000000,4.000000,4.000000,100.000000
1602006029.828504,124.000000,0.000000,4102.563965,4102.563965,4117.948730,4117.436035,4135.384766,4121.025879,4117.948730,4125.128418,4136.410156,4072.307617,4123.077148,4166.666504,4123.589844,4132.307617,772.000000,4.000000,,,,0.000000,4.000000,4.000000,4.000000,4.000000,4.000000,4.000000,4.000000,4.000000,4.000000,4.000000,4.000000,4.000000,4.000000,4.000000,100.000000
1602006029.836386,125.000000,0.000000,4105.641113,4105.641113,4117.948730,4123.077148,4140.000000,4127.692383,4115.897461,4123.077148,4129.743652,4062.564209,4126.666504,4157.436035,4122.051270,4120.000000,752.000000,4.000000,,,,0.000000,4.000000,4.000000,4.000000,4.000000,4.000000,4.000000,4.000000,4.000000,4.000000,4.000000,4.000000,4.000000,4.000000,4.000000,100.000000
1602006029.844269,126.000000,0.000000,4096.410156,4106.153809,4108.717773,4126.153809,4143.077148,4135.384766,4114.871582,4121.025879,4124.102539,4050.256348,4124.102539,4144.615234,4121.538574,4118.461426,876.000000,4.000000,,,,0.000000,4.000000,4.000000,4.000000,4.000000,4.000000,4.000000,4.000000,4.000000,4.000000,4.000000,4.000000,4.000000,4.000000,4.000000,100.000000
1602006029.852052,127.000000,0.000000,4099.487305,4105.128418,4106.153809,4121.538574,4140.000000,4127.179688,4116.922852,4115.897461,4126.153809,4058.974365,4120.000000,4141.538574,4125.128418,4127.692383,838.000000,4.000000,,,,0.000000,4.000000,4.000000,4.000000,4.000000,4.000000,4.000000,4.000000,4.000000,4.000000,4.000000,4.000000,4.000000,4.000000,4.000000,100.000000
1602006029.859934,128.000000,0.000000,4122.563965,4115.897461,4121.025879,4128.205078,4141.538574,4126.153809,4126.153809,4121.538574,4135.384766,4073.333252,4127.692383,4149.743652,4140.000000,4136.922852,772.000000,4.000000,,,,0.000000,4.000000,4.000000,4.000000,4.000000,4.000000,4.000000,4.000000,4.000000,4.000000,4.000000,4.000000,4.000000,4.000000,4.000000,100.000000
1602006029.867816,0.000000,0.000000,4131.282227,4126.666504,4134.871582,4141.025879,4151.282227,4138.461426,4141.025879,4136.410156,4141.538574,4076.923096,4140.512695,4160.000000,4155.384766,4145.641113,797.000000,4.000000,,,,0.000000,4.000000,4.000000,4.000000,4.000000,4.000000,4.000000,4.000000,4.000000,4.000000,4.000000,4.000000,4.000000,4.000000,4.000000,100.000000
1602006029.875699,1.000000,0.000000,4124.615234,4124.615234,4138.974121,4141.025879,4147.692383,4137.436035,4148.205078,4140.512695,4143.077148,4092.307617,4152.820313,4162.563965,4157.948730,4155.897461,795.000000,4.000000,,,,0.000000,4.000000,4.000000,4.000000,4.000000,4.000000,4.000000,4.000000,4.000000,4.000000,4.000000,4.000000,4.000000,4.000000,4.000000,100.000000
1602006029.883581,2.000000,0.000000,4126.666504,4121.025879,4142.563965,4131.794922,4131.282227,4126.153809,4140.512695,4140.512695,4144.615234,4102.563965,4158.461426,4160.000000,4155.897461,4162.051270,846.000000,4.000000,,,,0.000000,4.000000,4.000000,4.000000,4.000000,4.000000,4.000000,4.000000,4.000000,4.000000,4.000000,4.000000,4.000000,4.000000,4.000000,100.000000
1602006029.891464,3.000000,0.000000,4121.025879,4113.333496,4137.948730,4124.102539,4126.153809,4118.974121,4126.666504,4141.538574,4140.000000,4084.102539,4145.128418,4154.358887,4155.897461,4154.358887,869.000000,4.000000,,,,0.000000,4.000000,4.000000,4.000000,4.000000,4.000000,4.000000,4.000000,4.000000,4.000000,4.000000,4.000000,4.000000,4.000000,4.000000,100.000000
1602006029.899346,4.000000,0.000000,4098.974121,4095.897461,4124.615234,4118.461426,4133.333496,4116.922852,4118.974121,4133.846191,4133.333496,4073.846191,4136.410156,4147.179688,4152.820313,4136.922852,815.000000,4.000000,,,,0.000000,4.000000,4.000000,4.000000,4.000000,4.000000,4.000000,4.000000,4.000000,4.000000,4.000000,4.000000,4.000000,4.000000,4.000000,100.000000
1602006029.907328,5.000000,0.000000,4095.384521,4091.794922,4120.512695,4118.461426,4137.948730,4125.128418,4118.974121,4125.128418,4141.025879,4083.589844,4152.307617,4147.179688,4153.846191,4138.974121,825.000000,4.000000,,,,0.000000,4.000000,4.000000,4.000000,4.000000,4.000000,4.000000,4.000000,4.000000,4.000000,4.000000,4.000000,4.000000,4.000000,4.000000,100.000000
1602006029.915211,6.000000,0.000000,4111.282227,4103.077148,4124.615234,4121.025879,4145.641113,4138.461426,4121.538574,4127.179688,4153.846191,4085.128174,4161.025879,4154.358887,4159.487305,4155.384766,773.000000,4.000000,,,,0.000000,4.000000,4.000000,4.000000,4.000000,4.000000,4.000000,4.000000,4.000000,4.000000,4.000000,4.000000,4.000000,4.000000,4.000000,100.000000
1602006029.923094,7.000000,0.000000,4108.205078,4103.589844,4125.641113,4115.384766,4153.846191,4136.410156,4121.538574,4126.153809,4153.333496,4084.102539,4141.538574,4152.307617,4160.000000,4146.666504,685.000000,4.000000,,,,0.000000,4.000000,4.000000,4.000000,4.000000,4.000000,4.000000,4.000000,4.000000,4.000000,4.000000,4.000000,4.000000,4.000000,4.000000,100.000000
1602006029.930976,8.000000,0.000000,4092.307617,4093.333252,4122.051270,4110.256348,4150.256348,4123.077148,4120.000000,4117.436035,4146.666504,4091.794922,4127.692383,4143.077148,4150.256348,4119.487305,784.000000,4.000000,,,,0.000000,4.000000,4.000000,4.000000,4.000000,4.000000,4.000000,4.000000,4.000000,4.000000,4.000000,4.000000,4.000000,4.000000,4.000000,100.000000
1602006029.938859,9.000000,0.000000,4093.333252,4095.897461,4114.358887,4116.410156,4142.051270,4119.487305,4118.974121,4117.436035,4139.487305,4090.256348,4135.897461,4142.563965,4140.000000,4116.410156,844.000000,4.000000,,,,0.000000,4.000000,4.000000,4.000000,4.000000,4.000000,4.000000,4.000000,4.000000,4.000000,4.000000,4.000000,4.000000,4.000000,4.000000,100.000000
1602006029.946741,10.000000,0.000000,4103.077148,4112.820313,4108.717773,4125.128418,4139.487305,4123.077148,4121.025879,4124.102539,4126.666504,4076.923096,4135.897461,4146.666504,4137.436035,4132.820313,875.000000,4.000000,,,,0.000000,4.000000,4.000000,4.000000,4.000000,4.000000,4.000000,4.000000,4.000000,4.000000,4.000000,4.000000,4.000000,4.000000,4.000000,100.000000
1602006029.954624,11.000000,0.000000,4106.666504,4124.615234,4114.871582,4130.256348,4136.922852,4120.512695,4122.051270,4122.563965,4120.512695,4076.410156,4122.051270,4147.179688,4138.461426,4139.487305,791.000000,4.000000,,,,0.000000,4.000000,4.000000,4.000000,4.000000,4.000000,4.000000,4.000000,4.000000,4.000000,4.000000,4.000000,4.000000,4.000000,4.000000,100.000000
1602006029.962507,12.000000,0.000000,4106.666504,4124.102539,4120.512695,4134.871582,4135.897461,4118.461426,4120.512695,4120.000000,4122.563965,4070.769287,4124.102539,4145.128418,4135.897461,4137.436035,770.000000,4.000000,,,,0.000000,4.000000,4.000000,4.000000,4.000000,4.000000,4.000000,4.000000,4.000000,4.000000,4.000000,4.000000,4.000000,4.000000,4.000000,100.000000
1602006029.970389,13.000000,0.000000,4107.179688,4124.615234,4124.615234,4137.436035,4138.461426,4122.051270,4121.538574,4129.743652,4123.077148,4049.743652,4139.487305,4142.051270,4135.897461,4134.871582,750.000000,4.000000,,,,0.000000,4.000000,4.000000,4.000000,4.000000,4.000000,4.000000,4.000000,4.000000,4.000000,4.000000,4.000000,4.000000,4.000000,4.000000,100.000000
1602006029.978172,14.000000,0.000000,4114.871582,4133.333496,4135.384766,4138.461426,4140.512695,4125.641113,4123.077148,4136.922852,4130.256348,4061.025635,4142.051270,4144.615234,4146.153809,4137.436035,875.000000,4.000000,,,,0.000000,4.000000,4.000000,4.000000,4.000000,4.000000,4.000000,4.000000,4.000000,4.000000,4.000000,4.000000,4.000000,4.000000,4.000000,100.000000
1602006029.986054,15.000000,0.000000,4123.077148,4140.000000,4142.051270,4141.538574,4142.563965,4133.846191,4125.641113,4129.743652,4140.000000,4097.948730,4134.358887,4152.820313,4153.846191,4149.743652,791.000000,4.000000,,,,0.000000,4.000000,4.000000,4.000000,4.000000,4.000000,4.000000,4.000000,4.000000,4.000000,4.000000,4.000000,4.000000,4.000000,4.000000,100.000000
1602006029.993936,16.000000,0.000000,4124.102539,4137.948730,4140.000000,4142.051270,4144.615234,4138.461426,4129.743652,4121.538574,4139.487305,4095.897461,4137.948730,4159.487305,4155.897461,4156.922852,0.000000,4.000000,,,,0.000000,4.000000,4.000000,4.000000,4.000000,4.000000,4.000000,4.000000,4.000000,4.000000,4.000000,4.000000,4.000000,4.000000,4.000000,100.000000
1602006030.001819,17.000000,0.000000,4123.589844,4137.436035,4139.487305,4139.487305,4143.077148,4129.743652,4128.717773,4121.538574,4132.820313,4074.871826,4150.256348,4158.974121,4157.948730,4152.307617,0.000000,4.000000,,,,0.000000,4.000000,4.000000,4.000000,4.000000,4.000000,4.000000,4.000000,4.000000,4.000000,4.000000,4.000000,4.000000,4.000000,4.000000,100.000000
1602006030.009701,18.000000,0.000000,4125.641113,4139.487305,4139.487305,4141.025879,4142.563965,4127.692383,4131.282227,4124.102539,4137.436035,4099.487305,4158.461426,4157.948730,4161.538574,4157.436035,0.000000,4.000000,,,,0.000000,4.000000,4.000000,4.000000,4.000000,4.000000,4.000000,4.000000,4.000000,4.000000,4.000000,4.000000,4.000000,4.000000,4.000000,100.000000
1602006030.017583,19.000000,0.000000,4123.589844,4135.384766,4135.897461,4138.974121,4144.102539,4138.461426,4136.410156,4125.641113,4141.538574,4119.487305,4151.794922,4153.846191,4162.051270,4168.205078,0.000000,4.000000,,,,0.000000,4.000000,4.000000,4.000000,4.000000,4.000000,4.000000,4.000000,4.000000,4.000000,4.000000,4.000000,4.000000,4.000000,4.000000,100.000000
1602006030.025466,20.000000,0.000000,4121.025879,4127.692383,4134.871582,4131.794922,4141.538574,4137.436035,4132.307617,4127.692383,4132.307617,4084.102539,4140.512695,4146.666504,4158.461426,4156.410156,0.000000,4.000000,,,,0.000000,4.000000,4.000000,4.000000,4.000000,4.000000,4.000000,4.000000,4.000000,4.000000,4.000000,4.000000,4.000000,4.000000,4.000000,100.000000
1602006030.033248,21.000000,0.000000,4120.512695,4126.153809,4136.410156,4133.333496,4138.461426,4126.153809,4128.717773,4129.230957,4125.128418,4068.205078,4137.436035,4145.128418,4153.846191,4143.589844,0.000000,4.000000,,,,0.000000,4.000000,4.000000,4.000000,4.000000,4.000000,4.000000,4.000000,4.000000,4.000000,4.000000,4.000000,4.000000,4.000000,4.000000,100.000000
1602006030.041131,22.000000,0.000000,4120.512695,4127.179688,4135.897461,4138.974121,4137.436035,4121.025879,4130.769043,4125.128418,4124.615234,4096.410156,4137.948730,4150.769043,4151.282227,4150.256348,0.000000,4.000000,,,,0.000000,4.000000,4.000000,4.000000,4.000000,4.000000,4.000000,4.000000,4.000000,4.000000,4.000000,4.000000,4.000000,4.000000,4.000000,100.000000
1602006030.049014,23.000000,0.000000,4125.128418,4127.179688,4135.897461,4137.436035,4138.461426,4120.512695,4130.256348,4122.051270,4122.051270,4091.794922,4138.974121,4159.487305,4151.794922,4153.846191,0.000000,4.000000,,,,0.000000,4.000000,4.000000,4.000000,4.000000,4.000000,4.000000,4.000000,4.000000,4.000000,4.000000,4.000000,4.000000,4.000000,4.000000,100.000000
1602006030.056896,24.000000,0.000000,4125.128418,4128.205078,4139.487305,4136.410156,4141.538574,4121.538574,4127.692383,4130.769043,4127.692383,4066.153809,4137.948730,4167.692383,4153.333496,4151.282227,0.000000,4.000000,,,,0.000000,4.000000,4.000000,4.000000,4.000000,4.000000,4.000000,4.000000,4.000000,4.000000,4.000000,4.000000,4.000000,4.000000,4.000000,100.000000
1602006030.064779,25.000000,0.000000,4120.512695,4127.692383,4140.512695,4138.461426,4141.025879,4115.384766,4125.128418,4134.871582,4138.974121,4081.025635,4137.948730,4171.794922,4155.384766,4157.436035,0.000000,4.000000,,,,0.000000,4.000000,4.000000,4.000000,4.000000,4.000000,4.000000,4.000000,4.000000,4.000000,4.000000,4.000000,4.000000,4.000000,4.000000,100.000000
1602006030.072661,26.000000,0.000000,4128.205078,4129.230957,4134.871582,4135.897461,4137.948730,4109.743652,4121.025879,4126.153809,4136.922852,4097.948730,4146.666504,4167.179688,4157.436035,4159.487305,0.000000,4.000000,,,,0.000000,4.000000,4.000000,4.000000,4.000000,4.000000,4.000000,4.000000,4.000000,4.000000,4.000000,4.000000,4.000000,4.000000,4.000000,100.000000
1602006030.080544,27.000000,0.000000,4142.563965,4138.461426,4136.410156,4138.461426,4140.000000,4118.974121,4122.563965,4124.102539,4134.871582,4091.794922,4152.307617,4166.153809,4161.538574,4155.897461,0.000000,4.000000,,,,0.000000,4.000000,4.000000,4.000000,4.000000,4.000000,4.000000,4.000000,4.000000,4.000000,4.000000,4.000000,4.000000,4.000000,4.000000,100.000000
1602006030.088427,28.000000,0.000000,4139.487305,4137.436035,4139.487305,4142.563965,4138.461426,4123.077148,4122.051270,4125.641113,4140.000000,4088.205078,4142.563965,4169.230957,4162.051270,4155.897461,0.000000,4.000000,,,,0.000000,4.000000,4.000000,4.000000,4.000000,4.000000,4.000000,4.000000,4.000000,4.000000,4.000000,4.000000,4.000000,4.000000,4.000000,100.000000
1602006030.096309,29.000000,0.000000,4131.282227,4125.128418,4137.948730,4132.820313,4133.333496,4116.410156,4116.410156,4120.000000,4132.307617,4084.102539,4137.948730,4169.230957,4154.871582,4156.410156,0.000000,4.000000,,,,0.000000,4.000000,4.000000,4.000000,4.000000,4.000000,4.000000,4.000000,4.000000,4.000000,4.000000,4.000000,4.000000,4.000000,4.000000,100.000000
1602006030.104091,30.000000,0.000000,4138.974121,4123.589844,4145.641113,4125.128418,4137.948730,4122.051270,4125.641113,4119.487305,4125.128418,4082.051270,4149.743652,4173.333496,4157.436035,4156.922852,0.000000,4.000000,,,,0.000000,4.000000,4.000000,4.000000,4.000000,4.000000,4.000000,4.000000,4.000000,4.000000,4.000000,4.000000,4.000000,4.000000,4.000000,100.000000
1602006030.111973,31.000000,0.000000,4140.512695,4127.692383,4150.769043,4127.179688,4135.897461,4129.743652,4136.922852,4122.563965,4122.563965,4075.384521,4149.230957,4171.282227,4160.000000,4152.307617,0.000000,4.000000,,,,0.000000,4.000000,4.000000,4.000000,4.000000,4.000000,4.000000,4.000000,4.000000,4.000000,4.000000,4.000000,4.000000,4.000000,4.000000,100.000000
1602006030.119854,32.000000,0.000000,4126.666504,4121.538574,4140.000000,4124.615234,4124.102539,4125.128418,4137.436035,4122.051270,4107.692383,4060.512939,4131.282227,4157.436035,4146.666504,4141.538574,0.000000,4.000000,,,,0.000000,4.000000,4.000000,4.000000,4.000000,4.000000,4.000000,4.000000,4.000000,4.000000,4.000000,4.000000,4.000000,4.000000,4.000000,100.000000
1602006030.127736,33.000000,0.000000,4118.974121,4110.256348,4130.256348,4117.948730,4123.589844,4130.256348,4138.461426,4122.051270,4105.128418,4066.153809,4118.461426,4143.589844,4130.256348,4127.179688,0.000000,4.000000,,,,0.000000,4.000000,4.000000,4.000000,4.000000,4.000000,4.000000,4.000000,4.000000,4.000000,4.000000,4.000000,4.000000,4.000000,4.000000,100.000000
1602006030.135618,34.000000,0.000000,4121.025879,4104.615234,4123.589844,4116.922852,4128.717773,4138.974121,4137.948730,4125.128418,4119.487305,4081.025635,4108.717773,4131.282227,4118.461426,4108.717773,0.000000,4.000000,,,,0.000000,4.000000,4.000000,4.000000,4.000000,4.000000,4.000000,4.000000,4.000000,4.000000,4.000000,4.000000,4.000000,4.000000,4.000000,100.000000
1602006030.143400,35.000000,0.000000,4120.000000,4109.230957,4116.922852,4120.000000,4130.256348,4131.794922,4129.743652,4130.256348,4120.000000,4065.128174,4107.179688,4124.102539,4109.743652,4105.641113,0.000000,4.000000,,,,0.000000,4.000000,4.000000,4.000000,4.000000,4.000000,4.000000,4.000000,4.000000,4.000000,4.000000,4.000000,4.000000,4.000000,4.000000,100.000000
1602006030.151283,36.000000,0.000000,4121.025879,4118.974121,4125.128418,4126.153809,4135.384766,4124.102539,4126.153809,4137.948730,4122.051270,4056.410156,4118.974121,4134.871582,4113.846191,4125.128418,0.000000,4.000000,,,,0.000000,4.000000,4.000000,4.000000,4.000000,4.000000,4.000000,4.000000,4.000000,4.000000,4.000000,4.000000,4.000000,4.000000,4.000000,100.000000
1602006030.159165,37.000000,0.000000,4132.820313,4127.692383,4141.538574,4136.410156,4138.974121,4125.128418,4130.256348,4140.512695,4136.410156,4081.025635,4127.179688,4153.846191,4127.692383,4138.974121,0.000000,4.000000,,,,0.000000,4.000000,4.000000,4.000000,4.000000,4.000000,4.000000,4.000000,4.000000,4.000000,4.000000,4.000000,4.000000,4.000000,4.000000,100.000000
1602006030.167048,38.000000,0.000000,4144.102539,4128.717773,4145.128418,4137.436035,4136.922852,4126.153809,4127.179688,4134.358887,4133.333496,4096.410156,4129.230957,4158.974121,4135.384766,4140.512695,0.000000,4.000000,,,,0.000000,4.000000,4.000000,4.000000,4.000000,4.000000,4.000000,4.000000,4.000000,4.000000,4.000000,4.000000,4.000000,4.000000,4.000000,100.000000
1602006030.174931,39.000000,0.000000,4145.128418,4125.128418,4143.589844,4130.256348,4135.897461,4126.666504,4121.025879,4125.128418,4121.025879,4091.281982,4136.410156,4154.871582,4137.436035,4144.615234,0.000000,4.000000,,,,0.000000,4.000000,4.000000,4.000000,4.000000,4.000000,4.000000,4.000000,4.000000,4.000000,4.000000,4.000000,4.000000,4.000000,4.000000,100.000000
1602006030.182813,40.000000,0.000000,4144.615234,4122.051270,4143.589844,4128.717773,4130.256348,4132.820313,4124.615234,4118.974121,4121.538574,4082.564209,4135.897461,4155.384766,4136.410156,4143.077148,0.000000,4.000000,,,,0.000000,4.000000,4.000000,4.000000,4.000000,4.000000,4.000000,4.000000,4.000000,4.000000,4.000000,4.000000,4.000000,4.000000,4.000000,100.000000
1602006030.190696,41.000000,0.000000,4140.000000,4123.077148,4140.000000,4131.282227,4123.077148,4138.461426,4134.358887,4116.922852,4116.922852,4068.205078,4123.589844,4155.384766,4130.256348,4137.948730,0.000000,4.000000,,,,0.000000,4.000000,4.000000,4.000000,4.000000,4.000000,4.000000,4.000000,4.000000,4.000000,4.000000,4.000000,4.000000,4.000000,4.000000,100.000000
1602006030.198578,42.000000,0.000000,4129.230957,4125.128418,4135.897461,4129.743652,4126.666504,4136.410156,4137.436035,4117.948730,4108.205078,4058.461426,4118.461426,4148.205078,4125.641113,4139.487305,0.000000,4.000000,,,,0.000000,4.000000,4.000000,4.000000,4.000000,4.000000,4.000000,4.000000,4.000000,4.000000,4.000000,4.000000,4.000000,4.000000,4.000000,100.000000
1602006030.206461,43.000000,0.000000,4125.641113,4124.102539,4135.897461,4126.666504,4126.666504,4128.717773,4133.846191,4121.025879,4113.846191,4067.692383,4121.538574,4142.051270,4123.077148,4138.974121,0.000000,4.000000,,,,0.000000,4.000000,4.000000,4.000000,4.000000,4.000000,4.000000,4.000000,4.000000,4.000000,4.000000,4.000000,4.000000,4.000000,4.000000,100.000000
1602006030.214242,44.000000,0.000000,4132.307617,4125.128418,4132.820313,4125.641113,4120.512695,4125.128418,4135.384766,4129.743652,4122.563965,4072.307617,4126.153809,4145.641113,4127.179688,4136.922852,0.000000,4.000000,,,,0.000000,4.000000,4.000000,4.000000,4.000000,4.000000,4.000000,4.000000,4.000000,4.000000,4.000000,4.000000,4.000000,4.000000,4.000000,100.000000
1602006030.222123,45.000000,0.000000,4126.153809,4122.051270,4125.128418,4122.563965,4121.538574,4128.717773,4139.487305,4133.333496,4122.051270,4069.230713,4127.692383,4146.153809,4127.692383,4134.871582,0.000000,4.000000,,,,0.000000,4.000000,4.000000,4.000000,4.000000,4.000000,4.000000,4.000000,4.000000,4.000000,4.000000,4.000000,4.000000,4.000000,4.000000,100.000000
1602006030.230104,46.000000,0.000000,4109.230957,4109.743652,4117.948730,4117.436035,4124.615234,4125.128418,4135.897461,4127.692383,4120.000000,4068.205078,4114.871582,4135.897461,4109.743652,4117.436035,0.000000,4.000000,,,,0.000000,4.000000,4.000000,4.000000,4.000000,4.000000,4.000000,4.000000,4.000000,4.000000,4.000000,4.000000,4.000000,4.000000,4.000000,100.000000
1602006030.237986,47.000000,0.000000,4112.307617,4111.794922,4121.025879,4120.000000,4125.128418,4117.948730,4134.358887,4129.230957,4121.538574,4069.230713,4105.641113,4132.820313,4098.974121,4104.615234,0.000000,4.000000,,,,0.000000,4.000000,4.000000,4.000000,4.000000,4.000000,4.000000,4.000000,4.000000,4.000000,4.000000,4.000000,4.000000,4.000000,4.000000,100.000000
1602006030.245867,48.000000,0.000000,4123.589844,4124.615234,4130.769043,4129.743652,4126.666504,4122.051270,4138.974121,4135.384766,4121.025879,4073.333252,4112.820313,4133.333496,4103.077148,4108.717773,0.000000,4.000000,,,,0.000000,4.000000,4.000000,4.000000,4.000000,4.000000,4.000000,4.000000,4.000000,4.000000,4.000000,4.000000,4.000000,4.000000,4.000000,100.000000
1602006030.253648,49.000000,0.000000,4117.436035,4122.563965,4126.666504,4127.179688,4127.179688,4125.128418,4137.436035,4128.205078,4113.846191,4066.666748,4110.769043,4124.615234,4096.922852,4107.179688,0.000000,4.000000,,,,0.000000,4.000000,4.000000,4.000000,4.000000,4.000000,4.000000,4.000000,4.000000,4.000000,4.000000,4.000000,4.000000,4.000000,4.000000,100.000000
1602006030.261429,50.000000,0.000000,4110.769043,4114.358887,4115.897461,4117.948730,4124.615234,4120.000000,4130.769043,4121.025879,4106.153809,4044.615479,4098.974121,4123.077148,4090.256348,4108.717773,0.000000,4.000000,,,,0.000000,4.000000,4.000000,4.000000,4.000000,4.000000,4.000000,4.000000,4.000000,4.000000,4.000000,4.000000,4.000000,4.000000,4.000000,100.000000
1602006030.269310,51.000000,0.000000,4122.563965,4121.538574,4124.615234,4127.179688,4124.102539,4125.641113,4131.282227,4128.205078,4110.256348,4039.487061,4109.230957,4143.589844,4102.563965,4127.692383,0.000000,4.000000,,,,0.000000,4.000000,4.000000,4.000000,4.000000,4.000000,4.000000,4.000000,4.000000,4.000000,4.000000,4.000000,4.000000,4.000000,4.000000,100.000000
1602006030.277092,52.000000,0.000000,4133.333496,4128.717773,4144.615234,4136.410156,4132.820313,4137.948730,4138.461426,4129.230957,4122.051270,4067.692383,4128.717773,4156.410156,4111.794922,4131.282227,0.000000,4.000000,,,,0.000000,4.000000,4.000000,4.000000,4.000000,4.000000,4.000000,4.000000,4.000000,4.000000,4.000000,4.000000,4.000000,4.000000,4.000000,100.000000
1602006030.284975,53.000000,0.000000,4122.563965,4121.538574,4141.025879,4126.666504,4136.410156,4140.512695,4140.512695,4123.077148,4128.205078,4085.641113,4125.128418,4142.563965,4104.102539,4113.846191,0.000000,4.000000,,,,0.000000,4.000000,4.000000,4.000000,4.000000,4.000000,4.000000,4.000000,4.000000,4.000000,4.000000,4.000000,4.000000,4.000000,4.000000,100.000000
1602006030.292857,54.000000,0.000000,4107.179688,4108.717773,4123.589844,4120.000000,4127.692383,4138.461426,4132.820313,4117.948730,4121.538574,4070.256348,4102.051270,4123.077148,4094.358887,4097.948730,0.000000,4.000000,,,,0.000000,4.000000,4.000000,4.000000,4.000000,4.000000,4.000000,4.000000,4.000000,4.000000,4.000000,4.000000,4.000000,4.000000,4.000000,100.000000
1602006030.300740,55.000000,0.000000,4098.461426,4102.051270,4116.922852,4121.025879,4122.563965,4133.846191,4124.615234,4109.230957,4106.153809,4052.307617,4085.641113,4114.871582,4086.666748,4081.025635,0.000000,4.000000,,,,0.000000,4.000000,4.000000,4.000000,4.000000,4.000000,4.000000,4.000000,4.000000,4.000000,4.000000,4.000000,4.000000,4.000000,4.000000,100.000000
1602006030.308623,56.000000,0.000000,4099.487305,4110.769043,4121.538574,4121.025879,4128.717773,4121.025879,4120.000000,4103.077148,4094.358887,4051.281982,4095.384521,4123.077148,4088.718018,4073.333252,0.000000,4.000000,,,,0.000000,4.000000,4.000000,4.000000,4.000000,4.000000,4.000000,4.000000,4.000000,4.000000,4.000000,4.000000,4.000000,4.000000,4.000000,100.000000
1602006030.316505,57.000000,0.000000,4110.256348,4126.666504,4127.692383,4129.743652,4129.743652,4109.743652,4120.000000,4106.666504,4096.410156,4051.281982,4114.871582,4140.512695,4102.563965,4091.794922,0.000000,4.000000,,,,0.000000,4.000000,4.000000,4.000000,4.000000,4.000000,4.000000,4.000000,4.000000,4.000000,4.000000,4.000000,4.000000,4.000000,4.000000,100.000000
1602006030.324388,58.000000,0.000000,4127.692383,4137.436035,4136.410156,4139.487305,4123.077148,4106.666504,4119.487305,4117.948730,4104.615234,4052.307617,4121.538574,4149.743652,4117.436035,4116.922852,0.000000,4.000000,,,,0.000000,4.000000,4.000000,4.000000,4.000000,4.000000,4.000000,4.000000,4.000000,4.000000,4.000000,4.000000,4.000000,4.000000,4.000000,100.000000
1602006030.332270,59.000000,0.000000,4149.230957,4145.128418,4150.256348,4142.051270,4121.538574,4104.615234,4118.461426,4129.743652,4112.307617,4075.897461,4129.743652,4160.000000,4131.794922,4135.897461,0.000000,4.000000,,,,0.000000,4.000000,4.000000,4.000000,4.000000,4.000000,4.000000,4.000000,4.000000,4.000000,4.000000,4.000000,4.000000,4.000000,4.000000,100.000000
1602006030.340153,60.000000,0.000000,4166.666504,4154.871582,4164.615234,4150.256348,4124.615234,4113.846191,4128.717773,4140.000000,4126.666504,4106.666504,4150.769043,4183.589844,4149.230957,4158.974121,0.000000,4.000000,,,,0.000000,4.000000,4.000000,4.000000,4.000000,4.000000,4.000000,4.000000,4.000000,4.000000,4.000000,4.000000,4.000000,4.000000,4.000000,100.000000
1602006030.347935,61.000000,0.000000,4170.256348,4160.000000,4172.820313,4159.487305,4128.205078,4134.871582,4140.512695,4147.692383,4143.077148,4117.948730,4163.589844,4197.436035,4161.538574,4178.461426,0.000000,4.000000,,,,0.000000,4.000000,4.000000,4.000000,4.000000,4.000000,4.000000,4.000000,4.000000,4.000000,4.000000,4.000000,4.000000,4.000000,4.000000,100.000000
1602006030.355818,62.000000,0.000000,4159.487305,4153.333496,4167.179688,4151.282227,4128.717773,4144.615234,4142.563965,4148.717773,4144.102539,4104.615234,4153.846191,4187.179688,4152.307617,4168.205078,0.000000,4.000000,,,,0.000000,4.000000,4.000000,4.000000,4.000000,4.000000,4.000000,4.000000,4.000000,4.000000,4.000000,4.000000,4.000000,4.000000,4.000000,100.000000
1602006030.363700,63.000000,0.000000,4154.871582,4144.615234,4159.487305,4138.974121,4124.102539,4140.512695,4139.487305,4140.000000,4132.820313,4078.461426,4134.358887,4170.769043,4133.333496,4144.102539,0.000000,4.000000,,,,0.000000,4.000000,4.000000,4.000000,4.000000,4.000000,4.000000,4.000000,4.000000,4.000000,4.000000,4.000000,4.000000,4.000000,4.000000,100.000000
1602006030.371583,64.000000,0.000000,4154.871582,4137.436035,4151.794922,4140.000000,4122.051270,4138.461426,4131.794922,4124.615234,4125.128418,4065.128174,4118.974121,4157.948730,4121.025879,4133.333496,797.000000,4.000000,,,,0.000000,4.000000,4.000000,4.000000,4.000000,4.000000,4.000000,4.000000,4.000000,4.000000,4.000000,4.000000,4.000000,4.000000,4.000000,100.000000
1602006030.379465,65.000000,0.000000,4137.436035,4124.102539,4132.307617,4134.358887,4121.538574,4132.307617,4120.512695,4110.256348,4115.384766,4074.871826,4109.230957,4137.436035,4108.205078,4124.615234,795.000000,4.000000,,,,0.000000,4.000000,4.000000,4.000000,4.000000,4.000000,4.000000,4.000000,4.000000,4.000000,4.000000,4.000000,4.000000,4.000000,4.000000,100.000000
1602006030.387347,66.000000,0.000000,4116.410156,4115.897461,4115.384766,4123.077148,4118.974121,4123.589844,4118.974121,4102.051270,4104.615234,4071.794922,4102.051270,4117.948730,4096.922852,4113.846191,846.000000,4.000000,,,,0.000000,4.000000,4.000000,4.000000,4.000000,4.000000,4.000000,4.000000,4.000000,4.000000,4.000000,4.000000,4.000000,4.000000,4.000000,100.000000
1602006030.395230,67.000000,0.000000,4123.589844,4126.153809,4119.487305,4127.179688,4125.641113,4129.743652,4125.641113,4105.641113,4102.563965,4053.333252,4106.153809,4121.538574,4098.461426,4115.384766,869.000000,4.000000,,,,0.000000,4.000000,4.000000,4.000000,4.000000,4.000000,4.000000,4.000000,4.000000,4.000000,4.000000,4.000000,4.000000,4.000000,4.000000,100.000000
1602006030.403112,68.000000,0.000000,4141.538574,4139.487305,4131.282227,4137.948730,4142.563965,4134.871582,4125.128418,4116.922852,4105.641113,4061.025635,4124.615234,4144.102539,4111.794922,4129.230957,815.000000,4.000000,,,,0.000000,4.000000,4.000000,4.000000,4.000000,4.000000,4.000000,4.000000,4.000000,4.000000,4.000000,4.000000,4.000000,4.000000,4.000000,100.000000
1602006030.410895,69.000000,0.000000,4144.102539,4141.025879,4143.077148,4140.512695,4149.230957,4130.256348,4123.589844,4125.641113,4107.692383,4080.512939,4138.974121,4164.615234,4131.794922,4142.051270,825.000000,4.000000,,,,0.000000,4.000000,4.000000,4.000000,4.000000,4.000000,4.000000,4.000000,4.000000,4.000000,4.000000,4.000000,4.000000,4.000000,4.000000,100.000000
1602006030.418777,70.000000,0.000000,4142.563965,4139.487305,4152.307617,4139.487305,4142.563965,4126.666504,4126.153809,4126.153809,4106.153809,4074.358887,4142.563965,4167.692383,4138.974121,4146.153809,773.000000,4.000000,,,,0.000000,4.000000,4.000000,4.000000,4.000000,4.000000,4.000000,4.000000,4.000000,4.000000,4.000000,4.000000,4.000000,4.000000,4.000000,100.000000
1602006030.426660,71.000000,0.000000,4143.077148,4134.871582,4147.692383,4135.384766,4136.922852,4123.077148,4124.615234,4122.051270,4105.128418,4072.820557,4136.410156,4157.948730,4126.666504,4133.846191,685.000000,4.000000,,,,0.000000,4.000000,4.000000,4.000000,4.000000,4.000000,4.000000,4.000000,4.000000,4.000000,4.000000,4.000000,4.000000,4.000000,4.000000,100.000000
1602006030.434542,72.000000,0.000000,4140.512695,4127.692383,4137.948730,4132.820313,4132.820313,4126.153809,4124.102539,4126.153809,4112.820313,4088.718018,4126.153809,4149.743652,4120.000000,4124.102539,784.000000,4.000000,,,,0.000000,4.000000,4.000000,4.000000,4.000000,4.000000,4.000000,4.000000,4.000000,4.000000,4.000000,4.000000,4.000000,4.000000,4.000000,100.000000
1602006030.442425,73.000000,0.000000,4138.974121,4125.128418,4140.512695,4136.410156,4127.179688,4133.846191,4126.153809,4136.922852,4127.179688,4094.871826,4122.563965,4152.307617,4127.179688,4129.230957,844.000000,4.000000,,,,0.000000,4.000000,4.000000,4.000000,4.000000,4.000000,4.000000,4.000000,4.000000,4.000000,4.000000,4.000000,4.000000,4.000000,4.000000,100.000000
1602006030.450308,74.000000,0.000000,4139.487305,4124.615234,4140.512695,4136.922852,4123.077148,4128.205078,4121.538574,4140.000000,4130.769043,4095.897461,4122.051270,4148.205078,4122.563965,4126.153809,875.000000,4.000000,,,,0.000000,4.000000,4.000000,4.000000,4.000000,4.000000,4.000000,4.000000,4.000000,4.000000,4.000000,4.000000,4.000000,4.000000,4.000000,100.000000
1602006030.458190,75.000000,0.000000,4141.538574,4123.077148,4136.922852,4133.846191,4123.077148,4116.922852,4111.794922,4130.256348,4122.563965,4099.487305,4117.948730,4135.897461,4109.743652,4117.436035,822.000000,4.000000,,,,0.000000,4.000000,4.000000,4.000000,4.000000,4.000000,4.000000,4.000000,4.000000,4.000000,4.000000,4.000000,4.000000,4.000000,4.000000,100.000000
1602006030.466073,76.000000,0.000000,4141.538574,4125.641113,4141.025879,4131.794922,4124.102539,4121.538574,4113.846191,4123.589844,4113.846191,4074.358887,4120.512695,4136.922852,4107.179688,4120.512695,770.000000,4.000000,,,,0.000000,4.000000,4.000000,4.000000,4.000000,4.000000,4.000000,4.000000,4.000000,4.000000,4.000000,4.000000,4.000000,4.000000,4.000000,100.000000
1602006030.474054,77.000000,0.000000,4131.282227,4123.589844,4140.512695,4126.666504,4124.102539,4129.230957,4122.563965,4121.025879,4107.692383,4039.487061,4125.641113,4143.589844,4108.205078,4125.641113,750.000000,4.000000,,,,0.000000,4.000000,4.000000,4.000000,4.000000,4.000000,4.000000,4.000000,4.000000,4.000000,4.000000,4.000000,4.000000,4.000000,4.000000,100.000000
1602006030.481936,78.000000,0.000000,4120.000000,4110.769043,4125.128418,4119.487305,4126.153809,4125.641113,4127.692383,4115.384766,4102.563965,4050.769287,4121.538574,4141.538574,4103.589844,4122.051270,875.000000,4.000000,,,,0.000000,4.000000,4.000000,4.000000,4.000000,4.000000,4.000000,4.000000,4.000000,4.000000,4.000000,4.000000,4.000000,4.000000,4.000000,100.000000
1602006030.489818,79.000000,0.000000,4122.051270,4108.717773,4118.461426,4119.487305,4130.769043,4122.051270,4134.871582,4116.410156,4102.563965,4087.692383,4119.487305,4139.487305,4108.717773,4117.948730,822.000000,4.000000,,,,0.000000,4.000000,4.000000,4.000000,4.000000,4.000000,4.000000,4.000000,4.000000,4.000000,4.000000,4.000000,4.000000,4.000000,4.000000,100.000000
1602006030.497699,80.000000,0.000000,4124.615234,4118.974121,4124.102539,4122.563965,4130.769043,4124.615234,4137.948730,4120.000000,4106.153809,4095.897461,4118.461426,4143.077148,4116.410156,4120.512695,770.000000,4.000000,,,,0.000000,4.000000,4.000000,4.000000,4.000000,4.000000,4.000000,4.000000,4.000000,4.000000,4.000000,4.000000,4.000000,4.000000,4.000000,100.000000
1602006030.505481,81.000000,0.000000,4118.974121,4121.025879,4121.025879,4122.051270,4127.692383,4124.615234,4130.769043,4115.384766,4105.128418,4082.051270,4113.333496,4140.512695,4113.846191,4122.051270,750.000000,4.000000,,,,0.000000,4.000000,4.000000,4.000000,4.000000,4.000000,4.000000,4.000000,4.000000,4.000000,4.000000,4.000000,4.000000,4.000000,4.000000,100.000000
1602006030.513362,82.000000,0.000000,4117.436035,4118.461426,4114.358887,4122.051270,4126.153809,4118.461426,4123.077148,4114.871582,4110.256348,4090.256348,4114.871582,4136.410156,4114.871582,4118.461426,875.000000,4.000000,,,,0.000000,4.000000,4.000000,4.000000,4.000000,4.000000,4.000000,4.000000,4.000000,4.000000,4.000000,4.000000,4.000000,4.000000,4.000000,100.000000
1602006030.521244,83.000000,0.000000,4121.538574,4122.051270,4117.436035,4124.102539,4125.128418,4118.461426,4113.846191,4121.538574,4129.743652,4100.512695,4128.717773,4147.179688,4127.179688,4120.000000,822.000000,4.000000,,,,0.000000,4.000000,4.000000,4.000000,4.000000,4.000000,4.000000,4.000000,4.000000,4.000000,4.000000,4.000000,4.000000,4.000000,4.000000,100.000000
1602006030.529125,84.000000,0.000000,4132.820313,4129.743652,4127.179688,4129.743652,4128.717773,4123.077148,4103.589844,4125.641113,4142.563965,4090.256348,4141.025879,4165.128418,4141.538574,4137.948730,770.000000,4.000000,,,,0.000000,4.000000,4.000000,4.000000,4.000000,4.000000,4.000000,4.000000,4.000000,4.000000,4.000000,4.000000,4.000000,4.000000,4.000000,100.000000
1602006030.536907,85.000000,0.000000,4152.820313,4138.461426,4142.563965,4137.436035,4136.410156,4120.512695,4102.051270,4132.307617,4140.000000,4090.256348,4145.641113,4174.871582,4155.384766,4158.461426,750.000000,4.000000,,,,0.000000,4.000000,4.000000,4.000000,4.000000,4.000000,4.000000,4.000000,4.000000,4.000000,4.000000,4.000000,4.000000,4.000000,4.000000,100.000000
1602006030.544788,86.000000,0.000000,4163.589844,4142.051270,4153.333496,4141.025879,4137.436035,4117.948730,4103.077148,4136.922852,4140.000000,4098.974121,4144.102539,4170.769043,4158.974121,4160.512695,875.000000,4.000000,,,,0.000000,4.000000,4.000000,4.000000,4.000000,4.000000,4.000000,4.000000,4.000000,4.000000,4.000000,4.000000,4.000000,4.000000,4.000000,100.000000
1602006030.552670,87.000000,0.000000,4152.820313,4135.384766,4147.692383,4138.974121,4134.871582,4121.025879,4102.563965,4126.153809,4140.000000,4095.384521,4136.410156,4160.000000,4145.128418,4140.512695,822.000000,4.000000,,,,0.000000,4.000000,4.000000,4.000000,4.000000,4.000000,4.000000,4.000000,4.000000,4.000000,4.000000,4.000000,4.000000,4.000000,4.000000,100.000000
1602006030.560552,88.000000,0.000000,4140.000000,4128.205078,4142.051270,4135.897461,4136.410156,4121.025879,4112.307617,4113.333496,4121.538574,4093.846191,4122.563965,4154.358887,4129.230957,4121.025879,770.000000,4.000000,,,,0.000000,4.000000,4.000000,4.000000,4.000000,4.000000,4.000000,4.000000,4.000000,4.000000,4.000000,4.000000,4.000000,4.000000,4.000000,100.000000
1602006030.568433,89.000000,0.000000,4132.307617,4122.563965,4137.948730,4130.769043,4133.846191,4119.487305,4128.205078,4107.692383,4100.512695,4088.205078,4109.743652,4148.205078,4115.384766,4124.102539,750.000000,4.000000,,,,0.000000,4.000000,4.000000,4.000000,4.000000,4.000000,4.000000,4.000000,4.000000,4.000000,4.000000,4.000000,4.000000,4.000000,4.000000,100.000000
1602006030.576215,90.000000,0.000000,4121.025879,4116.922852,4126.666504,4123.077148,4121.538574,4120.512695,4135.897461,4106.666504,4096.410156,4061.025635,4105.128418,4137.436035,4102.051270,4127.692383,875.000000,4.000000,,,,0.000000,4.000000,4.000000,4.000000,4.000000,4.000000,4.000000,4.000000,4.000000,4.000000,4.000000,4.000000,4.000000,4.000000,4.000000,100.000000
1602006030.584097,91.000000,0.000000,4122.051270,4118.461426,4120.512695,4123.077148,4117.948730,4119.487305,4144.102539,4116.410156,4104.102539,4060.000000,4107.692383,4138.461426,4104.102539,4116.410156,822.000000,4.000000,,,,0.000000,4.000000,4.000000,4.000000,4.000000,4.000000,4.000000,4.000000,4.000000,4.000000,4.000000,4.000000,4.000000,4.000000,4.000000,100.000000
1602006030.591979,92.000000,0.000000,4134.358887,4123.589844,4124.615234,4125.641113,4124.102539,4120.512695,4154.871582,4129.230957,4114.871582,4092.820557,4114.358887,4151.794922,4116.922852,4113.333496,770.000000,4.000000,,,,0.000000,4.000000,4.000000,4.000000,4.000000,4.000000,4.000000,4.000000,4.000000,4.000000,4.000000,4.000000,4.000000,4.000000,4.000000,100.000000
1602006030.599861,93.000000,0.000000,4137.948730,4125.128418,4129.743652,4125.128418,4124.102539,4123.589844,4151.794922,4130.769043,4127.179688,4100.512695,4122.563965,4155.384766,4125.128418,4124.102539,750.000000,4.000000,,,,0.000000,4.000000,4.000000,4.000000,4.000000,4.000000,4.000000,4.000000,4.000000,4.000000,4.000000,4.000000,4.000000,4.000000,4.000000,100.000000
1602006030.607743,94.000000,0.000000,4136.922852,4127.179688,4135.384766,4131.282227,4120.512695,4119.487305,4140.000000,4127.179688,4134.871582,4089.230713,4127.179688,4148.205078,4132.820313,4126.153809,875.000000,4.000000,,,,0.000000,4.000000,4.000000,4.000000,4.000000,4.000000,4.000000,4.000000,4.000000,4.000000,4.000000,4.000000,4.000000,4.000000,4.000000,100.000000
1602006030.615625,95.000000,0.000000,4140.000000,4129.230957,4138.974121,4135.384766,4122.563965,4115.384766,4126.666504,4122.051270,4136.922852,4091.281982,4126.153809,4144.102539,4133.846191,4123.077148,822.000000,4.000000,,,,0.000000,4.000000,4.000000,4.000000,4.000000,4.000000,4.000000,4.000000,4.000000,4.000000,4.000000,4.000000,4.000000,4.000000,4.000000,100.000000
1602006030.623406,96.000000,0.000000,4136.410156,4123.589844,4135.384766,4130.769043,4130.256348,4119.487305,4112.820313,4122.051270,4146.666504,4090.256348,4122.051270,4147.179688,4125.641113,4129.230957,770.000000,4.000000,,,,0.000000,4.000000,4.000000,4.000000,4.000000,4.000000,4.000000,4.000000,4.000000,4.000000,4.000000,4.000000,4.000000,4.000000,4.000000,100.000000
1602006030.631288,97.000000,0.000000,4132.820313,4122.051270,4134.871582,4131.794922,4140.512695,4128.205078,4106.153809,4132.307617,4157.948730,4085.641113,4120.512695,4152.820313,4129.230957,4134.358887,750.000000,4.000000,,,,0.000000,4.000000,4.000000,4.000000,4.000000,4.000000,4.000000,4.000000,4.000000,4.000000,4.000000,4.000000,4.000000,4.000000,4.000000,100.000000
1602006030.639170,98.000000,0.000000,4136.410156,4126.666504,4140.512695,4138.461426,4145.128418,4136.922852,4101.538574,4135.384766,4151.794922,4091.281982,4124.102539,4153.333496,4135.897461,4137.436035,875.000000,4.000000,,,,0.000000,4.000000,4.000000,4.000000,4.000000,4.000000,4.000000,4.000000,4.000000,4.000000,4.000000,4.000000,4.000000,4.000000,4.000000,100.000000
1602006030.647051,99.000000,0.000000,4131.282227,4119.487305,4142.051270,4131.282227,4137.948730,4137.948730,4099.487305,4123.589844,4134.871582,4092.820557,4122.051270,4150.769043,4126.153809,4137.436035,822.000000,4.000000,,,,0.000000,4.000000,4.000000,4.000000,4.000000,4.000000,4.000000,4.000000,4.000000,4.000000,4.000000,4.000000,4.000000,4.000000,4.000000,100.000000
1602006030.655034,100.000000,0.000000,4128.205078,4112.307617,4139.487305,4122.563965,4132.820313,4128.205078,4110.256348,4113.333496,4117.948730,4090.256348,4110.769043,4152.307617,4117.948730,4128.205078,770.000000,4.000000,,,,0.000000,4.000000,4.000000,4.000000,4.000000,4.000000,4.000000,4.000000,4.000000,4.000000,4.000000,4.000000,4.000000,4.000000,4.000000,100.000000
1602006030.662917,101.000000,0.000000,4133.846191,4116.410156,4141.025879,4129.230957,4135.384766,4117.948730,4122.051270,4108.717773,4106.666504,4093.333252,4109.230957,4153.846191,4128.205078,4125.641113,750.000000,4.000000,,,,0.000000,4.000000,4.000000,4.000000,4.000000,4.000000,4.000000,4.000000,4.000000,4.000000,4.000000,4.000000,4.000000,4.000000,4.000000,100.000000
1602006030.670800,102.000000,0.000000,4140.000000,4127.179688,4151.282227,4136.922852,4137.948730,4118.461426,4121.025879,4109.230957,4110.769043,4090.256348,4129.230957,4154.358887,4144.615234,4142.563965,875.000000,4.000000,,,,0.000000,4.000000,4.000000,4.000000,4.000000,4.000000,4.000000,4.000000,4.000000,4.000000,4.000000,4.000000,4.000000,4.000000,4.000000,100.000000
1602006030.678683,103.000000,0.000000,4149.743652,4136.922852,4163.077148,4140.512695,4135.897461,4119.487305,4119.487305,4116.922852,4121.025879,4093.846191,4143.077148,4158.974121,4156.410156,4156.922852,822.000000,4.000000,,,,0.000000,4.000000,4.000000,4.000000,4.000000,4.000000,4.000000,4.000000,4.000000,4.000000,4.000000,4.000000,4.000000,4.000000,4.000000,100.000000
1602006030.686565,104.000000,0.000000,4152.307617,4133.846191,4161.538574,4142.051270,4126.666504,4109.743652,4121.025879,4122.051270,4125.128418,4113.333496,4136.410156,4154.871582,4153.846191,4152.307617,770.000000,4.000000,,,,0.000000,4.000000,4.000000,4.000000,4.000000,4.000000,4.000000,4.000000,4.000000,4.000000,4.000000,4.000000,4.000000,4.000000,4.000000,100.000000
1602006030.694448,105.000000,0.000000,4139.487305,4122.051270,4147.692383,4136.410156,4120.000000,4099.487305,4120.000000,4120.000000,4135.897461,4107.692383,4133.846191,4145.128418,4146.666504,4148.717773,750.000000,4.000000,,,,0.000000,4.000000,4.000000,4.000000,4.000000,4.000000,4.000000,4.000000,4.000000,4.000000,4.000000,4.000000,4.000000,4.000000,4.000000,100.000000
1602006030.702331,106.000000,0.000000,4134.358887,4127.692383,4140.000000,4132.820313,4128.717773,4112.307617,4123.077148,4129.230957,4155.384766,4088.205078,4143.077148,4146.666504,4152.307617,4157.436035,875.000000,4.000000,,,,0.000000,4.000000,4.000000,4.000000,4.000000,4.000000,4.000000,4.000000,4.000000,4.000000,4.000000,4.000000,4.000000,4.000000,4.000000,100.000000
1602006030.710214,107.000000,0.000000,4143.077148,4143.589844,4141.538574,4140.000000,4140.000000,4133.333496,4126.153809,4147.692383,4167.692383,4108.717773,4145.641113,4156.410156,4160.000000,4156.922852,822.000000,4.000000,,,,0.000000,4.000000,4.000000,4.000000,4.000000,4.000000,4.000000,4.000000,4.000000,4.000000,4.000000,4.000000,4.000000,4.000000,4.000000,100.000000
1602006030.718097,108.000000,0.000000,4141.538574,4137.948730,4137.948730,4140.512695,4140.000000,4141.025879,4125.641113,4153.333496,4171.282227,4135.897461,4135.897461,4152.307617,4153.333496,4143.589844,770.000000,4.000000,,,,0.000000,4.000000,4.000000,4.000000,4.000000,4.000000,4.000000,4.000000,4.000000,4.000000,4.000000,4.000000,4.000000,4.000000,4.000000,100.000000
1602006030.726079,109.000000,0.000000,4133.846191,4125.641113,4132.820313,4127.179688,4135.897461,4147.179688,4128.717773,4143.077148,4166.153809,4114.871582,4122.563965,4140.000000,4142.051270,4136.410156,750.000000,4.000000,,,,0.000000,4.000000,4.000000,4.000000,4.000000,4.000000,4.000000,4.000000,4.000000,4.000000,4.000000,4.000000,4.000000,4.000000,4.000000,100.000000
1602006030.733962,110.000000,0.000000,4132.820313,4124.615234,4135.384766,4122.563965,4128.717773,4149.230957,4130.256348,4131.282227,4145.128418,4085.128174,4118.974121,4136.922852,4132.820313,4142.051270,875.000000,4.000000,,,,0.000000,4.000000,4.000000,4.000000,4.000000,4.000000,4.000000,4.000000,4.000000,4.000000,4.000000,4.000000,4.000000,4.000000,4.000000,100.000000
1602006030.741844,111.000000,0.000000,4127.179688,4115.897461,4135.384766,4123.077148,4113.333496,4133.846191,4123.077148,4117.948730,4123.077148,4090.769287,4118.974121,4137.948730,4122.563965,4137.948730,822.000000,4.000000,,,,0.000000,4.000000,4.000000,4.000000,4.000000,4.000000,4.000000,4.000000,4.000000,4.000000,4.000000,4.000000,4.000000,4.000000,4.000000,100.000000
1602006030.749727,112.000000,0.000000,4125.128418,4107.692383,4133.333496,4121.538574,4112.820313,4122.051270,4118.461426,4108.717773,4117.436035,4094.358887,4115.897461,4134.871582,4120.512695,4126.666504,770.000000,4.000000,,,,0.000000,4.000000,4.000000,4.000000,4.000000,4.000000,4.000000,4.000000,4.000000,4.000000,4.000000,4.000000,4.000000,4.000000,4.000000,100.000000
1602006030.757610,113.000000,0.000000,4136.922852,4121.538574,4142.051270,4128.717773,4124.615234,4121.538574,4121.025879,4114.358887,4120.000000,4078.974365,4122.563965,4138.461426,4132.820313,4131.282227,750.000000,4.000000,,,,0.000000,4.000000,4.000000,4.000000,4.000000,4.000000,4.000000,4.000000,4.000000,4.000000,4.000000,4.000000,4.000000,4.000000,4.000000,100.000000
1602006030.765492,114.000000,0.000000,4150.256348,4139.487305,4157.436035,4141.025879,4126.153809,4110.256348,4121.025879,4122.563965,4124.102539,4097.948730,4138.974121,4150.256348,4150.769043,4149.743652,875.000000,4.000000,,,,0.000000,4.000000,4.000000,4.000000,4.000000,4.000000,4.000000,4.000000,4.000000,4.000000,4.000000,4.000000,4.000000,4.000000,4.000000,100.000000
1602006030.773375,115.000000,0.000000,4156.922852,4140.512695,4167.692383,4146.666504,4124.102539,4094.358887,4120.000000,4128.717773,4137.948730,4126.666504,4151.282227,4160.512695,4161.538574,4161.025879,822.000000,4.000000,,,,0.000000,4.000000,4.000000,4.000000,4.000000,4.000000,4.000000,4.000000,4.000000,4.000000,4.000000,4.000000,4.000000,4.000000,4.000000,100.000000
1602006030.781257,116.000000,0.000000,4158.461426,4139.487305,4167.692383,4146.153809,4126.153809,4098.974121,4129.230957,4144.102539,4152.307617,4110.769043,4153.333496,4165.128418,4160.512695,4162.051270,770.000000,4.000000,,,,0.000000,4.000000,4.000000,4.000000,4.000000,4.000000,4.000000,4.000000,4.000000,4.000000,4.000000,4.000000,4.000000,4.000000,4.000000,100.000000
1602006030.789140,117.000000,0.000000,4149.230957,4139.487305,4159.487305,4140.512695,4129.743652,4116.410156,4141.025879,4156.922852,4157.436035,4102.563965,4145.641113,4162.051270,4150.256348,4158.974121,750.000000,4.000000,,,,0.000000,4.000000,4.000000,4.000000,4.000000,4.000000,4.000000,4.000000,4.000000,4.000000,4.000000,4.000000,4.000000,4.000000,4.000000,100.000000
