Timestamp,EEG.Counter,EEG.Interpolated,EEG.AF3,EEG.F7,EEG.F3,EEG.FC5,EEG.T7,EEG.P7,EEG.O1,EEG.O2,EEG.P8,EEG.T8,EEG.FC6,EEG.F4,EEG.F8,EEG.AF4,EEG.RawCq,EEG.Battery,MarkerIndex,MarkerType,MarkerValueInt,EEG.MarkerHardware,CQ.AF3,CQ.F7,CQ.F3,CQ.FC5,CQ.T7,CQ.P7,CQ.O1,CQ.O2,CQ.P8,CQ.T8,CQ.FC6,CQ.F4,CQ.F8,CQ.AF4,CQ.Overall
1602006038.284453,36.000000,0.000000,4124.102539,4123.077148,4121.538574,4126.153809,4121.538574,4120.000000,4126.153809,4124.615234,4117.948730,4122.563965,4126.666504,4136.922852,4124.102539,4118.974121,0.000000,4.000000,,,,0.000000,4.000000,4.000000,4.000000,4.000000,4.000000,4.000000,4.000000,4.000000,4.000000,4.000000,4.000000,4.000000,4.000000,4.000000,100.000000
1602006038.292236,37.000000,0.000000,4127.692383,4126.153809,4133.846191,4133.846191,4124.615234,4124.102539,4138.461426,4132.820313,4124.102539,4115.897461,4142.051270,4141.025879,4129.230957,4122.051270,0.000000,4.000000,,,,0.000000,4.000000,4.000000,4.000000,4.000000,4.000000,4.000000,4.000000,4.000000,4.000000,4.000000,4.000000,4.000000,4.000000,4.000000,100.000000
1602006038.300119,38.000000,0.000000,4126.666504,4121.025879,4128.717773,4127.179688,4123.077148,4123.077148,4137.948730,4130.769043,4113.333496,4120.512695,4126.153809,4140.512695,4118.974121,4108.717773,0.000000,4.000000,,,,0.000000,4.000000,4.000000,4.000000,4.000000,4.000000,4.000000,4.000000,4.000000,4.000000,4.000000,4.000000,4.000000,4.000000,4.000000,100.000000
1602006038.308001,39.000000,0.000000,4121.538574,4117.436035,4117.948730,4118.974121,4120.000000,4119.487305,4133.333496,4130.256348,4113.846191,4126.153809,4118.461426,4133.846191,4107.179688,4101.025879,0.000000,4.000000,,,,0.000000,4.000000,4.000000,4.000000,4.000000,4.000000,4.000000,4.000000,4.000000,4.000000,4.000000,4.000000,4.000000,4.000000,4.000000,100.000000
1602006038.315884,40.000000,0.000000,4121.025879,4124.102539,4128.717773,4126.153809,4124.102539,4126.153809,4135.384766,4141.025879,4144.102539,4136.410156,4133.846191,4140.512695,4114.358887,4116.922852,0.000000,4.000000,,,,0.000000,4.000000,4.000000,4.000000,4.000000,4.000000,4.000000,4.000000,4.000000,4.000000,4.000000,4.000000,4.000000,4.000000,4.000000,100.000000
1602006038.323767,41.000000,0.000000,4128.205078,4128.717773,4138.974121,4131.282227,4129.743652,4132.820313,4135.897461,4147.692383,4159.487305,4152.307617,4129.743652,4155.384766,4124.615234,4126.666504,0.000000,4.000000,,,,0.000000,4.000000,4.000000,4.000000,4.000000,4.000000,4.000000,4.000000,4.000000,4.000000,4.000000,4.000000,4.000000,4.000000,4.000000,100.000000
1602006038.331649,42.000000,0.000000,4131.794922,4125.641113,4128.717773,4124.102539,4124.102539,4130.769043,4134.871582,4144.102539,4147.179688,4156.410156,4123.589844,4153.846191,4121.538574,4126.153809,0.000000,4.000000,,,,0.000000,4.000000,4.000000,4.000000,4.000000,4.000000,4.000000,4.000000,4.000000,4.000000,4.000000,4.000000,4.000000,4.000000,4.000000,100.000000
1602006038.339532,43.000000,0.000000,4123.589844,4121.538574,4120.512695,4122.051270,4118.461426,4132.307617,4136.410156,4142.051270,4139.487305,4132.307617,4131.794922,4142.563965,4114.871582,4125.128418,0.000000,4.000000,,,,0.000000,4.000000,4.000000,4.000000,4.000000,4.000000,4.000000,4.000000,4.000000,4.000000,4.000000,4.000000,4.000000,4.000000,4.000000,100.000000
1602006038.347414,44.000000,0.000000,4116.922852,4122.563965,4124.102539,4125.641113,4128.717773,4138.974121,4136.922852,4138.974121,4141.538574,4115.897461,4128.205078,4141.025879,4112.820313,4122.563965,0.000000,4.000000,,,,0.000000,4.000000,4.000000,4.000000,4.000000,4.000000,4.000000,4.000000,4.000000,4.000000,4.000000,4.000000,4.000000,4.000000,4.000000,100.000000
1602006038.355396,45.000000,0.000000,4126.153809,4127.692383,4124.615234,4125.641113,4139.487305,4140.512695,4135.384766,4136.410156,4137.436035,4140.512695,4128.717773,4145.641113,4119.487305,4121.538574,0.000000,4.000000,,,,0.000000,4.000000,4.000000,4.000000,4.000000,4.000000,4.000000,4.000000,4.000000,4.000000,4.000000,4.000000,4.000000,4.000000,4.000000,100.000000
1602006038.363277,46.000000,0.000000,4136.410156,4132.820313,4123.077148,4126.153809,4136.410156,4140.000000,4137.948730,4134.871582,4130.256348,4147.692383,4134.871582,4149.230957,4127.692383,4124.102539,0.000000,4.000000,,,,0.000000,4.000000,4.000000,4.000000,4.000000,4.000000,4.000000,4.000000,4.000000,4.000000,4.000000,4.000000,4.000000,4.000000,4.000000,100.000000
1602006038.371159,47.000000,0.000000,4136.410156,4136.922852,4126.153809,4130.769043,4132.820313,4139.487305,4137.948730,4128.205078,4119.487305,4122.563965,4119.487305,4152.820313,4125.641113,4123.589844,0.000000,4.000000,,,,0.000000,4.000000,4.000000,4.000000,4.000000,4.000000,4.000000,4.000000,4.000000,4.000000,4.000000,4.000000,4.000000,4.000000,4.000000,100.000000
1602006038.379041,48.000000,0.000000,4133.846191,4135.897461,4130.769043,4135.897461,4135.384766,4131.282227,4128.205078,4120.512695,4105.641113,4124.102539,4110.256348,4152.307617,4118.461426,4120.512695,0.000000,4.000000,,,,0.000000,4.000000,4.000000,4.000000,4.000000,4.000000,4.000000,4.000000,4.000000,4.000000,4.000000,4.000000,4.000000,4.000000,4.000000,100.000000
1602006038.386922,49.000000,0.000000,4136.922852,4134.871582,4136.410156,4139.487305,4136.410156,4125.128418,4120.512695,4122.051270,4103.077148,4144.102539,4128.205078,4151.282227,4120.000000,4121.538574,0.000000,4.000000,,,,0.000000,4.000000,4.000000,4.000000,4.000000,4.000000,4.000000,4.000000,4.000000,4.000000,4.000000,4.000000,4.000000,4.000000,4.000000,100.000000
1602006038.394705,50.000000,0.000000,4139.487305,4136.922852,4137.948730,4138.974121,4136.410156,4123.077148,4122.051270,4126.666504,4111.794922,4134.358887,4136.922852,4152.820313,4123.077148,4128.205078,0.000000,4.000000,,,,0.000000,4.000000,4.000000,4.000000,4.000000,4.000000,4.000000,4.000000,4.000000,4.000000,4.000000,4.000000,4.000000,4.000000,4.000000,100.000000
1602006038.402588,51.000000,0.000000,4136.410156,4137.436035,4137.948730,4136.922852,4136.922852,4118.974121,4121.538574,4123.077148,4118.974121,4117.948730,4135.897461,4152.307617,4121.538574,4135.897461,0.000000,4.000000,,,,0.000000,4.000000,4.000000,4.000000,4.000000,4.000000,4.000000,4.000000,4.000000,4.000000,4.000000,4.000000,4.000000,4.000000,4.000000,100.000000
1602006038.410471,52.000000,0.000000,4144.102539,4137.948730,4144.615234,4137.436035,4135.897461,4123.589844,4120.512695,4128.717773,4131.282227,4128.717773,4140.512695,4151.794922,4127.179688,4142.051270,0.000000,4.000000,,,,0.000000,4.000000,4.000000,4.000000,4.000000,4.000000,4.000000,4.000000,4.000000,4.000000,4.000000,4.000000,4.000000,4.000000,4.000000,100.000000
1602006038.418354,53.000000,0.000000,4154.358887,4139.487305,4147.692383,4141.538574,4138.461426,4141.025879,4129.230957,4142.051270,4143.077148,4144.615234,4133.846191,4155.384766,4135.384766,4147.179688,0.000000,4.000000,,,,0.000000,4.000000,4.000000,4.000000,4.000000,4.000000,4.000000,4.000000,4.000000,4.000000,4.000000,4.000000,4.000000,4.000000,4.000000,100.000000
1602006038.426237,54.000000,0.000000,4145.128418,4140.512695,4140.512695,4139.487305,4140.000000,4151.282227,4138.974121,4141.025879,4140.000000,4144.615234,4127.179688,4157.436035,4126.666504,4144.102539,0.000000,4.000000,,,,0.000000,4.000000,4.000000,4.000000,4.000000,4.000000,4.000000,4.000000,4.000000,4.000000,4.000000,4.000000,4.000000,4.000000,4.000000,100.000000
1602006038.434120,55.000000,0.000000,4131.282227,4135.384766,4134.871582,4130.769043,4136.410156,4146.153809,4139.487305,4137.948730,4134.871582,4139.487305,4133.333496,4157.948730,4119.487305,4135.384766,0.000000,4.000000,,,,0.000000,4.000000,4.000000,4.000000,4.000000,4.000000,4.000000,4.000000,4.000000,4.000000,4.000000,4.000000,4.000000,4.000000,4.000000,100.000000
1602006038.442002,56.000000,0.000000,4137.948730,4133.333496,4140.000000,4132.820313,4135.897461,4142.051270,4140.000000,4149.743652,4140.000000,4142.051270,4143.589844,4159.487305,4135.897461,4137.436035,0.000000,4.000000,,,,0.000000,4.000000,4.000000,4.000000,4.000000,4.000000,4.000000,4.000000,4.000000,4.000000,4.000000,4.000000,4.000000,4.000000,4.000000,100.000000
1602006038.449885,57.000000,0.000000,4144.615234,4138.461426,4141.025879,4135.897461,4137.436035,4140.000000,4140.000000,4153.333496,4143.589844,4137.948730,4147.179688,4158.461426,4142.563965,4141.025879,0.000000,4.000000,,,,0.000000,4.000000,4.000000,4.000000,4.000000,4.000000,4.000000,4.000000,4.000000,4.000000,4.000000,4.000000,4.000000,4.000000,4.000000,100.000000
1602006038.457768,58.000000,0.000000,4133.846191,4136.922852,4129.230957,4129.230957,4137.948730,4132.307617,4137.436035,4140.512695,4128.205078,4130.256348,4140.512695,4152.820313,4125.641113,4138.461426,0.000000,4.000000,,,,0.000000,4.000000,4.000000,4.000000,4.000000,4.000000,4.000000,4.000000,4.000000,4.000000,4.000000,4.000000,4.000000,4.000000,4.000000,100.000000
1602006038.465751,59.000000,0.000000,4125.128418,4127.179688,4122.051270,4125.128418,4134.358887,4122.051270,4134.871582,4134.871582,4111.282227,4133.846191,4129.743652,4150.769043,4119.487305,4138.461426,0.000000,4.000000,,,,0.000000,4.000000,4.000000,4.000000,4.000000,4.000000,4.000000,4.000000,4.000000,4.000000,4.000000,4.000000,4.000000,4.000000,4.000000,100.000000
1602006038.473633,60.000000,0.000000,4123.589844,4121.538574,4123.589844,4126.666504,4128.205078,4120.000000,4136.410156,4137.436035,4114.358887,4140.512695,4124.615234,4152.820313,4123.077148,4130.256348,0.000000,4.000000,,,,0.000000,4.000000,4.000000,4.000000,4.000000,4.000000,4.000000,4.000000,4.000000,4.000000,4.000000,4.000000,4.000000,4.000000,4.000000,100.000000
1602006038.481516,61.000000,0.000000,4125.128418,4122.563965,4122.051270,4124.615234,4130.769043,4128.205078,4137.436035,4136.410156,4125.641113,4143.077148,4122.563965,4153.333496,4120.512695,4112.820313,0.000000,4.000000,,,,0.000000,4.000000,4.000000,4.000000,4.000000,4.000000,4.000000,4.000000,4.000000,4.000000,4.000000,4.000000,4.000000,4.000000,4.000000,100.000000
1602006038.489398,62.000000,0.000000,4126.666504,4122.563965,4121.025879,4121.538574,4138.974121,4135.384766,4136.410156,4132.307617,4125.641113,4134.871582,4119.487305,4151.794922,4118.974121,4112.820313,0.000000,4.000000,,,,0.000000,4.000000,4.000000,4.000000,4.000000,4.000000,4.000000,4.000000,4.000000,4.000000,4.000000,4.000000,4.000000,4.000000,4.000000,100.000000
1602006038.497281,63.000000,0.000000,4124.102539,4123.589844,4123.589844,4123.589844,4142.051270,4137.436035,4136.922852,4131.794922,4128.717773,4120.000000,4132.307617,4152.820313,4124.615234,4126.153809,0.000000,4.000000,,,,0.000000,4.000000,4.000000,4.000000,4.000000,4.000000,4.000000,4.000000,4.000000,4.000000,4.000000,4.000000,4.000000,4.000000,4.000000,100.000000
1602006038.505163,64.000000,0.000000,4120.000000,4129.743652,4129.230957,4129.230957,4138.974121,4136.410156,4136.922852,4136.922852,4146.153809,4125.128418,4140.512695,4156.410156,4126.666504,4128.717773,800.000000,4.000000,,,,0.000000,4.000000,4.000000,4.000000,4.000000,4.000000,4.000000,4.000000,4.000000,4.000000,4.000000,4.000000,4.000000,4.000000,4.000000,100.000000
1602006038.513046,65.000000,0.000000,4122.563965,4136.410156,4137.436035,4136.922852,4136.410156,4138.974121,4138.461426,4144.102539,4153.846191,4141.538574,4128.717773,4152.307617,4125.128418,4124.102539,799.000000,4.000000,,,,0.000000,4.000000,4.000000,4.000000,4.000000,4.000000,4.000000,4.000000,4.000000,4.000000,4.000000,4.000000,4.000000,4.000000,4.000000,100.000000
1602006038.520929,66.000000,0.000000,4127.692383,4135.384766,4135.897461,4135.897461,4135.897461,4141.025879,4137.436035,4137.436035,4146.153809,4124.102539,4124.102539,4139.487305,4122.563965,4123.589844,849.000000,4.000000,,,,0.000000,4.000000,4.000000,4.000000,4.000000,4.000000,4.000000,4.000000,4.000000,4.000000,4.000000,4.000000,4.000000,4.000000,4.000000,100.000000
1602006038.528910,67.000000,0.000000,4123.589844,4126.153809,4122.563965,4125.128418,4136.410156,4131.794922,4129.230957,4122.563965,4136.922852,4101.025879,4127.692383,4134.358887,4118.461426,4118.461426,869.000000,4.000000,,,,0.000000,4.000000,4.000000,4.000000,4.000000,4.000000,4.000000,4.000000,4.000000,4.000000,4.000000,4.000000,4.000000,4.000000,4.000000,100.000000
1602006038.536792,68.000000,0.000000,4118.974121,4121.538574,4120.512695,4120.000000,4130.769043,4123.077148,4121.538574,4118.461426,4130.769043,4124.102539,4125.128418,4140.000000,4117.948730,4115.897461,815.000000,4.000000,,,,0.000000,4.000000,4.000000,4.000000,4.000000,4.000000,4.000000,4.000000,4.000000,4.000000,4.000000,4.000000,4.000000,4.000000,4.000000,100.000000
1602006038.544674,69.000000,0.000000,4122.563965,4125.641113,4125.128418,4123.077148,4128.205078,4124.615234,4123.077148,4123.077148,4126.666504,4146.153809,4124.615234,4139.487305,4121.538574,4122.563965,829.000000,4.000000,,,,0.000000,4.000000,4.000000,4.000000,4.000000,4.000000,4.000000,4.000000,4.000000,4.000000,4.000000,4.000000,4.000000,4.000000,4.000000,100.000000
1602006038.552556,70.000000,0.000000,4123.077148,4124.615234,4123.077148,4123.589844,4127.692383,4120.512695,4123.077148,4122.563965,4123.077148,4122.051270,4126.666504,4135.384766,4122.563965,4122.563965,766.000000,4.000000,,,,0.000000,4.000000,4.000000,4.000000,4.000000,4.000000,4.000000,4.000000,4.000000,4.000000,4.000000,4.000000,4.000000,4.000000,4.000000,100.000000
1602006038.560438,71.000000,0.000000,4119.487305,4123.589844,4123.077148,4120.000000,4122.563965,4112.307617,4120.000000,4123.589844,4125.641113,4106.153809,4123.077148,4145.128418,4120.512695,4117.948730,676.000000,4.000000,,,,0.000000,4.000000,4.000000,4.000000,4.000000,4.000000,4.000000,4.000000,4.000000,4.000000,4.000000,4.000000,4.000000,4.000000,4.000000,100.000000
1602006038.568320,72.000000,0.000000,4126.153809,4133.333496,4129.743652,4127.179688,4126.153809,4118.461426,4126.153809,4133.846191,4132.820313,4132.820313,4122.563965,4157.436035,4123.589844,4126.666504,785.000000,4.000000,,,,0.000000,4.000000,4.000000,4.000000,4.000000,4.000000,4.000000,4.000000,4.000000,4.000000,4.000000,4.000000,4.000000,4.000000,4.000000,100.000000
1602006038.576103,73.000000,0.000000,4139.487305,4142.051270,4128.717773,4138.461426,4138.461426,4127.179688,4131.794922,4138.974121,4143.077148,4147.179688,4130.256348,4157.948730,4127.179688,4141.538574,843.000000,4.000000,,,,0.000000,4.000000,4.000000,4.000000,4.000000,4.000000,4.000000,4.000000,4.000000,4.000000,4.000000,4.000000,4.000000,4.000000,4.000000,100.000000
1602006038.583985,74.000000,0.000000,4137.436035,4137.948730,4122.563965,4137.436035,4138.461426,4121.538574,4125.641113,4135.897461,4150.256348,4119.487305,4135.897461,4154.358887,4131.282227,4137.436035,870.000000,4.000000,,,,0.000000,4.000000,4.000000,4.000000,4.000000,4.000000,4.000000,4.000000,4.000000,4.000000,4.000000,4.000000,4.000000,4.000000,4.000000,100.000000
1602006038.591868,75.000000,0.000000,4126.153809,4135.897461,4123.077148,4132.820313,4134.358887,4119.487305,4119.487305,4136.410156,4152.307617,4115.384766,4140.512695,4149.743652,4139.487305,4116.410156,835.000000,4.000000,,,,0.000000,4.000000,4.000000,4.000000,4.000000,4.000000,4.000000,4.000000,4.000000,4.000000,4.000000,4.000000,4.000000,4.000000,4.000000,100.000000
1602006038.599750,76.000000,0.000000,4123.589844,4140.000000,4123.077148,4133.333496,4140.000000,4130.769043,4125.641113,4139.487305,4154.358887,4148.205078,4136.410156,4144.615234,4137.436035,4107.692383,773.000000,4.000000,,,,0.000000,4.000000,4.000000,4.000000,4.000000,4.000000,4.000000,4.000000,4.000000,4.000000,4.000000,4.000000,4.000000,4.000000,4.000000,100.000000
1602006038.607633,77.000000,0.000000,4122.563965,4132.820313,4112.820313,4128.717773,4135.897461,4140.512695,4135.384766,4133.846191,4154.871582,4151.282227,4123.077148,4142.051270,4123.589844,4119.487305,748.000000,4.000000,,,,0.000000,4.000000,4.000000,4.000000,4.000000,4.000000,4.000000,4.000000,4.000000,4.000000,4.000000,4.000000,4.000000,4.000000,4.000000,100.000000
1602006038.615516,78.000000,0.000000,4119.487305,4120.000000,4109.743652,4121.025879,4121.538574,4142.051270,4139.487305,4129.743652,4148.717773,4133.333496,4122.051270,4141.025879,4119.487305,4126.153809,870.000000,4.000000,,,,0.000000,4.000000,4.000000,4.000000,4.000000,4.000000,4.000000,4.000000,4.000000,4.000000,4.000000,4.000000,4.000000,4.000000,4.000000,100.000000
1602006038.623398,79.000000,0.000000,4123.589844,4116.922852,4120.000000,4120.000000,4124.615234,4141.025879,4138.461426,4134.358887,4142.051270,4137.436035,4132.820313,4141.538574,4124.102539,4122.563965,835.000000,4.000000,,,,0.000000,4.000000,4.000000,4.000000,4.000000,4.000000,4.000000,4.000000,4.000000,4.000000,4.000000,4.000000,4.000000,4.000000,4.000000,100.000000
1602006038.631281,80.000000,0.000000,4128.205078,4120.000000,4125.128418,4121.538574,4137.948730,4139.487305,4142.563965,4140.512695,4141.538574,4148.205078,4137.948730,4150.256348,4123.589844,4132.307617,773.000000,4.000000,,,,0.000000,4.000000,4.000000,4.000000,4.000000,4.000000,4.000000,4.000000,4.000000,4.000000,4.000000,4.000000,4.000000,4.000000,4.000000,100.000000
1602006038.639263,81.000000,0.000000,4126.153809,4121.025879,4123.589844,4122.563965,4138.461426,4137.436035,4152.307617,4146.666504,4141.025879,4140.000000,4140.000000,4156.922852,4123.589844,4134.358887,748.000000,4.000000,,,,0.000000,4.000000,4.000000,4.000000,4.000000,4.000000,4.000000,4.000000,4.000000,4.000000,4.000000,4.000000,4.000000,4.000000,4.000000,100.000000
1602006038.647146,82.000000,0.000000,4123.589844,4121.025879,4124.102539,4123.589844,4132.307617,4136.922852,4154.871582,4151.794922,4142.051270,4119.487305,4135.897461,4154.358887,4122.563965,4112.820313,870.000000,4.000000,,,,0.000000,4.000000,4.000000,4.000000,4.000000,4.000000,4.000000,4.000000,4.000000,4.000000,4.000000,4.000000,4.000000,4.000000,4.000000,100.000000
1602006038.655029,83.000000,0.000000,4124.102539,4121.025879,4123.077148,4123.077148,4133.846191,4134.871582,4146.153809,4153.333496,4150.769043,4105.128418,4124.615234,4150.256348,4118.461426,4106.666504,835.000000,4.000000,,,,0.000000,4.000000,4.000000,4.000000,4.000000,4.000000,4.000000,4.000000,4.000000,4.000000,4.000000,4.000000,4.000000,4.000000,4.000000,100.000000
1602006038.662912,84.000000,0.000000,4131.794922,4124.102539,4121.025879,4127.179688,4137.436035,4129.230957,4137.948730,4149.230957,4155.384766,4122.051270,4123.589844,4144.615234,4121.025879,4125.641113,773.000000,4.000000,,,,0.000000,4.000000,4.000000,4.000000,4.000000,4.000000,4.000000,4.000000,4.000000,4.000000,4.000000,4.000000,4.000000,4.000000,4.000000,100.000000
1602006038.670795,85.000000,0.000000,4134.358887,4131.794922,4123.077148,4135.384766,4136.922852,4124.102539,4137.948730,4142.051270,4155.384766,4155.897461,4125.128418,4137.948730,4125.641113,4131.282227,748.000000,4.000000,,,,0.000000,4.000000,4.000000,4.000000,4.000000,4.000000,4.000000,4.000000,4.000000,4.000000,4.000000,4.000000,4.000000,4.000000,4.000000,100.000000
1602006038.678678,86.000000,0.000000,4126.153809,4134.871582,4124.615234,4138.974121,4135.384766,4119.487305,4134.871582,4137.948730,4156.410156,4156.410156,4119.487305,4140.512695,4123.077148,4118.461426,870.000000,4.000000,,,,0.000000,4.000000,4.000000,4.000000,4.000000,4.000000,4.000000,4.000000,4.000000,4.000000,4.000000,4.000000,4.000000,4.000000,4.000000,100.000000
1602006038.686560,87.000000,0.000000,4124.102539,4135.897461,4129.230957,4136.922852,4139.487305,4123.589844,4131.282227,4139.487305,4155.384766,4137.436035,4129.230957,4151.282227,4128.717773,4126.666504,835.000000,4.000000,,,,0.000000,4.000000,4.000000,4.000000,4.000000,4.000000,4.000000,4.000000,4.000000,4.000000,4.000000,4.000000,4.000000,4.000000,4.000000,100.000000
1602006038.694443,88.000000,0.000000,4130.256348,4138.461426,4138.461426,4138.461426,4137.948730,4132.820313,4133.333496,4138.461426,4147.692383,4143.589844,4143.077148,4155.897461,4138.974121,4141.025879,773.000000,4.000000,,,,0.000000,4.000000,4.000000,4.000000,4.000000,4.000000,4.000000,4.000000,4.000000,4.000000,4.000000,4.000000,4.000000,4.000000,4.000000,100.000000
1602006038.702326,89.000000,0.000000,4125.641113,4131.794922,4138.974121,4136.922852,4130.256348,4128.205078,4136.922852,4134.871582,4140.000000,4142.563965,4136.922852,4152.820313,4133.333496,4128.205078,748.000000,4.000000,,,,0.000000,4.000000,4.000000,4.000000,4.000000,4.000000,4.000000,4.000000,4.000000,4.000000,4.000000,4.000000,4.000000,4.000000,4.000000,100.000000
1602006038.710309,90.000000,0.000000,4117.948730,4121.025879,4128.205078,4129.743652,4131.794922,4117.948730,4135.384766,4133.846191,4133.846191,4109.230957,4132.820313,4153.333496,4125.128418,4116.410156,870.000000,4.000000,,,,0.000000,4.000000,4.000000,4.000000,4.000000,4.000000,4.000000,4.000000,4.000000,4.000000,4.000000,4.000000,4.000000,4.000000,4.000000,100.000000
1602006038.718191,91.000000,0.000000,4120.000000,4124.615234,4120.512695,4127.692383,4137.948730,4119.487305,4133.333496,4133.846191,4133.846191,4104.102539,4141.025879,4155.384766,4127.692383,4134.358887,835.000000,4.000000,,,,0.000000,4.000000,4.000000,4.000000,4.000000,4.000000,4.000000,4.000000,4.000000,4.000000,4.000000,4.000000,4.000000,4.000000,4.000000,100.000000
1602006038.726074,92.000000,0.000000,4109.743652,4119.487305,4120.000000,4123.077148,4131.282227,4122.563965,4137.436035,4137.948730,4144.615234,4138.461426,4133.333496,4152.307617,4127.179688,4134.358887,773.000000,4.000000,,,,0.000000,4.000000,4.000000,4.000000,4.000000,4.000000,4.000000,4.000000,4.000000,4.000000,4.000000,4.000000,4.000000,4.000000,4.000000,100.000000
1602006038.733956,93.000000,0.000000,4097.436035,4101.025879,4118.461426,4114.358887,4124.615234,4123.077148,4142.051270,4144.102539,4152.307617,4145.641113,4120.000000,4151.794922,4119.487305,4100.000000,748.000000,4.000000,,,,0.000000,4.000000,4.000000,4.000000,4.000000,4.000000,4.000000,4.000000,4.000000,4.000000,4.000000,4.000000,4.000000,4.000000,4.000000,100.000000
1602006038.741839,94.000000,0.000000,4116.410156,4116.410156,4121.025879,4121.025879,4130.769043,4125.641113,4140.512695,4142.563965,4151.794922,4131.282227,4128.717773,4150.769043,4121.025879,4099.487305,870.000000,4.000000,,,,0.000000,4.000000,4.000000,4.000000,4.000000,4.000000,4.000000,4.000000,4.000000,4.000000,4.000000,4.000000,4.000000,4.000000,4.000000,100.000000
1602006038.749722,95.000000,0.000000,4145.128418,4149.743652,4124.102539,4136.922852,4136.410156,4127.692383,4135.897461,4138.974121,4157.436035,4137.948730,4138.974121,4144.615234,4122.563965,4127.179688,835.000000,4.000000,,,,0.000000,4.000000,4.000000,4.000000,4.000000,4.000000,4.000000,4.000000,4.000000,4.000000,4.000000,4.000000,4.000000,4.000000,4.000000,100.000000
1602006038.757604,96.000000,0.000000,4152.820313,4157.948730,4122.051270,4140.512695,4137.436035,4132.820313,4137.436035,4139.487305,4167.692383,4141.538574,4131.794922,4141.025879,4111.794922,4124.615234,773.000000,4.000000,,,,0.000000,4.000000,4.000000,4.000000,4.000000,4.000000,4.000000,4.000000,4.000000,4.000000,4.000000,4.000000,4.000000,4.000000,4.000000,100.000000
1602006038.765487,97.000000,0.000000,4157.948730,4160.512695,4122.051270,4137.436035,4131.282227,4138.974121,4138.461426,4140.512695,4164.102539,4128.205078,4117.948730,4140.000000,4095.384521,4105.641113,748.000000,4.000000,,,,0.000000,4.000000,4.000000,4.000000,4.000000,4.000000,4.000000,4.000000,4.000000,4.000000,4.000000,4.000000,4.000000,4.000000,4.000000,100.000000
1602006038.773369,98.000000,0.000000,4169.743652,4168.205078,4124.102539,4137.948730,4123.589844,4131.794922,4134.358887,4137.436035,4148.205078,4120.512695,4105.128418,4138.974121,4080.000000,4102.563965,870.000000,4.000000,,,,0.000000,4.000000,4.000000,4.000000,4.000000,4.000000,4.000000,4.000000,4.000000,4.000000,4.000000,4.000000,4.000000,4.000000,4.000000,100.000000
1602006038.781151,99.000000,0.000000,4170.769043,4166.666504,4124.102539,4140.000000,4126.666504,4123.077148,4134.871582,4133.846191,4138.974121,4120.512695,4106.153809,4138.974121,4079.487061,4105.641113,835.000000,4.000000,,,,0.000000,4.000000,4.000000,4.000000,4.000000,4.000000,4.000000,4.000000,4.000000,4.000000,4.000000,4.000000,4.000000,4.000000,4.000000,100.000000
1602006038.789032,100.000000,0.000000,4172.307617,4166.666504,4130.256348,4144.102539,4131.282227,4125.128418,4134.871582,4137.436035,4138.461426,4123.589844,4119.487305,4141.025879,4091.281982,4112.307617,773.000000,4.000000,,,,0.000000,4.000000,4.000000,4.000000,4.000000,4.000000,4.000000,4.000000,4.000000,4.000000,4.000000,4.000000,4.000000,4.000000,4.000000,100.000000
1602006038.796914,101.000000,0.000000,4172.307617,4165.128418,4137.436035,4142.051270,4127.179688,4126.153809,4124.102539,4135.897461,4132.820313,4121.025879,4108.717773,4139.487305,4087.179443,4115.897461,748.000000,4.000000,,,,0.000000,4.000000,4.000000,4.000000,4.000000,4.000000,4.000000,4.000000,4.000000,4.000000,4.000000,4.000000,4.000000,4.000000,4.000000,100.000000
1602006038.804795,102.000000,0.000000,4158.974121,4153.333496,4135.897461,4137.948730,4122.563965,4122.563965,4120.000000,4128.205078,4125.641113,4116.410156,4091.281982,4136.922852,4075.384521,4105.128418,870.000000,4.000000,,,,0.000000,4.000000,4.000000,4.000000,4.000000,4.000000,4.000000,4.000000,4.000000,4.000000,4.000000,4.000000,4.000000,4.000000,4.000000,100.000000
1602006038.812578,103.000000,0.000000,4153.333496,4154.871582,4137.436035,4141.538574,4124.615234,4124.615234,4131.282227,4130.769043,4130.256348,4112.820313,4113.846191,4142.563965,4086.153809,4107.179688,835.000000,4.000000,,,,0.000000,4.000000,4.000000,4.000000,4.000000,4.000000,4.000000,4.000000,4.000000,4.000000,4.000000,4.000000,4.000000,4.000000,4.000000,100.000000
1602006038.820461,104.000000,0.000000,4157.948730,4164.615234,4141.538574,4144.102539,4133.846191,4129.230957,4141.025879,4140.512695,4140.000000,4104.615234,4137.436035,4148.717773,4099.487305,4115.897461,773.000000,4.000000,,,,0.000000,4.000000,4.000000,4.000000,4.000000,4.000000,4.000000,4.000000,4.000000,4.000000,4.000000,4.000000,4.000000,4.000000,4.000000,100.000000
1602006038.828344,105.000000,0.000000,4156.410156,4161.025879,4136.922852,4141.025879,4137.948730,4133.846191,4149.230957,4142.563965,4146.666504,4108.205078,4125.641113,4151.794922,4097.436035,4111.794922,748.000000,4.000000,,,,0.000000,4.000000,4.000000,4.000000,4.000000,4.000000,4.000000,4.000000,4.000000,4.000000,4.000000,4.000000,4.000000,4.000000,4.000000,100.000000
1602006038.836227,106.000000,0.000000,4153.333496,4155.384766,4134.871582,4139.487305,4127.179688,4138.461426,4158.461426,4141.025879,4153.333496,4133.846191,4119.487305,4155.384766,4102.051270,4113.846191,870.000000,4.000000,,,,0.000000,4.000000,4.000000,4.000000,4.000000,4.000000,4.000000,4.000000,4.000000,4.000000,4.000000,4.000000,4.000000,4.000000,4.000000,100.000000
1602006038.844109,107.000000,0.000000,4156.922852,4155.384766,4135.384766,4137.948730,4120.512695,4140.000000,4158.974121,4143.077148,4155.897461,4150.769043,4134.871582,4160.512695,4110.256348,4123.077148,835.000000,4.000000,,,,0.000000,4.000000,4.000000,4.000000,4.000000,4.000000,4.000000,4.000000,4.000000,4.000000,4.000000,4.000000,4.000000,4.000000,4.000000,100.000000
1602006038.851992,108.000000,0.000000,4154.871582,4155.384766,4128.205078,4136.922852,4128.717773,4138.974121,4154.871582,4148.205078,4154.358887,4144.615234,4137.948730,4157.436035,4103.077148,4118.461426,773.000000,4.000000,,,,0.000000,4.000000,4.000000,4.000000,4.000000,4.000000,4.000000,4.000000,4.000000,4.000000,4.000000,4.000000,4.000000,4.000000,4.000000,100.000000
1602006038.859875,109.000000,0.000000,4145.128418,4154.358887,4124.102539,4137.948730,4130.256348,4140.000000,4156.410156,4150.256348,4150.256348,4133.333496,4117.948730,4151.282227,4089.743652,4112.307617,748.000000,4.000000,,,,0.000000,4.000000,4.000000,4.000000,4.000000,4.000000,4.000000,4.000000,4.000000,4.000000,4.000000,4.000000,4.000000,4.000000,4.000000,100.000000
1602006038.867758,110.000000,0.000000,4141.538574,4153.333496,4126.666504,4137.436035,4125.641113,4140.512695,4154.358887,4143.589844,4136.922852,4121.025879,4102.563965,4151.794922,4085.128174,4112.820313,870.000000,4.000000,,,,0.000000,4.000000,4.000000,4.000000,4.000000,4.000000,4.000000,4.000000,4.000000,4.000000,4.000000,4.000000,4.000000,4.000000,4.000000,100.000000
1602006038.875641,111.000000,0.000000,4149.743652,4152.307617,4127.692383,4136.410156,4126.666504,4138.461426,4145.641113,4137.948730,4129.743652,4102.563965,4107.179688,4151.282227,4089.230713,4109.230957,835.000000,4.000000,,,,0.000000,4.000000,4.000000,4.000000,4.000000,4.000000,4.000000,4.000000,4.000000,4.000000,4.000000,4.000000,4.000000,4.000000,4.000000,100.000000
1602006038.883623,112.000000,0.000000,4153.846191,4152.307617,4128.205078,4138.461426,4126.666504,4138.461426,4140.000000,4140.000000,4135.384766,4090.769287,4110.256348,4140.512695,4089.230713,4105.641113,773.000000,4.000000,,,,0.000000,4.000000,4.000000,4.000000,4.000000,4.000000,4.000000,4.000000,4.000000,4.000000,4.000000,4.000000,4.000000,4.000000,4.000000,100.000000
1602006038.891505,113.000000,0.000000,4143.077148,4149.743652,4128.717773,4139.487305,4128.205078,4139.487305,4140.000000,4138.461426,4136.410156,4096.410156,4106.153809,4126.666504,4080.000000,4100.512695,748.000000,4.000000,,,,0.000000,4.000000,4.000000,4.000000,4.000000,4.000000,4.000000,4.000000,4.000000,4.000000,4.000000,4.000000,4.000000,4.000000,4.000000,100.000000
1602006038.899388,114.000000,0.000000,4134.358887,4146.153809,4122.051270,4136.922852,4134.871582,4139.487305,4145.128418,4137.948730,4142.051270,4114.871582,4107.179688,4129.230957,4074.871826,4090.769287,870.000000,4.000000,,,,0.000000,4.000000,4.000000,4.000000,4.000000,4.000000,4.000000,4.000000,4.000000,4.000000,4.000000,4.000000,4.000000,4.000000,4.000000,100.000000
1602006038.907270,115.000000,0.000000,4142.051270,4149.743652,4119.487305,4137.948730,4131.282227,4141.025879,4152.820313,4143.589844,4151.794922,4129.230957,4113.333496,4136.922852,4081.025635,4095.897461,835.000000,4.000000,,,,0.000000,4.000000,4.000000,4.000000,4.000000,4.000000,4.000000,4.000000,4.000000,4.000000,4.000000,4.000000,4.000000,4.000000,4.000000,100.000000
1602006038.915152,116.000000,0.000000,4152.307617,4155.384766,4123.589844,4139.487305,4122.051270,4145.128418,4153.846191,4141.538574,4145.641113,4129.743652,4112.820313,4127.179688,4083.589844,4105.128418,773.000000,4.000000,,,,0.000000,4.000000,4.000000,4.000000,4.000000,4.000000,4.000000,4.000000,4.000000,4.000000,4.000000,4.000000,4.000000,4.000000,4.000000,100.000000
1602006038.923035,117.000000,0.000000,4151.282227,4154.358887,4121.538574,4136.410156,4126.666504,4142.563965,4149.230957,4136.922852,4133.846191,4123.077148,4104.102539,4115.384766,4080.512939,4098.974121,748.000000,4.000000,,,,0.000000,4.000000,4.000000,4.000000,4.000000,4.000000,4.000000,4.000000,4.000000,4.000000,4.000000,4.000000,4.000000,4.000000,4.000000,100.000000
1602006038.930917,118.000000,0.000000,4150.256348,4154.358887,4119.487305,4135.897461,4140.000000,4140.512695,4150.769043,4145.641113,4143.077148,4125.128418,4106.153809,4126.153809,4093.846191,4098.461426,870.000000,4.000000,,,,0.000000,4.000000,4.000000,4.000000,4.000000,4.000000,4.000000,4.000000,4.000000,4.000000,4.000000,4.000000,4.000000,4.000000,4.000000,100.000000
1602006038.938799,119.000000,0.000000,4154.871582,4157.436035,4124.102539,4138.974121,4140.000000,4143.077148,4156.410156,4151.282227,4156.922852,4140.512695,4121.538574,4140.512695,4106.666504,4108.717773,835.000000,4.000000,,,,0.000000,4.000000,4.000000,4.000000,4.000000,4.000000,4.000000,4.000000,4.000000,4.000000,4.000000,4.000000,4.000000,4.000000,4.000000,100.000000
1602006038.946581,120.000000,0.000000,4155.384766,4156.410156,4128.205078,4136.922852,4128.717773,4134.358887,4151.282227,4142.051270,4146.153809,4142.051270,4122.563965,4139.487305,4098.461426,4109.743652,773.000000,4.000000,,,,0.000000,4.000000,4.000000,4.000000,4.000000,4.000000,4.000000,4.000000,4.000000,4.000000,4.000000,4.000000,4.000000,4.000000,4.000000,100.000000
1602006038.954463,121.000000,0.000000,4160.512695,4155.384766,4132.820313,4136.922852,4122.563965,4119.487305,4142.563965,4136.922852,4131.794922,4125.641113,4110.769043,4143.589844,4094.871826,4112.820313,748.000000,4.000000,,,,0.000000,4.000000,4.000000,4.000000,4.000000,4.000000,4.000000,4.000000,4.000000,4.000000,4.000000,4.000000,4.000000,4.000000,4.000000,100.000000
1602006038.962345,122.000000,0.000000,4171.794922,4158.461426,4143.077148,4140.512695,4124.615234,4117.436035,4140.000000,4139.487305,4135.897461,4122.563965,4117.948730,4156.922852,4110.256348,4130.256348,870.000000,4.000000,,,,0.000000,4.000000,4.000000,4.000000,4.000000,4.000000,4.000000,4.000000,4.000000,4.000000,4.000000,4.000000,4.000000,4.000000,4.000000,100.000000
1602006038.970227,123.000000,0.000000,4173.333496,4158.461426,4152.820313,4141.538574,4127.179688,4123.589844,4140.000000,4138.974121,4137.948730,4128.205078,4132.820313,4161.025879,4123.077148,4141.538574,835.000000,4.000000,,,,0.000000,4.000000,4.000000,4.000000,4.000000,4.000000,4.000000,4.000000,4.000000,4.000000,4.000000,4.000000,4.000000,4.000000,4.000000,100.000000
1602006038.978109,124.000000,0.000000,4167.692383,4154.871582,4152.307617,4138.461426,4124.615234,4123.589844,4138.461426,4135.384766,4120.512695,4122.563965,4128.205078,4154.871582,4119.487305,4135.384766,773.000000,4.000000,,,,0.000000,4.000000,4.000000,4.000000,4.000000,4.000000,4.000000,4.000000,4.000000,4.000000,4.000000,4.000000,4.000000,4.000000,4.000000,100.000000
1602006038.986091,125.000000,0.000000,4170.256348,4152.307617,4143.589844,4136.922852,4118.974121,4121.025879,4138.461426,4128.717773,4107.692383,4122.051270,4118.974121,4153.333496,4113.846191,4130.256348,748.000000,4.000000,,,,0.000000,4.000000,4.000000,4.000000,4.000000,4.000000,4.000000,4.000000,4.000000,4.000000,4.000000,4.000000,4.000000,4.000000,4.000000,100.000000
1602006038.993973,126.000000,0.000000,4169.743652,4154.358887,4140.000000,4138.461426,4122.563965,4127.692383,4144.102539,4126.666504,4109.743652,4125.641113,4120.000000,4151.282227,4105.128418,4128.717773,870.000000,4.000000,,,,0.000000,4.000000,4.000000,4.000000,4.000000,4.000000,4.000000,4.000000,4.000000,4.000000,4.000000,4.000000,4.000000,4.000000,4.000000,100.000000
1602006039.001854,127.000000,0.000000,4154.358887,4151.794922,4132.307617,4137.948730,4129.743652,4128.717773,4146.153809,4135.384766,4112.307617,4125.128418,4122.563965,4141.025879,4092.820557,4114.871582,835.000000,4.000000,,,,0.000000,4.000000,4.000000,4.000000,4.000000,4.000000,4.000000,4.000000,4.000000,4.000000,4.000000,4.000000,4.000000,4.000000,4.000000,100.000000
1602006039.009736,128.000000,0.000000,4146.666504,4145.641113,4120.512695,4133.846191,4125.641113,4121.025879,4142.051270,4145.128418,4125.641113,4133.846191,4120.512695,4140.000000,4094.358887,4107.692383,773.000000,4.000000,,,,0.000000,4.000000,4.000000,4.000000,4.000000,4.000000,4.000000,4.000000,4.000000,4.000000,4.000000,4.000000,4.000000,4.000000,4.000000,100.000000
1602006039.017618,0.000000,0.000000,4160.512695,4150.256348,4126.666504,4135.384766,4124.615234,4125.641113,4137.436035,4151.794922,4150.769043,4145.641113,4123.589844,4153.846191,4115.384766,4129.230957,800.000000,4.000000,,,,0.000000,4.000000,4.000000,4.000000,4.000000,4.000000,4.000000,4.000000,4.000000,4.000000,4.000000,4.000000,4.000000,4.000000,4.000000,100.000000
1602006039.025500,1.000000,0.000000,4171.794922,4160.512695,4140.512695,4141.025879,4133.846191,4140.000000,4138.461426,4155.384766,4161.025879,4137.436035,4134.871582,4159.487305,4131.794922,4146.666504,799.000000,4.000000,,,,0.000000,4.000000,4.000000,4.000000,4.000000,4.000000,4.000000,4.000000,4.000000,4.000000,4.000000,4.000000,4.000000,4.000000,4.000000,100.000000
1602006039.033283,2.000000,0.000000,4168.717773,4159.487305,4141.538574,4140.512695,4135.897461,4135.384766,4138.461426,4148.205078,4157.948730,4134.358887,4141.538574,4145.128418,4128.717773,4135.897461,849.000000,4.000000,,,,0.000000,4.000000,4.000000,4.000000,4.000000,4.000000,4.000000,4.000000,4.000000,4.000000,4.000000,4.000000,4.000000,4.000000,4.000000,100.000000
1602006039.041165,3.000000,0.000000,4167.179688,4153.846191,4142.051270,4137.436035,4127.179688,4122.051270,4131.794922,4137.948730,4158.461426,4151.282227,4137.436035,4136.922852,4124.615234,4132.307617,869.000000,4.000000,,,,0.000000,4.000000,4.000000,4.000000,4.000000,4.000000,4.000000,4.000000,4.000000,4.000000,4.000000,4.000000,4.000000,4.000000,4.000000,100.000000
1602006039.049048,4.000000,0.000000,4169.230957,4153.333496,4144.615234,4137.436035,4124.102539,4121.538574,4125.128418,4135.384766,4152.820313,4158.974121,4134.358887,4142.563965,4124.615234,4143.077148,815.000000,4.000000,,,,0.000000,4.000000,4.000000,4.000000,4.000000,4.000000,4.000000,4.000000,4.000000,4.000000,4.000000,4.000000,4.000000,4.000000,4.000000,100.000000
1602006039.056931,5.000000,0.000000,4166.666504,4149.743652,4138.974121,4136.410156,4124.102539,4124.615234,4128.717773,4134.871582,4137.436035,4154.358887,4140.000000,4145.641113,4123.589844,4140.512695,825.000000,4.000000,,,,0.000000,4.000000,4.000000,4.000000,4.000000,4.000000,4.000000,4.000000,4.000000,4.000000,4.000000,4.000000,4.000000,4.000000,4.000000,100.000000
1602006039.064813,6.000000,0.000000,4168.205078,4144.102539,4139.487305,4133.846191,4121.025879,4123.077148,4137.436035,4134.358887,4129.743652,4149.743652,4134.358887,4142.563965,4121.538574,4129.743652,766.000000,4.000000,,,,0.000000,4.000000,4.000000,4.000000,4.000000,4.000000,4.000000,4.000000,4.000000,4.000000,4.000000,4.000000,4.000000,4.000000,4.000000,100.000000
1602006039.072696,7.000000,0.000000,4166.666504,4138.974121,4143.589844,4127.692383,4118.461426,4121.025879,4137.436035,4133.846191,4135.384766,4142.563965,4124.615234,4140.512695,4120.000000,4134.871582,676.000000,4.000000,,,,0.000000,4.000000,4.000000,4.000000,4.000000,4.000000,4.000000,4.000000,4.000000,4.000000,4.000000,4.000000,4.000000,4.000000,4.000000,100.000000
1602006039.080578,8.000000,0.000000,4154.358887,4138.974121,4138.974121,4125.128418,4118.974121,4118.461426,4135.384766,4134.358887,4134.871582,4134.871582,4133.333496,4141.538574,4121.025879,4147.692383,785.000000,4.000000,,,,0.000000,4.000000,4.000000,4.000000,4.000000,4.000000,4.000000,4.000000,4.000000,4.000000,4.000000,4.000000,4.000000,4.000000,4.000000,100.000000
1602006039.088461,9.000000,0.000000,4156.410156,4147.692383,4138.461426,4133.333496,4129.230957,4122.563965,4139.487305,4140.512695,4128.205078,4129.743652,4136.410156,4142.563965,4123.589844,4145.128418,843.000000,4.000000,,,,0.000000,4.000000,4.000000,4.000000,4.000000,4.000000,4.000000,4.000000,4.000000,4.000000,4.000000,4.000000,4.000000,4.000000,4.000000,100.000000
1602006039.096344,10.000000,0.000000,4163.589844,4153.846191,4141.538574,4138.974121,4136.410156,4129.230957,4143.077148,4144.102539,4130.769043,4123.589844,4125.641113,4140.512695,4123.077148,4134.871582,870.000000,4.000000,,,,0.000000,4.000000,4.000000,4.000000,4.000000,4.000000,4.000000,4.000000,4.000000,4.000000,4.000000,4.000000,4.000000,4.000000,4.000000,100.000000
1602006039.104126,11.000000,0.000000,4158.461426,4150.256348,4137.436035,4136.922852,4135.384766,4127.692383,4142.563965,4141.538574,4138.974121,4131.282227,4129.230957,4138.461426,4118.461426,4135.897461,835.000000,4.000000,,,,0.000000,4.000000,4.000000,4.000000,4.000000,4.000000,4.000000,4.000000,4.000000,4.000000,4.000000,4.000000,4.000000,4.000000,4.000000,100.000000
1602006039.112009,12.000000,0.000000,4158.974121,4150.256348,4135.897461,4137.948730,4135.384766,4128.205078,4133.846191,4135.384766,4133.333496,4148.205078,4137.948730,4139.487305,4115.897461,4140.512695,773.000000,4.000000,,,,0.000000,4.000000,4.000000,4.000000,4.000000,4.000000,4.000000,4.000000,4.000000,4.000000,4.000000,4.000000,4.000000,4.000000,4.000000,100.000000
1602006039.119891,13.000000,0.000000,4168.205078,4154.871582,4142.563965,4142.051270,4139.487305,4135.897461,4123.589844,4127.692383,4124.102539,4149.230957,4135.384766,4142.051270,4122.563965,4140.000000,748.000000,4.000000,,,,0.000000,4.000000,4.000000,4.000000,4.000000,4.000000,4.000000,4.000000,4.000000,4.000000,4.000000,4.000000,4.000000,4.000000,4.000000,100.000000
1602006039.127774,14.000000,0.000000,4169.743652,4153.846191,4145.128418,4141.538574,4140.000000,4129.743652,4120.000000,4126.153809,4130.769043,4138.461426,4133.846191,4145.641113,4125.641113,4139.487305,870.000000,4.000000,,,,0.000000,4.000000,4.000000,4.000000,4.000000,4.000000,4.000000,4.000000,4.000000,4.000000,4.000000,4.000000,4.000000,4.000000,4.000000,100.000000
1602006039.135657,15.000000,0.000000,4171.794922,4154.358887,4145.128418,4139.487305,4136.922852,4113.333496,4120.000000,4134.358887,4136.922852,4131.794922,4136.922852,4150.769043,4117.948730,4142.051270,835.000000,4.000000,,,,0.000000,4.000000,4.000000,4.000000,4.000000,4.000000,4.000000,4.000000,4.000000,4.000000,4.000000,4.000000,4.000000,4.000000,4.000000,100.000000
1602006039.143539,16.000000,0.000000,4186.153809,4165.641113,4155.384766,4146.666504,4138.974121,4113.846191,4120.000000,4143.589844,4136.922852,4132.820313,4144.102539,4157.948730,4126.153809,4153.333496,0.000000,4.000000,,,,0.000000,4.000000,4.000000,4.000000,4.000000,4.000000,4.000000,4.000000,4.000000,4.000000,4.000000,4.000000,4.000000,4.000000,4.000000,100.000000
1602006039.151422,17.000000,0.000000,4192.820313,4173.846191,4167.692383,4156.922852,4139.487305,4123.077148,4123.589844,4143.077148,4133.333496,4134.358887,4151.282227,4162.563965,4138.461426,4160.000000,0.000000,4.000000,,,,0.000000,4.000000,4.000000,4.000000,4.000000,4.000000,4.000000,4.000000,4.000000,4.000000,4.000000,4.000000,4.000000,4.000000,4.000000,100.000000
1602006039.159304,18.000000,0.000000,4183.589844,4170.769043,4170.769043,4156.410156,4139.487305,4126.153809,4131.282227,4135.897461,4127.692383,4138.974121,4140.000000,4163.077148,4124.102539,4144.102539,0.000000,4.000000,,,,0.000000,4.000000,4.000000,4.000000,4.000000,4.000000,4.000000,4.000000,4.000000,4.000000,4.000000,4.000000,4.000000,4.000000,4.000000,100.000000
1602006039.167287,19.000000,0.000000,4182.051270,4167.179688,4171.794922,4152.820313,4140.512695,4125.128418,4134.358887,4125.641113,4115.897461,4147.692383,4129.743652,4160.512695,4113.333496,4137.436035,0.000000,4.000000,,,,0.000000,4.000000,4.000000,4.000000,4.000000,4.000000,4.000000,4.000000,4.000000,4.000000,4.000000,4.000000,4.000000,4.000000,4.000000,100.000000
1602006039.175170,20.000000,0.000000,4188.717773,4166.666504,4166.153809,4148.717773,4136.922852,4120.000000,4129.230957,4113.333496,4104.615234,4145.641113,4142.051270,4156.922852,4136.410156,4150.769043,0.000000,4.000000,,,,0.000000,4.000000,4.000000,4.000000,4.000000,4.000000,4.000000,4.000000,4.000000,4.000000,4.000000,4.000000,4.000000,4.000000,4.000000,100.000000
1602006039.183053,21.000000,0.000000,4181.538574,4160.512695,4155.897461,4143.077148,4134.358887,4123.077148,4126.666504,4110.769043,4104.102539,4134.358887,4156.410156,4155.384766,4162.051270,4169.230957,0.000000,4.000000,,,,0.000000,4.000000,4.000000,4.000000,4.000000,4.000000,4.000000,4.000000,4.000000,4.000000,4.000000,4.000000,4.000000,4.000000,4.000000,100.000000
1602006039.190936,22.000000,0.000000,4164.615234,4147.179688,4150.769043,4138.974121,4138.461426,4135.897461,4131.282227,4118.974121,4114.871582,4142.051270,4158.974121,4155.897461,4169.743652,4187.692383,0.000000,4.000000,,,,0.000000,4.000000,4.000000,4.000000,4.000000,4.000000,4.000000,4.000000,4.000000,4.000000,4.000000,4.000000,4.000000,4.000000,4.000000,100.000000
1602006039.198818,23.000000,0.000000,4148.205078,4130.769043,4142.563965,4130.256348,4141.025879,4139.487305,4129.230957,4128.717773,4128.205078,4160.512695,4160.000000,4156.410156,4174.358887,4184.615234,0.000000,4.000000,,,,0.000000,4.000000,4.000000,4.000000,4.000000,4.000000,4.000000,4.000000,4.000000,4.000000,4.000000,4.000000,4.000000,4.000000,4.000000,100.000000
1602006039.206701,24.000000,0.000000,4126.153809,4112.820313,4133.333496,4114.358887,4137.436035,4135.384766,4124.615234,4140.512695,4142.051270,4157.948730,4157.436035,4148.717773,4170.256348,4164.102539,0.000000,4.000000,,,,0.000000,4.000000,4.000000,4.000000,4.000000,4.000000,4.000000,4.000000,4.000000,4.000000,4.000000,4.000000,4.000000,4.000000,4.000000,100.000000
1602006039.214584,25.000000,0.000000,4114.871582,4105.128418,4132.820313,4107.179688,4137.948730,4137.436035,4133.333496,4156.410156,4156.922852,4152.307617,4152.820313,4142.563965,4158.974121,4164.102539,0.000000,4.000000,,,,0.000000,4.000000,4.000000,4.000000,4.000000,4.000000,4.000000,4.000000,4.000000,4.000000,4.000000,4.000000,4.000000,4.000000,4.000000,100.000000
1602006039.222467,26.000000,0.000000,4122.563965,4106.666504,4136.922852,4113.846191,4141.538574,4141.025879,4140.512695,4162.051270,4160.000000,4165.641113,4155.384766,4147.179688,4161.025879,4169.743652,0.000000,4.000000,,,,0.000000,4.000000,4.000000,4.000000,4.000000,4.000000,4.000000,4.000000,4.000000,4.000000,4.000000,4.000000,4.000000,4.000000,4.000000,100.000000
1602006039.230350,27.000000,0.000000,4118.974121,4104.615234,4145.128418,4119.487305,4142.563965,4140.512695,4137.436035,4157.948730,4157.436035,4172.307617,4156.410156,4153.846191,4170.256348,4155.384766,0.000000,4.000000,,,,0.000000,4.000000,4.000000,4.000000,4.000000,4.000000,4.000000,4.000000,4.000000,4.000000,4.000000,4.000000,4.000000,4.000000,4.000000,100.000000
1602006039.238233,28.000000,0.000000,4104.615234,4103.589844,4153.846191,4117.436035,4138.461426,4133.846191,4136.922852,4159.487305,4157.948730,4152.307617,4152.307617,4160.000000,4165.641113,4150.769043,0.000000,4.000000,,,,0.000000,4.000000,4.000000,4.000000,4.000000,4.000000,4.000000,4.000000,4.000000,4.000000,4.000000,4.000000,4.000000,4.000000,4.000000,100.000000
1602006039.246014,29.000000,0.000000,4106.153809,4103.589844,4149.230957,4112.820313,4126.153809,4122.051270,4139.487305,4156.410156,4147.692383,4135.897461,4152.307617,4163.077148,4157.948730,4158.461426,0.000000,4.000000,,,,0.000000,4.000000,4.000000,4.000000,4.000000,4.000000,4.000000,4.000000,4.000000,4.000000,4.000000,4.000000,4.000000,4.000000,4.000000,100.000000
1602006039.253895,30.000000,0.000000,4111.794922,4097.436035,4138.461426,4109.230957,4122.051270,4112.307617,4137.948730,4139.487305,4127.179688,4141.025879,4150.256348,4159.487305,4156.922852,4152.820313,0.000000,4.000000,,,,0.000000,4.000000,4.000000,4.000000,4.000000,4.000000,4.000000,4.000000,4.000000,4.000000,4.000000,4.000000,4.000000,4.000000,4.000000,100.000000
1602006039.261676,31.000000,0.000000,4107.179688,4093.333252,4132.307617,4109.230957,4129.230957,4106.666504,4136.410156,4124.615234,4109.230957,4140.512695,4140.000000,4147.692383,4150.256348,4138.974121,0.000000,4.000000,,,,0.000000,4.000000,4.000000,4.000000,4.000000,4.000000,4.000000,4.000000,4.000000,4.000000,4.000000,4.000000,4.000000,4.000000,4.000000,100.000000
1602006039.269558,32.000000,0.000000,4109.230957,4100.512695,4126.153809,4112.307617,4130.769043,4107.179688,4135.384766,4117.436035,4100.000000,4137.436035,4135.384766,4137.948730,4145.128418,4137.436035,0.000000,4.000000,,,,0.000000,4.000000,4.000000,4.000000,4.000000,4.000000,4.000000,4.000000,4.000000,4.000000,4.000000,4.000000,4.000000,4.000000,4.000000,100.000000
1602006039.277539,33.000000,0.000000,4120.000000,4106.666504,4125.641113,4119.487305,4127.692383,4114.358887,4134.358887,4121.538574,4109.230957,4152.307617,4147.179688,4136.922852,4155.897461,4151.794922,0.000000,4.000000,,,,0.000000,4.000000,4.000000,4.000000,4.000000,4.000000,4.000000,4.000000,4.000000,4.000000,4.000000,4.000000,4.000000,4.000000,4.000000,100.000000
1602006039.285420,34.000000,0.000000,4124.615234,4104.615234,4134.358887,4123.589844,4135.384766,4122.051270,4136.922852,4138.974121,4135.384766,4165.641113,4160.000000,4142.051270,4166.666504,4159.487305,0.000000,4.000000,,,,0.000000,4.000000,4.000000,4.000000,4.000000,4.000000,4.000000,4.000000,4.000000,4.000000,4.000000,4.000000,4.000000,4.000000,4.000000,100.000000
1602006039.293202,35.000000,0.000000,4122.563965,4106.666504,4141.538574,4122.563965,4137.948730,4124.615234,4137.948730,4153.846191,4146.153809,4154.358887,4157.436035,4150.769043,4168.205078,4155.384766,0.000000,4.000000,,,,0.000000,4.000000,4.000000,4.000000,4.000000,4.000000,4.000000,4.000000,4.000000,4.000000,4.000000,4.000000,4.000000,4.000000,4.000000,100.000000
1602006039.301084,36.000000,0.000000,4122.563965,4110.769043,4143.077148,4123.589844,4129.743652,4125.128418,4135.897461,4154.358887,4143.077148,4140.512695,4153.846191,4162.563965,4170.769043,4157.436035,0.000000,4.000000,,,,0.000000,4.000000,4.000000,4.000000,4.000000,4.000000,4.000000,4.000000,4.000000,4.000000,4.000000,4.000000,4.000000,4.000000,4.000000,100.000000
1602006039.308966,37.000000,0.000000,4123.589844,4111.282227,4141.538574,4126.153809,4133.333496,4122.051270,4134.358887,4151.282227,4148.205078,4140.000000,4156.922852,4167.179688,4170.256348,4162.051270,0.000000,4.000000,,,,0.000000,4.000000,4.000000,4.000000,4.000000,4.000000,4.000000,4.000000,4.000000,4.000000,4.000000,4.000000,4.000000,4.000000,4.000000,100.000000
1602006039.316848,38.000000,0.000000,4123.077148,4114.358887,4142.051270,4127.179688,4135.384766,4121.538574,4135.384766,4154.358887,4155.384766,4149.743652,4157.948730,4162.563965,4167.179688,4161.538574,0.000000,4.000000,,,,0.000000,4.000000,4.000000,4.000000,4.000000,4.000000,4.000000,4.000000,4.000000,4.000000,4.000000,4.000000,4.000000,4.000000,4.000000,100.000000
1602006039.324730,39.000000,0.000000,4126.666504,4120.000000,4142.051270,4128.205078,4128.205078,4125.641113,4137.436035,4153.333496,4154.871582,4164.102539,4156.922852,4161.025879,4171.282227,4158.974121,0.000000,4.000000,,,,0.000000,4.000000,4.000000,4.000000,4.000000,4.000000,4.000000,4.000000,4.000000,4.000000,4.000000,4.000000,4.000000,4.000000,4.000000,100.000000
1602006039.332613,40.000000,0.000000,4122.051270,4114.358887,4130.256348,4126.153809,4129.743652,4123.077148,4136.922852,4138.461426,4144.615234,4162.051270,4153.846191,4152.820313,4171.794922,4150.256348,0.000000,4.000000,,,,0.000000,4.000000,4.000000,4.000000,4.000000,4.000000,4.000000,4.000000,4.000000,4.000000,4.000000,4.000000,4.000000,4.000000,4.000000,100.000000
1602006039.340595,41.000000,0.000000,4112.307617,4105.128418,4117.436035,4121.025879,4136.922852,4115.897461,4134.871582,4121.538574,4128.717773,4142.563965,4146.153809,4138.974121,4164.102539,4147.179688,0.000000,4.000000,,,,0.000000,4.000000,4.000000,4.000000,4.000000,4.000000,4.000000,4.000000,4.000000,4.000000,4.000000,4.000000,4.000000,4.000000,4.000000,100.000000
1602006039.348477,42.000000,0.000000,4108.205078,4108.717773,4119.487305,4122.051270,4137.948730,4122.563965,4135.384766,4120.000000,4122.051270,4132.820313,4142.051270,4141.025879,4163.077148,4153.333496,0.000000,4.000000,,,,0.000000,4.000000,4.000000,4.000000,4.000000,4.000000,4.000000,4.000000,4.000000,4.000000,4.000000,4.000000,4.000000,4.000000,4.000000,100.000000
1602006039.356359,43.000000,0.000000,4108.205078,4110.769043,4125.641113,4123.589844,4138.974121,4132.820313,4136.410156,4123.589844,4129.230957,4137.948730,4143.589844,4151.794922,4164.102539,4146.666504,0.000000,4.000000,,,,0.000000,4.000000,4.000000,4.000000,4.000000,4.000000,4.000000,4.000000,4.000000,4.000000,4.000000,4.000000,4.000000,4.000000,4.000000,100.000000
1602006039.364241,44.000000,0.000000,4105.128418,4104.615234,4123.077148,4115.897461,4138.461426,4128.205078,4136.410156,4121.538574,4141.538574,4145.641113,4148.205078,4153.333496,4162.051270,4131.794922,0.000000,4.000000,,,,0.000000,4.000000,4.000000,4.000000,4.000000,4.000000,4.000000,4.000000,4.000000,4.000000,4.000000,4.000000,4.000000,4.000000,4.000000,100.000000
1602006039.372123,45.000000,0.000000,4105.641113,4102.563965,4120.512695,4113.846191,4135.897461,4122.051270,4137.948730,4127.179688,4151.282227,4148.717773,4154.871582,4155.897461,4166.153809,4135.897461,0.000000,4.000000,,,,0.000000,4.000000,4.000000,4.000000,4.000000,4.000000,4.000000,4.000000,4.000000,4.000000,4.000000,4.000000,4.000000,4.000000,4.000000,100.000000
1602006039.380005,46.000000,0.000000,4109.743652,4105.128418,4122.051270,4122.563965,4137.948730,4122.563965,4137.948730,4136.410156,4153.846191,4155.384766,4156.922852,4158.974121,4164.615234,4151.282227,0.000000,4.000000,,,,0.000000,4.000000,4.000000,4.000000,4.000000,4.000000,4.000000,4.000000,4.000000,4.000000,4.000000,4.000000,4.000000,4.000000,4.000000,100.000000
1602006039.387887,47.000000,0.000000,4107.692383,4103.077148,4121.025879,4122.051270,4140.000000,4123.589844,4136.410156,4136.410156,4150.769043,4155.897461,4150.769043,4153.333496,4154.358887,4149.743652,0.000000,4.000000,,,,0.000000,4.000000,4.000000,4.000000,4.000000,4.000000,4.000000,4.000000,4.000000,4.000000,4.000000,4.000000,4.000000,4.000000,4.000000,100.000000
1602006039.395670,48.000000,0.000000,4110.256348,4105.641113,4123.589844,4119.487305,4139.487305,4130.769043,4136.922852,4135.897461,4150.769043,4141.538574,4151.794922,4155.897461,4157.436035,4143.077148,0.000000,4.000000,,,,0.000000,4.000000,4.000000,4.000000,4.000000,4.000000,4.000000,4.000000,4.000000,4.000000,4.000000,4.000000,4.000000,4.000000,4.000000,100.000000
1602006039.403553,49.000000,0.000000,4121.025879,4117.436035,4128.205078,4132.307617,4141.538574,4135.384766,4138.974121,4140.512695,4151.794922,4134.358887,4157.436035,4166.153809,4169.230957,4150.256348,0.000000,4.000000,,,,0.000000,4.000000,4.000000,4.000000,4.000000,4.000000,4.000000,4.000000,4.000000,4.000000,4.000000,4.000000,4.000000,4.000000,4.000000,100.000000
1602006039.411435,50.000000,0.000000,4124.102539,4124.615234,4126.666504,4137.436035,4143.077148,4128.717773,4137.948730,4141.538574,4151.794922,4142.051270,4149.230957,4169.743652,4165.128418,4162.563965,0.000000,4.000000,,,,0.000000,4.000000,4.000000,4.000000,4.000000,4.000000,4.000000,4.000000,4.000000,4.000000,4.000000,4.000000,4.000000,4.000000,4.000000,100.000000
1602006039.419318,51.000000,0.000000,4120.000000,4121.025879,4127.692383,4128.205078,4142.051270,4124.615234,4133.333496,4134.871582,4152.820313,4135.384766,4143.589844,4168.205078,4155.384766,4158.461426,0.000000,4.000000,,,,0.000000,4.000000,4.000000,4.000000,4.000000,4.000000,4.000000,4.000000,4.000000,4.000000,4.000000,4.000000,4.000000,4.000000,4.000000,100.000000
1602006039.427200,52.000000,0.000000,4118.461426,4118.461426,4136.922852,4128.717773,4144.615234,4126.666504,4126.153809,4127.692383,4150.256348,4117.436035,4151.794922,4169.743652,4154.871582,4143.077148,0.000000,4.000000,,,,0.000000,4.000000,4.000000,4.000000,4.000000,4.000000,4.000000,4.000000,4.000000,4.000000,4.000000,4.000000,4.000000,4.000000,4.000000,100.000000
1602006039.435083,53.000000,0.000000,4121.025879,4122.563965,4142.563965,4138.461426,4151.794922,4129.743652,4125.641113,4125.128418,4144.102539,4124.102539,4162.563965,4174.358887,4163.077148,4143.077148,0.000000,4.000000,,,,0.000000,4.000000,4.000000,4.000000,4.000000,4.000000,4.000000,4.000000,4.000000,4.000000,4.000000,4.000000,4.000000,4.000000,4.000000,100.000000
1602006039.442966,54.000000,0.000000,4126.666504,4124.615234,4141.025879,4138.461426,4152.820313,4134.871582,4135.384766,4129.230957,4143.077148,4145.128418,4162.563965,4175.384766,4171.794922,4156.922852,0.000000,4.000000,,,,0.000000,4.000000,4.000000,4.000000,4.000000,4.000000,4.000000,4.000000,4.000000,4.000000,4.000000,4.000000,4.000000,4.000000,4.000000,100.000000
1602006039.450848,55.000000,0.000000,4128.717773,4120.000000,4139.487305,4129.230957,4142.563965,4135.384766,4142.563965,4132.820313,4149.230957,4151.282227,4160.512695,4170.256348,4172.820313,4163.589844,0.000000,4.000000,,,,0.000000,4.000000,4.000000,4.000000,4.000000,4.000000,4.000000,4.000000,4.000000,4.000000,4.000000,4.000000,4.000000,4.000000,4.000000,100.000000
1602006039.458731,56.000000,0.000000,4124.615234,4119.487305,4133.333496,4126.666504,4137.436035,4129.743652,4141.025879,4135.384766,4153.333496,4152.307617,4164.102539,4168.205078,4172.307617,4154.871582,0.000000,4.000000,,,,0.000000,4.000000,4.000000,4.000000,4.000000,4.000000,4.000000,4.000000,4.000000,4.000000,4.000000,4.000000,4.000000,4.000000,4.000000,100.000000
1602006039.466713,57.000000,0.000000,4125.128418,4125.128418,4125.641113,4130.256348,4139.487305,4128.717773,4141.538574,4137.948730,4152.307617,4156.922852,4163.077148,4171.282227,4176.410156,4151.282227,0.000000,4.000000,,,,0.000000,4.000000,4.000000,4.000000,4.000000,4.000000,4.000000,4.000000,4.000000,4.000000,4.000000,4.000000,4.000000,4.000000,4.000000,100.000000
1602006039.474595,58.000000,0.000000,4124.102539,4119.487305,4116.922852,4129.230957,4131.794922,4129.743652,4141.538574,4132.820313,4146.153809,4147.692383,4151.282227,4162.563965,4171.282227,4155.384766,0.000000,4.000000,,,,0.000000,4.000000,4.000000,4.000000,4.000000,4.000000,4.000000,4.000000,4.000000,4.000000,4.000000,4.000000,4.000000,4.000000,4.000000,100.000000
1602006039.482478,59.000000,0.000000,4110.256348,4106.666504,4107.179688,4122.051270,4124.615234,4126.666504,4133.333496,4121.025879,4138.974121,4138.974121,4142.563965,4141.538574,4155.897461,4149.743652,0.000000,4.000000,,,,0.000000,4.000000,4.000000,4.000000,4.000000,4.000000,4.000000,4.000000,4.000000,4.000000,4.000000,4.000000,4.000000,4.000000,4.000000,100.000000
1602006039.490360,60.000000,0.000000,4103.077148,4103.589844,4109.743652,4119.487305,4132.820313,4123.589844,4125.641113,4120.000000,4141.538574,4141.538574,4149.743652,4135.897461,4149.743652,4141.538574,0.000000,4.000000,,,,0.000000,4.000000,4.000000,4.000000,4.000000,4.000000,4.000000,4.000000,4.000000,4.000000,4.000000,4.000000,4.000000,4.000000,4.000000,100.000000
1602006039.498242,61.000000,0.000000,4114.358887,4109.230957,4127.179688,4124.102539,4137.948730,4126.666504,4124.615234,4129.743652,4148.717773,4133.333496,4154.358887,4148.717773,4155.897461,4145.641113,0.000000,4.000000,,,,0.000000,4.000000,4.000000,4.000000,4.000000,4.000000,4.000000,4.000000,4.000000,4.000000,4.000000,4.000000,4.000000,4.000000,4.000000,100.000000
1602006039.506125,62.000000,0.000000,4125.641113,4111.794922,4137.948730,4125.641113,4135.384766,4137.436035,4130.769043,4136.410156,4158.974121,4130.769043,4155.384766,4158.974121,4166.153809,4156.410156,0.000000,4.000000,,,,0.000000,4.000000,4.000000,4.000000,4.000000,4.000000,4.000000,4.000000,4.000000,4.000000,4.000000,4.000000,4.000000,4.000000,4.000000,100.000000
1602006039.514007,63.000000,0.000000,4126.153809,4109.743652,4137.436035,4123.589844,4134.871582,4136.922852,4137.436035,4144.615234,4168.205078,4137.948730,4157.948730,4160.000000,4169.743652,4160.000000,0.000000,4.000000,,,,0.000000,4.000000,4.000000,4.000000,4.000000,4.000000,4.000000,4.000000,4.000000,4.000000,4.000000,4.000000,4.000000,4.000000,4.000000,100.000000
1602006039.521889,64.000000,0.000000,4122.051270,4105.128418,4135.384766,4121.025879,4131.794922,4125.641113,4136.410156,4153.333496,4161.538574,4126.666504,4150.769043,4161.538574,4162.563965,4154.871582,800.000000,4.000000,,,,0.000000,4.000000,4.000000,4.000000,4.000000,4.000000,4.000000,4.000000,4.000000,4.000000,4.000000,4.000000,4.000000,4.000000,4.000000,100.000000
1602006039.529671,65.000000,0.000000,4121.538574,4105.128418,4136.922852,4122.051270,4129.230957,4129.230957,4140.000000,4153.846191,4155.897461,4131.794922,4146.153809,4163.589844,4155.897461,4150.769043,799.000000,4.000000,,,,0.000000,4.000000,4.000000,4.000000,4.000000,4.000000,4.000000,4.000000,4.000000,4.000000,4.000000,4.000000,4.000000,4.000000,4.000000,100.000000
1602006039.537553,66.000000,0.000000,4124.615234,4111.794922,4140.512695,4126.666504,4135.897461,4143.077148,4152.307617,4151.282227,4170.256348,4165.641113,4153.333496,4161.538574,4159.487305,4154.871582,849.000000,4.000000,,,,0.000000,4.000000,4.000000,4.000000,4.000000,4.000000,4.000000,4.000000,4.000000,4.000000,4.000000,4.000000,4.000000,4.000000,4.000000,100.000000
1602006039.545435,67.000000,0.000000,4117.948730,4112.307617,4137.948730,4126.666504,4140.000000,4143.077148,4152.820313,4145.128418,4171.282227,4161.538574,4158.461426,4154.871582,4158.461426,4160.512695,869.000000,4.000000,,,,0.000000,4.000000,4.000000,4.000000,4.000000,4.000000,4.000000,4.000000,4.000000,4.000000,4.000000,4.000000,4.000000,4.000000,4.000000,100.000000
1602006039.553316,68.000000,0.000000,4109.230957,4107.179688,4134.358887,4124.102539,4132.307617,4133.333496,4136.922852,4132.307617,4147.692383,4130.256348,4152.820313,4152.820313,4148.717773,4149.230957,815.000000,4.000000,,,,0.000000,4.000000,4.000000,4.000000,4.000000,4.000000,4.000000,4.000000,4.000000,4.000000,4.000000,4.000000,4.000000,4.000000,4.000000,100.000000
1602006039.561297,69.000000,0.000000,4106.666504,4105.128418,4137.948730,4121.025879,4123.589844,4126.666504,4127.179688,4120.000000,4131.282227,4134.358887,4143.589844,4158.974121,4145.128418,4127.179688,824.000000,4.000000,,,,0.000000,4.000000,4.000000,4.000000,4.000000,4.000000,4.000000,4.000000,4.000000,4.000000,4.000000,4.000000,4.000000,4.000000,4.000000,100.000000
1602006039.569179,70.000000,0.000000,4106.666504,4102.051270,4135.897461,4113.333496,4122.051270,4120.512695,4126.666504,4113.846191,4126.153809,4145.128418,4140.000000,4158.974121,4144.102539,4120.000000,766.000000,4.000000,,,,0.000000,4.000000,4.000000,4.000000,4.000000,4.000000,4.000000,4.000000,4.000000,4.000000,4.000000,4.000000,4.000000,4.000000,4.000000,100.000000
1602006039.577060,71.000000,0.000000,4104.102539,4098.974121,4127.692383,4110.769043,4125.641113,4117.436035,4128.205078,4107.692383,4118.974121,4123.077148,4142.563965,4151.282227,4137.436035,4127.692383,676.000000,4.000000,,,,0.000000,4.000000,4.000000,4.000000,4.000000,4.000000,4.000000,4.000000,4.000000,4.000000,4.000000,4.000000,4.000000,4.000000,4.000000,100.000000
1602006039.584942,72.000000,0.000000,4104.102539,4102.563965,4124.102539,4118.461426,4130.256348,4122.563965,4127.179688,4103.589844,4111.794922,4098.461426,4143.077148,4147.692383,4132.307617,4128.205078,785.000000,4.000000,,,,0.000000,4.000000,4.000000,4.000000,4.000000,4.000000,4.000000,4.000000,4.000000,4.000000,4.000000,4.000000,4.000000,4.000000,4.000000,100.000000
1602006039.592724,73.000000,0.000000,4113.846191,4108.205078,4126.666504,4121.538574,4134.358887,4126.666504,4129.230957,4113.333496,4121.025879,4110.769043,4145.641113,4150.256348,4135.384766,4125.128418,843.000000,4.000000,,,,0.000000,4.000000,4.000000,4.000000,4.000000,4.000000,4.000000,4.000000,4.000000,4.000000,4.000000,4.000000,4.000000,4.000000,4.000000,100.000000
1602006039.600607,74.000000,0.000000,4123.077148,4108.205078,4130.769043,4122.051270,4137.436035,4124.615234,4133.846191,4130.256348,4142.051270,4134.871582,4151.282227,4150.769043,4138.974121,4132.820313,871.000000,4.000000,,,,0.000000,4.000000,4.000000,4.000000,4.000000,4.000000,4.000000,4.000000,4.000000,4.000000,4.000000,4.000000,4.000000,4.000000,4.000000,100.000000
1602006039.608490,75.000000,0.000000,4123.077148,4112.820313,4135.897461,4125.641113,4137.948730,4121.025879,4136.922852,4138.461426,4152.307617,4136.922852,4151.794922,4152.307617,4141.538574,4143.077148,835.000000,4.000000,,,,0.000000,4.000000,4.000000,4.000000,4.000000,4.000000,4.000000,4.000000,4.000000,4.000000,4.000000,4.000000,4.000000,4.000000,4.000000,100.000000
1602006039.616372,76.000000,0.000000,4122.563965,4123.077148,4140.512695,4125.128418,4133.846191,4125.128418,4143.589844,4145.641113,4151.794922,4142.563965,4153.846191,4159.487305,4150.256348,4148.205078,772.000000,4.000000,,,,0.000000,4.000000,4.000000,4.000000,4.000000,4.000000,4.000000,4.000000,4.000000,4.000000,4.000000,4.000000,4.000000,4.000000,4.000000,100.000000
1602006039.624255,77.000000,0.000000,4126.153809,4121.025879,4142.563965,4123.077148,4125.128418,4131.794922,4151.794922,4151.282227,4152.307617,4153.333496,4159.487305,4160.512695,4155.897461,4150.256348,748.000000,4.000000,,,,0.000000,4.000000,4.000000,4.000000,4.000000,4.000000,4.000000,4.000000,4.000000,4.000000,4.000000,4.000000,4.000000,4.000000,4.000000,100.000000
1602006039.632137,78.000000,0.000000,4123.077148,4113.333496,4142.051270,4122.563965,4121.538574,4129.230957,4146.153809,4146.153809,4152.820313,4146.153809,4156.922852,4154.358887,4154.358887,4150.769043,871.000000,4.000000,,,,0.000000,4.000000,4.000000,4.000000,4.000000,4.000000,4.000000,4.000000,4.000000,4.000000,4.000000,4.000000,4.000000,4.000000,4.000000,100.000000
1602006039.640020,79.000000,0.000000,4121.025879,4118.974121,4142.051270,4125.641113,4131.794922,4125.641113,4138.974121,4142.051270,4153.333496,4138.974121,4152.307617,4155.384766,4156.410156,4154.358887,835.000000,4.000000,,,,0.000000,4.000000,4.000000,4.000000,4.000000,4.000000,4.000000,4.000000,4.000000,4.000000,4.000000,4.000000,4.000000,4.000000,4.000000,100.000000
1602006039.647903,80.000000,0.000000,4126.666504,4126.153809,4142.563965,4132.820313,4140.512695,4128.717773,4148.205078,4143.077148,4152.307617,4135.897461,4155.384766,4158.974121,4159.487305,4154.358887,772.000000,4.000000,,,,0.000000,4.000000,4.000000,4.000000,4.000000,4.000000,4.000000,4.000000,4.000000,4.000000,4.000000,4.000000,4.000000,4.000000,4.000000,100.000000
1602006039.655885,81.000000,0.000000,4125.128418,4121.025879,4141.025879,4130.769043,4134.358887,4128.717773,4151.282227,4137.436035,4143.077148,4125.641113,4153.333496,4153.333496,4151.282227,4141.538574,748.000000,4.000000,,,,0.000000,4.000000,4.000000,4.000000,4.000000,4.000000,4.000000,4.000000,4.000000,4.000000,4.000000,4.000000,4.000000,4.000000,4.000000,100.000000
1602006039.663767,82.000000,0.000000,4123.077148,4118.461426,4137.948730,4123.589844,4128.717773,4122.051270,4141.025879,4133.846191,4137.948730,4130.256348,4144.102539,4149.743652,4141.538574,4137.948730,871.000000,4.000000,,,,0.000000,4.000000,4.000000,4.000000,4.000000,4.000000,4.000000,4.000000,4.000000,4.000000,4.000000,4.000000,4.000000,4.000000,4.000000,100.000000
1602006039.671649,83.000000,0.000000,4130.769043,4125.128418,4138.974121,4130.256348,4127.692383,4120.000000,4135.384766,4132.820313,4137.436035,4146.153809,4143.077148,4153.333496,4141.025879,4150.769043,835.000000,4.000000,,,,0.000000,4.000000,4.000000,4.000000,4.000000,4.000000,4.000000,4.000000,4.000000,4.000000,4.000000,4.000000,4.000000,4.000000,4.000000,100.000000
1602006039.679531,84.000000,0.000000,4136.922852,4126.153809,4139.487305,4139.487305,4124.615234,4122.563965,4131.794922,4128.205078,4132.820313,4135.897461,4151.794922,4154.358887,4145.128418,4152.307617,772.000000,4.000000,,,,0.000000,4.000000,4.000000,4.000000,4.000000,4.000000,4.000000,4.000000,4.000000,4.000000,4.000000,4.000000,4.000000,4.000000,4.000000,100.000000
1602006039.687413,85.000000,0.000000,4136.922852,4126.153809,4138.974121,4135.384766,4125.641113,4121.538574,4130.256348,4133.333496,4132.307617,4124.615234,4154.358887,4153.333496,4150.256348,4148.717773,748.000000,4.000000,,,,0.000000,4.000000,4.000000,4.000000,4.000000,4.000000,4.000000,4.000000,4.000000,4.000000,4.000000,4.000000,4.000000,4.000000,4.000000,100.000000
1602006039.695295,86.000000,0.000000,4137.948730,4128.717773,4141.538574,4133.333496,4134.871582,4125.128418,4135.384766,4143.077148,4138.974121,4133.846191,4152.307617,4157.948730,4152.820313,4156.410156,871.000000,4.000000,,,,0.000000,4.000000,4.000000,4.000000,4.000000,4.000000,4.000000,4.000000,4.000000,4.000000,4.000000,4.000000,4.000000,4.000000,4.000000,100.000000
1602006039.703278,87.000000,0.000000,4138.461426,4129.230957,4140.000000,4137.948730,4137.436035,4136.410156,4138.461426,4143.077148,4143.589844,4141.025879,4155.384766,4163.077148,4154.358887,4157.436035,835.000000,4.000000,,,,0.000000,4.000000,4.000000,4.000000,4.000000,4.000000,4.000000,4.000000,4.000000,4.000000,4.000000,4.000000,4.000000,4.000000,4.000000,100.000000
1602006039.711160,88.000000,0.000000,4135.384766,4128.205078,4139.487305,4135.897461,4127.179688,4135.384766,4135.384766,4140.512695,4144.102539,4142.563965,4156.922852,4160.512695,4155.384766,4151.282227,772.000000,4.000000,,,,0.000000,4.000000,4.000000,4.000000,4.000000,4.000000,4.000000,4.000000,4.000000,4.000000,4.000000,4.000000,4.000000,4.000000,4.000000,100.000000
1602006039.719043,89.000000,0.000000,4136.922852,4128.205078,4149.230957,4133.333496,4123.077148,4118.461426,4130.769043,4134.871582,4141.025879,4136.410156,4156.922852,4154.871582,4151.282227,4154.871582,748.000000,4.000000,,,,0.000000,4.000000,4.000000,4.000000,4.000000,4.000000,4.000000,4.000000,4.000000,4.000000,4.000000,4.000000,4.000000,4.000000,4.000000,100.000000
1602006039.726925,90.000000,0.000000,4141.025879,4126.153809,4155.384766,4136.410156,4128.205078,4108.717773,4123.589844,4125.128418,4130.769043,4124.102539,4154.871582,4154.358887,4143.589844,4160.512695,871.000000,4.000000,,,,0.000000,4.000000,4.000000,4.000000,4.000000,4.000000,4.000000,4.000000,4.000000,4.000000,4.000000,4.000000,4.000000,4.000000,4.000000,100.000000
1602006039.734808,91.000000,0.000000,4137.436035,4124.102539,4152.820313,4137.948730,4129.230957,4109.743652,4118.461426,4120.000000,4123.589844,4119.487305,4143.077148,4156.922852,4137.948730,4157.948730,835.000000,4.000000,,,,0.000000,4.000000,4.000000,4.000000,4.000000,4.000000,4.000000,4.000000,4.000000,4.000000,4.000000,4.000000,4.000000,4.000000,4.000000,100.000000
1602006039.742691,92.000000,0.000000,4132.820313,4124.102539,4151.794922,4136.922852,4124.102539,4103.589844,4118.974121,4117.948730,4121.025879,4129.230957,4138.461426,4160.000000,4138.974121,4153.846191,772.000000,4.000000,,,,0.000000,4.000000,4.000000,4.000000,4.000000,4.000000,4.000000,4.000000,4.000000,4.000000,4.000000,4.000000,4.000000,4.000000,4.000000,100.000000
1602006039.750573,93.000000,0.000000,4140.000000,4125.128418,4153.846191,4137.948730,4124.615234,4105.128418,4120.000000,4124.102539,4117.948730,4138.461426,4154.871582,4167.179688,4148.717773,4152.820313,748.000000,4.000000,,,,0.000000,4.000000,4.000000,4.000000,4.000000,4.000000,4.000000,4.000000,4.000000,4.000000,4.000000,4.000000,4.000000,4.000000,4.000000,100.000000
1602006039.758456,94.000000,0.000000,4147.179688,4126.153809,4155.897461,4138.974121,4128.717773,4120.000000,4122.563965,4135.384766,4126.153809,4141.538574,4166.153809,4170.256348,4157.948730,4163.589844,871.000000,4.000000,,,,0.000000,4.000000,4.000000,4.000000,4.000000,4.000000,4.000000,4.000000,4.000000,4.000000,4.000000,4.000000,4.000000,4.000000,4.000000,100.000000
1602006039.766338,95.000000,0.000000,4140.000000,4125.128418,4152.820313,4135.384766,4125.641113,4125.641113,4129.230957,4138.974121,4139.487305,4146.153809,4157.948730,4160.512695,4157.436035,4170.769043,835.000000,4.000000,,,,0.000000,4.000000,4.000000,4.000000,4.000000,4.000000,4.000000,4.000000,4.000000,4.000000,4.000000,4.000000,4.000000,4.000000,4.000000,100.000000
1602006039.774120,96.000000,0.000000,4131.794922,4123.077148,4145.641113,4131.282227,4125.128418,4126.666504,4136.922852,4144.615234,4138.974121,4138.974121,4159.487305,4152.820313,4156.922852,4158.461426,772.000000,4.000000,,,,0.000000,4.000000,4.000000,4.000000,4.000000,4.000000,4.000000,4.000000,4.000000,4.000000,4.000000,4.000000,4.000000,4.000000,4.000000,100.000000
1602006039.782002,97.000000,0.000000,4135.384766,4124.102539,4147.692383,4130.769043,4129.230957,4138.974121,4140.512695,4152.307617,4136.922852,4132.307617,4169.230957,4155.897461,4155.897461,4150.769043,748.000000,4.000000,,,,0.000000,4.000000,4.000000,4.000000,4.000000,4.000000,4.000000,4.000000,4.000000,4.000000,4.000000,4.000000,4.000000,4.000000,4.000000,100.000000
1602006039.789883,98.000000,0.000000,4139.487305,4122.563965,4153.333496,4129.743652,4127.692383,4143.589844,4141.025879,4146.153809,4143.077148,4143.077148,4156.410156,4151.794922,4143.589844,4154.871582,871.000000,4.000000,,,,0.000000,4.000000,4.000000,4.000000,4.000000,4.000000,4.000000,4.000000,4.000000,4.000000,4.000000,4.000000,4.000000,4.000000,4.000000,100.000000
1602006039.797765,99.000000,0.000000,4133.846191,4114.358887,4146.666504,4125.641113,4122.051270,4132.307617,4137.948730,4137.436035,4137.436035,4150.256348,4136.922852,4139.487305,4130.769043,4145.641113,835.000000,4.000000,,,,0.000000,4.000000,4.000000,4.000000,4.000000,4.000000,4.000000,4.000000,4.000000,4.000000,4.000000,4.000000,4.000000,4.000000,4.000000,100.000000
1602006039.805647,100.000000,0.000000,4123.077148,4111.282227,4141.538574,4120.512695,4118.974121,4127.179688,4133.333496,4136.922852,4125.128418,4136.922852,4132.820313,4137.948730,4127.692383,4129.743652,772.000000,4.000000,,,,0.000000,4.000000,4.000000,4.000000,4.000000,4.000000,4.000000,4.000000,4.000000,4.000000,4.000000,4.000000,4.000000,4.000000,4.000000,100.000000
1602006039.813429,101.000000,0.000000,4127.179688,4118.974121,4151.794922,4126.153809,4120.512695,4136.922852,4141.025879,4137.948730,4130.769043,4129.230957,4146.153809,4149.230957,4133.846191,4139.487305,748.000000,4.000000,,,,0.000000,4.000000,4.000000,4.000000,4.000000,4.000000,4.000000,4.000000,4.000000,4.000000,4.000000,4.000000,4.000000,4.000000,4.000000,100.000000
1602006039.821312,102.000000,0.000000,4146.153809,4126.153809,4169.230957,4135.897461,4123.589844,4145.128418,4150.769043,4141.025879,4146.153809,4147.692383,4167.179688,4162.051270,4148.717773,4169.230957,871.000000,4.000000,,,,0.000000,4.000000,4.000000,4.000000,4.000000,4.000000,4.000000,4.000000,4.000000,4.000000,4.000000,4.000000,4.000000,4.000000,4.000000,100.000000
1602006039.829194,103.000000,0.000000,4148.717773,4122.051270,4169.743652,4130.256348,4124.102539,4142.563965,4142.563965,4140.000000,4145.641113,4149.743652,4168.717773,4159.487305,4150.256348,4175.897461,835.000000,4.000000,,,,0.000000,4.000000,4.000000,4.000000,4.000000,4.000000,4.000000,4.000000,4.000000,4.000000,4.000000,4.000000,4.000000,4.000000,4.000000,100.000000
1602006039.837076,104.000000,0.000000,4133.333496,4115.384766,4155.384766,4119.487305,4122.563965,4135.897461,4132.820313,4134.871582,4136.410156,4122.051270,4145.641113,4144.102539,4131.794922,4149.230957,772.000000,4.000000,,,,0.000000,4.000000,4.000000,4.000000,4.000000,4.000000,4.000000,4.000000,4.000000,4.000000,4.000000,4.000000,4.000000,4.000000,4.000000,100.000000
1602006039.844959,105.000000,0.000000,4118.461426,4111.282227,4145.128418,4120.512695,4119.487305,4128.717773,4132.820313,4135.897461,4140.000000,4122.051270,4135.384766,4131.794922,4124.615234,4131.794922,748.000000,4.000000,,,,0.000000,4.000000,4.000000,4.000000,4.000000,4.000000,4.000000,4.000000,4.000000,4.000000,4.000000,4.000000,4.000000,4.000000,4.000000,100.000000
1602006039.852841,106.000000,0.000000,4105.128418,4103.589844,4135.384766,4119.487305,4115.897461,4118.974121,4125.128418,4130.256348,4138.461426,4142.563965,4140.000000,4125.641113,4124.615234,4135.897461,871.000000,4.000000,,,,0.000000,4.000000,4.000000,4.000000,4.000000,4.000000,4.000000,4.000000,4.000000,4.000000,4.000000,4.000000,4.000000,4.000000,4.000000,100.000000
1602006039.860723,107.000000,0.000000,4107.179688,4107.179688,4124.615234,4115.897461,4118.974121,4114.871582,4116.922852,4120.512695,4124.615234,4134.871582,4137.436035,4124.615234,4120.000000,4136.922852,835.000000,4.000000,,,,0.000000,4.000000,4.000000,4.000000,4.000000,4.000000,4.000000,4.000000,4.000000,4.000000,4.000000,4.000000,4.000000,4.000000,4.000000,100.000000
1602006039.868606,108.000000,0.000000,4123.589844,4122.563965,4130.256348,4122.563965,4126.153809,4120.000000,4129.230957,4128.717773,4122.051270,4124.102539,4140.000000,4133.333496,4128.717773,4140.512695,772.000000,4.000000,,,,0.000000,4.000000,4.000000,4.000000,4.000000,4.000000,4.000000,4.000000,4.000000,4.000000,4.000000,4.000000,4.000000,4.000000,4.000000,100.000000
1602006039.876387,109.000000,0.000000,4118.461426,4121.025879,4140.512695,4125.128418,4123.589844,4126.666504,4135.384766,4135.897461,4129.743652,4140.000000,4143.077148,4138.461426,4135.897461,4138.974121,748.000000,4.000000,,,,0.000000,4.000000,4.000000,4.000000,4.000000,4.000000,4.000000,4.000000,4.000000,4.000000,4.000000,4.000000,4.000000,4.000000,4.000000,100.000000
1602006039.884269,110.000000,0.000000,4102.563965,4104.615234,4134.871582,4118.974121,4120.512695,4131.282227,4126.153809,4128.205078,4128.205078,4144.615234,4138.974121,4134.358887,4123.589844,4125.641113,871.000000,4.000000,,,,0.000000,4.000000,4.000000,4.000000,4.000000,4.000000,4.000000,4.000000,4.000000,4.000000,4.000000,4.000000,4.000000,4.000000,4.000000,100.000000
1602006039.892151,111.000000,0.000000,4114.871582,4104.102539,4133.846191,4118.974121,4121.538574,4136.922852,4128.717773,4130.256348,4126.153809,4135.384766,4141.025879,4135.897461,4123.077148,4128.205078,835.000000,4.000000,,,,0.000000,4.000000,4.000000,4.000000,4.000000,4.000000,4.000000,4.000000,4.000000,4.000000,4.000000,4.000000,4.000000,4.000000,4.000000,100.000000
1602006039.900032,112.000000,0.000000,4124.615234,4107.179688,4136.922852,4120.512695,4115.897461,4139.487305,4138.461426,4137.948730,4128.717773,4140.512695,4141.538574,4137.436035,4131.282227,4138.974121,772.000000,4.000000,,,,0.000000,4.000000,4.000000,4.000000,4.000000,4.000000,4.000000,4.000000,4.000000,4.000000,4.000000,4.000000,4.000000,4.000000,4.000000,100.000000
1602006039.907914,113.000000,0.000000,4118.974121,4103.589844,4135.897461,4120.512695,4112.307617,4137.948730,4139.487305,4136.410156,4130.769043,4138.974121,4140.512695,4135.897461,4126.666504,4135.897461,748.000000,4.000000,,,,0.000000,4.000000,4.000000,4.000000,4.000000,4.000000,4.000000,4.000000,4.000000,4.000000,4.000000,4.000000,4.000000,4.000000,4.000000,100.000000
1602006039.915697,114.000000,0.000000,4129.230957,4113.333496,4144.102539,4124.102539,4117.948730,4134.358887,4141.025879,4143.589844,4135.897461,4132.307617,4148.717773,4143.589844,4130.769043,4143.077148,871.000000,4.000000,,,,0.000000,4.000000,4.000000,4.000000,4.000000,4.000000,4.000000,4.000000,4.000000,4.000000,4.000000,4.000000,4.000000,4.000000,4.000000,100.000000
1602006039.923579,115.000000,0.000000,4142.563965,4119.487305,4154.871582,4126.153809,4123.077148,4129.230957,4143.077148,4152.307617,4134.871582,4144.102539,4158.461426,4154.358887,4146.153809,4161.538574,835.000000,4.000000,,,,0.000000,4.000000,4.000000,4.000000,4.000000,4.000000,4.000000,4.000000,4.000000,4.000000,4.000000,4.000000,4.000000,4.000000,4.000000,100.000000
1602006039.931462,116.000000,0.000000,4138.461426,4111.794922,4154.358887,4125.641113,4122.563965,4122.563965,4137.436035,4142.563965,4127.692383,4160.000000,4154.358887,4159.487305,4145.641113,4160.512695,772.000000,4.000000,,,,0.000000,4.000000,4.000000,4.000000,4.000000,4.000000,4.000000,4.000000,4.000000,4.000000,4.000000,4.000000,4.000000,4.000000,4.000000,100.000000
1602006039.939344,117.000000,0.000000,4130.256348,4114.871582,4146.666504,4127.179688,4123.589844,4124.102539,4135.897461,4133.333496,4124.615234,4158.461426,4141.538574,4155.897461,4138.461426,4152.307617,748.000000,4.000000,,,,0.000000,4.000000,4.000000,4.000000,4.000000,4.000000,4.000000,4.000000,4.000000,4.000000,4.000000,4.000000,4.000000,4.000000,4.000000,100.000000
1602006039.947227,118.000000,0.000000,4127.692383,4126.153809,4139.487305,4131.794922,4130.769043,4132.820313,4132.820313,4135.384766,4120.512695,4145.128418,4132.307617,4146.153809,4137.948730,4147.692383,871.000000,4.000000,,,,0.000000,4.000000,4.000000,4.000000,4.000000,4.000000,4.000000,4.000000,4.000000,4.000000,4.000000,4.000000,4.000000,4.000000,4.000000,100.000000
1602006039.955110,119.000000,0.000000,4124.615234,4127.179688,4136.922852,4134.871582,4136.922852,4137.436035,4124.102539,4134.358887,4122.563965,4146.666504,4138.461426,4139.487305,4137.948730,4139.487305,835.000000,4.000000,,,,0.000000,4.000000,4.000000,4.000000,4.000000,4.000000,4.000000,4.000000,4.000000,4.000000,4.000000,4.000000,4.000000,4.000000,4.000000,100.000000
1602006039.962992,120.000000,0.000000,4125.641113,4123.589844,4138.974121,4134.871582,4135.897461,4140.000000,4128.717773,4133.846191,4135.384766,4150.769043,4152.820313,4141.025879,4139.487305,4144.615234,772.000000,4.000000,,,,0.000000,4.000000,4.000000,4.000000,4.000000,4.000000,4.000000,4.000000,4.000000,4.000000,4.000000,4.000000,4.000000,4.000000,4.000000,100.000000
1602006039.970875,121.000000,0.000000,4131.794922,4127.179688,4138.974121,4134.358887,4134.358887,4141.538574,4139.487305,4135.897461,4138.974121,4140.000000,4153.846191,4146.153809,4138.461426,4153.846191,748.000000,4.000000,,,,0.000000,4.000000,4.000000,4.000000,4.000000,4.000000,4.000000,4.000000,4.000000,4.000000,4.000000,4.000000,4.000000,4.000000,4.000000,100.000000
1602006039.978857,122.000000,0.000000,4136.410156,4134.358887,4139.487305,4134.871582,4138.974121,4140.000000,4141.025879,4135.384766,4133.333496,4138.461426,4149.743652,4150.256348,4140.000000,4153.333496,871.000000,4.000000,,,,0.000000,4.000000,4.000000,4.000000,4.000000,4.000000,4.000000,4.000000,4.000000,4.000000,4.000000,4.000000,4.000000,4.000000,4.000000,100.000000
1602006039.986738,123.000000,0.000000,4145.641113,4140.512695,4147.179688,4143.589844,4136.410156,4134.358887,4141.025879,4136.922852,4136.922852,4152.307617,4155.897461,4154.871582,4150.769043,4164.102539,835.000000,4.000000,,,,0.000000,4.000000,4.000000,4.000000,4.000000,4.000000,4.000000,4.000000,4.000000,4.000000,4.000000,4.000000,4.000000,4.000000,4.000000,100.000000
1602006039.994620,124.000000,0.000000,4155.897461,4140.000000,4155.384766,4152.307617,4124.102539,4127.179688,4141.538574,4138.461426,4140.512695,4162.563965,4158.974121,4155.897461,4156.410156,4174.871582,772.000000,4.000000,,,,0.000000,4.000000,4.000000,4.000000,4.000000,4.000000,4.000000,4.000000,4.000000,4.000000,4.000000,4.000000,4.000000,4.000000,4.000000,100.000000
1602006040.002502,125.000000,0.000000,4157.436035,4139.487305,4160.000000,4148.717773,4119.487305,4120.512695,4136.922852,4136.410156,4135.384766,4162.051270,4151.282227,4153.846191,4147.179688,4164.615234,748.000000,4.000000,,,,0.000000,4.000000,4.000000,4.000000,4.000000,4.000000,4.000000,4.000000,4.000000,4.000000,4.000000,4.000000,4.000000,4.000000,4.000000,100.000000
1602006040.010384,126.000000,0.000000,4148.205078,4137.948730,4161.025879,4138.461426,4122.563965,4117.436035,4136.410156,4141.025879,4132.307617,4157.948730,4146.153809,4152.307617,4137.948730,4156.922852,871.000000,4.000000,,,,0.000000,4.000000,4.000000,4.000000,4.000000,4.000000,4.000000,4.000000,4.000000,4.000000,4.000000,4.000000,4.000000,4.000000,4.000000,100.000000
1602006040.018266,127.000000,0.000000,4139.487305,4129.743652,4157.948730,4138.461426,4122.563965,4124.102539,4138.461426,4149.743652,4134.871582,4155.897461,4147.179688,4151.794922,4140.512695,4151.282227,835.000000,4.000000,,,,0.000000,4.000000,4.000000,4.000000,4.000000,4.000000,4.000000,4.000000,4.000000,4.000000,4.000000,4.000000,4.000000,4.000000,4.000000,100.000000
1602006040.026048,128.000000,0.000000,4139.487305,4123.589844,4158.461426,4140.000000,4126.153809,4134.358887,4136.410156,4147.692383,4136.922852,4158.461426,4150.769043,4155.384766,4143.077148,4137.948730,772.000000,4.000000,,,,0.000000,4.000000,4.000000,4.000000,4.000000,4.000000,4.000000,4.000000,4.000000,4.000000,4.000000,4.000000,4.000000,4.000000,4.000000,100.000000
1602006040.033930,0.000000,0.000000,4140.000000,4122.051270,4153.846191,4133.846191,4136.410156,4137.948730,4135.384766,4138.461426,4136.410156,4161.025879,4154.871582,4156.410156,4139.487305,4143.077148,800.000000,4.000000,,,,0.000000,4.000000,4.000000,4.000000,4.000000,4.000000,4.000000,4.000000,4.000000,4.000000,4.000000,4.000000,4.000000,4.000000,4.000000,100.000000
1602006040.041812,1.000000,0.000000,4132.307617,4121.538574,4142.051270,4134.871582,4138.974121,4143.589844,4136.410156,4136.922852,4134.358887,4149.230957,4156.410156,4147.692383,4135.384766,4153.333496,799.000000,4.000000,,,,0.000000,4.000000,4.000000,4.000000,4.000000,4.000000,4.000000,4.000000,4.000000,4.000000,4.000000,4.000000,4.000000,4.000000,4.000000,100.000000
1602006040.049694,2.000000,0.000000,4121.538574,4120.512695,4136.410156,4138.461426,4138.974121,4154.358887,4137.436035,4141.538574,4139.487305,4140.000000,4151.282227,4138.461426,4131.794922,4144.102539,849.000000,4.000000,,,,0.000000,4.000000,4.000000,4.000000,4.000000,4.000000,4.000000,4.000000,4.000000,4.000000,4.000000,4.000000,4.000000,4.000000,4.000000,100.000000
1602006040.057576,3.000000,0.000000,4116.410156,4118.461426,4129.743652,4130.769043,4141.025879,4150.769043,4137.436035,4136.410156,4141.538574,4145.641113,4141.025879,4131.794922,4123.589844,4128.717773,869.000000,4.000000,,,,0.000000,4.000000,4.000000,4.000000,4.000000,4.000000,4.000000,4.000000,4.000000,4.000000,4.000000,4.000000,4.000000,4.000000,4.000000,100.000000
1602006040.065558,4.000000,0.000000,4120.000000,4119.487305,4123.589844,4126.666504,4132.820313,4135.897461,4135.897461,4125.128418,4132.307617,4142.563965,4134.871582,4128.205078,4116.410156,4121.538574,815.000000,4.000000,,,,0.000000,4.000000,4.000000,4.000000,4.000000,4.000000,4.000000,4.000000,4.000000,4.000000,4.000000,4.000000,4.000000,4.000000,4.000000,100.000000
1602006040.073441,5.000000,0.000000,4124.102539,4122.563965,4132.307617,4135.897461,4127.179688,4136.922852,4137.436035,4126.153809,4127.179688,4133.846191,4136.410156,4133.846191,4123.589844,4126.153809,786.000000,4.000000,,,,0.000000,4.000000,4.000000,4.000000,4.000000,4.000000,4.000000,4.000000,4.000000,4.000000,4.000000,4.000000,4.000000,4.000000,4.000000,100.000000
1602006040.081324,6.000000,0.000000,4122.051270,4127.692383,4140.000000,4141.025879,4136.410156,4143.077148,4143.077148,4134.358887,4132.307617,4144.615234,4138.461426,4145.641113,4138.461426,4135.897461,766.000000,4.000000,,,,0.000000,4.000000,4.000000,4.000000,4.000000,4.000000,4.000000,4.000000,4.000000,4.000000,4.000000,4.000000,4.000000,4.000000,4.000000,100.000000
1602006040.089207,7.000000,0.000000,4126.666504,4133.846191,4134.871582,4137.436035,4140.000000,4138.461426,4142.563965,4135.897461,4135.897461,4165.641113,4140.000000,4149.743652,4138.974121,4138.974121,678.000000,4.000000,,,,0.000000,4.000000,4.000000,4.000000,4.000000,4.000000,4.000000,4.000000,4.000000,4.000000,4.000000,4.000000,4.000000,4.000000,4.000000,100.000000
1602006040.097090,8.000000,0.000000,4134.358887,4136.922852,4138.974121,4136.922852,4135.384766,4136.922852,4136.410156,4140.512695,4133.846191,4169.230957,4152.307617,4151.794922,4137.948730,4142.051270,785.000000,4.000000,,,,0.000000,4.000000,4.000000,4.000000,4.000000,4.000000,4.000000,4.000000,4.000000,4.000000,4.000000,4.000000,4.000000,4.000000,4.000000,100.000000
1602006040.104972,9.000000,0.000000,4130.769043,4133.333496,4144.615234,4139.487305,4137.948730,4141.538574,4137.948730,4153.333496,4135.384766,4167.179688,4162.051270,4158.974121,4148.205078,4154.871582,842.000000,4.000000,,,,0.000000,4.000000,4.000000,4.000000,4.000000,4.000000,4.000000,4.000000,4.000000,4.000000,4.000000,4.000000,4.000000,4.000000,4.000000,100.000000
1602006040.112855,10.000000,0.000000,4130.256348,4129.230957,4140.000000,4140.000000,4140.512695,4140.000000,4140.512695,4157.436035,4139.487305,4158.974121,4156.410156,4158.461426,4149.743652,4158.974121,871.000000,4.000000,,,,0.000000,4.000000,4.000000,4.000000,4.000000,4.000000,4.000000,4.000000,4.000000,4.000000,4.000000,4.000000,4.000000,4.000000,4.000000,100.000000
1602006040.120738,11.000000,0.000000,4143.077148,4125.641113,4145.641113,4139.487305,4130.769043,4135.897461,4138.461426,4154.871582,4140.000000,4143.589844,4153.333496,4152.307617,4139.487305,4146.666504,835.000000,4.000000,,,,0.000000,4.000000,4.000000,4.000000,4.000000,4.000000,4.000000,4.000000,4.000000,4.000000,4.000000,4.000000,4.000000,4.000000,4.000000,100.000000
1602006040.128621,12.000000,0.000000,4144.615234,4124.615234,4155.897461,4137.948730,4123.077148,4134.871582,4138.974121,4155.384766,4140.512695,4150.256348,4154.871582,4151.794922,4136.410156,4137.436035,769.000000,4.000000,,,,0.000000,4.000000,4.000000,4.000000,4.000000,4.000000,4.000000,4.000000,4.000000,4.000000,4.000000,4.000000,4.000000,4.000000,4.000000,100.000000
1602006040.136604,13.000000,0.000000,4135.897461,4131.282227,4156.922852,4140.512695,4124.615234,4134.871582,4141.025879,4151.282227,4138.461426,4155.384766,4150.769043,4155.384766,4136.922852,4147.692383,748.000000,4.000000,,,,0.000000,4.000000,4.000000,4.000000,4.000000,4.000000,4.000000,4.000000,4.000000,4.000000,4.000000,4.000000,4.000000,4.000000,4.000000,100.000000
1602006040.144486,14.000000,0.000000,4138.461426,4136.410156,4153.846191,4143.077148,4129.743652,4134.871582,4138.461426,4141.538574,4132.820313,4136.922852,4148.717773,4153.846191,4136.410156,4153.333496,871.000000,4.000000,,,,0.000000,4.000000,4.000000,4.000000,4.000000,4.000000,4.000000,4.000000,4.000000,4.000000,4.000000,4.000000,4.000000,4.000000,4.000000,100.000000
1602006040.152369,15.000000,0.000000,4141.025879,4137.948730,4149.230957,4141.538574,4136.922852,4135.384766,4137.948730,4135.384766,4123.589844,4137.948730,4153.333496,4150.256348,4140.512695,4145.128418,835.000000,4.000000,,,,0.000000,4.000000,4.000000,4.000000,4.000000,4.000000,4.000000,4.000000,4.000000,4.000000,4.000000,4.000000,4.000000,4.000000,4.000000,100.000000
1602006040.160252,16.000000,0.000000,4136.410156,4135.897461,4142.563965,4138.974121,4136.922852,4136.410156,4138.461426,4128.205078,4121.025879,4157.436035,4150.256348,4149.743652,4135.384766,4144.615234,0.000000,4.000000,,,,0.000000,4.000000,4.000000,4.000000,4.000000,4.000000,4.000000,4.000000,4.000000,4.000000,4.000000,4.000000,4.000000,4.000000,4.000000,100.000000
1602006040.168135,17.000000,0.000000,4133.333496,4129.743652,4137.948730,4136.922852,4131.282227,4136.922852,4135.384766,4121.538574,4121.025879,4143.077148,4137.436035,4149.230957,4126.666504,4147.179688,0.000000,4.000000,,,,0.000000,4.000000,4.000000,4.000000,4.000000,4.000000,4.000000,4.000000,4.000000,4.000000,4.000000,4.000000,4.000000,4.000000,4.000000,100.000000
1602006040.176018,18.000000,0.000000,4135.897461,4131.282227,4138.461426,4136.922852,4134.871582,4141.025879,4137.436035,4128.717773,4120.000000,4118.974121,4137.948730,4151.282227,4132.820313,4139.487305,0.000000,4.000000,,,,0.000000,4.000000,4.000000,4.000000,4.000000,4.000000,4.000000,4.000000,4.000000,4.000000,4.000000,4.000000,4.000000,4.000000,4.000000,100.000000
1602006040.183901,19.000000,0.000000,4137.948730,4138.461426,4147.179688,4140.000000,4139.487305,4139.487305,4135.897461,4139.487305,4122.051270,4136.410156,4145.128418,4154.358887,4139.487305,4136.410156,0.000000,4.000000,,,,0.000000,4.000000,4.000000,4.000000,4.000000,4.000000,4.000000,4.000000,4.000000,4.000000,4.000000,4.000000,4.000000,4.000000,4.000000,100.000000
1602006040.191783,20.000000,0.000000,4134.358887,4136.922852,4151.282227,4141.025879,4129.230957,4126.153809,4126.666504,4138.461426,4125.128418,4161.025879,4140.512695,4151.794922,4134.871582,4139.487305,0.000000,4.000000,,,,0.000000,4.000000,4.000000,4.000000,4.000000,4.000000,4.000000,4.000000,4.000000,4.000000,4.000000,4.000000,4.000000,4.000000,4.000000,100.000000
1602006040.199666,21.000000,0.000000,4136.922852,4136.922852,4144.615234,4140.000000,4122.563965,4124.615234,4129.743652,4142.051270,4132.307617,4155.384766,4143.589844,4150.769043,4137.948730,4141.025879,0.000000,4.000000,,,,0.000000,4.000000,4.000000,4.000000,4.000000,4.000000,4.000000,4.000000,4.000000,4.000000,4.000000,4.000000,4.000000,4.000000,4.000000,100.000000
1602006040.207549,22.000000,0.000000,4138.461426,4141.025879,4140.512695,4141.538574,4126.666504,4136.410156,4140.512695,4155.384766,4140.512695,4136.922852,4153.846191,4154.358887,4141.538574,4139.487305,0.000000,4.000000,,,,0.000000,4.000000,4.000000,4.000000,4.000000,4.000000,4.000000,4.000000,4.000000,4.000000,4.000000,4.000000,4.000000,4.000000,4.000000,100.000000
1602006040.215330,23.000000,0.000000,4126.666504,4130.256348,4136.410156,4137.948730,4128.205078,4136.410156,4138.461426,4152.820313,4141.538574,4136.922852,4145.641113,4148.205078,4128.205078,4127.692383,0.000000,4.000000,,,,0.000000,4.000000,4.000000,4.000000,4.000000,4.000000,4.000000,4.000000,4.000000,4.000000,4.000000,4.000000,4.000000,4.000000,4.000000,100.000000
1602006040.223212,24.000000,0.000000,4117.436035,4117.436035,4125.128418,4128.205078,4129.743652,4130.256348,4133.846191,4137.436035,4137.436035,4153.846191,4131.282227,4137.436035,4117.948730,4118.461426,0.000000,4.000000,,,,0.000000,4.000000,4.000000,4.000000,4.000000,4.000000,4.000000,4.000000,4.000000,4.000000,4.000000,4.000000,4.000000,4.000000,4.000000,100.000000
1602006040.231194,25.000000,0.000000,4120.000000,4118.974121,4118.974121,4122.051270,4134.871582,4136.922852,4140.000000,4135.897461,4133.846191,4153.846191,4134.871582,4136.922852,4117.948730,4128.717773,0.000000,4.000000,,,,0.000000,4.000000,4.000000,4.000000,4.000000,4.000000,4.000000,4.000000,4.000000,4.000000,4.000000,4.000000,4.000000,4.000000,4.000000,100.000000
1602006040.239076,26.000000,0.000000,4121.538574,4121.025879,4125.128418,4122.563965,4136.922852,4146.666504,4144.102539,4136.410156,4127.692383,4134.358887,4141.538574,4137.948730,4120.512695,4135.897461,0.000000,4.000000,,,,0.000000,4.000000,4.000000,4.000000,4.000000,4.000000,4.000000,4.000000,4.000000,4.000000,4.000000,4.000000,4.000000,4.000000,4.000000,100.000000
1602006040.246958,27.000000,0.000000,4120.512695,4118.974121,4135.384766,4124.102539,4137.436035,4142.563965,4139.487305,4126.153809,4123.589844,4126.666504,4140.512695,4140.000000,4124.102539,4133.846191,0.000000,4.000000,,,,0.000000,4.000000,4.000000,4.000000,4.000000,4.000000,4.000000,4.000000,4.000000,4.000000,4.000000,4.000000,4.000000,4.000000,4.000000,100.000000
1602006040.254840,28.000000,0.000000,4121.538574,4118.974121,4136.922852,4125.128418,4137.948730,4135.384766,4130.256348,4123.077148,4128.717773,4124.615234,4138.974121,4148.717773,4126.153809,4135.384766,0.000000,4.000000,,,,0.000000,4.000000,4.000000,4.000000,4.000000,4.000000,4.000000,4.000000,4.000000,4.000000,4.000000,4.000000,4.000000,4.000000,4.000000,100.000000
1602006040.262722,29.000000,0.000000,4121.025879,4122.051270,4125.128418,4130.256348,4139.487305,4135.384766,4128.717773,4132.820313,4133.846191,4121.025879,4140.000000,4153.333496,4128.717773,4128.205078,0.000000,4.000000,,,,0.000000,4.000000,4.000000,4.000000,4.000000,4.000000,4.000000,4.000000,4.000000,4.000000,4.000000,4.000000,4.000000,4.000000,4.000000,100.000000
1602006040.270604,30.000000,0.000000,4121.538574,4131.282227,4120.000000,4137.436035,4143.077148,4133.846191,4137.436035,4139.487305,4142.051270,4136.410156,4148.205078,4153.333496,4136.922852,4120.512695,0.000000,4.000000,,,,0.000000,4.000000,4.000000,4.000000,4.000000,4.000000,4.000000,4.000000,4.000000,4.000000,4.000000,4.000000,4.000000,4.000000,4.000000,100.000000
1602006040.278585,31.000000,0.000000,4123.589844,4140.000000,4131.282227,4140.000000,4141.025879,4121.025879,4135.897461,4139.487305,4152.820313,4159.487305,4153.846191,4157.948730,4143.589844,4132.820313,0.000000,4.000000,,,,0.000000,4.000000,4.000000,4.000000,4.000000,4.000000,4.000000,4.000000,4.000000,4.000000,4.000000,4.000000,4.000000,4.000000,4.000000,100.000000
1602006040.286466,32.000000,0.000000,4124.102539,4137.948730,4137.436035,4140.512695,4134.871582,4110.769043,4123.077148,4137.436035,4150.256348,4160.000000,4149.743652,4158.974121,4141.538574,4143.589844,0.000000,4.000000,,,,0.000000,4.000000,4.000000,4.000000,4.000000,4.000000,4.000000,4.000000,4.000000,4.000000,4.000000,4.000000,4.000000,4.000000,4.000000,100.000000
1602006040.294348,33.000000,0.000000,4131.282227,4135.384766,4136.922852,4141.025879,4134.358887,4115.384766,4120.000000,4134.871582,4139.487305,4147.692383,4143.077148,4155.897461,4138.974121,4133.333496,0.000000,4.000000,,,,0.000000,4.000000,4.000000,4.000000,4.000000,4.000000,4.000000,4.000000,4.000000,4.000000,4.000000,4.000000,4.000000,4.000000,4.000000,100.000000
1602006040.302129,34.000000,0.000000,4140.000000,4137.948730,4141.538574,4140.512695,4135.897461,4128.205078,4124.615234,4136.410156,4136.922852,4145.128418,4139.487305,4148.717773,4137.948730,4129.230957,0.000000,4.000000,,,,0.000000,4.000000,4.000000,4.000000,4.000000,4.000000,4.000000,4.000000,4.000000,4.000000,4.000000,4.000000,4.000000,4.000000,4.000000,100.000000
1602006040.310111,35.000000,0.000000,4137.436035,4136.922852,4144.102539,4138.461426,4136.410156,4138.461426,4125.641113,4136.922852,4138.461426,4140.512695,4140.512695,4141.025879,4135.897461,4137.436035,0.000000,4.000000,,,,0.000000,4.000000,4.000000,4.000000,4.000000,4.000000,4.000000,4.000000,4.000000,4.000000,4.000000,4.000000,4.000000,4.000000,4.000000,100.000000
1602006040.317993,36.000000,0.000000,4126.153809,4129.743652,4139.487305,4136.410156,4140.000000,4142.051270,4126.666504,4135.384766,4135.384766,4124.615234,4141.025879,4144.102539,4136.922852,4139.487305,0.000000,4.000000,,,,0.000000,4.000000,4.000000,4.000000,4.000000,4.000000,4.000000,4.000000,4.000000,4.000000,4.000000,4.000000,4.000000,4.000000,4.000000,100.000000
1602006040.325876,37.000000,0.000000,4125.128418,4124.102539,4135.897461,4134.871582,4140.000000,4142.051270,4128.205078,4133.846191,4134.358887,4116.922852,4140.000000,4151.282227,4136.922852,4136.922852,0.000000,4.000000,,,,0.000000,4.000000,4.000000,4.000000,4.000000,4.000000,4.000000,4.000000,4.000000,4.000000,4.000000,4.000000,4.000000,4.000000,4.000000,100.000000
1602006040.333758,38.000000,0.000000,4132.820313,4129.743652,4139.487305,4135.384766,4138.974121,4138.974121,4128.205078,4136.410156,4137.948730,4126.153809,4140.512695,4153.333496,4136.922852,4135.897461,0.000000,4.000000,,,,0.000000,4.000000,4.000000,4.000000,4.000000,4.000000,4.000000,4.000000,4.000000,4.000000,4.000000,4.000000,4.000000,4.000000,4.000000,100.000000
1602006040.341640,39.000000,0.000000,4131.282227,4132.820313,4140.000000,4135.897461,4137.948730,4125.641113,4128.205078,4135.384766,4134.358887,4127.692383,4141.025879,4152.820313,4135.384766,4134.358887,0.000000,4.000000,,,,0.000000,4.000000,4.000000,4.000000,4.000000,4.000000,4.000000,4.000000,4.000000,4.000000,4.000000,4.000000,4.000000,4.000000,4.000000,100.000000
1602006040.349523,40.000000,0.000000,4128.717773,4129.230957,4135.897461,4133.333496,4131.794922,4113.846191,4124.102539,4133.333496,4133.846191,4129.743652,4140.000000,4159.487305,4134.358887,4140.512695,0.000000,4.000000,,,,0.000000,4.000000,4.000000,4.000000,4.000000,4.000000,4.000000,4.000000,4.000000,4.000000,4.000000,4.000000,4.000000,4.000000,4.000000,100.000000
1602006040.357405,41.000000,0.000000,4143.589844,4140.512695,4140.512695,4138.461426,4131.282227,4121.538574,4125.641113,4143.589844,4153.333496,4149.743652,4147.179688,4174.871582,4147.692383,4158.974121,0.000000,4.000000,,,,0.000000,4.000000,4.000000,4.000000,4.000000,4.000000,4.000000,4.000000,4.000000,4.000000,4.000000,4.000000,4.000000,4.000000,4.000000,100.000000
1602006040.365387,42.000000,0.000000,4158.461426,4157.948730,4153.846191,4150.769043,4143.077148,4138.974121,4133.333496,4157.948730,4174.871582,4162.051270,4167.692383,4190.256348,4171.282227,4173.333496,0.000000,4.000000,,,,0.000000,4.000000,4.000000,4.000000,4.000000,4.000000,4.000000,4.000000,4.000000,4.000000,4.000000,4.000000,4.000000,4.000000,4.000000,100.000000
1602006040.373270,43.000000,0.000000,4156.922852,4157.948730,4159.487305,4155.384766,4149.230957,4143.589844,4126.153809,4154.358887,4175.897461,4165.641113,4176.410156,4190.769043,4180.512695,4170.256348,0.000000,4.000000,,,,0.000000,4.000000,4.000000,4.000000,4.000000,4.000000,4.000000,4.000000,4.000000,4.000000,4.000000,4.000000,4.000000,4.000000,4.000000,100.000000
1602006040.381152,44.000000,0.000000,4156.410156,4154.358887,4159.487305,4153.846191,4142.563965,4137.948730,4113.846191,4136.922852,4169.743652,4173.846191,4161.025879,4181.025879,4167.179688,4160.000000,0.000000,4.000000,,,,0.000000,4.000000,4.000000,4.000000,4.000000,4.000000,4.000000,4.000000,4.000000,4.000000,4.000000,4.000000,4.000000,4.000000,4.000000,100.000000
1602006040.389034,45.000000,0.000000,4154.358887,4152.307617,4158.974121,4153.333496,4138.974121,4136.922852,4112.820313,4126.666504,4157.948730,4164.615234,4146.666504,4170.769043,4151.794922,4152.820313,0.000000,4.000000,,,,0.000000,4.000000,4.000000,4.000000,4.000000,4.000000,4.000000,4.000000,4.000000,4.000000,4.000000,4.000000,4.000000,4.000000,4.000000,100.000000
1602006040.396917,46.000000,0.000000,4131.282227,4135.897461,4147.692383,4142.563965,4140.000000,4141.025879,4115.384766,4120.000000,4132.307617,4134.871582,4137.436035,4153.333496,4137.948730,4138.461426,0.000000,4.000000,,,,0.000000,4.000000,4.000000,4.000000,4.000000,4.000000,4.000000,4.000000,4.000000,4.000000,4.000000,4.000000,4.000000,4.000000,4.000000,100.000000
1602006040.404799,47.000000,0.000000,4102.051270,4117.436035,4122.563965,4121.025879,4132.307617,4136.410156,4115.897461,4109.230957,4101.538574,4099.487305,4121.025879,4132.820313,4117.948730,4115.384766,0.000000,4.000000,,,,0.000000,4.000000,4.000000,4.000000,4.000000,4.000000,4.000000,4.000000,4.000000,4.000000,4.000000,4.000000,4.000000,4.000000,4.000000,100.000000
1602006040.412681,48.000000,0.000000,4092.820557,4114.871582,4107.179688,4114.871582,4124.615234,4127.692383,4121.538574,4111.794922,4085.641113,4072.820557,4112.307617,4129.743652,4105.128418,4104.102539,0.000000,4.000000,,,,0.000000,4.000000,4.000000,4.000000,4.000000,4.000000,4.000000,4.000000,4.000000,4.000000,4.000000,4.000000,4.000000,4.000000,4.000000,100.000000
1602006040.420564,49.000000,0.000000,4100.000000,4119.487305,4110.256348,4122.563965,4124.102539,4128.205078,4127.179688,4123.077148,4091.794922,4077.948730,4120.512695,4136.410156,4104.615234,4107.179688,0.000000,4.000000,,,,0.000000,4.000000,4.000000,4.000000,4.000000,4.000000,4.000000,4.000000,4.000000,4.000000,4.000000,4.000000,4.000000,4.000000,4.000000,100.000000
1602006040.428346,50.000000,0.000000,4107.179688,4121.538574,4118.461426,4123.589844,4127.179688,4129.230957,4127.179688,4127.692383,4115.384766,4111.282227,4124.615234,4139.487305,4110.256348,4110.256348,0.000000,4.000000,,,,0.000000,4.000000,4.000000,4.000000,4.000000,4.000000,4.000000,4.000000,4.000000,4.000000,4.000000,4.000000,4.000000,4.000000,4.000000,100.000000
1602006040.436229,51.000000,0.000000,4113.846191,4121.025879,4130.769043,4124.102539,4132.820313,4125.128418,4125.641113,4132.820313,4132.820313,4132.307617,4122.563965,4144.615234,4116.410156,4115.897461,0.000000,4.000000,,,,0.000000,4.000000,4.000000,4.000000,4.000000,4.000000,4.000000,4.000000,4.000000,4.000000,4.000000,4.000000,4.000000,4.000000,4.000000,100.000000
1602006040.444112,52.000000,0.000000,4122.051270,4123.077148,4135.897461,4128.717773,4136.922852,4128.205078,4125.128418,4139.487305,4136.410156,4136.922852,4126.153809,4152.307617,4120.512695,4121.025879,0.000000,4.000000,,,,0.000000,4.000000,4.000000,4.000000,4.000000,4.000000,4.000000,4.000000,4.000000,4.000000,4.000000,4.000000,4.000000,4.000000,4.000000,100.000000
1602006040.451994,53.000000,0.000000,4124.102539,4123.077148,4129.230957,4125.128418,4135.384766,4136.410156,4131.282227,4139.487305,4147.179688,4147.692383,4133.333496,4151.794922,4124.615234,4121.025879,0.000000,4.000000,,,,0.000000,4.000000,4.000000,4.000000,4.000000,4.000000,4.000000,4.000000,4.000000,4.000000,4.000000,4.000000,4.000000,4.000000,4.000000,100.000000
1602006040.459877,54.000000,0.000000,4125.128418,4126.153809,4128.717773,4122.563965,4134.871582,4143.589844,4140.000000,4144.615234,4170.256348,4161.538574,4138.974121,4152.307617,4132.820313,4128.717773,0.000000,4.000000,,,,0.000000,4.000000,4.000000,4.000000,4.000000,4.000000,4.000000,4.000000,4.000000,4.000000,4.000000,4.000000,4.000000,4.000000,4.000000,100.000000
1602006040.467759,55.000000,0.000000,4136.410156,4138.461426,4137.948730,4133.846191,4140.512695,4158.461426,4142.051270,4156.410156,4180.000000,4155.897461,4149.230957,4164.102539,4147.179688,4144.102539,0.000000,4.000000,,,,0.000000,4.000000,4.000000,4.000000,4.000000,4.000000,4.000000,4.000000,4.000000,4.000000,4.000000,4.000000,4.000000,4.000000,4.000000,100.000000
1602006040.475642,56.000000,0.000000,4144.615234,4145.128418,4145.128418,4143.077148,4143.077148,4172.307617,4142.563965,4161.025879,4168.205078,4138.974121,4160.000000,4180.000000,4161.025879,4159.487305,0.000000,4.000000,,,,0.000000,4.000000,4.000000,4.000000,4.000000,4.000000,4.000000,4.000000,4.000000,4.000000,4.000000,4.000000,4.000000,4.000000,4.000000,100.000000
1602006040.483525,57.000000,0.000000,4142.051270,4142.051270,4150.256348,4143.077148,4143.589844,4169.743652,4139.487305,4159.487305,4157.436035,4143.589844,4164.102539,4187.179688,4166.153809,4173.333496,0.000000,4.000000,,,,0.000000,4.000000,4.000000,4.000000,4.000000,4.000000,4.000000,4.000000,4.000000,4.000000,4.000000,4.000000,4.000000,4.000000,4.000000,100.000000
1602006040.491507,58.000000,0.000000,4140.000000,4142.563965,4150.769043,4141.538574,4143.077148,4154.871582,4125.641113,4144.615234,4143.077148,4149.743652,4155.897461,4175.384766,4152.820313,4164.615234,0.000000,4.000000,,,,0.000000,4.000000,4.000000,4.000000,4.000000,4.000000,4.000000,4.000000,4.000000,4.000000,4.000000,4.000000,4.000000,4.000000,4.000000,100.000000
1602006040.499390,59.000000,0.000000,4135.897461,4137.436035,4142.563965,4137.436035,4132.820313,4136.410156,4106.666504,4116.922852,4110.256348,4119.487305,4132.820313,4153.333496,4127.179688,4133.846191,0.000000,4.000000,,,,0.000000,4.000000,4.000000,4.000000,4.000000,4.000000,4.000000,4.000000,4.000000,4.000000,4.000000,4.000000,4.000000,4.000000,4.000000,100.000000
1602006040.507272,60.000000,0.000000,4124.615234,4122.051270,4133.333496,4127.692383,4122.563965,4117.948730,4103.077148,4104.615234,4090.256348,4091.281982,4112.820313,4137.948730,4110.256348,4119.487305,0.000000,4.000000,,,,0.000000,4.000000,4.000000,4.000000,4.000000,4.000000,4.000000,4.000000,4.000000,4.000000,4.000000,4.000000,4.000000,4.000000,4.000000,100.000000
1602006040.515155,61.000000,0.000000,4116.922852,4117.436035,4123.589844,4121.025879,4123.077148,4104.615234,4112.820313,4112.820313,4095.897461,4105.128418,4114.871582,4132.307617,4109.230957,4120.000000,0.000000,4.000000,,,,0.000000,4.000000,4.000000,4.000000,4.000000,4.000000,4.000000,4.000000,4.000000,4.000000,4.000000,4.000000,4.000000,4.000000,4.000000,100.000000
1602006040.523037,62.000000,0.000000,4117.948730,4122.563965,4120.000000,4123.589844,4127.692383,4105.641113,4120.512695,4127.179688,4111.282227,4128.717773,4135.384766,4138.461426,4121.538574,4119.487305,0.000000,4.000000,,,,0.000000,4.000000,4.000000,4.000000,4.000000,4.000000,4.000000,4.000000,4.000000,4.000000,4.000000,4.000000,4.000000,4.000000,4.000000,100.000000
1602006040.530920,63.000000,0.000000,4126.153809,4121.538574,4133.846191,4129.230957,4132.820313,4117.948730,4128.717773,4144.102539,4135.897461,4136.410156,4151.794922,4151.282227,4136.922852,4134.871582,0.000000,4.000000,,,,0.000000,4.000000,4.000000,4.000000,4.000000,4.000000,4.000000,4.000000,4.000000,4.000000,4.000000,4.000000,4.000000,4.000000,4.000000,100.000000
1602006040.538803,64.000000,0.000000,4135.897461,4125.128418,4143.077148,4131.794922,4135.384766,4125.641113,4138.461426,4153.846191,4153.846191,4146.153809,4148.205078,4154.358887,4143.077148,4150.256348,800.000000,4.000000,,,,0.000000,4.000000,4.000000,4.000000,4.000000,4.000000,4.000000,4.000000,4.000000,4.000000,4.000000,4.000000,4.000000,4.000000,4.000000,100.000000
1602006040.546685,65.000000,0.000000,4140.000000,4135.897461,4144.102539,4134.358887,4136.922852,4138.461426,4144.102539,4154.871582,4160.000000,4155.897461,4144.102539,4151.794922,4141.538574,4144.615234,798.000000,4.000000,,,,0.000000,4.000000,4.000000,4.000000,4.000000,4.000000,4.000000,4.000000,4.000000,4.000000,4.000000,4.000000,4.000000,4.000000,4.000000,100.000000
1602006040.554568,66.000000,0.000000,4138.461426,4140.512695,4145.641113,4137.436035,4140.512695,4164.615234,4146.666504,4156.922852,4171.794922,4160.000000,4151.794922,4155.897461,4142.563965,4138.974121,849.000000,4.000000,,,,0.000000,4.000000,4.000000,4.000000,4.000000,4.000000,4.000000,4.000000,4.000000,4.000000,4.000000,4.000000,4.000000,4.000000,4.000000,100.000000
1602006040.562351,67.000000,0.000000,4136.922852,4137.948730,4144.615234,4136.410156,4145.128418,4172.820313,4140.000000,4151.282227,4173.333496,4152.307617,4149.743652,4158.461426,4143.077148,4143.589844,869.000000,4.000000,,,,0.000000,4.000000,4.000000,4.000000,4.000000,4.000000,4.000000,4.000000,4.000000,4.000000,4.000000,4.000000,4.000000,4.000000,4.000000,100.000000
1602006040.570233,68.000000,0.000000,4136.922852,4137.436035,4145.641113,4130.256348,4139.487305,4158.461426,4124.615234,4134.358887,4151.282227,4129.743652,4135.384766,4159.487305,4135.897461,4142.051270,815.000000,4.000000,,,,0.000000,4.000000,4.000000,4.000000,4.000000,4.000000,4.000000,4.000000,4.000000,4.000000,4.000000,4.000000,4.000000,4.000000,4.000000,100.000000
1602006040.578116,69.000000,0.000000,4136.410156,4137.948730,4153.333496,4125.641113,4130.769043,4147.692383,4116.410156,4124.102539,4131.282227,4119.487305,4132.820313,4167.179688,4127.179688,4130.769043,810.000000,4.000000,,,,0.000000,4.000000,4.000000,4.000000,4.000000,4.000000,4.000000,4.000000,4.000000,4.000000,4.000000,4.000000,4.000000,4.000000,4.000000,100.000000
1602006040.585998,70.000000,0.000000,4135.897461,4132.820313,4155.897461,4130.769043,4131.794922,4139.487305,4118.974121,4123.589844,4123.077148,4119.487305,4137.948730,4168.717773,4123.077148,4130.256348,766.000000,4.000000,,,,0.000000,4.000000,4.000000,4.000000,4.000000,4.000000,4.000000,4.000000,4.000000,4.000000,4.000000,4.000000,4.000000,4.000000,4.000000,100.000000
1602006040.593881,71.000000,0.000000,4134.871582,4128.205078,4152.307617,4133.846191,4132.307617,4122.051270,4119.487305,4122.563965,4113.846191,4105.128418,4134.358887,4157.948730,4120.512695,4136.922852,722.000000,4.000000,,,,0.000000,4.000000,4.000000,4.000000,4.000000,4.000000,4.000000,4.000000,4.000000,4.000000,4.000000,4.000000,4.000000,4.000000,4.000000,100.000000
1602006040.601764,72.000000,0.000000,4134.871582,4129.230957,4153.333496,4132.307617,4124.615234,4106.153809,4123.077148,4127.179688,4106.153809,4103.589844,4133.846191,4151.794922,4120.512695,4140.000000,810.000000,4.000000,,,,0.000000,4.000000,4.000000,4.000000,4.000000,4.000000,4.000000,4.000000,4.000000,4.000000,4.000000,4.000000,4.000000,4.000000,4.000000,100.000000
1602006040.609646,73.000000,0.000000,4136.410156,4135.897461,4156.922852,4133.846191,4120.512695,4101.025879,4125.641113,4135.384766,4112.307617,4129.743652,4138.974121,4156.410156,4125.128418,4140.512695,842.000000,4.000000,,,,0.000000,4.000000,4.000000,4.000000,4.000000,4.000000,4.000000,4.000000,4.000000,4.000000,4.000000,4.000000,4.000000,4.000000,4.000000,100.000000
1602006040.617529,74.000000,0.000000,4135.897461,4136.922852,4148.717773,4137.436035,4127.692383,4108.717773,4127.179688,4136.922852,4129.230957,4130.256348,4146.153809,4155.384766,4131.794922,4139.487305,871.000000,4.000000,,,,0.000000,4.000000,4.000000,4.000000,4.000000,4.000000,4.000000,4.000000,4.000000,4.000000,4.000000,4.000000,4.000000,4.000000,4.000000,100.000000
1602006040.625511,75.000000,0.000000,4141.025879,4136.922852,4142.563965,4138.461426,4136.410156,4126.666504,4135.384766,4136.922852,4139.487305,4114.871582,4152.820313,4152.820313,4141.538574,4142.563965,835.000000,4.000000,,,,0.000000,4.000000,4.000000,4.000000,4.000000,4.000000,4.000000,4.000000,4.000000,4.000000,4.000000,4.000000,4.000000,4.000000,4.000000,100.000000
1602006040.633394,76.000000,0.000000,4153.333496,4146.666504,4156.410156,4140.512695,4146.153809,4138.461426,4138.461426,4137.436035,4146.666504,4142.051270,4154.358887,4161.538574,4154.871582,4158.461426,769.000000,4.000000,,,,0.000000,4.000000,4.000000,4.000000,4.000000,4.000000,4.000000,4.000000,4.000000,4.000000,4.000000,4.000000,4.000000,4.000000,4.000000,100.000000
1602006040.641277,77.000000,0.000000,4160.000000,4156.922852,4173.333496,4146.153809,4156.410156,4143.077148,4126.666504,4133.846191,4155.897461,4173.846191,4161.025879,4175.384766,4165.641113,4172.307617,774.000000,4.000000,,,,0.000000,4.000000,4.000000,4.000000,4.000000,4.000000,4.000000,4.000000,4.000000,4.000000,4.000000,4.000000,4.000000,4.000000,4.000000,100.000000
1602006040.649160,78.000000,0.000000,4155.897461,4152.307617,4166.666504,4143.589844,4150.769043,4151.794922,4118.461426,4124.102539,4150.256348,4158.461426,4162.051270,4173.846191,4159.487305,4163.077148,871.000000,4.000000,,,,0.000000,4.000000,4.000000,4.000000,4.000000,4.000000,4.000000,4.000000,4.000000,4.000000,4.000000,4.000000,4.000000,4.000000,4.000000,100.000000
1602006040.657043,79.000000,0.000000,4150.769043,4138.974121,4148.717773,4130.769043,4136.410156,4160.000000,4121.025879,4114.358887,4132.820313,4129.230957,4150.256348,4158.974121,4143.589844,4154.871582,835.000000,4.000000,,,,0.000000,4.000000,4.000000,4.000000,4.000000,4.000000,4.000000,4.000000,4.000000,4.000000,4.000000,4.000000,4.000000,4.000000,4.000000,100.000000
1602006040.664926,80.000000,0.000000,4140.000000,4128.717773,4139.487305,4121.025879,4129.743652,4153.846191,4122.563965,4108.205078,4117.436035,4117.948730,4140.512695,4151.794922,4133.846191,4153.333496,769.000000,4.000000,,,,0.000000,4.000000,4.000000,4.000000,4.000000,4.000000,4.000000,4.000000,4.000000,4.000000,4.000000,4.000000,4.000000,4.000000,4.000000,100.000000
1602006040.672808,81.000000,0.000000,4123.589844,4118.461426,4132.820313,4118.974121,4123.589844,4134.358887,4118.974121,4105.641113,4101.025879,4106.666504,4134.358887,4149.743652,4120.512695,4132.307617,774.000000,4.000000,,,,0.000000,4.000000,4.000000,4.000000,4.000000,4.000000,4.000000,4.000000,4.000000,4.000000,4.000000,4.000000,4.000000,4.000000,4.000000,100.000000
1602006040.680691,82.000000,0.000000,4114.871582,4109.743652,4128.717773,4117.436035,4111.282227,4122.563965,4119.487305,4107.692383,4085.641113,4091.281982,4122.051270,4138.974121,4105.128418,4112.307617,871.000000,4.000000,,,,0.000000,4.000000,4.000000,4.000000,4.000000,4.000000,4.000000,4.000000,4.000000,4.000000,4.000000,4.000000,4.000000,4.000000,4.000000,100.000000
1602006040.688574,83.000000,0.000000,4117.436035,4114.871582,4134.358887,4117.436035,4110.769043,4117.436035,4125.641113,4118.461426,4084.615479,4092.820557,4116.410156,4132.820313,4110.256348,4121.538574,835.000000,4.000000,,,,0.000000,4.000000,4.000000,4.000000,4.000000,4.000000,4.000000,4.000000,4.000000,4.000000,4.000000,4.000000,4.000000,4.000000,4.000000,100.000000
1602006040.696457,84.000000,0.000000,4127.692383,4127.179688,4144.102539,4127.692383,4123.077148,4108.205078,4127.692383,4132.307617,4098.461426,4104.615234,4126.666504,4143.077148,4125.641113,4135.384766,769.000000,4.000000,,,,0.000000,4.000000,4.000000,4.000000,4.000000,4.000000,4.000000,4.000000,4.000000,4.000000,4.000000,4.000000,4.000000,4.000000,4.000000,100.000000
1602006040.704239,85.000000,0.000000,4138.461426,4136.410156,4146.666504,4136.922852,4134.358887,4101.025879,4116.922852,4136.410156,4113.846191,4111.794922,4138.974121,4154.871582,4129.230957,4142.051270,774.000000,4.000000,,,,0.000000,4.000000,4.000000,4.000000,4.000000,4.000000,4.000000,4.000000,4.000000,4.000000,4.000000,4.000000,4.000000,4.000000,4.000000,100.000000
1602006040.712122,86.000000,0.000000,4142.051270,4139.487305,4148.717773,4138.461426,4133.846191,4104.615234,4106.153809,4129.743652,4113.333496,4110.256348,4140.512695,4156.410156,4131.794922,4153.333496,871.000000,4.000000,,,,0.000000,4.000000,4.000000,4.000000,4.000000,4.000000,4.000000,4.000000,4.000000,4.000000,4.000000,4.000000,4.000000,4.000000,4.000000,100.000000
1602006040.720004,87.000000,0.000000,4138.461426,4140.512695,4153.333496,4136.922852,4129.743652,4115.897461,4104.615234,4121.025879,4110.769043,4112.820313,4136.922852,4154.358887,4137.436035,4161.025879,835.000000,4.000000,,,,0.000000,4.000000,4.000000,4.000000,4.000000,4.000000,4.000000,4.000000,4.000000,4.000000,4.000000,4.000000,4.000000,4.000000,4.000000,100.000000
1602006040.727886,88.000000,0.000000,4143.589844,4144.615234,4156.922852,4137.436035,4132.820313,4129.230957,4107.179688,4118.461426,4119.487305,4130.256348,4146.666504,4161.025879,4145.128418,4158.974121,769.000000,4.000000,,,,0.000000,4.000000,4.000000,4.000000,4.000000,4.000000,4.000000,4.000000,4.000000,4.000000,4.000000,4.000000,4.000000,4.000000,4.000000,100.000000
1602006040.735769,89.000000,0.000000,4155.384766,4148.717773,4155.384766,4140.512695,4140.512695,4144.102539,4110.256348,4120.000000,4127.692383,4147.692383,4159.487305,4171.794922,4153.333496,4156.922852,774.000000,4.000000,,,,0.000000,4.000000,4.000000,4.000000,4.000000,4.000000,4.000000,4.000000,4.000000,4.000000,4.000000,4.000000,4.000000,4.000000,4.000000,100.000000
1602006040.743651,90.000000,0.000000,4146.666504,4141.025879,4139.487305,4134.358887,4141.025879,4149.230957,4114.358887,4115.384766,4126.153809,4142.051270,4147.179688,4163.077148,4146.666504,4152.307617,871.000000,4.000000,,,,0.000000,4.000000,4.000000,4.000000,4.000000,4.000000,4.000000,4.000000,4.000000,4.000000,4.000000,4.000000,4.000000,4.000000,4.000000,100.000000
1602006040.751534,91.000000,0.000000,4122.051270,4124.615234,4114.358887,4115.897461,4131.794922,4142.051270,4113.333496,4108.717773,4116.410156,4116.922852,4124.615234,4135.897461,4122.563965,4136.410156,835.000000,4.000000,,,,0.000000,4.000000,4.000000,4.000000,4.000000,4.000000,4.000000,4.000000,4.000000,4.000000,4.000000,4.000000,4.000000,4.000000,4.000000,100.000000
1602006040.759516,92.000000,0.000000,4108.717773,4112.307617,4100.512695,4103.077148,4122.051270,4130.769043,4110.256348,4112.307617,4105.641113,4106.153809,4118.974121,4119.487305,4105.128418,4122.563965,769.000000,4.000000,,,,0.000000,4.000000,4.000000,4.000000,4.000000,4.000000,4.000000,4.000000,4.000000,4.000000,4.000000,4.000000,4.000000,4.000000,4.000000,100.000000
1602006040.767398,93.000000,0.000000,4107.179688,4112.307617,4107.692383,4109.743652,4120.000000,4123.077148,4116.410156,4120.000000,4104.615234,4104.102539,4121.538574,4124.102539,4102.051270,4117.948730,774.000000,4.000000,,,,0.000000,4.000000,4.000000,4.000000,4.000000,4.000000,4.000000,4.000000,4.000000,4.000000,4.000000,4.000000,4.000000,4.000000,4.000000,100.000000
1602006040.775280,94.000000,0.000000,4112.307617,4120.512695,4125.641113,4122.051270,4125.641113,4122.563965,4125.128418,4123.589844,4107.692383,4090.769287,4118.461426,4133.333496,4104.615234,4119.487305,871.000000,4.000000,,,,0.000000,4.000000,4.000000,4.000000,4.000000,4.000000,4.000000,4.000000,4.000000,4.000000,4.000000,4.000000,4.000000,4.000000,4.000000,100.000000
1602006040.783162,95.000000,0.000000,4127.692383,4125.641113,4136.922852,4126.153809,4126.666504,4123.589844,4125.641113,4128.205078,4106.666504,4095.897461,4118.461426,4136.410156,4110.769043,4127.692383,835.000000,4.000000,,,,0.000000,4.000000,4.000000,4.000000,4.000000,4.000000,4.000000,4.000000,4.000000,4.000000,4.000000,4.000000,4.000000,4.000000,4.000000,100.000000
1602006040.791044,96.000000,0.000000,4138.974121,4124.102539,4135.384766,4124.102539,4124.102539,4122.563965,4122.563965,4130.256348,4113.846191,4130.256348,4131.282227,4134.358887,4117.948730,4136.922852,769.000000,4.000000,,,,0.000000,4.000000,4.000000,4.000000,4.000000,4.000000,4.000000,4.000000,4.000000,4.000000,4.000000,4.000000,4.000000,4.000000,4.000000,100.000000
1602006040.798926,97.000000,0.000000,4140.512695,4128.205078,4135.384766,4128.205078,4128.205078,4118.974121,4121.538574,4126.666504,4125.128418,4147.179688,4137.948730,4138.974121,4128.205078,4138.461426,774.000000,4.000000,,,,0.000000,4.000000,4.000000,4.000000,4.000000,4.000000,4.000000,4.000000,4.000000,4.000000,4.000000,4.000000,4.000000,4.000000,4.000000,100.000000
