Timestamp,EEG.Counter,EEG.Interpolated,EEG.AF3,EEG.F7,EEG.F3,EEG.FC5,EEG.T7,EEG.P7,EEG.O1,EEG.O2,EEG.P8,EEG.T8,EEG.FC6,EEG.F4,EEG.F8,EEG.AF4,EEG.RawCq,EEG.Battery,MarkerIndex,MarkerType,MarkerValueInt,EEG.MarkerHardware,CQ.AF3,CQ.F7,CQ.F3,CQ.FC5,CQ.T7,CQ.P7,CQ.O1,CQ.O2,CQ.P8,CQ.T8,CQ.FC6,CQ.F4,CQ.F8,CQ.AF4,CQ.Overall
1602006047.661372,65.000000,0.000000,4108.205078,4125.641113,4133.333496,4134.871582,4131.282227,4140.000000,4133.846191,4123.077148,4158.461426,4136.410156,4124.102539,4134.358887,4136.922852,4107.179688,790.000000,4.000000,,,,0.000000,4.000000,4.000000,4.000000,4.000000,4.000000,4.000000,4.000000,4.000000,4.000000,4.000000,4.000000,4.000000,4.000000,4.000000,100.000000
1602006047.669355,66.000000,0.000000,4108.205078,4130.769043,4130.256348,4138.974121,4136.922852,4141.025879,4135.897461,4126.153809,4166.153809,4163.077148,4145.641113,4138.974121,4151.794922,4123.077148,849.000000,4.000000,,,,0.000000,4.000000,4.000000,4.000000,4.000000,4.000000,4.000000,4.000000,4.000000,4.000000,4.000000,4.000000,4.000000,4.000000,4.000000,100.000000
1602006047.677238,67.000000,0.000000,4105.128418,4128.205078,4120.000000,4134.871582,4124.615234,4140.512695,4131.282227,4122.563965,4161.538574,4163.589844,4149.743652,4134.871582,4154.358887,4128.205078,869.000000,4.000000,,,,0.000000,4.000000,4.000000,4.000000,4.000000,4.000000,4.000000,4.000000,4.000000,4.000000,4.000000,4.000000,4.000000,4.000000,4.000000,100.000000
1602006047.685120,68.000000,0.000000,4108.717773,4124.102539,4117.948730,4134.358887,4122.051270,4133.846191,4124.102539,4126.666504,4146.153809,4133.846191,4138.461426,4131.282227,4148.205078,4120.512695,815.000000,4.000000,,,,0.000000,4.000000,4.000000,4.000000,4.000000,4.000000,4.000000,4.000000,4.000000,4.000000,4.000000,4.000000,4.000000,4.000000,4.000000,100.000000
1602006047.693003,69.000000,0.000000,4121.538574,4133.846191,4127.692383,4139.487305,4135.897461,4127.179688,4127.179688,4140.512695,4143.589844,4135.384766,4141.025879,4145.128418,4150.769043,4127.692383,852.000000,4.000000,,,,0.000000,4.000000,4.000000,4.000000,4.000000,4.000000,4.000000,4.000000,4.000000,4.000000,4.000000,4.000000,4.000000,4.000000,4.000000,100.000000
1602006047.700885,70.000000,0.000000,4126.153809,4141.538574,4134.871582,4142.051270,4140.000000,4129.230957,4134.871582,4149.743652,4149.743652,4152.307617,4149.230957,4156.410156,4152.820313,4138.461426,773.000000,4.000000,,,,0.000000,4.000000,4.000000,4.000000,4.000000,4.000000,4.000000,4.000000,4.000000,4.000000,4.000000,4.000000,4.000000,4.000000,4.000000,100.000000
1602006047.708768,71.000000,0.000000,4123.589844,4139.487305,4139.487305,4143.589844,4138.974121,4138.974121,4138.461426,4154.871582,4156.922852,4150.769043,4153.333496,4156.410156,4162.051270,4139.487305,682.000000,4.000000,,,,0.000000,4.000000,4.000000,4.000000,4.000000,4.000000,4.000000,4.000000,4.000000,4.000000,4.000000,4.000000,4.000000,4.000000,4.000000,100.000000
1602006047.716651,72.000000,0.000000,4125.128418,4137.948730,4141.538574,4144.102539,4141.538574,4137.948730,4139.487305,4152.820313,4164.102539,4145.128418,4154.358887,4156.410156,4173.333496,4141.538574,790.000000,4.000000,,,,0.000000,4.000000,4.000000,4.000000,4.000000,4.000000,4.000000,4.000000,4.000000,4.000000,4.000000,4.000000,4.000000,4.000000,4.000000,100.000000
1602006047.724533,73.000000,0.000000,4125.641113,4135.384766,4136.410156,4141.538574,4137.436035,4125.128418,4134.358887,4140.000000,4171.794922,4155.384766,4154.358887,4155.384766,4167.179688,4143.589844,842.000000,4.000000,,,,0.000000,4.000000,4.000000,4.000000,4.000000,4.000000,4.000000,4.000000,4.000000,4.000000,4.000000,4.000000,4.000000,4.000000,4.000000,100.000000
1602006047.732416,74.000000,0.000000,4124.615234,4134.358887,4135.384766,4139.487305,4135.897461,4128.205078,4131.282227,4134.871582,4191.794922,4201.538574,4164.102539,4155.384766,4166.666504,4141.025879,871.000000,4.000000,,,,0.000000,4.000000,4.000000,4.000000,4.000000,4.000000,4.000000,4.000000,4.000000,4.000000,4.000000,4.000000,4.000000,4.000000,4.000000,100.000000
1602006047.740198,75.000000,0.000000,4125.641113,4138.461426,4138.461426,4141.025879,4140.512695,4142.051270,4132.307617,4134.358887,4193.333496,4220.512695,4165.128418,4154.871582,4171.794922,4141.538574,836.000000,4.000000,,,,0.000000,4.000000,4.000000,4.000000,4.000000,4.000000,4.000000,4.000000,4.000000,4.000000,4.000000,4.000000,4.000000,4.000000,4.000000,100.000000
1602006047.748081,76.000000,0.000000,4122.051270,4133.333496,4132.820313,4138.974121,4133.846191,4143.589844,4128.205078,4118.461426,4143.589844,4142.051270,4139.487305,4145.128418,4145.641113,4134.871582,763.000000,4.000000,,,,0.000000,4.000000,4.000000,4.000000,4.000000,4.000000,4.000000,4.000000,4.000000,4.000000,4.000000,4.000000,4.000000,4.000000,4.000000,100.000000
1602006047.755964,77.000000,0.000000,4115.897461,4122.051270,4122.563965,4134.871582,4126.666504,4133.846191,4120.512695,4107.692383,4096.922852,4062.051270,4117.948730,4132.307617,4114.358887,4118.461426,749.000000,4.000000,,,,0.000000,4.000000,4.000000,4.000000,4.000000,4.000000,4.000000,4.000000,4.000000,4.000000,4.000000,4.000000,4.000000,4.000000,4.000000,100.000000
1602006047.763846,78.000000,0.000000,4118.461426,4122.563965,4126.153809,4136.410156,4129.230957,4127.179688,4121.025879,4116.410156,4105.128418,4084.102539,4122.051270,4136.410156,4123.589844,4123.589844,871.000000,4.000000,,,,0.000000,4.000000,4.000000,4.000000,4.000000,4.000000,4.000000,4.000000,4.000000,4.000000,4.000000,4.000000,4.000000,4.000000,4.000000,100.000000
1602006047.771729,79.000000,0.000000,4125.641113,4129.230957,4137.948730,4139.487305,4127.179688,4121.025879,4130.256348,4124.615234,4128.717773,4133.846191,4131.794922,4148.205078,4141.025879,4140.000000,836.000000,4.000000,,,,0.000000,4.000000,4.000000,4.000000,4.000000,4.000000,4.000000,4.000000,4.000000,4.000000,4.000000,4.000000,4.000000,4.000000,4.000000,100.000000
1602006047.779611,80.000000,0.000000,4128.717773,4129.230957,4137.948730,4137.948730,4121.025879,4117.948730,4137.948730,4130.256348,4130.769043,4124.102539,4137.948730,4145.641113,4141.025879,4136.922852,763.000000,4.000000,,,,0.000000,4.000000,4.000000,4.000000,4.000000,4.000000,4.000000,4.000000,4.000000,4.000000,4.000000,4.000000,4.000000,4.000000,4.000000,100.000000
1602006047.787494,81.000000,0.000000,4126.666504,4124.102539,4134.358887,4134.871582,4123.077148,4121.538574,4141.538574,4136.922852,4125.641113,4097.948730,4140.512695,4136.410156,4135.897461,4134.871582,749.000000,4.000000,,,,0.000000,4.000000,4.000000,4.000000,4.000000,4.000000,4.000000,4.000000,4.000000,4.000000,4.000000,4.000000,4.000000,4.000000,4.000000,100.000000
1602006047.795377,82.000000,0.000000,4122.563965,4126.666504,4136.922852,4135.897461,4127.179688,4126.153809,4141.025879,4133.846191,4123.589844,4110.256348,4138.974121,4136.410156,4137.436035,4141.025879,871.000000,4.000000,,,,0.000000,4.000000,4.000000,4.000000,4.000000,4.000000,4.000000,4.000000,4.000000,4.000000,4.000000,4.000000,4.000000,4.000000,4.000000,100.000000
1602006047.803259,83.000000,0.000000,4127.179688,4136.410156,4140.000000,4140.000000,4127.692383,4128.205078,4132.307617,4122.051270,4123.077148,4141.538574,4147.179688,4143.077148,4146.666504,4139.487305,836.000000,4.000000,,,,0.000000,4.000000,4.000000,4.000000,4.000000,4.000000,4.000000,4.000000,4.000000,4.000000,4.000000,4.000000,4.000000,4.000000,4.000000,100.000000
1602006047.811242,84.000000,0.000000,4136.410156,4137.948730,4139.487305,4141.538574,4126.153809,4124.102539,4123.589844,4120.512695,4121.538574,4146.666504,4154.871582,4146.666504,4148.717773,4137.436035,763.000000,4.000000,,,,0.000000,4.000000,4.000000,4.000000,4.000000,4.000000,4.000000,4.000000,4.000000,4.000000,4.000000,4.000000,4.000000,4.000000,4.000000,100.000000
1602006047.819124,85.000000,0.000000,4134.358887,4134.871582,4138.974121,4140.512695,4124.102539,4123.077148,4131.794922,4130.256348,4125.641113,4137.948730,4153.333496,4151.282227,4147.692383,4141.538574,749.000000,4.000000,,,,0.000000,4.000000,4.000000,4.000000,4.000000,4.000000,4.000000,4.000000,4.000000,4.000000,4.000000,4.000000,4.000000,4.000000,4.000000,100.000000
1602006047.827007,86.000000,0.000000,4126.153809,4135.897461,4141.538574,4141.538574,4130.769043,4127.179688,4141.538574,4137.436035,4137.436035,4155.384766,4153.846191,4155.384766,4151.282227,4143.077148,871.000000,4.000000,,,,0.000000,4.000000,4.000000,4.000000,4.000000,4.000000,4.000000,4.000000,4.000000,4.000000,4.000000,4.000000,4.000000,4.000000,4.000000,100.000000
1602006047.834889,87.000000,0.000000,4123.589844,4131.794922,4137.436035,4142.563965,4135.897461,4124.102539,4130.769043,4135.897461,4145.641113,4160.000000,4151.794922,4149.230957,4146.666504,4136.922852,836.000000,4.000000,,,,0.000000,4.000000,4.000000,4.000000,4.000000,4.000000,4.000000,4.000000,4.000000,4.000000,4.000000,4.000000,4.000000,4.000000,4.000000,100.000000
1602006047.842772,88.000000,0.000000,4121.538574,4121.538574,4126.666504,4138.461426,4129.230957,4120.512695,4124.615234,4134.358887,4151.794922,4133.846191,4146.666504,4135.897461,4135.384766,4127.179688,763.000000,4.000000,,,,0.000000,4.000000,4.000000,4.000000,4.000000,4.000000,4.000000,4.000000,4.000000,4.000000,4.000000,4.000000,4.000000,4.000000,4.000000,100.000000
1602006047.850655,89.000000,0.000000,4112.820313,4118.974121,4117.948730,4128.717773,4122.563965,4129.230957,4132.820313,4137.436035,4158.461426,4121.025879,4136.410156,4125.641113,4128.717773,4121.025879,749.000000,4.000000,,,,0.000000,4.000000,4.000000,4.000000,4.000000,4.000000,4.000000,4.000000,4.000000,4.000000,4.000000,4.000000,4.000000,4.000000,4.000000,100.000000
1602006047.858537,90.000000,0.000000,4105.641113,4121.025879,4113.846191,4123.077148,4125.128418,4138.974121,4137.436035,4132.820313,4150.769043,4123.077148,4121.025879,4119.487305,4118.974121,4116.410156,871.000000,4.000000,,,,0.000000,4.000000,4.000000,4.000000,4.000000,4.000000,4.000000,4.000000,4.000000,4.000000,4.000000,4.000000,4.000000,4.000000,4.000000,100.000000
1602006047.866420,91.000000,0.000000,4104.615234,4116.922852,4114.871582,4123.589844,4128.205078,4137.436035,4135.897461,4125.128418,4138.974121,4114.871582,4116.410156,4118.974121,4107.179688,4110.769043,836.000000,4.000000,,,,0.000000,4.000000,4.000000,4.000000,4.000000,4.000000,4.000000,4.000000,4.000000,4.000000,4.000000,4.000000,4.000000,4.000000,4.000000,100.000000
1602006047.874302,92.000000,0.000000,4104.102539,4109.743652,4118.974121,4121.538574,4125.641113,4127.692383,4135.384766,4124.102539,4135.384766,4112.307617,4123.589844,4128.205078,4105.128418,4106.153809,763.000000,4.000000,,,,0.000000,4.000000,4.000000,4.000000,4.000000,4.000000,4.000000,4.000000,4.000000,4.000000,4.000000,4.000000,4.000000,4.000000,4.000000,100.000000
1602006047.882185,93.000000,0.000000,4104.102539,4110.769043,4120.512695,4120.512695,4121.538574,4114.358887,4130.769043,4122.563965,4126.666504,4120.512695,4118.974121,4137.436035,4104.615234,4106.666504,749.000000,4.000000,,,,0.000000,4.000000,4.000000,4.000000,4.000000,4.000000,4.000000,4.000000,4.000000,4.000000,4.000000,4.000000,4.000000,4.000000,4.000000,100.000000
1602006047.889967,94.000000,0.000000,4113.333496,4118.461426,4123.077148,4126.666504,4117.948730,4110.769043,4127.692383,4121.538574,4120.512695,4117.948730,4120.000000,4140.000000,4114.871582,4111.282227,871.000000,4.000000,,,,0.000000,4.000000,4.000000,4.000000,4.000000,4.000000,4.000000,4.000000,4.000000,4.000000,4.000000,4.000000,4.000000,4.000000,4.000000,100.000000
1602006047.897850,95.000000,0.000000,4122.051270,4127.179688,4131.794922,4128.717773,4124.615234,4116.922852,4132.820313,4129.743652,4131.794922,4120.512695,4139.487305,4144.102539,4135.897461,4117.436035,836.000000,4.000000,,,,0.000000,4.000000,4.000000,4.000000,4.000000,4.000000,4.000000,4.000000,4.000000,4.000000,4.000000,4.000000,4.000000,4.000000,4.000000,100.000000
1602006047.905732,96.000000,0.000000,4127.179688,4128.205078,4137.948730,4126.153809,4137.436035,4125.128418,4135.897461,4140.000000,4148.717773,4148.205078,4145.641113,4153.846191,4142.563965,4130.256348,763.000000,4.000000,,,,0.000000,4.000000,4.000000,4.000000,4.000000,4.000000,4.000000,4.000000,4.000000,4.000000,4.000000,4.000000,4.000000,4.000000,4.000000,100.000000
1602006047.913615,97.000000,0.000000,4134.871582,4116.922852,4138.461426,4145.641113,4139.487305,4135.897461,4135.897461,4143.077148,4151.794922,4168.717773,4138.461426,4158.461426,4141.025879,4143.589844,749.000000,4.000000,,,,0.000000,4.000000,4.000000,4.000000,4.000000,4.000000,4.000000,4.000000,4.000000,4.000000,4.000000,4.000000,4.000000,4.000000,4.000000,100.000000
1602006047.921497,98.000000,0.000000,4131.794922,4111.282227,4138.461426,4155.897461,4129.743652,4137.436035,4138.461426,4142.563965,4145.128418,4142.563965,4139.487305,4151.794922,4137.948730,4137.948730,871.000000,4.000000,,,,0.000000,4.000000,4.000000,4.000000,4.000000,4.000000,4.000000,4.000000,4.000000,4.000000,4.000000,4.000000,4.000000,4.000000,4.000000,100.000000
1602006047.929379,99.000000,0.000000,4118.461426,4123.077148,4135.384766,4128.205078,4122.051270,4124.615234,4135.384766,4135.897461,4133.333496,4107.692383,4139.487305,4146.153809,4127.179688,4118.974121,836.000000,4.000000,,,,0.000000,4.000000,4.000000,4.000000,4.000000,4.000000,4.000000,4.000000,4.000000,4.000000,4.000000,4.000000,4.000000,4.000000,4.000000,100.000000
1602006047.937262,100.000000,0.000000,4117.948730,4130.769043,4135.384766,4120.512695,4122.563965,4120.000000,4131.282227,4130.769043,4128.717773,4114.358887,4136.922852,4151.794922,4127.692383,4124.102539,763.000000,4.000000,,,,0.000000,4.000000,4.000000,4.000000,4.000000,4.000000,4.000000,4.000000,4.000000,4.000000,4.000000,4.000000,4.000000,4.000000,4.000000,100.000000
1602006047.945144,101.000000,0.000000,4127.179688,4126.153809,4142.563965,4147.179688,4124.102539,4128.205078,4135.384766,4133.333496,4133.846191,4123.589844,4137.948730,4161.025879,4138.974121,4133.846191,749.000000,4.000000,,,,0.000000,4.000000,4.000000,4.000000,4.000000,4.000000,4.000000,4.000000,4.000000,4.000000,4.000000,4.000000,4.000000,4.000000,4.000000,100.000000
1602006047.953126,102.000000,0.000000,4124.102539,4122.563965,4140.512695,4148.205078,4122.563965,4123.589844,4137.436035,4130.256348,4127.692383,4109.743652,4126.666504,4151.282227,4128.717773,4113.846191,871.000000,4.000000,,,,0.000000,4.000000,4.000000,4.000000,4.000000,4.000000,4.000000,4.000000,4.000000,4.000000,4.000000,4.000000,4.000000,4.000000,4.000000,100.000000
1602006047.961008,103.000000,0.000000,4116.922852,4120.000000,4127.179688,4130.769043,4121.538574,4116.410156,4134.358887,4119.487305,4116.922852,4116.410156,4120.000000,4134.358887,4114.871582,4103.589844,836.000000,4.000000,,,,0.000000,4.000000,4.000000,4.000000,4.000000,4.000000,4.000000,4.000000,4.000000,4.000000,4.000000,4.000000,4.000000,4.000000,4.000000,100.000000
1602006047.968890,104.000000,0.000000,4120.512695,4122.051270,4131.282227,4136.410156,4129.743652,4129.230957,4142.563965,4126.666504,4126.153809,4148.717773,4133.846191,4144.102539,4129.230957,4127.692383,763.000000,4.000000,,,,0.000000,4.000000,4.000000,4.000000,4.000000,4.000000,4.000000,4.000000,4.000000,4.000000,4.000000,4.000000,4.000000,4.000000,4.000000,100.000000
1602006047.976771,105.000000,0.000000,4125.128418,4133.846191,4143.077148,4142.563965,4137.948730,4140.512695,4152.307617,4144.102539,4146.666504,4162.563965,4142.563965,4159.487305,4142.051270,4143.589844,749.000000,4.000000,,,,0.000000,4.000000,4.000000,4.000000,4.000000,4.000000,4.000000,4.000000,4.000000,4.000000,4.000000,4.000000,4.000000,4.000000,4.000000,100.000000
1602006047.984653,106.000000,0.000000,4123.589844,4135.897461,4140.000000,4139.487305,4136.410156,4135.897461,4152.307617,4147.179688,4155.897461,4167.179688,4145.128418,4155.897461,4142.051270,4133.333496,871.000000,4.000000,,,,0.000000,4.000000,4.000000,4.000000,4.000000,4.000000,4.000000,4.000000,4.000000,4.000000,4.000000,4.000000,4.000000,4.000000,4.000000,100.000000
1602006047.992535,107.000000,0.000000,4128.205078,4136.922852,4139.487305,4148.717773,4136.410156,4135.384766,4149.230957,4144.102539,4156.410156,4161.538574,4154.871582,4155.384766,4149.743652,4136.922852,836.000000,4.000000,,,,0.000000,4.000000,4.000000,4.000000,4.000000,4.000000,4.000000,4.000000,4.000000,4.000000,4.000000,4.000000,4.000000,4.000000,4.000000,100.000000
1602006048.000517,108.000000,0.000000,4141.538574,4143.589844,4152.307617,4154.871582,4136.922852,4138.974121,4143.589844,4144.102539,4150.256348,4123.077148,4157.948730,4167.179688,4157.948730,4157.948730,763.000000,4.000000,,,,0.000000,4.000000,4.000000,4.000000,4.000000,4.000000,4.000000,4.000000,4.000000,4.000000,4.000000,4.000000,4.000000,4.000000,4.000000,100.000000
1602006048.008398,109.000000,0.000000,4134.358887,4131.794922,4154.358887,4144.102539,4127.179688,4131.794922,4137.948730,4145.128418,4142.051270,4108.205078,4153.333496,4171.794922,4156.922852,4156.410156,749.000000,4.000000,,,,0.000000,4.000000,4.000000,4.000000,4.000000,4.000000,4.000000,4.000000,4.000000,4.000000,4.000000,4.000000,4.000000,4.000000,4.000000,100.000000
1602006048.016280,110.000000,0.000000,4120.512695,4119.487305,4143.077148,4137.948730,4120.000000,4124.615234,4138.974121,4143.589844,4144.615234,4146.153809,4152.307617,4166.153809,4151.794922,4135.384766,871.000000,4.000000,,,,0.000000,4.000000,4.000000,4.000000,4.000000,4.000000,4.000000,4.000000,4.000000,4.000000,4.000000,4.000000,4.000000,4.000000,4.000000,100.000000
1602006048.024162,111.000000,0.000000,4139.487305,4139.487305,4141.025879,4151.794922,4130.256348,4126.153809,4137.436035,4133.846191,4139.487305,4169.230957,4146.153809,4151.282227,4143.589844,4126.153809,836.000000,4.000000,,,,0.000000,4.000000,4.000000,4.000000,4.000000,4.000000,4.000000,4.000000,4.000000,4.000000,4.000000,4.000000,4.000000,4.000000,4.000000,100.000000
1602006048.032043,112.000000,0.000000,4158.974121,4165.128418,4142.563965,4160.512695,4135.897461,4123.589844,4127.179688,4119.487305,4119.487305,4149.230957,4132.307617,4137.436035,4132.307617,4126.153809,763.000000,4.000000,,,,0.000000,4.000000,4.000000,4.000000,4.000000,4.000000,4.000000,4.000000,4.000000,4.000000,4.000000,4.000000,4.000000,4.000000,4.000000,100.000000
1602006048.039826,113.000000,0.000000,4154.358887,4169.230957,4137.948730,4153.333496,4126.153809,4120.000000,4122.051270,4115.897461,4119.487305,4136.922852,4123.589844,4136.410156,4116.410156,4117.436035,749.000000,4.000000,,,,0.000000,4.000000,4.000000,4.000000,4.000000,4.000000,4.000000,4.000000,4.000000,4.000000,4.000000,4.000000,4.000000,4.000000,4.000000,100.000000
1602006048.047709,114.000000,0.000000,4158.461426,4170.256348,4134.358887,4152.820313,4127.692383,4122.051270,4129.230957,4126.153809,4141.025879,4137.436035,4119.487305,4131.794922,4096.922852,4104.615234,871.000000,4.000000,,,,0.000000,4.000000,4.000000,4.000000,4.000000,4.000000,4.000000,4.000000,4.000000,4.000000,4.000000,4.000000,4.000000,4.000000,4.000000,100.000000
1602006048.055591,115.000000,0.000000,4173.846191,4175.384766,4137.436035,4158.974121,4139.487305,4126.153809,4136.922852,4136.410156,4148.205078,4116.410156,4115.384766,4124.102539,4088.205078,4101.538574,836.000000,4.000000,,,,0.000000,4.000000,4.000000,4.000000,4.000000,4.000000,4.000000,4.000000,4.000000,4.000000,4.000000,4.000000,4.000000,4.000000,4.000000,100.000000
1602006048.063474,116.000000,0.000000,4170.769043,4174.358887,4138.461426,4158.461426,4133.333496,4127.179688,4135.897461,4140.512695,4138.461426,4108.717773,4110.769043,4128.717773,4091.794922,4106.666504,763.000000,4.000000,,,,0.000000,4.000000,4.000000,4.000000,4.000000,4.000000,4.000000,4.000000,4.000000,4.000000,4.000000,4.000000,4.000000,4.000000,4.000000,100.000000
1602006048.071356,117.000000,0.000000,4165.641113,4173.333496,4134.358887,4154.358887,4122.051270,4124.615234,4126.666504,4138.461426,4139.487305,4130.769043,4109.743652,4130.769043,4093.846191,4107.179688,749.000000,4.000000,,,,0.000000,4.000000,4.000000,4.000000,4.000000,4.000000,4.000000,4.000000,4.000000,4.000000,4.000000,4.000000,4.000000,4.000000,4.000000,100.000000
1602006048.079239,118.000000,0.000000,4169.230957,4172.307617,4134.358887,4153.333496,4130.256348,4122.051270,4123.077148,4130.769043,4142.563965,4133.333496,4108.717773,4127.692383,4091.794922,4098.974121,871.000000,4.000000,,,,0.000000,4.000000,4.000000,4.000000,4.000000,4.000000,4.000000,4.000000,4.000000,4.000000,4.000000,4.000000,4.000000,4.000000,4.000000,100.000000
1602006048.087122,119.000000,0.000000,4161.025879,4169.230957,4136.922852,4154.358887,4138.974121,4122.051270,4124.615234,4120.512695,4129.230957,4115.384766,4103.589844,4133.846191,4089.743652,4093.333252,836.000000,4.000000,,,,0.000000,4.000000,4.000000,4.000000,4.000000,4.000000,4.000000,4.000000,4.000000,4.000000,4.000000,4.000000,4.000000,4.000000,4.000000,100.000000
1602006048.095004,120.000000,0.000000,4150.769043,4168.717773,4135.384766,4154.358887,4135.897461,4125.641113,4122.563965,4116.922852,4118.974121,4117.436035,4109.743652,4138.461426,4091.281982,4096.922852,763.000000,4.000000,,,,0.000000,4.000000,4.000000,4.000000,4.000000,4.000000,4.000000,4.000000,4.000000,4.000000,4.000000,4.000000,4.000000,4.000000,4.000000,100.000000
1602006048.102887,121.000000,0.000000,4153.333496,4170.769043,4134.871582,4153.846191,4134.358887,4133.333496,4125.641113,4122.563965,4117.436035,4127.179688,4123.589844,4133.333496,4095.384521,4098.461426,749.000000,4.000000,,,,0.000000,4.000000,4.000000,4.000000,4.000000,4.000000,4.000000,4.000000,4.000000,4.000000,4.000000,4.000000,4.000000,4.000000,4.000000,100.000000
1602006048.110669,122.000000,0.000000,4156.922852,4169.743652,4137.436035,4153.846191,4134.358887,4137.436035,4136.410156,4123.589844,4111.282227,4122.563965,4125.128418,4135.384766,4094.871826,4097.948730,871.000000,4.000000,,,,0.000000,4.000000,4.000000,4.000000,4.000000,4.000000,4.000000,4.000000,4.000000,4.000000,4.000000,4.000000,4.000000,4.000000,4.000000,100.000000
1602006048.118552,123.000000,0.000000,4152.820313,4161.538574,4137.948730,4150.769043,4129.743652,4129.743652,4140.000000,4122.563965,4108.717773,4118.461426,4121.538574,4140.000000,4091.281982,4100.000000,836.000000,4.000000,,,,0.000000,4.000000,4.000000,4.000000,4.000000,4.000000,4.000000,4.000000,4.000000,4.000000,4.000000,4.000000,4.000000,4.000000,4.000000,100.000000
1602006048.126435,124.000000,0.000000,4152.820313,4154.358887,4136.410156,4150.769043,4123.589844,4123.077148,4136.922852,4130.256348,4119.487305,4128.205078,4121.025879,4134.358887,4091.794922,4106.153809,763.000000,4.000000,,,,0.000000,4.000000,4.000000,4.000000,4.000000,4.000000,4.000000,4.000000,4.000000,4.000000,4.000000,4.000000,4.000000,4.000000,4.000000,100.000000
1602006048.134317,125.000000,0.000000,4150.769043,4152.820313,4137.948730,4151.794922,4118.974121,4126.666504,4140.000000,4138.974121,4127.692383,4136.410156,4119.487305,4124.102539,4091.281982,4108.205078,749.000000,4.000000,,,,0.000000,4.000000,4.000000,4.000000,4.000000,4.000000,4.000000,4.000000,4.000000,4.000000,4.000000,4.000000,4.000000,4.000000,4.000000,100.000000
1602006048.142200,126.000000,0.000000,4140.000000,4152.307617,4138.461426,4143.077148,4118.974121,4125.128418,4143.077148,4138.974121,4125.641113,4129.230957,4115.897461,4118.974121,4088.718018,4098.974121,871.000000,4.000000,,,,0.000000,4.000000,4.000000,4.000000,4.000000,4.000000,4.000000,4.000000,4.000000,4.000000,4.000000,4.000000,4.000000,4.000000,4.000000,100.000000
1602006048.150082,127.000000,0.000000,4142.563965,4152.820313,4137.948730,4138.974121,4124.102539,4118.461426,4138.461426,4139.487305,4130.769043,4127.179688,4116.410156,4124.615234,4091.794922,4089.230713,836.000000,4.000000,,,,0.000000,4.000000,4.000000,4.000000,4.000000,4.000000,4.000000,4.000000,4.000000,4.000000,4.000000,4.000000,4.000000,4.000000,4.000000,100.000000
1602006048.157965,128.000000,0.000000,4154.871582,4154.871582,4137.948730,4148.717773,4123.589844,4120.000000,4135.384766,4143.589844,4139.487305,4132.820313,4116.922852,4130.769043,4092.307617,4090.256348,763.000000,4.000000,,,,0.000000,4.000000,4.000000,4.000000,4.000000,4.000000,4.000000,4.000000,4.000000,4.000000,4.000000,4.000000,4.000000,4.000000,4.000000,100.000000
1602006048.165848,0.000000,0.000000,4153.846191,4161.538574,4138.461426,4155.384766,4124.615234,4126.153809,4135.897461,4143.589844,4143.589844,4129.743652,4120.000000,4129.230957,4096.922852,4095.384521,800.000000,4.000000,,,,0.000000,4.000000,4.000000,4.000000,4.000000,4.000000,4.000000,4.000000,4.000000,4.000000,4.000000,4.000000,4.000000,4.000000,4.000000,100.000000
1602006048.173730,1.000000,0.000000,4150.769043,4170.256348,4138.974121,4152.820313,4133.846191,4129.743652,4135.384766,4139.487305,4136.922852,4130.769043,4130.256348,4130.256348,4107.179688,4098.974121,791.000000,4.000000,,,,0.000000,4.000000,4.000000,4.000000,4.000000,4.000000,4.000000,4.000000,4.000000,4.000000,4.000000,4.000000,4.000000,4.000000,4.000000,100.000000
1602006048.181713,2.000000,0.000000,4155.384766,4167.179688,4137.436035,4151.794922,4134.871582,4125.128418,4134.358887,4137.436035,4128.717773,4142.051270,4136.922852,4135.897461,4109.230957,4105.641113,849.000000,4.000000,,,,0.000000,4.000000,4.000000,4.000000,4.000000,4.000000,4.000000,4.000000,4.000000,4.000000,4.000000,4.000000,4.000000,4.000000,4.000000,100.000000
1602006048.189596,3.000000,0.000000,4157.436035,4162.051270,4138.461426,4153.333496,4124.615234,4122.051270,4135.897461,4138.461426,4130.256348,4150.769043,4133.846191,4139.487305,4113.846191,4116.922852,869.000000,4.000000,,,,0.000000,4.000000,4.000000,4.000000,4.000000,4.000000,4.000000,4.000000,4.000000,4.000000,4.000000,4.000000,4.000000,4.000000,4.000000,100.000000
1602006048.197479,4.000000,0.000000,4153.333496,4165.128418,4139.487305,4153.333496,4122.051270,4126.666504,4137.948730,4135.897461,4132.820313,4152.820313,4126.153809,4136.922852,4119.487305,4121.538574,815.000000,4.000000,,,,0.000000,4.000000,4.000000,4.000000,4.000000,4.000000,4.000000,4.000000,4.000000,4.000000,4.000000,4.000000,4.000000,4.000000,4.000000,100.000000
1602006048.205361,5.000000,0.000000,4146.153809,4162.563965,4132.307617,4148.205078,4127.179688,4131.282227,4136.922852,4128.205078,4125.641113,4146.153809,4119.487305,4132.820313,4109.743652,4112.307617,833.000000,4.000000,,,,0.000000,4.000000,4.000000,4.000000,4.000000,4.000000,4.000000,4.000000,4.000000,4.000000,4.000000,4.000000,4.000000,4.000000,4.000000,100.000000
1602006048.213244,6.000000,0.000000,4140.512695,4153.846191,4125.128418,4141.025879,4129.743652,4127.179688,4133.846191,4124.615234,4123.077148,4133.333496,4120.000000,4134.358887,4102.051270,4104.615234,773.000000,4.000000,,,,0.000000,4.000000,4.000000,4.000000,4.000000,4.000000,4.000000,4.000000,4.000000,4.000000,4.000000,4.000000,4.000000,4.000000,4.000000,100.000000
1602006048.221127,7.000000,0.000000,4139.487305,4152.820313,4124.615234,4141.538574,4124.615234,4122.563965,4133.846191,4125.641113,4133.333496,4134.871582,4122.051270,4135.897461,4109.230957,4107.179688,682.000000,4.000000,,,,0.000000,4.000000,4.000000,4.000000,4.000000,4.000000,4.000000,4.000000,4.000000,4.000000,4.000000,4.000000,4.000000,4.000000,4.000000,100.000000
1602006048.229010,8.000000,0.000000,4137.948730,4152.820313,4124.615234,4142.051270,4122.563965,4127.692383,4136.410156,4124.102539,4134.871582,4136.922852,4116.410156,4127.179688,4105.641113,4105.641113,746.000000,4.000000,,,,0.000000,4.000000,4.000000,4.000000,4.000000,4.000000,4.000000,4.000000,4.000000,4.000000,4.000000,4.000000,4.000000,4.000000,4.000000,100.000000
1602006048.236893,9.000000,0.000000,4132.820313,4152.307617,4123.589844,4139.487305,4130.769043,4136.410156,4137.948730,4128.205078,4123.077148,4127.692383,4113.333496,4120.000000,4091.281982,4095.897461,842.000000,4.000000,,,,0.000000,4.000000,4.000000,4.000000,4.000000,4.000000,4.000000,4.000000,4.000000,4.000000,4.000000,4.000000,4.000000,4.000000,4.000000,100.000000
1602006048.244776,10.000000,0.000000,4126.666504,4151.282227,4123.077148,4139.487305,4135.384766,4145.128418,4137.948730,4135.897461,4120.512695,4132.307617,4122.563965,4123.589844,4091.281982,4090.256348,834.000000,4.000000,,,,0.000000,4.000000,4.000000,4.000000,4.000000,4.000000,4.000000,4.000000,4.000000,4.000000,4.000000,4.000000,4.000000,4.000000,4.000000,100.000000
1602006048.252658,11.000000,0.000000,4127.179688,4145.641113,4122.563965,4140.000000,4130.256348,4151.282227,4139.487305,4133.333496,4117.436035,4143.077148,4122.563965,4125.641113,4095.384521,4090.256348,836.000000,4.000000,,,,0.000000,4.000000,4.000000,4.000000,4.000000,4.000000,4.000000,4.000000,4.000000,4.000000,4.000000,4.000000,4.000000,4.000000,4.000000,100.000000
1602006048.260440,12.000000,0.000000,4133.846191,4143.077148,4122.051270,4137.436035,4129.230957,4150.769043,4140.000000,4124.615234,4107.692383,4136.410156,4110.769043,4119.487305,4093.333252,4092.820557,702.000000,4.000000,,,,0.000000,4.000000,4.000000,4.000000,4.000000,4.000000,4.000000,4.000000,4.000000,4.000000,4.000000,4.000000,4.000000,4.000000,4.000000,100.000000
1602006048.268321,13.000000,0.000000,4129.743652,4140.512695,4116.410156,4134.871582,4125.641113,4142.051270,4136.922852,4123.077148,4109.743652,4122.051270,4108.205078,4114.871582,4090.256348,4095.384521,749.000000,4.000000,,,,0.000000,4.000000,4.000000,4.000000,4.000000,4.000000,4.000000,4.000000,4.000000,4.000000,4.000000,4.000000,4.000000,4.000000,4.000000,100.000000
1602006048.276302,14.000000,0.000000,4122.051270,4136.922852,4111.282227,4134.871582,4121.025879,4131.794922,4136.410156,4130.769043,4121.025879,4122.051270,4118.461426,4117.948730,4090.256348,4097.948730,834.000000,4.000000,,,,0.000000,4.000000,4.000000,4.000000,4.000000,4.000000,4.000000,4.000000,4.000000,4.000000,4.000000,4.000000,4.000000,4.000000,4.000000,100.000000
1602006048.284183,15.000000,0.000000,4131.794922,4141.538574,4118.974121,4136.922852,4130.256348,4130.256348,4139.487305,4140.512695,4125.641113,4130.769043,4124.615234,4130.256348,4095.384521,4105.641113,836.000000,4.000000,,,,0.000000,4.000000,4.000000,4.000000,4.000000,4.000000,4.000000,4.000000,4.000000,4.000000,4.000000,4.000000,4.000000,4.000000,4.000000,100.000000
1602006048.291964,16.000000,0.000000,4139.487305,4144.102539,4124.615234,4139.487305,4135.897461,4127.692383,4135.897461,4139.487305,4120.512695,4120.000000,4115.384766,4132.307617,4097.948730,4102.563965,0.000000,4.000000,,,,0.000000,4.000000,4.000000,4.000000,4.000000,4.000000,4.000000,4.000000,4.000000,4.000000,4.000000,4.000000,4.000000,4.000000,4.000000,100.000000
1602006048.299846,17.000000,0.000000,4134.358887,4144.615234,4122.563965,4139.487305,4127.179688,4123.589844,4130.769043,4129.230957,4111.794922,4105.128418,4111.282227,4120.512695,4092.820557,4089.743652,0.000000,4.000000,,,,0.000000,4.000000,4.000000,4.000000,4.000000,4.000000,4.000000,4.000000,4.000000,4.000000,4.000000,4.000000,4.000000,4.000000,4.000000,100.000000
1602006048.307728,18.000000,0.000000,4135.897461,4148.205078,4125.641113,4140.000000,4124.615234,4124.102539,4131.282227,4124.102539,4109.743652,4120.512695,4122.563965,4123.589844,4088.718018,4097.948730,0.000000,4.000000,,,,0.000000,4.000000,4.000000,4.000000,4.000000,4.000000,4.000000,4.000000,4.000000,4.000000,4.000000,4.000000,4.000000,4.000000,4.000000,100.000000
1602006048.315609,19.000000,0.000000,4143.077148,4145.641113,4127.692383,4138.461426,4126.153809,4127.179688,4127.692383,4123.077148,4111.794922,4146.666504,4122.563965,4139.487305,4091.794922,4112.820313,0.000000,4.000000,,,,0.000000,4.000000,4.000000,4.000000,4.000000,4.000000,4.000000,4.000000,4.000000,4.000000,4.000000,4.000000,4.000000,4.000000,4.000000,100.000000
1602006048.323491,20.000000,0.000000,4142.051270,4135.897461,4123.589844,4134.358887,4121.538574,4124.615234,4126.153809,4119.487305,4106.666504,4141.025879,4115.384766,4143.077148,4094.358887,4104.102539,0.000000,4.000000,,,,0.000000,4.000000,4.000000,4.000000,4.000000,4.000000,4.000000,4.000000,4.000000,4.000000,4.000000,4.000000,4.000000,4.000000,4.000000,100.000000
1602006048.331473,21.000000,0.000000,4137.948730,4134.871582,4122.563965,4134.358887,4118.974121,4121.025879,4132.307617,4118.461426,4105.128418,4117.436035,4118.461426,4136.922852,4092.820557,4093.846191,0.000000,4.000000,,,,0.000000,4.000000,4.000000,4.000000,4.000000,4.000000,4.000000,4.000000,4.000000,4.000000,4.000000,4.000000,4.000000,4.000000,4.000000,100.000000
1602006048.339356,22.000000,0.000000,4135.384766,4138.461426,4124.102539,4137.436035,4118.974121,4121.538574,4136.922852,4131.282227,4124.615234,4127.179688,4124.102539,4135.897461,4098.974121,4108.205078,0.000000,4.000000,,,,0.000000,4.000000,4.000000,4.000000,4.000000,4.000000,4.000000,4.000000,4.000000,4.000000,4.000000,4.000000,4.000000,4.000000,4.000000,100.000000
1602006048.347239,23.000000,0.000000,4138.461426,4140.000000,4130.256348,4138.461426,4118.974121,4125.128418,4138.974121,4145.128418,4139.487305,4149.230957,4127.179688,4138.461426,4109.743652,4127.692383,0.000000,4.000000,,,,0.000000,4.000000,4.000000,4.000000,4.000000,4.000000,4.000000,4.000000,4.000000,4.000000,4.000000,4.000000,4.000000,4.000000,4.000000,100.000000
1602006048.355121,24.000000,0.000000,4141.538574,4142.051270,4136.410156,4137.436035,4121.538574,4123.077148,4136.922852,4143.077148,4131.282227,4132.820313,4126.153809,4137.948730,4108.717773,4118.974121,0.000000,4.000000,,,,0.000000,4.000000,4.000000,4.000000,4.000000,4.000000,4.000000,4.000000,4.000000,4.000000,4.000000,4.000000,4.000000,4.000000,4.000000,100.000000
1602006048.363004,25.000000,0.000000,4139.487305,4144.615234,4134.871582,4137.436035,4122.051270,4114.871582,4126.666504,4135.897461,4118.461426,4109.743652,4116.410156,4136.922852,4098.461426,4103.077148,0.000000,4.000000,,,,0.000000,4.000000,4.000000,4.000000,4.000000,4.000000,4.000000,4.000000,4.000000,4.000000,4.000000,4.000000,4.000000,4.000000,4.000000,100.000000
1602006048.370886,26.000000,0.000000,4145.128418,4149.743652,4135.897461,4136.922852,4126.666504,4115.384766,4125.641113,4135.897461,4121.025879,4124.615234,4112.820313,4136.410156,4098.974121,4108.717773,0.000000,4.000000,,,,0.000000,4.000000,4.000000,4.000000,4.000000,4.000000,4.000000,4.000000,4.000000,4.000000,4.000000,4.000000,4.000000,4.000000,4.000000,100.000000
1602006048.378769,27.000000,0.000000,4151.794922,4154.871582,4138.461426,4136.922852,4136.410156,4125.641113,4135.384766,4137.948730,4134.358887,4147.179688,4122.051270,4136.410156,4107.692383,4113.333496,0.000000,4.000000,,,,0.000000,4.000000,4.000000,4.000000,4.000000,4.000000,4.000000,4.000000,4.000000,4.000000,4.000000,4.000000,4.000000,4.000000,4.000000,100.000000
1602006048.386652,28.000000,0.000000,4144.615234,4154.358887,4134.358887,4138.974121,4138.461426,4124.102539,4130.256348,4133.846191,4134.871582,4134.358887,4122.563965,4133.846191,4107.692383,4104.615234,0.000000,4.000000,,,,0.000000,4.000000,4.000000,4.000000,4.000000,4.000000,4.000000,4.000000,4.000000,4.000000,4.000000,4.000000,4.000000,4.000000,4.000000,100.000000
1602006048.394534,29.000000,0.000000,4138.461426,4154.871582,4134.358887,4141.538574,4135.384766,4119.487305,4121.538574,4130.256348,4125.128418,4116.922852,4118.974121,4133.333496,4103.589844,4109.743652,0.000000,4.000000,,,,0.000000,4.000000,4.000000,4.000000,4.000000,4.000000,4.000000,4.000000,4.000000,4.000000,4.000000,4.000000,4.000000,4.000000,4.000000,100.000000
1602006048.402316,30.000000,0.000000,4144.615234,4156.410156,4139.487305,4141.025879,4136.410156,4126.153809,4125.128418,4127.692383,4122.051270,4126.666504,4124.615234,4143.589844,4106.666504,4127.692383,0.000000,4.000000,,,,0.000000,4.000000,4.000000,4.000000,4.000000,4.000000,4.000000,4.000000,4.000000,4.000000,4.000000,4.000000,4.000000,4.000000,4.000000,100.000000
1602006048.410198,31.000000,0.000000,4145.128418,4152.307617,4140.000000,4137.948730,4135.897461,4128.205078,4128.717773,4126.153809,4125.128418,4143.077148,4128.717773,4154.358887,4112.307617,4128.717773,0.000000,4.000000,,,,0.000000,4.000000,4.000000,4.000000,4.000000,4.000000,4.000000,4.000000,4.000000,4.000000,4.000000,4.000000,4.000000,4.000000,4.000000,100.000000
1602006048.418079,32.000000,0.000000,4138.974121,4144.615234,4134.871582,4139.487305,4129.743652,4121.025879,4129.230957,4129.230957,4125.128418,4142.051270,4127.692383,4155.897461,4114.358887,4123.077148,0.000000,4.000000,,,,0.000000,4.000000,4.000000,4.000000,4.000000,4.000000,4.000000,4.000000,4.000000,4.000000,4.000000,4.000000,4.000000,4.000000,4.000000,100.000000
1602006048.425961,33.000000,0.000000,4140.512695,4141.025879,4126.666504,4138.461426,4126.153809,4118.461426,4128.205078,4134.358887,4127.692383,4140.000000,4124.102539,4152.820313,4113.333496,4126.666504,0.000000,4.000000,,,,0.000000,4.000000,4.000000,4.000000,4.000000,4.000000,4.000000,4.000000,4.000000,4.000000,4.000000,4.000000,4.000000,4.000000,4.000000,100.000000
1602006048.433842,34.000000,0.000000,4141.538574,4142.051270,4122.563965,4130.256348,4123.589844,4122.051270,4125.641113,4136.922852,4136.410156,4136.922852,4123.077148,4153.333496,4109.743652,4125.641113,0.000000,4.000000,,,,0.000000,4.000000,4.000000,4.000000,4.000000,4.000000,4.000000,4.000000,4.000000,4.000000,4.000000,4.000000,4.000000,4.000000,4.000000,100.000000
1602006048.441625,35.000000,0.000000,4135.384766,4137.436035,4122.563965,4128.205078,4123.077148,4122.563965,4131.282227,4135.897461,4139.487305,4114.871582,4122.051270,4153.333496,4103.077148,4118.461426,0.000000,4.000000,,,,0.000000,4.000000,4.000000,4.000000,4.000000,4.000000,4.000000,4.000000,4.000000,4.000000,4.000000,4.000000,4.000000,4.000000,4.000000,100.000000
1602006048.449507,36.000000,0.000000,4137.436035,4141.025879,4121.538574,4137.436035,4129.230957,4120.000000,4137.436035,4134.871582,4138.974121,4110.256348,4124.102539,4152.307617,4107.179688,4122.051270,0.000000,4.000000,,,,0.000000,4.000000,4.000000,4.000000,4.000000,4.000000,4.000000,4.000000,4.000000,4.000000,4.000000,4.000000,4.000000,4.000000,4.000000,100.000000
1602006048.457390,37.000000,0.000000,4145.128418,4153.846191,4124.102539,4142.051270,4136.922852,4126.666504,4136.410156,4137.948730,4142.051270,4138.974121,4129.230957,4156.922852,4115.384766,4119.487305,0.000000,4.000000,,,,0.000000,4.000000,4.000000,4.000000,4.000000,4.000000,4.000000,4.000000,4.000000,4.000000,4.000000,4.000000,4.000000,4.000000,4.000000,100.000000
1602006048.465272,38.000000,0.000000,4139.487305,4151.794922,4127.179688,4139.487305,4140.000000,4139.487305,4137.436035,4137.436035,4141.538574,4147.179688,4120.512695,4160.512695,4101.538574,4096.922852,0.000000,4.000000,,,,0.000000,4.000000,4.000000,4.000000,4.000000,4.000000,4.000000,4.000000,4.000000,4.000000,4.000000,4.000000,4.000000,4.000000,4.000000,100.000000
1602006048.473154,39.000000,0.000000,4132.820313,4142.051270,4125.641113,4136.922852,4138.974121,4137.948730,4141.025879,4127.692383,4133.333496,4131.282227,4110.256348,4155.384766,4093.333252,4098.461426,0.000000,4.000000,,,,0.000000,4.000000,4.000000,4.000000,4.000000,4.000000,4.000000,4.000000,4.000000,4.000000,4.000000,4.000000,4.000000,4.000000,4.000000,100.000000
1602006048.481037,40.000000,0.000000,4131.794922,4140.512695,4122.563965,4132.307617,4135.897461,4127.179688,4132.820313,4122.051270,4131.794922,4132.307617,4124.102539,4149.743652,4118.461426,4132.307617,0.000000,4.000000,,,,0.000000,4.000000,4.000000,4.000000,4.000000,4.000000,4.000000,4.000000,4.000000,4.000000,4.000000,4.000000,4.000000,4.000000,4.000000,100.000000
1602006048.488919,41.000000,0.000000,4126.666504,4136.410156,4122.563965,4124.615234,4136.410156,4125.641113,4123.589844,4125.128418,4136.410156,4127.692383,4142.563965,4152.307617,4142.051270,4146.666504,0.000000,4.000000,,,,0.000000,4.000000,4.000000,4.000000,4.000000,4.000000,4.000000,4.000000,4.000000,4.000000,4.000000,4.000000,4.000000,4.000000,4.000000,100.000000
1602006048.496901,42.000000,0.000000,4116.410156,4119.487305,4127.692383,4121.025879,4132.820313,4124.615234,4124.102539,4124.615234,4130.256348,4102.051270,4137.948730,4158.461426,4146.666504,4137.436035,0.000000,4.000000,,,,0.000000,4.000000,4.000000,4.000000,4.000000,4.000000,4.000000,4.000000,4.000000,4.000000,4.000000,4.000000,4.000000,4.000000,4.000000,100.000000
1602006048.504783,43.000000,0.000000,4106.153809,4106.153809,4136.410156,4121.538574,4127.692383,4121.538574,4124.615234,4122.563965,4125.128418,4112.307617,4132.820313,4165.128418,4153.333496,4141.025879,0.000000,4.000000,,,,0.000000,4.000000,4.000000,4.000000,4.000000,4.000000,4.000000,4.000000,4.000000,4.000000,4.000000,4.000000,4.000000,4.000000,4.000000,100.000000
1602006048.512665,44.000000,0.000000,4103.077148,4108.205078,4138.461426,4122.563965,4132.307617,4125.641113,4125.641113,4124.102539,4136.922852,4151.794922,4144.615234,4174.358887,4163.589844,4151.794922,0.000000,4.000000,,,,0.000000,4.000000,4.000000,4.000000,4.000000,4.000000,4.000000,4.000000,4.000000,4.000000,4.000000,4.000000,4.000000,4.000000,4.000000,100.000000
1602006048.520546,45.000000,0.000000,4108.717773,4116.922852,4135.897461,4124.615234,4131.794922,4128.717773,4128.205078,4127.692383,4152.820313,4170.256348,4151.794922,4182.563965,4169.743652,4158.461426,0.000000,4.000000,,,,0.000000,4.000000,4.000000,4.000000,4.000000,4.000000,4.000000,4.000000,4.000000,4.000000,4.000000,4.000000,4.000000,4.000000,4.000000,100.000000
1602006048.528428,46.000000,0.000000,4113.333496,4122.051270,4137.436035,4128.205078,4129.230957,4129.743652,4128.205078,4135.384766,4158.974121,4170.256348,4155.384766,4183.589844,4176.410156,4161.538574,0.000000,4.000000,,,,0.000000,4.000000,4.000000,4.000000,4.000000,4.000000,4.000000,4.000000,4.000000,4.000000,4.000000,4.000000,4.000000,4.000000,4.000000,100.000000
1602006048.536310,47.000000,0.000000,4106.153809,4113.333496,4133.333496,4125.641113,4136.410156,4131.282227,4125.641113,4140.512695,4154.358887,4156.922852,4154.358887,4175.897461,4175.897461,4148.717773,0.000000,4.000000,,,,0.000000,4.000000,4.000000,4.000000,4.000000,4.000000,4.000000,4.000000,4.000000,4.000000,4.000000,4.000000,4.000000,4.000000,4.000000,100.000000
1602006048.544092,48.000000,0.000000,4098.461426,4105.641113,4124.102539,4120.000000,4133.846191,4126.153809,4125.641113,4137.436035,4145.128418,4133.333496,4141.025879,4162.051270,4164.615234,4134.358887,0.000000,4.000000,,,,0.000000,4.000000,4.000000,4.000000,4.000000,4.000000,4.000000,4.000000,4.000000,4.000000,4.000000,4.000000,4.000000,4.000000,4.000000,100.000000
1602006048.551974,49.000000,0.000000,4099.487305,4109.743652,4122.051270,4121.538574,4124.615234,4120.512695,4129.230957,4136.410156,4142.051270,4127.179688,4133.846191,4153.846191,4154.358887,4137.948730,0.000000,4.000000,,,,0.000000,4.000000,4.000000,4.000000,4.000000,4.000000,4.000000,4.000000,4.000000,4.000000,4.000000,4.000000,4.000000,4.000000,4.000000,100.000000
1602006048.559856,50.000000,0.000000,4101.538574,4111.282227,4123.589844,4124.615234,4132.820313,4128.717773,4134.358887,4136.410156,4142.563965,4140.512695,4140.512695,4157.436035,4151.794922,4150.769043,0.000000,4.000000,,,,0.000000,4.000000,4.000000,4.000000,4.000000,4.000000,4.000000,4.000000,4.000000,4.000000,4.000000,4.000000,4.000000,4.000000,4.000000,100.000000
1602006048.567738,51.000000,0.000000,4101.538574,4110.769043,4123.589844,4122.563965,4142.563965,4136.922852,4140.000000,4132.307617,4139.487305,4149.230957,4143.077148,4166.153809,4153.846191,4155.384766,0.000000,4.000000,,,,0.000000,4.000000,4.000000,4.000000,4.000000,4.000000,4.000000,4.000000,4.000000,4.000000,4.000000,4.000000,4.000000,4.000000,4.000000,100.000000
1602006048.575620,52.000000,0.000000,4105.641113,4115.384766,4124.615234,4122.051270,4137.436035,4137.436035,4141.538574,4127.179688,4136.922852,4153.333496,4136.922852,4169.230957,4153.846191,4148.717773,0.000000,4.000000,,,,0.000000,4.000000,4.000000,4.000000,4.000000,4.000000,4.000000,4.000000,4.000000,4.000000,4.000000,4.000000,4.000000,4.000000,4.000000,100.000000
1602006048.583502,53.000000,0.000000,4109.230957,4115.897461,4124.615234,4124.615234,4136.922852,4133.846191,4138.974121,4122.051270,4135.384766,4154.358887,4135.897461,4167.692383,4153.333496,4144.102539,0.000000,4.000000,,,,0.000000,4.000000,4.000000,4.000000,4.000000,4.000000,4.000000,4.000000,4.000000,4.000000,4.000000,4.000000,4.000000,4.000000,4.000000,100.000000
1602006048.591284,54.000000,0.000000,4105.641113,4110.256348,4121.538574,4124.102539,4136.922852,4128.205078,4132.307617,4123.589844,4139.487305,4151.794922,4144.615234,4167.179688,4160.000000,4152.307617,0.000000,4.000000,,,,0.000000,4.000000,4.000000,4.000000,4.000000,4.000000,4.000000,4.000000,4.000000,4.000000,4.000000,4.000000,4.000000,4.000000,4.000000,100.000000
1602006048.599167,55.000000,0.000000,4105.641113,4109.743652,4122.563965,4122.563965,4130.256348,4120.512695,4125.641113,4133.333496,4157.436035,4153.333496,4154.358887,4168.205078,4169.230957,4155.384766,0.000000,4.000000,,,,0.000000,4.000000,4.000000,4.000000,4.000000,4.000000,4.000000,4.000000,4.000000,4.000000,4.000000,4.000000,4.000000,4.000000,4.000000,100.000000
1602006048.607050,56.000000,0.000000,4109.230957,4114.871582,4124.615234,4123.077148,4128.717773,4119.487305,4123.077148,4140.000000,4173.846191,4162.051270,4155.897461,4170.256348,4170.769043,4142.051270,0.000000,4.000000,,,,0.000000,4.000000,4.000000,4.000000,4.000000,4.000000,4.000000,4.000000,4.000000,4.000000,4.000000,4.000000,4.000000,4.000000,4.000000,100.000000
1602006048.614932,57.000000,0.000000,4108.717773,4114.871582,4125.128418,4123.077148,4135.897461,4128.205078,4122.563965,4140.000000,4175.384766,4171.794922,4152.307617,4167.692383,4169.743652,4136.922852,0.000000,4.000000,,,,0.000000,4.000000,4.000000,4.000000,4.000000,4.000000,4.000000,4.000000,4.000000,4.000000,4.000000,4.000000,4.000000,4.000000,4.000000,100.000000
1602006048.622815,58.000000,0.000000,4108.717773,4113.846191,4123.589844,4118.974121,4144.102539,4137.948730,4127.179688,4140.000000,4172.307617,4173.333496,4155.897461,4157.948730,4170.256348,4144.102539,0.000000,4.000000,,,,0.000000,4.000000,4.000000,4.000000,4.000000,4.000000,4.000000,4.000000,4.000000,4.000000,4.000000,4.000000,4.000000,4.000000,4.000000,100.000000
1602006048.630697,59.000000,0.000000,4103.077148,4111.282227,4115.897461,4110.769043,4142.563965,4137.948730,4133.333496,4140.000000,4168.717773,4166.666504,4153.333496,4150.769043,4163.589844,4139.487305,0.000000,4.000000,,,,0.000000,4.000000,4.000000,4.000000,4.000000,4.000000,4.000000,4.000000,4.000000,4.000000,4.000000,4.000000,4.000000,4.000000,4.000000,100.000000
1602006048.638580,60.000000,0.000000,4092.307617,4106.666504,4107.179688,4104.102539,4136.922852,4133.333496,4135.384766,4138.461426,4157.948730,4168.717773,4138.974121,4154.871582,4154.871582,4126.666504,0.000000,4.000000,,,,0.000000,4.000000,4.000000,4.000000,4.000000,4.000000,4.000000,4.000000,4.000000,4.000000,4.000000,4.000000,4.000000,4.000000,4.000000,100.000000
1602006048.646462,61.000000,0.000000,4092.307617,4106.153809,4111.282227,4109.743652,4135.384766,4136.922852,4137.436035,4137.948730,4144.102539,4164.615234,4137.436035,4153.846191,4155.384766,4128.717773,0.000000,4.000000,,,,0.000000,4.000000,4.000000,4.000000,4.000000,4.000000,4.000000,4.000000,4.000000,4.000000,4.000000,4.000000,4.000000,4.000000,4.000000,100.000000
1602006048.654345,62.000000,0.000000,4097.436035,4110.256348,4122.051270,4121.025879,4134.871582,4138.461426,4134.871582,4136.922852,4137.948730,4142.051270,4145.641113,4142.563965,4156.922852,4138.974121,0.000000,4.000000,,,,0.000000,4.000000,4.000000,4.000000,4.000000,4.000000,4.000000,4.000000,4.000000,4.000000,4.000000,4.000000,4.000000,4.000000,4.000000,100.000000
1602006048.662128,63.000000,0.000000,4096.410156,4109.743652,4123.589844,4122.051270,4133.846191,4130.256348,4127.692383,4136.410156,4137.436035,4135.384766,4144.102539,4140.000000,4153.333496,4141.025879,0.000000,4.000000,,,,0.000000,4.000000,4.000000,4.000000,4.000000,4.000000,4.000000,4.000000,4.000000,4.000000,4.000000,4.000000,4.000000,4.000000,4.000000,100.000000
1602006048.670010,64.000000,0.000000,4096.922852,4105.128418,4122.563965,4114.871582,4128.717773,4125.128418,4130.769043,4136.410156,4130.256348,4144.615234,4141.025879,4150.769043,4154.871582,4137.436035,800.000000,4.000000,,,,0.000000,4.000000,4.000000,4.000000,4.000000,4.000000,4.000000,4.000000,4.000000,4.000000,4.000000,4.000000,4.000000,4.000000,4.000000,100.000000
1602006048.677892,65.000000,0.000000,4096.922852,4105.128418,4123.589844,4110.769043,4120.512695,4127.692383,4136.922852,4128.205078,4118.461426,4137.948730,4142.051270,4156.922852,4152.307617,4137.436035,791.000000,4.000000,,,,0.000000,4.000000,4.000000,4.000000,4.000000,4.000000,4.000000,4.000000,4.000000,4.000000,4.000000,4.000000,4.000000,4.000000,4.000000,100.000000
1602006048.685775,66.000000,0.000000,4093.333252,4105.641113,4122.563965,4110.256348,4123.077148,4133.333496,4134.871582,4119.487305,4121.025879,4127.692383,4138.461426,4155.384766,4141.025879,4138.461426,849.000000,4.000000,,,,0.000000,4.000000,4.000000,4.000000,4.000000,4.000000,4.000000,4.000000,4.000000,4.000000,4.000000,4.000000,4.000000,4.000000,4.000000,100.000000
1602006048.693657,67.000000,0.000000,4097.948730,4104.102539,4119.487305,4113.846191,4134.871582,4136.922852,4134.871582,4125.128418,4135.384766,4141.025879,4134.358887,4153.846191,4142.051270,4135.897461,869.000000,4.000000,,,,0.000000,4.000000,4.000000,4.000000,4.000000,4.000000,4.000000,4.000000,4.000000,4.000000,4.000000,4.000000,4.000000,4.000000,4.000000,100.000000
1602006048.701539,68.000000,0.000000,4105.641113,4109.230957,4120.512695,4120.512695,4137.436035,4135.897461,4138.974121,4134.871582,4138.974121,4148.717773,4137.436035,4153.846191,4155.384766,4136.922852,815.000000,4.000000,,,,0.000000,4.000000,4.000000,4.000000,4.000000,4.000000,4.000000,4.000000,4.000000,4.000000,4.000000,4.000000,4.000000,4.000000,4.000000,100.000000
1602006048.709422,69.000000,0.000000,4110.256348,4122.051270,4127.179688,4122.563965,4134.358887,4134.358887,4137.436035,4138.461426,4141.538574,4134.871582,4142.051270,4154.358887,4159.487305,4140.000000,829.000000,4.000000,,,,0.000000,4.000000,4.000000,4.000000,4.000000,4.000000,4.000000,4.000000,4.000000,4.000000,4.000000,4.000000,4.000000,4.000000,4.000000,100.000000
1602006048.717304,70.000000,0.000000,4111.282227,4128.205078,4130.256348,4125.641113,4139.487305,4136.410156,4135.384766,4140.512695,4150.769043,4143.077148,4146.153809,4154.871582,4157.948730,4146.153809,773.000000,4.000000,,,,0.000000,4.000000,4.000000,4.000000,4.000000,4.000000,4.000000,4.000000,4.000000,4.000000,4.000000,4.000000,4.000000,4.000000,4.000000,100.000000
1602006048.725286,71.000000,0.000000,4112.307617,4125.128418,4124.615234,4128.205078,4143.077148,4138.461426,4136.410156,4142.563965,4155.897461,4168.717773,4148.205078,4152.307617,4163.589844,4150.256348,682.000000,4.000000,,,,0.000000,4.000000,4.000000,4.000000,4.000000,4.000000,4.000000,4.000000,4.000000,4.000000,4.000000,4.000000,4.000000,4.000000,4.000000,100.000000
1602006048.733168,72.000000,0.000000,4114.871582,4122.563965,4122.563965,4123.077148,4137.436035,4136.922852,4137.948730,4143.589844,4152.307617,4172.820313,4151.794922,4150.769043,4168.205078,4151.794922,773.000000,4.000000,,,,0.000000,4.000000,4.000000,4.000000,4.000000,4.000000,4.000000,4.000000,4.000000,4.000000,4.000000,4.000000,4.000000,4.000000,4.000000,100.000000
1602006048.741050,73.000000,0.000000,4121.538574,4131.794922,4128.717773,4126.666504,4141.025879,4140.512695,4141.025879,4143.077148,4143.589844,4169.743652,4156.922852,4152.307617,4170.769043,4156.410156,842.000000,4.000000,,,,0.000000,4.000000,4.000000,4.000000,4.000000,4.000000,4.000000,4.000000,4.000000,4.000000,4.000000,4.000000,4.000000,4.000000,4.000000,100.000000
1602006048.748931,74.000000,0.000000,4124.102539,4139.487305,4128.717773,4137.436035,4146.153809,4145.641113,4140.512695,4140.512695,4136.922852,4169.230957,4150.769043,4149.230957,4173.333496,4160.512695,864.000000,4.000000,,,,0.000000,4.000000,4.000000,4.000000,4.000000,4.000000,4.000000,4.000000,4.000000,4.000000,4.000000,4.000000,4.000000,4.000000,4.000000,100.000000
1602006048.756813,75.000000,0.000000,4120.512695,4133.846191,4122.563965,4134.358887,4138.974121,4141.538574,4135.897461,4137.436035,4136.410156,4151.282227,4139.487305,4139.487305,4167.179688,4154.871582,836.000000,4.000000,,,,0.000000,4.000000,4.000000,4.000000,4.000000,4.000000,4.000000,4.000000,4.000000,4.000000,4.000000,4.000000,4.000000,4.000000,4.000000,100.000000
1602006048.764695,76.000000,0.000000,4120.512695,4132.307617,4123.589844,4128.205078,4139.487305,4137.436035,4129.743652,4132.820313,4139.487305,4136.410156,4140.000000,4138.461426,4157.948730,4142.051270,748.000000,4.000000,,,,0.000000,4.000000,4.000000,4.000000,4.000000,4.000000,4.000000,4.000000,4.000000,4.000000,4.000000,4.000000,4.000000,4.000000,4.000000,100.000000
1602006048.772478,77.000000,0.000000,4122.563965,4136.922852,4126.153809,4128.717773,4151.282227,4140.000000,4125.128418,4126.153809,4136.922852,4137.948730,4139.487305,4145.128418,4152.820313,4136.922852,749.000000,4.000000,,,,0.000000,4.000000,4.000000,4.000000,4.000000,4.000000,4.000000,4.000000,4.000000,4.000000,4.000000,4.000000,4.000000,4.000000,4.000000,100.000000
1602006048.780361,78.000000,0.000000,4121.538574,4134.871582,4123.077148,4127.692383,4148.717773,4138.461426,4127.692383,4128.717773,4134.358887,4136.410156,4137.436035,4143.077148,4158.974121,4146.666504,864.000000,4.000000,,,,0.000000,4.000000,4.000000,4.000000,4.000000,4.000000,4.000000,4.000000,4.000000,4.000000,4.000000,4.000000,4.000000,4.000000,4.000000,100.000000
1602006048.788243,79.000000,0.000000,4118.461426,4133.333496,4122.563965,4127.179688,4138.974121,4136.922852,4134.871582,4137.948730,4143.077148,4139.487305,4147.179688,4142.051270,4169.743652,4157.948730,836.000000,4.000000,,,,0.000000,4.000000,4.000000,4.000000,4.000000,4.000000,4.000000,4.000000,4.000000,4.000000,4.000000,4.000000,4.000000,4.000000,4.000000,100.000000
1602006048.796126,80.000000,0.000000,4121.538574,4135.897461,4126.666504,4129.230957,4141.538574,4144.615234,4138.461426,4137.948730,4151.282227,4160.000000,4153.846191,4151.282227,4165.641113,4154.358887,748.000000,4.000000,,,,0.000000,4.000000,4.000000,4.000000,4.000000,4.000000,4.000000,4.000000,4.000000,4.000000,4.000000,4.000000,4.000000,4.000000,4.000000,100.000000
1602006048.804008,81.000000,0.000000,4125.128418,4130.256348,4128.717773,4127.179688,4143.589844,4144.615234,4134.358887,4135.384766,4145.641113,4165.128418,4145.641113,4154.871582,4154.358887,4147.179688,749.000000,4.000000,,,,0.000000,4.000000,4.000000,4.000000,4.000000,4.000000,4.000000,4.000000,4.000000,4.000000,4.000000,4.000000,4.000000,4.000000,4.000000,100.000000
1602006048.811891,82.000000,0.000000,4120.000000,4121.025879,4131.282227,4122.051270,4133.333496,4134.358887,4126.666504,4135.897461,4136.922852,4147.179688,4138.974121,4149.230957,4152.820313,4151.282227,864.000000,4.000000,,,,0.000000,4.000000,4.000000,4.000000,4.000000,4.000000,4.000000,4.000000,4.000000,4.000000,4.000000,4.000000,4.000000,4.000000,4.000000,100.000000
1602006048.819773,83.000000,0.000000,4119.487305,4121.538574,4137.436035,4123.077148,4129.230957,4134.358887,4126.153809,4139.487305,4142.051270,4149.743652,4144.102539,4149.743652,4159.487305,4156.922852,836.000000,4.000000,,,,0.000000,4.000000,4.000000,4.000000,4.000000,4.000000,4.000000,4.000000,4.000000,4.000000,4.000000,4.000000,4.000000,4.000000,4.000000,100.000000
1602006048.827656,84.000000,0.000000,4124.615234,4125.128418,4140.512695,4127.179688,4128.205078,4136.410156,4131.282227,4142.051270,4148.205078,4176.410156,4153.333496,4153.846191,4161.025879,4155.897461,748.000000,4.000000,,,,0.000000,4.000000,4.000000,4.000000,4.000000,4.000000,4.000000,4.000000,4.000000,4.000000,4.000000,4.000000,4.000000,4.000000,4.000000,100.000000
1602006048.835639,85.000000,0.000000,4120.000000,4123.589844,4135.897461,4125.128418,4126.153809,4126.666504,4131.794922,4141.538574,4141.538574,4171.794922,4152.307617,4153.846191,4156.410156,4151.794922,749.000000,4.000000,,,,0.000000,4.000000,4.000000,4.000000,4.000000,4.000000,4.000000,4.000000,4.000000,4.000000,4.000000,4.000000,4.000000,4.000000,4.000000,100.000000
1602006048.843522,86.000000,0.000000,4120.512695,4122.563965,4134.358887,4123.077148,4131.282227,4123.077148,4131.794922,4142.051270,4134.871582,4136.410156,4140.000000,4151.794922,4152.820313,4158.461426,864.000000,4.000000,,,,0.000000,4.000000,4.000000,4.000000,4.000000,4.000000,4.000000,4.000000,4.000000,4.000000,4.000000,4.000000,4.000000,4.000000,4.000000,100.000000
1602006048.851404,87.000000,0.000000,4133.333496,4130.256348,4141.025879,4130.769043,4138.974121,4126.153809,4136.922852,4143.589844,4136.922852,4137.948730,4142.051270,4154.358887,4155.897461,4171.282227,836.000000,4.000000,,,,0.000000,4.000000,4.000000,4.000000,4.000000,4.000000,4.000000,4.000000,4.000000,4.000000,4.000000,4.000000,4.000000,4.000000,4.000000,100.000000
1602006048.859287,88.000000,0.000000,4132.307617,4135.897461,4145.128418,4135.897461,4138.461426,4126.153809,4136.922852,4139.487305,4142.563965,4167.179688,4155.897461,4163.077148,4160.512695,4168.205078,748.000000,4.000000,,,,0.000000,4.000000,4.000000,4.000000,4.000000,4.000000,4.000000,4.000000,4.000000,4.000000,4.000000,4.000000,4.000000,4.000000,4.000000,100.000000
1602006048.867170,89.000000,0.000000,4118.974121,4128.717773,4139.487305,4125.641113,4135.384766,4131.282227,4134.358887,4137.436035,4140.000000,4167.692383,4155.897461,4165.128418,4158.461426,4154.358887,749.000000,4.000000,,,,0.000000,4.000000,4.000000,4.000000,4.000000,4.000000,4.000000,4.000000,4.000000,4.000000,4.000000,4.000000,4.000000,4.000000,4.000000,100.000000
1602006048.875053,90.000000,0.000000,4122.563965,4123.077148,4135.897461,4120.512695,4136.410156,4133.846191,4136.410156,4143.589844,4135.897461,4160.000000,4153.846191,4159.487305,4161.025879,4153.333496,864.000000,4.000000,,,,0.000000,4.000000,4.000000,4.000000,4.000000,4.000000,4.000000,4.000000,4.000000,4.000000,4.000000,4.000000,4.000000,4.000000,4.000000,100.000000
1602006048.882936,91.000000,0.000000,4135.897461,4131.794922,4143.077148,4131.282227,4137.436035,4129.743652,4135.897461,4145.128418,4139.487305,4167.179688,4156.410156,4157.436035,4166.666504,4164.615234,836.000000,4.000000,,,,0.000000,4.000000,4.000000,4.000000,4.000000,4.000000,4.000000,4.000000,4.000000,4.000000,4.000000,4.000000,4.000000,4.000000,4.000000,100.000000
1602006048.890819,92.000000,0.000000,4139.487305,4141.538574,4153.846191,4137.436035,4138.974121,4132.820313,4135.897461,4141.025879,4142.563965,4160.000000,4155.384766,4158.974121,4169.230957,4165.128418,748.000000,4.000000,,,,0.000000,4.000000,4.000000,4.000000,4.000000,4.000000,4.000000,4.000000,4.000000,4.000000,4.000000,4.000000,4.000000,4.000000,4.000000,100.000000
1602006048.898701,93.000000,0.000000,4131.794922,4142.051270,4155.384766,4135.897461,4140.000000,4138.461426,4136.922852,4141.025879,4140.000000,4149.230957,4158.461426,4156.410156,4171.794922,4156.922852,749.000000,4.000000,,,,0.000000,4.000000,4.000000,4.000000,4.000000,4.000000,4.000000,4.000000,4.000000,4.000000,4.000000,4.000000,4.000000,4.000000,4.000000,100.000000
1602006048.906584,94.000000,0.000000,4128.717773,4138.974121,4144.615234,4134.871582,4136.410156,4137.436035,4132.820313,4139.487305,4138.461426,4161.538574,4159.487305,4151.282227,4163.589844,4152.307617,864.000000,4.000000,,,,0.000000,4.000000,4.000000,4.000000,4.000000,4.000000,4.000000,4.000000,4.000000,4.000000,4.000000,4.000000,4.000000,4.000000,4.000000,100.000000
1602006048.914367,95.000000,0.000000,4134.358887,4138.974121,4136.410156,4136.410156,4137.436035,4138.461426,4133.846191,4134.871582,4138.461426,4174.871582,4154.358887,4150.256348,4157.436035,4156.410156,836.000000,4.000000,,,,0.000000,4.000000,4.000000,4.000000,4.000000,4.000000,4.000000,4.000000,4.000000,4.000000,4.000000,4.000000,4.000000,4.000000,4.000000,100.000000
1602006048.922249,96.000000,0.000000,4137.436035,4135.897461,4138.461426,4134.871582,4142.051270,4142.051270,4139.487305,4133.846191,4133.846191,4173.333496,4153.333496,4154.358887,4164.615234,4159.487305,748.000000,4.000000,,,,0.000000,4.000000,4.000000,4.000000,4.000000,4.000000,4.000000,4.000000,4.000000,4.000000,4.000000,4.000000,4.000000,4.000000,4.000000,100.000000
1602006048.930131,97.000000,0.000000,4129.230957,4126.153809,4132.820313,4126.153809,4136.922852,4135.897461,4139.487305,4137.436035,4126.666504,4167.692383,4152.307617,4151.794922,4158.974121,4151.282227,749.000000,4.000000,,,,0.000000,4.000000,4.000000,4.000000,4.000000,4.000000,4.000000,4.000000,4.000000,4.000000,4.000000,4.000000,4.000000,4.000000,4.000000,100.000000
1602006048.938013,98.000000,0.000000,4119.487305,4116.922852,4120.000000,4121.025879,4127.179688,4125.641113,4136.922852,4136.410156,4124.615234,4154.871582,4141.538574,4141.025879,4139.487305,4141.538574,864.000000,4.000000,,,,0.000000,4.000000,4.000000,4.000000,4.000000,4.000000,4.000000,4.000000,4.000000,4.000000,4.000000,4.000000,4.000000,4.000000,4.000000,100.000000
1602006048.945895,99.000000,0.000000,4117.436035,4120.000000,4120.512695,4124.102539,4129.743652,4124.102539,4137.948730,4135.384766,4121.025879,4134.871582,4135.384766,4134.358887,4135.897461,4140.512695,836.000000,4.000000,,,,0.000000,4.000000,4.000000,4.000000,4.000000,4.000000,4.000000,4.000000,4.000000,4.000000,4.000000,4.000000,4.000000,4.000000,4.000000,100.000000
1602006048.953777,100.000000,0.000000,4121.538574,4127.179688,4129.230957,4126.153809,4136.922852,4125.641113,4133.333496,4136.922852,4114.871582,4127.692383,4138.461426,4136.922852,4141.025879,4141.538574,748.000000,4.000000,,,,0.000000,4.000000,4.000000,4.000000,4.000000,4.000000,4.000000,4.000000,4.000000,4.000000,4.000000,4.000000,4.000000,4.000000,4.000000,100.000000
1602006048.961759,101.000000,0.000000,4123.589844,4125.128418,4130.769043,4122.563965,4134.871582,4117.436035,4123.589844,4137.436035,4122.051270,4135.384766,4141.025879,4142.563965,4144.102539,4140.512695,749.000000,4.000000,,,,0.000000,4.000000,4.000000,4.000000,4.000000,4.000000,4.000000,4.000000,4.000000,4.000000,4.000000,4.000000,4.000000,4.000000,4.000000,100.000000
1602006048.969641,102.000000,0.000000,4126.666504,4121.025879,4134.871582,4125.641113,4132.820313,4111.282227,4126.153809,4140.512695,4144.615234,4154.871582,4145.641113,4152.820313,4153.333496,4149.743652,864.000000,4.000000,,,,0.000000,4.000000,4.000000,4.000000,4.000000,4.000000,4.000000,4.000000,4.000000,4.000000,4.000000,4.000000,4.000000,4.000000,4.000000,100.000000
1602006048.977523,103.000000,0.000000,4131.282227,4124.615234,4141.025879,4131.282227,4139.487305,4124.102539,4136.410156,4143.589844,4154.871582,4178.974121,4152.820313,4157.948730,4158.461426,4161.025879,836.000000,4.000000,,,,0.000000,4.000000,4.000000,4.000000,4.000000,4.000000,4.000000,4.000000,4.000000,4.000000,4.000000,4.000000,4.000000,4.000000,4.000000,100.000000
1602006048.985405,104.000000,0.000000,4128.717773,4128.205078,4137.436035,4128.717773,4141.025879,4140.512695,4139.487305,4143.077148,4147.179688,4183.077148,4156.922852,4151.794922,4155.384766,4151.282227,748.000000,4.000000,,,,0.000000,4.000000,4.000000,4.000000,4.000000,4.000000,4.000000,4.000000,4.000000,4.000000,4.000000,4.000000,4.000000,4.000000,4.000000,100.000000
1602006048.993288,105.000000,0.000000,4120.512695,4125.128418,4127.692383,4123.589844,4133.846191,4142.563965,4136.922852,4144.615234,4137.948730,4164.615234,4157.948730,4143.589844,4153.333496,4137.436035,749.000000,4.000000,,,,0.000000,4.000000,4.000000,4.000000,4.000000,4.000000,4.000000,4.000000,4.000000,4.000000,4.000000,4.000000,4.000000,4.000000,4.000000,100.000000
1602006049.001170,106.000000,0.000000,4116.922852,4121.025879,4124.102539,4122.051270,4132.307617,4138.461426,4132.820313,4145.128418,4138.461426,4151.794922,4151.794922,4138.974121,4146.153809,4137.948730,864.000000,4.000000,,,,0.000000,4.000000,4.000000,4.000000,4.000000,4.000000,4.000000,4.000000,4.000000,4.000000,4.000000,4.000000,4.000000,4.000000,4.000000,100.000000
1602006049.009052,107.000000,0.000000,4116.922852,4121.025879,4128.717773,4121.538574,4135.384766,4138.461426,4130.769043,4142.051270,4141.025879,4143.589844,4142.051270,4135.897461,4135.897461,4140.512695,836.000000,4.000000,,,,0.000000,4.000000,4.000000,4.000000,4.000000,4.000000,4.000000,4.000000,4.000000,4.000000,4.000000,4.000000,4.000000,4.000000,4.000000,100.000000
1602006049.016834,108.000000,0.000000,4118.974121,4125.641113,4136.922852,4123.077148,4137.436035,4136.922852,4130.256348,4141.025879,4133.333496,4136.922852,4140.000000,4139.487305,4133.846191,4137.948730,748.000000,4.000000,,,,0.000000,4.000000,4.000000,4.000000,4.000000,4.000000,4.000000,4.000000,4.000000,4.000000,4.000000,4.000000,4.000000,4.000000,4.000000,100.000000
1602006049.024717,109.000000,0.000000,4120.512695,4126.153809,4138.461426,4125.128418,4132.307617,4125.128418,4127.692383,4140.000000,4122.563965,4146.666504,4141.025879,4147.692383,4135.384766,4138.461426,749.000000,4.000000,,,,0.000000,4.000000,4.000000,4.000000,4.000000,4.000000,4.000000,4.000000,4.000000,4.000000,4.000000,4.000000,4.000000,4.000000,4.000000,100.000000
1602006049.032599,110.000000,0.000000,4120.000000,4121.025879,4129.230957,4122.563965,4126.666504,4116.410156,4121.025879,4134.358887,4119.487305,4155.897461,4138.461426,4147.179688,4135.384766,4140.000000,864.000000,4.000000,,,,0.000000,4.000000,4.000000,4.000000,4.000000,4.000000,4.000000,4.000000,4.000000,4.000000,4.000000,4.000000,4.000000,4.000000,4.000000,100.000000
1602006049.040481,111.000000,0.000000,4121.538574,4120.512695,4122.051270,4118.974121,4127.179688,4120.000000,4121.538574,4133.333496,4122.563965,4155.384766,4136.922852,4139.487305,4134.358887,4137.948730,836.000000,4.000000,,,,0.000000,4.000000,4.000000,4.000000,4.000000,4.000000,4.000000,4.000000,4.000000,4.000000,4.000000,4.000000,4.000000,4.000000,4.000000,100.000000
1602006049.048364,112.000000,0.000000,4120.512695,4121.538574,4127.692383,4118.974121,4128.717773,4122.051270,4131.282227,4135.897461,4119.487305,4154.871582,4134.358887,4141.538574,4135.897461,4139.487305,748.000000,4.000000,,,,0.000000,4.000000,4.000000,4.000000,4.000000,4.000000,4.000000,4.000000,4.000000,4.000000,4.000000,4.000000,4.000000,4.000000,4.000000,100.000000
1602006049.056246,113.000000,0.000000,4125.128418,4120.512695,4138.461426,4121.025879,4130.256348,4123.589844,4138.461426,4139.487305,4117.436035,4146.666504,4144.102539,4151.794922,4144.615234,4146.666504,749.000000,4.000000,,,,0.000000,4.000000,4.000000,4.000000,4.000000,4.000000,4.000000,4.000000,4.000000,4.000000,4.000000,4.000000,4.000000,4.000000,4.000000,100.000000
1602006049.064128,114.000000,0.000000,4137.436035,4124.102539,4142.563965,4122.563965,4134.871582,4129.230957,4142.051270,4148.717773,4131.282227,4146.153809,4168.205078,4157.948730,4157.436035,4155.384766,864.000000,4.000000,,,,0.000000,4.000000,4.000000,4.000000,4.000000,4.000000,4.000000,4.000000,4.000000,4.000000,4.000000,4.000000,4.000000,4.000000,4.000000,100.000000
1602006049.072011,115.000000,0.000000,4135.384766,4124.102539,4135.897461,4122.563965,4136.922852,4129.230957,4142.051270,4152.307617,4144.615234,4164.102539,4169.743652,4151.282227,4157.948730,4157.948730,836.000000,4.000000,,,,0.000000,4.000000,4.000000,4.000000,4.000000,4.000000,4.000000,4.000000,4.000000,4.000000,4.000000,4.000000,4.000000,4.000000,4.000000,100.000000
1602006049.079792,116.000000,0.000000,4122.051270,4120.000000,4123.077148,4121.538574,4134.358887,4129.743652,4139.487305,4145.641113,4139.487305,4167.179688,4152.307617,4138.974121,4153.846191,4150.769043,748.000000,4.000000,,,,0.000000,4.000000,4.000000,4.000000,4.000000,4.000000,4.000000,4.000000,4.000000,4.000000,4.000000,4.000000,4.000000,4.000000,4.000000,100.000000
1602006049.087674,117.000000,0.000000,4123.589844,4127.692383,4120.512695,4122.563965,4137.948730,4138.461426,4139.487305,4143.077148,4133.846191,4158.974121,4152.820313,4135.384766,4156.410156,4147.179688,749.000000,4.000000,,,,0.000000,4.000000,4.000000,4.000000,4.000000,4.000000,4.000000,4.000000,4.000000,4.000000,4.000000,4.000000,4.000000,4.000000,4.000000,100.000000
1602006049.095555,118.000000,0.000000,4133.846191,4137.948730,4129.743652,4126.153809,4140.000000,4137.948730,4136.922852,4142.051270,4137.948730,4167.692383,4153.333496,4140.000000,4152.307617,4150.256348,864.000000,4.000000,,,,0.000000,4.000000,4.000000,4.000000,4.000000,4.000000,4.000000,4.000000,4.000000,4.000000,4.000000,4.000000,4.000000,4.000000,4.000000,100.000000
1602006049.103437,119.000000,0.000000,4136.922852,4138.461426,4138.974121,4134.358887,4137.436035,4133.333496,4131.282227,4137.948730,4136.922852,4160.512695,4143.589844,4142.563965,4142.051270,4154.871582,836.000000,4.000000,,,,0.000000,4.000000,4.000000,4.000000,4.000000,4.000000,4.000000,4.000000,4.000000,4.000000,4.000000,4.000000,4.000000,4.000000,4.000000,100.000000
1602006049.111219,120.000000,0.000000,4138.461426,4137.948730,4141.025879,4141.538574,4140.512695,4133.846191,4127.692383,4132.307617,4128.717773,4128.717773,4139.487305,4145.128418,4143.077148,4152.307617,748.000000,4.000000,,,,0.000000,4.000000,4.000000,4.000000,4.000000,4.000000,4.000000,4.000000,4.000000,4.000000,4.000000,4.000000,4.000000,4.000000,4.000000,100.000000
1602006049.119102,121.000000,0.000000,4134.358887,4137.948730,4137.948730,4132.820313,4133.846191,4128.717773,4123.589844,4123.589844,4117.436035,4126.666504,4133.846191,4141.025879,4141.025879,4140.000000,749.000000,4.000000,,,,0.000000,4.000000,4.000000,4.000000,4.000000,4.000000,4.000000,4.000000,4.000000,4.000000,4.000000,4.000000,4.000000,4.000000,4.000000,100.000000
1602006049.126984,122.000000,0.000000,4124.615234,4134.871582,4132.820313,4122.563965,4124.615234,4117.436035,4121.538574,4121.538574,4111.282227,4155.897461,4130.256348,4128.717773,4131.282227,4131.794922,864.000000,4.000000,,,,0.000000,4.000000,4.000000,4.000000,4.000000,4.000000,4.000000,4.000000,4.000000,4.000000,4.000000,4.000000,4.000000,4.000000,4.000000,100.000000
1602006049.134867,123.000000,0.000000,4127.179688,4136.922852,4135.384766,4131.794922,4128.717773,4118.974121,4133.333496,4133.333496,4121.538574,4172.307617,4140.512695,4125.128418,4133.333496,4138.461426,836.000000,4.000000,,,,0.000000,4.000000,4.000000,4.000000,4.000000,4.000000,4.000000,4.000000,4.000000,4.000000,4.000000,4.000000,4.000000,4.000000,4.000000,100.000000
1602006049.142750,124.000000,0.000000,4137.948730,4140.000000,4140.512695,4141.538574,4133.333496,4123.077148,4141.538574,4140.000000,4129.743652,4160.000000,4141.538574,4129.230957,4137.948730,4143.077148,748.000000,4.000000,,,,0.000000,4.000000,4.000000,4.000000,4.000000,4.000000,4.000000,4.000000,4.000000,4.000000,4.000000,4.000000,4.000000,4.000000,4.000000,100.000000
1602006049.150632,125.000000,0.000000,4138.974121,4132.820313,4134.871582,4131.282227,4123.589844,4113.846191,4136.410156,4137.436035,4121.025879,4135.384766,4135.384766,4131.794922,4127.179688,4133.846191,749.000000,4.000000,,,,0.000000,4.000000,4.000000,4.000000,4.000000,4.000000,4.000000,4.000000,4.000000,4.000000,4.000000,4.000000,4.000000,4.000000,4.000000,100.000000
1602006049.158515,126.000000,0.000000,4136.410156,4129.230957,4132.820313,4120.512695,4116.922852,4105.128418,4134.871582,4141.025879,4118.974121,4128.205078,4146.153809,4143.589844,4125.641113,4137.948730,864.000000,4.000000,,,,0.000000,4.000000,4.000000,4.000000,4.000000,4.000000,4.000000,4.000000,4.000000,4.000000,4.000000,4.000000,4.000000,4.000000,4.000000,100.000000
1602006049.166397,127.000000,0.000000,4146.666504,4137.436035,4148.205078,4129.743652,4128.205078,4111.282227,4135.384766,4145.128418,4127.692383,4143.077148,4154.871582,4156.922852,4146.153809,4157.436035,836.000000,4.000000,,,,0.000000,4.000000,4.000000,4.000000,4.000000,4.000000,4.000000,4.000000,4.000000,4.000000,4.000000,4.000000,4.000000,4.000000,4.000000,100.000000
1602006049.174280,128.000000,0.000000,4153.846191,4144.102539,4158.974121,4140.512695,4140.000000,4123.589844,4129.230957,4143.077148,4129.230957,4151.794922,4154.358887,4160.000000,4155.384766,4158.461426,748.000000,4.000000,,,,0.000000,4.000000,4.000000,4.000000,4.000000,4.000000,4.000000,4.000000,4.000000,4.000000,4.000000,4.000000,4.000000,4.000000,4.000000,100.000000
1602006049.182262,0.000000,0.000000,4146.666504,4141.538574,4146.666504,4133.846191,4141.538574,4125.641113,4122.563965,4136.922852,4126.666504,4149.230957,4153.333496,4153.846191,4145.128418,4140.512695,800.000000,4.000000,,,,0.000000,4.000000,4.000000,4.000000,4.000000,4.000000,4.000000,4.000000,4.000000,4.000000,4.000000,4.000000,4.000000,4.000000,4.000000,100.000000
1602006049.190145,1.000000,0.000000,4133.333496,4133.846191,4127.692383,4121.538574,4138.461426,4121.538574,4120.000000,4132.307617,4124.102539,4161.538574,4145.641113,4143.077148,4136.922852,4138.461426,792.000000,4.000000,,,,0.000000,4.000000,4.000000,4.000000,4.000000,4.000000,4.000000,4.000000,4.000000,4.000000,4.000000,4.000000,4.000000,4.000000,4.000000,100.000000
1602006049.198028,2.000000,0.000000,4123.589844,4126.153809,4126.153809,4119.487305,4137.948730,4126.666504,4125.128418,4132.820313,4121.025879,4169.230957,4136.410156,4137.436035,4138.461426,4144.615234,849.000000,4.000000,,,,0.000000,4.000000,4.000000,4.000000,4.000000,4.000000,4.000000,4.000000,4.000000,4.000000,4.000000,4.000000,4.000000,4.000000,4.000000,100.000000
1602006049.205910,3.000000,0.000000,4124.102539,4123.589844,4135.384766,4123.589844,4140.000000,4132.307617,4136.410156,4137.948730,4126.153809,4145.641113,4141.025879,4144.615234,4143.589844,4143.589844,869.000000,4.000000,,,,0.000000,4.000000,4.000000,4.000000,4.000000,4.000000,4.000000,4.000000,4.000000,4.000000,4.000000,4.000000,4.000000,4.000000,4.000000,100.000000
1602006049.213793,4.000000,0.000000,4129.743652,4127.179688,4137.948730,4125.128418,4137.948730,4128.205078,4140.000000,4139.487305,4129.743652,4133.846191,4147.179688,4148.205078,4142.563965,4138.974121,815.000000,4.000000,,,,0.000000,4.000000,4.000000,4.000000,4.000000,4.000000,4.000000,4.000000,4.000000,4.000000,4.000000,4.000000,4.000000,4.000000,4.000000,100.000000
1602006049.221675,5.000000,0.000000,4124.615234,4120.512695,4135.384766,4118.974121,4128.717773,4121.538574,4136.410156,4137.436035,4127.692383,4152.307617,4138.974121,4136.410156,4130.769043,4126.666504,827.000000,4.000000,,,,0.000000,4.000000,4.000000,4.000000,4.000000,4.000000,4.000000,4.000000,4.000000,4.000000,4.000000,4.000000,4.000000,4.000000,4.000000,100.000000
1602006049.229558,6.000000,0.000000,4116.922852,4110.256348,4134.871582,4114.871582,4120.512695,4120.000000,4136.922852,4142.051270,4132.307617,4155.384766,4131.794922,4130.769043,4121.025879,4122.051270,773.000000,4.000000,,,,0.000000,4.000000,4.000000,4.000000,4.000000,4.000000,4.000000,4.000000,4.000000,4.000000,4.000000,4.000000,4.000000,4.000000,4.000000,100.000000
1602006049.237441,7.000000,0.000000,4127.179688,4114.871582,4141.025879,4122.051270,4123.077148,4123.589844,4138.974121,4151.282227,4140.000000,4141.025879,4134.358887,4144.615234,4123.077148,4135.384766,682.000000,4.000000,,,,0.000000,4.000000,4.000000,4.000000,4.000000,4.000000,4.000000,4.000000,4.000000,4.000000,4.000000,4.000000,4.000000,4.000000,4.000000,100.000000
1602006049.245323,8.000000,0.000000,4142.051270,4125.641113,4152.820313,4126.153809,4125.128418,4132.307617,4140.000000,4155.897461,4139.487305,4134.871582,4142.563965,4158.974121,4130.256348,4148.717773,781.000000,4.000000,,,,0.000000,4.000000,4.000000,4.000000,4.000000,4.000000,4.000000,4.000000,4.000000,4.000000,4.000000,4.000000,4.000000,4.000000,4.000000,100.000000
1602006049.253304,9.000000,0.000000,4141.538574,4124.615234,4154.358887,4121.538574,4124.615234,4137.436035,4140.512695,4155.897461,4136.410156,4136.410156,4153.846191,4157.948730,4136.922852,4155.384766,842.000000,4.000000,,,,0.000000,4.000000,4.000000,4.000000,4.000000,4.000000,4.000000,4.000000,4.000000,4.000000,4.000000,4.000000,4.000000,4.000000,4.000000,100.000000
1602006049.261185,10.000000,0.000000,4129.230957,4118.974121,4143.077148,4120.000000,4130.256348,4129.743652,4133.333496,4150.769043,4131.794922,4147.179688,4152.820313,4148.205078,4133.846191,4152.307617,867.000000,4.000000,,,,0.000000,4.000000,4.000000,4.000000,4.000000,4.000000,4.000000,4.000000,4.000000,4.000000,4.000000,4.000000,4.000000,4.000000,4.000000,100.000000
1602006049.269067,11.000000,0.000000,4123.589844,4123.077148,4136.410156,4120.512695,4138.461426,4123.077148,4125.128418,4136.922852,4116.410156,4153.333496,4139.487305,4142.563965,4124.615234,4137.948730,836.000000,4.000000,,,,0.000000,4.000000,4.000000,4.000000,4.000000,4.000000,4.000000,4.000000,4.000000,4.000000,4.000000,4.000000,4.000000,4.000000,4.000000,100.000000
1602006049.276848,12.000000,0.000000,4123.589844,4122.563965,4130.256348,4112.820313,4135.384766,4124.615234,4121.025879,4123.077148,4107.179688,4142.563965,4132.307617,4131.282227,4122.051270,4127.179688,762.000000,4.000000,,,,0.000000,4.000000,4.000000,4.000000,4.000000,4.000000,4.000000,4.000000,4.000000,4.000000,4.000000,4.000000,4.000000,4.000000,4.000000,100.000000
1602006049.284729,13.000000,0.000000,4117.436035,4111.282227,4117.436035,4106.153809,4125.128418,4125.641113,4119.487305,4118.974121,4115.897461,4136.410156,4136.410156,4112.820313,4122.563965,4121.538574,749.000000,4.000000,,,,0.000000,4.000000,4.000000,4.000000,4.000000,4.000000,4.000000,4.000000,4.000000,4.000000,4.000000,4.000000,4.000000,4.000000,4.000000,100.000000
1602006049.292710,14.000000,0.000000,4114.871582,4112.820313,4114.358887,4111.794922,4123.077148,4129.743652,4126.153809,4127.179688,4121.025879,4135.384766,4138.974121,4109.230957,4121.538574,4124.615234,867.000000,4.000000,,,,0.000000,4.000000,4.000000,4.000000,4.000000,4.000000,4.000000,4.000000,4.000000,4.000000,4.000000,4.000000,4.000000,4.000000,4.000000,100.000000
1602006049.300591,15.000000,0.000000,4121.538574,4120.000000,4122.051270,4116.922852,4125.641113,4133.846191,4137.436035,4135.897461,4122.051270,4128.717773,4136.410156,4122.051270,4126.666504,4134.358887,836.000000,4.000000,,,,0.000000,4.000000,4.000000,4.000000,4.000000,4.000000,4.000000,4.000000,4.000000,4.000000,4.000000,4.000000,4.000000,4.000000,4.000000,100.000000
1602006049.308572,16.000000,0.000000,4124.102539,4114.358887,4125.128418,4109.230957,4121.538574,4127.692383,4137.948730,4133.333496,4131.282227,4127.692383,4136.410156,4128.205078,4126.666504,4129.743652,0.000000,4.000000,,,,0.000000,4.000000,4.000000,4.000000,4.000000,4.000000,4.000000,4.000000,4.000000,4.000000,4.000000,4.000000,4.000000,4.000000,4.000000,100.000000
1602006049.316354,17.000000,0.000000,4119.487305,4110.769043,4124.102539,4103.077148,4120.000000,4122.051270,4128.717773,4130.256348,4135.897461,4137.948730,4137.948730,4126.666504,4120.512695,4126.666504,0.000000,4.000000,,,,0.000000,4.000000,4.000000,4.000000,4.000000,4.000000,4.000000,4.000000,4.000000,4.000000,4.000000,4.000000,4.000000,4.000000,4.000000,100.000000
1602006049.324235,18.000000,0.000000,4119.487305,4120.512695,4124.102539,4110.769043,4123.077148,4124.102539,4123.589844,4134.871582,4129.230957,4147.179688,4140.000000,4133.333496,4126.153809,4140.000000,0.000000,4.000000,,,,0.000000,4.000000,4.000000,4.000000,4.000000,4.000000,4.000000,4.000000,4.000000,4.000000,4.000000,4.000000,4.000000,4.000000,4.000000,100.000000
1602006049.332117,19.000000,0.000000,4121.025879,4122.051270,4125.641113,4120.000000,4122.051270,4123.589844,4121.538574,4136.922852,4130.256348,4148.717773,4138.461426,4138.974121,4136.410156,4145.128418,0.000000,4.000000,,,,0.000000,4.000000,4.000000,4.000000,4.000000,4.000000,4.000000,4.000000,4.000000,4.000000,4.000000,4.000000,4.000000,4.000000,4.000000,100.000000
1602006049.339999,20.000000,0.000000,4123.589844,4122.051270,4129.743652,4122.563965,4128.205078,4117.948730,4117.948730,4132.307617,4139.487305,4145.128418,4139.487305,4138.461426,4138.461426,4146.666504,0.000000,4.000000,,,,0.000000,4.000000,4.000000,4.000000,4.000000,4.000000,4.000000,4.000000,4.000000,4.000000,4.000000,4.000000,4.000000,4.000000,4.000000,100.000000
1602006049.347880,21.000000,0.000000,4132.307617,4134.358887,4128.205078,4130.256348,4140.512695,4119.487305,4114.358887,4129.230957,4135.897461,4141.538574,4145.641113,4137.948730,4141.025879,4152.307617,0.000000,4.000000,,,,0.000000,4.000000,4.000000,4.000000,4.000000,4.000000,4.000000,4.000000,4.000000,4.000000,4.000000,4.000000,4.000000,4.000000,4.000000,100.000000
1602006049.355663,22.000000,0.000000,4136.922852,4140.512695,4122.563965,4137.948730,4141.538574,4121.538574,4111.282227,4125.641113,4122.563965,4125.128418,4137.948730,4135.384766,4140.512695,4141.025879,0.000000,4.000000,,,,0.000000,4.000000,4.000000,4.000000,4.000000,4.000000,4.000000,4.000000,4.000000,4.000000,4.000000,4.000000,4.000000,4.000000,4.000000,100.000000
1602006049.363545,23.000000,0.000000,4134.358887,4135.384766,4128.717773,4137.436035,4135.897461,4118.461426,4114.358887,4123.589844,4116.922852,4110.256348,4126.666504,4142.563965,4134.358887,4138.461426,0.000000,4.000000,,,,0.000000,4.000000,4.000000,4.000000,4.000000,4.000000,4.000000,4.000000,4.000000,4.000000,4.000000,4.000000,4.000000,4.000000,4.000000,100.000000
1602006049.371428,24.000000,0.000000,4139.487305,4137.436035,4139.487305,4134.358887,4136.922852,4124.102539,4121.538574,4129.743652,4127.179688,4129.230957,4138.974121,4158.974121,4140.000000,4155.384766,0.000000,4.000000,,,,0.000000,4.000000,4.000000,4.000000,4.000000,4.000000,4.000000,4.000000,4.000000,4.000000,4.000000,4.000000,4.000000,4.000000,4.000000,100.000000
1602006049.379310,25.000000,0.000000,4153.333496,4145.128418,4140.512695,4136.922852,4141.025879,4137.436035,4129.230957,4136.922852,4140.512695,4147.179688,4155.897461,4161.025879,4153.846191,4158.461426,0.000000,4.000000,,,,0.000000,4.000000,4.000000,4.000000,4.000000,4.000000,4.000000,4.000000,4.000000,4.000000,4.000000,4.000000,4.000000,4.000000,4.000000,100.000000
1602006049.387192,26.000000,0.000000,4151.794922,4144.615234,4138.461426,4136.922852,4145.128418,4140.000000,4135.897461,4138.461426,4144.615234,4139.487305,4150.256348,4152.307617,4156.922852,4151.794922,0.000000,4.000000,,,,0.000000,4.000000,4.000000,4.000000,4.000000,4.000000,4.000000,4.000000,4.000000,4.000000,4.000000,4.000000,4.000000,4.000000,4.000000,100.000000
1602006049.395075,27.000000,0.000000,4140.000000,4139.487305,4136.922852,4136.922852,4148.205078,4138.461426,4137.436035,4133.846191,4144.615234,4147.692383,4143.589844,4152.307617,4153.333496,4150.256348,0.000000,4.000000,,,,0.000000,4.000000,4.000000,4.000000,4.000000,4.000000,4.000000,4.000000,4.000000,4.000000,4.000000,4.000000,4.000000,4.000000,4.000000,100.000000
1602006049.402957,28.000000,0.000000,4139.487305,4138.461426,4129.230957,4135.897461,4152.307617,4144.102539,4136.922852,4131.282227,4140.512695,4156.922852,4146.666504,4155.384766,4151.794922,4142.563965,0.000000,4.000000,,,,0.000000,4.000000,4.000000,4.000000,4.000000,4.000000,4.000000,4.000000,4.000000,4.000000,4.000000,4.000000,4.000000,4.000000,4.000000,100.000000
1602006049.410839,29.000000,0.000000,4141.025879,4137.948730,4121.025879,4126.666504,4152.307617,4143.077148,4138.974121,4133.846191,4135.384766,4135.384766,4145.128418,4150.769043,4151.282227,4136.410156,0.000000,4.000000,,,,0.000000,4.000000,4.000000,4.000000,4.000000,4.000000,4.000000,4.000000,4.000000,4.000000,4.000000,4.000000,4.000000,4.000000,4.000000,100.000000
1602006049.418821,30.000000,0.000000,4135.384766,4136.922852,4124.615234,4122.051270,4142.563965,4137.436035,4138.974121,4136.922852,4136.410156,4124.102539,4141.538574,4147.692383,4148.717773,4147.692383,0.000000,4.000000,,,,0.000000,4.000000,4.000000,4.000000,4.000000,4.000000,4.000000,4.000000,4.000000,4.000000,4.000000,4.000000,4.000000,4.000000,4.000000,100.000000
1602006049.426704,31.000000,0.000000,4133.846191,4138.461426,4129.743652,4126.666504,4136.410156,4133.333496,4135.384766,4137.436035,4139.487305,4144.102539,4138.461426,4150.769043,4143.077148,4152.820313,0.000000,4.000000,,,,0.000000,4.000000,4.000000,4.000000,4.000000,4.000000,4.000000,4.000000,4.000000,4.000000,4.000000,4.000000,4.000000,4.000000,4.000000,100.000000
1602006049.434586,32.000000,0.000000,4136.410156,4138.461426,4128.717773,4126.666504,4140.000000,4126.153809,4136.410156,4136.410156,4137.436035,4154.871582,4135.384766,4153.333496,4140.512695,4141.538574,0.000000,4.000000,,,,0.000000,4.000000,4.000000,4.000000,4.000000,4.000000,4.000000,4.000000,4.000000,4.000000,4.000000,4.000000,4.000000,4.000000,4.000000,100.000000
1602006049.442468,33.000000,0.000000,4136.922852,4136.922852,4127.692383,4125.128418,4142.051270,4121.025879,4137.436035,4137.436035,4138.974121,4145.641113,4136.922852,4152.307617,4147.692383,4136.410156,0.000000,4.000000,,,,0.000000,4.000000,4.000000,4.000000,4.000000,4.000000,4.000000,4.000000,4.000000,4.000000,4.000000,4.000000,4.000000,4.000000,4.000000,100.000000
1602006049.450350,34.000000,0.000000,4137.948730,4138.461426,4126.666504,4130.769043,4137.436035,4123.589844,4128.205078,4141.025879,4142.563965,4130.769043,4140.000000,4151.282227,4153.333496,4142.051270,0.000000,4.000000,,,,0.000000,4.000000,4.000000,4.000000,4.000000,4.000000,4.000000,4.000000,4.000000,4.000000,4.000000,4.000000,4.000000,4.000000,4.000000,100.000000
1602006049.458232,35.000000,0.000000,4140.512695,4142.563965,4125.641113,4137.436035,4140.512695,4122.051270,4119.487305,4142.051270,4138.974121,4122.563965,4141.538574,4150.769043,4148.205078,4141.025879,0.000000,4.000000,,,,0.000000,4.000000,4.000000,4.000000,4.000000,4.000000,4.000000,4.000000,4.000000,4.000000,4.000000,4.000000,4.000000,4.000000,4.000000,100.000000
1602006049.466114,36.000000,0.000000,4138.974121,4144.102539,4124.615234,4138.461426,4147.692383,4117.948730,4119.487305,4140.000000,4142.563965,4131.282227,4146.666504,4151.282227,4145.128418,4136.410156,0.000000,4.000000,,,,0.000000,4.000000,4.000000,4.000000,4.000000,4.000000,4.000000,4.000000,4.000000,4.000000,4.000000,4.000000,4.000000,4.000000,4.000000,100.000000
1602006049.473897,37.000000,0.000000,4137.436035,4142.051270,4126.666504,4137.436035,4147.179688,4120.512695,4120.512695,4140.512695,4152.820313,4146.153809,4152.820313,4152.307617,4153.333496,4145.128418,0.000000,4.000000,,,,0.000000,4.000000,4.000000,4.000000,4.000000,4.000000,4.000000,4.000000,4.000000,4.000000,4.000000,4.000000,4.000000,4.000000,4.000000,100.000000
1602006049.481779,38.000000,0.000000,4142.563965,4140.512695,4132.820313,4136.410156,4144.615234,4124.102539,4125.641113,4142.051270,4154.358887,4154.358887,4152.820313,4153.333496,4161.025879,4156.922852,0.000000,4.000000,,,,0.000000,4.000000,4.000000,4.000000,4.000000,4.000000,4.000000,4.000000,4.000000,4.000000,4.000000,4.000000,4.000000,4.000000,4.000000,100.000000
1602006049.489661,39.000000,0.000000,4145.641113,4142.563965,4140.512695,4140.000000,4145.128418,4126.153809,4137.948730,4138.974121,4152.820313,4158.461426,4154.358887,4158.461426,4159.487305,4157.436035,0.000000,4.000000,,,,0.000000,4.000000,4.000000,4.000000,4.000000,4.000000,4.000000,4.000000,4.000000,4.000000,4.000000,4.000000,4.000000,4.000000,4.000000,100.000000
1602006049.497544,40.000000,0.000000,4143.077148,4141.025879,4141.538574,4135.897461,4141.025879,4130.769043,4141.025879,4134.871582,4148.717773,4154.871582,4154.358887,4162.051270,4155.897461,4156.922852,0.000000,4.000000,,,,0.000000,4.000000,4.000000,4.000000,4.000000,4.000000,4.000000,4.000000,4.000000,4.000000,4.000000,4.000000,4.000000,4.000000,4.000000,100.000000
1602006049.505426,41.000000,0.000000,4139.487305,4136.922852,4138.974121,4124.615234,4133.846191,4137.948730,4138.461426,4134.358887,4143.589844,4142.051270,4145.641113,4161.025879,4153.846191,4157.948730,0.000000,4.000000,,,,0.000000,4.000000,4.000000,4.000000,4.000000,4.000000,4.000000,4.000000,4.000000,4.000000,4.000000,4.000000,4.000000,4.000000,4.000000,100.000000
1602006049.513308,42.000000,0.000000,4140.000000,4137.436035,4141.025879,4123.077148,4134.871582,4138.461426,4141.538574,4136.922852,4145.641113,4130.256348,4137.436035,4160.512695,4143.589844,4145.128418,0.000000,4.000000,,,,0.000000,4.000000,4.000000,4.000000,4.000000,4.000000,4.000000,4.000000,4.000000,4.000000,4.000000,4.000000,4.000000,4.000000,4.000000,100.000000
1602006049.521191,43.000000,0.000000,4138.461426,4138.461426,4139.487305,4128.717773,4137.436035,4127.692383,4136.410156,4136.410156,4145.128418,4119.487305,4137.436035,4158.974121,4138.461426,4137.436035,0.000000,4.000000,,,,0.000000,4.000000,4.000000,4.000000,4.000000,4.000000,4.000000,4.000000,4.000000,4.000000,4.000000,4.000000,4.000000,4.000000,4.000000,100.000000
1602006049.529073,44.000000,0.000000,4137.436035,4138.461426,4136.922852,4131.282227,4136.922852,4117.948730,4123.077148,4133.846191,4137.436035,4119.487305,4138.461426,4152.820313,4146.666504,4154.358887,0.000000,4.000000,,,,0.000000,4.000000,4.000000,4.000000,4.000000,4.000000,4.000000,4.000000,4.000000,4.000000,4.000000,4.000000,4.000000,4.000000,4.000000,100.000000
1602006049.537056,45.000000,0.000000,4144.102539,4138.974121,4145.641113,4134.871582,4138.461426,4112.307617,4118.974121,4136.922852,4136.410156,4141.538574,4141.538574,4154.358887,4153.846191,4162.563965,0.000000,4.000000,,,,0.000000,4.000000,4.000000,4.000000,4.000000,4.000000,4.000000,4.000000,4.000000,4.000000,4.000000,4.000000,4.000000,4.000000,4.000000,100.000000
1602006049.544938,46.000000,0.000000,4156.922852,4143.589844,4155.897461,4139.487305,4138.974121,4107.692383,4119.487305,4139.487305,4141.025879,4157.436035,4149.230957,4168.205078,4157.436035,4151.794922,0.000000,4.000000,,,,0.000000,4.000000,4.000000,4.000000,4.000000,4.000000,4.000000,4.000000,4.000000,4.000000,4.000000,4.000000,4.000000,4.000000,4.000000,100.000000
1602006049.552821,47.000000,0.000000,4165.641113,4149.743652,4157.436035,4138.461426,4138.974121,4111.282227,4121.538574,4140.512695,4146.153809,4154.871582,4158.461426,4178.461426,4166.153809,4157.436035,0.000000,4.000000,,,,0.000000,4.000000,4.000000,4.000000,4.000000,4.000000,4.000000,4.000000,4.000000,4.000000,4.000000,4.000000,4.000000,4.000000,4.000000,100.000000
1602006049.560703,48.000000,0.000000,4165.128418,4148.717773,4156.410156,4138.461426,4140.512695,4124.615234,4125.128418,4141.025879,4150.256348,4153.333496,4163.077148,4175.384766,4173.846191,4174.358887,0.000000,4.000000,,,,0.000000,4.000000,4.000000,4.000000,4.000000,4.000000,4.000000,4.000000,4.000000,4.000000,4.000000,4.000000,4.000000,4.000000,4.000000,100.000000
1602006049.568586,49.000000,0.000000,4156.922852,4141.538574,4151.282227,4138.461426,4138.974121,4133.846191,4125.128418,4135.384766,4145.128418,4152.307617,4164.102539,4158.974121,4168.717773,4169.230957,0.000000,4.000000,,,,0.000000,4.000000,4.000000,4.000000,4.000000,4.000000,4.000000,4.000000,4.000000,4.000000,4.000000,4.000000,4.000000,4.000000,4.000000,100.000000
1602006049.576469,50.000000,0.000000,4143.077148,4136.922852,4139.487305,4132.820313,4136.410156,4132.820313,4124.615234,4130.256348,4136.922852,4142.563965,4155.897461,4143.589844,4156.922852,4154.871582,0.000000,4.000000,,,,0.000000,4.000000,4.000000,4.000000,4.000000,4.000000,4.000000,4.000000,4.000000,4.000000,4.000000,4.000000,4.000000,4.000000,4.000000,100.000000
1602006049.584351,51.000000,0.000000,4143.077148,4137.436035,4135.897461,4129.743652,4134.358887,4134.358887,4129.230957,4134.358887,4138.974121,4136.410156,4143.077148,4146.153809,4153.846191,4148.717773,0.000000,4.000000,,,,0.000000,4.000000,4.000000,4.000000,4.000000,4.000000,4.000000,4.000000,4.000000,4.000000,4.000000,4.000000,4.000000,4.000000,4.000000,100.000000
1602006049.592234,52.000000,0.000000,4151.282227,4137.948730,4142.563965,4132.820313,4136.922852,4134.871582,4131.282227,4136.922852,4140.000000,4133.333496,4135.897461,4152.820313,4153.333496,4143.589844,0.000000,4.000000,,,,0.000000,4.000000,4.000000,4.000000,4.000000,4.000000,4.000000,4.000000,4.000000,4.000000,4.000000,4.000000,4.000000,4.000000,4.000000,100.000000
1602006049.600116,53.000000,0.000000,4145.128418,4137.436035,4144.615234,4136.410156,4140.512695,4130.256348,4127.179688,4134.871582,4140.000000,4135.384766,4139.487305,4153.846191,4145.641113,4139.487305,0.000000,4.000000,,,,0.000000,4.000000,4.000000,4.000000,4.000000,4.000000,4.000000,4.000000,4.000000,4.000000,4.000000,4.000000,4.000000,4.000000,4.000000,100.000000
1602006049.607899,54.000000,0.000000,4138.974121,4137.948730,4142.563965,4136.410156,4140.512695,4122.563965,4122.563965,4137.948730,4145.641113,4150.769043,4146.153809,4151.794922,4141.025879,4142.563965,0.000000,4.000000,,,,0.000000,4.000000,4.000000,4.000000,4.000000,4.000000,4.000000,4.000000,4.000000,4.000000,4.000000,4.000000,4.000000,4.000000,4.000000,100.000000
1602006049.615781,55.000000,0.000000,4140.512695,4138.974121,4140.512695,4135.384766,4140.512695,4114.871582,4117.436035,4136.410156,4145.128418,4148.717773,4137.436035,4141.538574,4139.487305,4135.384766,0.000000,4.000000,,,,0.000000,4.000000,4.000000,4.000000,4.000000,4.000000,4.000000,4.000000,4.000000,4.000000,4.000000,4.000000,4.000000,4.000000,4.000000,100.000000
1602006049.623663,56.000000,0.000000,4133.333496,4138.461426,4138.461426,4133.333496,4143.077148,4114.358887,4110.256348,4122.051270,4127.692383,4121.025879,4121.025879,4128.205078,4124.102539,4112.820313,0.000000,4.000000,,,,0.000000,4.000000,4.000000,4.000000,4.000000,4.000000,4.000000,4.000000,4.000000,4.000000,4.000000,4.000000,4.000000,4.000000,4.000000,100.000000
1602006049.631546,57.000000,0.000000,4127.692383,4137.948730,4135.384766,4132.307617,4144.615234,4121.025879,4107.692383,4114.871582,4114.358887,4117.948730,4123.589844,4129.743652,4120.000000,4109.230957,0.000000,4.000000,,,,0.000000,4.000000,4.000000,4.000000,4.000000,4.000000,4.000000,4.000000,4.000000,4.000000,4.000000,4.000000,4.000000,4.000000,4.000000,100.000000
1602006049.639428,58.000000,0.000000,4138.461426,4140.512695,4137.436035,4137.436035,4142.563965,4128.205078,4113.846191,4121.538574,4120.512695,4138.461426,4136.922852,4141.025879,4136.922852,4133.846191,0.000000,4.000000,,,,0.000000,4.000000,4.000000,4.000000,4.000000,4.000000,4.000000,4.000000,4.000000,4.000000,4.000000,4.000000,4.000000,4.000000,4.000000,100.000000
1602006049.647311,59.000000,0.000000,4142.563965,4141.538574,4142.051270,4139.487305,4140.512695,4131.282227,4119.487305,4124.615234,4122.051270,4133.333496,4140.512695,4143.077148,4140.000000,4147.179688,0.000000,4.000000,,,,0.000000,4.000000,4.000000,4.000000,4.000000,4.000000,4.000000,4.000000,4.000000,4.000000,4.000000,4.000000,4.000000,4.000000,4.000000,100.000000
1602006049.655193,60.000000,0.000000,4140.512695,4146.666504,4143.589844,4138.461426,4146.153809,4136.410156,4120.512695,4126.666504,4119.487305,4128.205078,4136.922852,4147.179688,4138.974121,4138.974121,0.000000,4.000000,,,,0.000000,4.000000,4.000000,4.000000,4.000000,4.000000,4.000000,4.000000,4.000000,4.000000,4.000000,4.000000,4.000000,4.000000,4.000000,100.000000
1602006049.663075,61.000000,0.000000,4143.077148,4152.820313,4140.000000,4140.512695,4154.871582,4138.461426,4123.589844,4136.922852,4133.846191,4148.717773,4139.487305,4155.897461,4151.794922,4138.461426,0.000000,4.000000,,,,0.000000,4.000000,4.000000,4.000000,4.000000,4.000000,4.000000,4.000000,4.000000,4.000000,4.000000,4.000000,4.000000,4.000000,4.000000,100.000000
1602006049.671058,62.000000,0.000000,4135.897461,4143.077148,4130.256348,4135.384766,4150.769043,4129.230957,4119.487305,4135.384766,4142.563965,4146.666504,4140.512695,4150.256348,4149.743652,4137.436035,0.000000,4.000000,,,,0.000000,4.000000,4.000000,4.000000,4.000000,4.000000,4.000000,4.000000,4.000000,4.000000,4.000000,4.000000,4.000000,4.000000,4.000000,100.000000
1602006049.678940,63.000000,0.000000,4122.563965,4128.205078,4118.974121,4121.538574,4139.487305,4120.000000,4110.769043,4124.102539,4133.846191,4122.051270,4135.897461,4136.410156,4128.717773,4125.641113,0.000000,4.000000,,,,0.000000,4.000000,4.000000,4.000000,4.000000,4.000000,4.000000,4.000000,4.000000,4.000000,4.000000,4.000000,4.000000,4.000000,4.000000,100.000000
1602006049.686823,64.000000,0.000000,4117.948730,4126.666504,4116.922852,4119.487305,4137.436035,4118.974121,4115.384766,4129.230957,4135.384766,4129.230957,4135.384766,4132.307617,4122.051270,4126.666504,800.000000,4.000000,,,,0.000000,4.000000,4.000000,4.000000,4.000000,4.000000,4.000000,4.000000,4.000000,4.000000,4.000000,4.000000,4.000000,4.000000,4.000000,100.000000
1602006049.694706,65.000000,0.000000,4121.025879,4127.179688,4128.205078,4126.153809,4140.000000,4127.692383,4129.743652,4142.563965,4150.256348,4157.436035,4138.461426,4137.948730,4126.153809,4138.461426,792.000000,4.000000,,,,0.000000,4.000000,4.000000,4.000000,4.000000,4.000000,4.000000,4.000000,4.000000,4.000000,4.000000,4.000000,4.000000,4.000000,4.000000,100.000000
1602006049.702588,66.000000,0.000000,4125.128418,4123.077148,4135.384766,4124.615234,4139.487305,4137.436035,4138.974121,4143.589844,4153.846191,4156.922852,4137.436035,4143.077148,4126.666504,4136.922852,849.000000,4.000000,,,,0.000000,4.000000,4.000000,4.000000,4.000000,4.000000,4.000000,4.000000,4.000000,4.000000,4.000000,4.000000,4.000000,4.000000,4.000000,100.000000
1602006049.710471,67.000000,0.000000,4125.128418,4120.000000,4129.230957,4117.948730,4136.922852,4139.487305,4140.512695,4136.410156,4142.563965,4136.922852,4135.897461,4143.077148,4125.641113,4123.077148,869.000000,4.000000,,,,0.000000,4.000000,4.000000,4.000000,4.000000,4.000000,4.000000,4.000000,4.000000,4.000000,4.000000,4.000000,4.000000,4.000000,4.000000,100.000000
1602006049.718353,68.000000,0.000000,4122.051270,4122.563965,4125.128418,4118.461426,4134.358887,4136.922852,4134.871582,4129.230957,4130.769043,4129.743652,4135.897461,4143.077148,4126.666504,4120.512695,815.000000,4.000000,,,,0.000000,4.000000,4.000000,4.000000,4.000000,4.000000,4.000000,4.000000,4.000000,4.000000,4.000000,4.000000,4.000000,4.000000,4.000000,100.000000
1602006049.726236,69.000000,0.000000,4122.051270,4124.615234,4129.743652,4122.563965,4135.384766,4136.410156,4131.282227,4124.102539,4121.025879,4128.717773,4129.230957,4143.077148,4128.205078,4132.820313,827.000000,4.000000,,,,0.000000,4.000000,4.000000,4.000000,4.000000,4.000000,4.000000,4.000000,4.000000,4.000000,4.000000,4.000000,4.000000,4.000000,4.000000,100.000000
1602006049.734119,70.000000,0.000000,4127.179688,4124.615234,4127.692383,4122.563965,4135.897461,4135.384766,4134.358887,4121.538574,4109.230957,4120.000000,4125.128418,4141.538574,4125.641113,4134.358887,773.000000,4.000000,,,,0.000000,4.000000,4.000000,4.000000,4.000000,4.000000,4.000000,4.000000,4.000000,4.000000,4.000000,4.000000,4.000000,4.000000,4.000000,100.000000
1602006049.742001,71.000000,0.000000,4135.384766,4128.205078,4125.641113,4126.153809,4140.000000,4137.436035,4135.897461,4124.102539,4110.256348,4116.410156,4134.871582,4147.692383,4130.256348,4126.666504,682.000000,4.000000,,,,0.000000,4.000000,4.000000,4.000000,4.000000,4.000000,4.000000,4.000000,4.000000,4.000000,4.000000,4.000000,4.000000,4.000000,4.000000,100.000000
1602006049.749782,72.000000,0.000000,4141.025879,4136.410156,4134.871582,4135.897461,4152.820313,4150.769043,4135.897461,4132.307617,4123.077148,4126.153809,4146.153809,4152.307617,4141.025879,4135.897461,783.000000,4.000000,,,,0.000000,4.000000,4.000000,4.000000,4.000000,4.000000,4.000000,4.000000,4.000000,4.000000,4.000000,4.000000,4.000000,4.000000,4.000000,100.000000
1602006049.757663,73.000000,0.000000,4138.461426,4140.000000,4140.000000,4136.410156,4153.846191,4153.846191,4131.794922,4138.461426,4129.230957,4137.948730,4142.563965,4142.051270,4137.436035,4143.589844,842.000000,4.000000,,,,0.000000,4.000000,4.000000,4.000000,4.000000,4.000000,4.000000,4.000000,4.000000,4.000000,4.000000,4.000000,4.000000,4.000000,4.000000,100.000000
1602006049.765444,74.000000,0.000000,4130.256348,4130.256348,4134.871582,4125.641113,4140.512695,4137.436035,4127.692383,4136.922852,4129.743652,4140.512695,4131.282227,4133.333496,4125.128418,4128.717773,870.000000,4.000000,,,,0.000000,4.000000,4.000000,4.000000,4.000000,4.000000,4.000000,4.000000,4.000000,4.000000,4.000000,4.000000,4.000000,4.000000,4.000000,100.000000
1602006049.773325,75.000000,0.000000,4126.666504,4121.025879,4132.307617,4123.589844,4134.871582,4125.128418,4131.794922,4134.358887,4134.358887,4129.743652,4129.230957,4134.871582,4124.102539,4116.922852,836.000000,4.000000,,,,0.000000,4.000000,4.000000,4.000000,4.000000,4.000000,4.000000,4.000000,4.000000,4.000000,4.000000,4.000000,4.000000,4.000000,4.000000,100.000000
1602006049.781107,76.000000,0.000000,4131.794922,4126.666504,4136.410156,4132.307617,4135.384766,4131.282227,4139.487305,4138.974121,4142.051270,4132.820313,4138.461426,4138.461426,4129.230957,4125.128418,763.000000,4.000000,,,,0.000000,4.000000,4.000000,4.000000,4.000000,4.000000,4.000000,4.000000,4.000000,4.000000,4.000000,4.000000,4.000000,4.000000,4.000000,100.000000
1602006049.788988,77.000000,0.000000,4144.615234,4140.000000,4145.641113,4136.922852,4134.871582,4137.948730,4142.563965,4145.641113,4152.820313,4161.538574,4149.230957,4151.282227,4144.615234,4142.563965,749.000000,4.000000,,,,0.000000,4.000000,4.000000,4.000000,4.000000,4.000000,4.000000,4.000000,4.000000,4.000000,4.000000,4.000000,4.000000,4.000000,4.000000,100.000000
1602006049.796869,78.000000,0.000000,4155.384766,4149.743652,4155.897461,4139.487305,4139.487305,4138.974121,4142.563965,4144.102539,4154.358887,4174.871582,4156.922852,4168.717773,4165.128418,4157.948730,870.000000,4.000000,,,,0.000000,4.000000,4.000000,4.000000,4.000000,4.000000,4.000000,4.000000,4.000000,4.000000,4.000000,4.000000,4.000000,4.000000,4.000000,100.000000
1602006049.804852,79.000000,0.000000,4157.436035,4151.794922,4157.948730,4144.102539,4144.102539,4136.922852,4134.871582,4136.922852,4141.025879,4158.461426,4157.948730,4171.794922,4164.102539,4151.794922,836.000000,4.000000,,,,0.000000,4.000000,4.000000,4.000000,4.000000,4.000000,4.000000,4.000000,4.000000,4.000000,4.000000,4.000000,4.000000,4.000000,4.000000,100.000000
1602006049.812734,80.000000,0.000000,4154.871582,4153.846191,4157.436035,4144.615234,4141.025879,4128.717773,4122.051270,4135.384766,4131.282227,4151.282227,4153.846191,4164.615234,4155.897461,4142.563965,763.000000,4.000000,,,,0.000000,4.000000,4.000000,4.000000,4.000000,4.000000,4.000000,4.000000,4.000000,4.000000,4.000000,4.000000,4.000000,4.000000,4.000000,100.000000
1602006049.820616,81.000000,0.000000,4156.410156,4155.897461,4161.025879,4140.512695,4142.051270,4123.077148,4118.974121,4138.974121,4134.358887,4159.487305,4153.333496,4157.948730,4161.025879,4158.461426,749.000000,4.000000,,,,0.000000,4.000000,4.000000,4.000000,4.000000,4.000000,4.000000,4.000000,4.000000,4.000000,4.000000,4.000000,4.000000,4.000000,4.000000,100.000000
1602006049.828499,82.000000,0.000000,4155.897461,4152.307617,4155.384766,4138.461426,4148.205078,4124.615234,4121.538574,4138.974121,4137.948730,4143.589844,4157.436035,4155.384766,4163.077148,4170.256348,870.000000,4.000000,,,,0.000000,4.000000,4.000000,4.000000,4.000000,4.000000,4.000000,4.000000,4.000000,4.000000,4.000000,4.000000,4.000000,4.000000,4.000000,100.000000
1602006049.836381,83.000000,0.000000,4145.641113,4142.051270,4142.563965,4136.922852,4147.179688,4130.256348,4122.051270,4137.436035,4135.384766,4127.692383,4156.922852,4150.769043,4156.410156,4156.922852,836.000000,4.000000,,,,0.000000,4.000000,4.000000,4.000000,4.000000,4.000000,4.000000,4.000000,4.000000,4.000000,4.000000,4.000000,4.000000,4.000000,4.000000,100.000000
1602006049.844263,84.000000,0.000000,4136.922852,4136.922852,4135.384766,4134.358887,4142.051270,4135.384766,4120.000000,4137.436035,4137.436035,4148.205078,4154.871582,4143.589844,4153.333496,4147.692383,763.000000,4.000000,,,,0.000000,4.000000,4.000000,4.000000,4.000000,4.000000,4.000000,4.000000,4.000000,4.000000,4.000000,4.000000,4.000000,4.000000,4.000000,100.000000
1602006049.852146,85.000000,0.000000,4137.436035,4141.538574,4132.307617,4134.871582,4145.128418,4142.051270,4126.666504,4142.563965,4150.769043,4175.897461,4153.846191,4143.589844,4156.922852,4154.358887,749.000000,4.000000,,,,0.000000,4.000000,4.000000,4.000000,4.000000,4.000000,4.000000,4.000000,4.000000,4.000000,4.000000,4.000000,4.000000,4.000000,4.000000,100.000000
1602006049.860028,86.000000,0.000000,4137.948730,4141.025879,4123.589844,4135.384766,4148.205078,4147.179688,4136.922852,4146.153809,4154.871582,4173.846191,4146.666504,4143.077148,4152.820313,4150.769043,870.000000,4.000000,,,,0.000000,4.000000,4.000000,4.000000,4.000000,4.000000,4.000000,4.000000,4.000000,4.000000,4.000000,4.000000,4.000000,4.000000,4.000000,100.000000
1602006049.867810,87.000000,0.000000,4134.871582,4136.922852,4117.948730,4133.846191,4141.025879,4150.769043,4137.948730,4142.051270,4140.000000,4157.436035,4137.948730,4135.384766,4143.589844,4137.948730,836.000000,4.000000,,,,0.000000,4.000000,4.000000,4.000000,4.000000,4.000000,4.000000,4.000000,4.000000,4.000000,4.000000,4.000000,4.000000,4.000000,4.000000,100.000000
1602006049.875692,88.000000,0.000000,4135.897461,4137.436035,4129.230957,4133.846191,4143.589844,4153.846191,4137.948730,4138.974121,4133.333496,4150.769043,4138.974121,4136.410156,4140.000000,4135.384766,763.000000,4.000000,,,,0.000000,4.000000,4.000000,4.000000,4.000000,4.000000,4.000000,4.000000,4.000000,4.000000,4.000000,4.000000,4.000000,4.000000,4.000000,100.000000
1602006049.883575,89.000000,0.000000,4134.871582,4139.487305,4138.974121,4136.922852,4152.820313,4149.230957,4137.436035,4140.000000,4135.384766,4141.538574,4140.512695,4141.025879,4133.846191,4138.461426,749.000000,4.000000,,,,0.000000,4.000000,4.000000,4.000000,4.000000,4.000000,4.000000,4.000000,4.000000,4.000000,4.000000,4.000000,4.000000,4.000000,4.000000,100.000000
1602006049.891457,90.000000,0.000000,4134.358887,4138.461426,4136.922852,4138.974121,4144.102539,4137.436035,4128.205078,4139.487305,4133.333496,4124.102539,4134.871582,4138.461426,4127.692383,4134.871582,870.000000,4.000000,,,,0.000000,4.000000,4.000000,4.000000,4.000000,4.000000,4.000000,4.000000,4.000000,4.000000,4.000000,4.000000,4.000000,4.000000,4.000000,100.000000
1602006049.899339,91.000000,0.000000,4141.538574,4137.948730,4144.615234,4140.000000,4138.974121,4131.794922,4114.871582,4137.948730,4132.820313,4111.794922,4136.922852,4142.563965,4133.333496,4136.922852,836.000000,4.000000,,,,0.000000,4.000000,4.000000,4.000000,4.000000,4.000000,4.000000,4.000000,4.000000,4.000000,4.000000,4.000000,4.000000,4.000000,4.000000,100.000000
1602006049.907221,92.000000,0.000000,4145.128418,4139.487305,4153.333496,4141.025879,4147.692383,4137.948730,4109.230957,4135.384766,4136.410156,4122.051270,4145.128418,4148.717773,4143.589844,4150.256348,763.000000,4.000000,,,,0.000000,4.000000,4.000000,4.000000,4.000000,4.000000,4.000000,4.000000,4.000000,4.000000,4.000000,4.000000,4.000000,4.000000,4.000000,100.000000
1602006049.915103,93.000000,0.000000,4139.487305,4140.000000,4145.641113,4136.922852,4144.615234,4135.384766,4110.256348,4131.282227,4135.897461,4146.666504,4140.512695,4143.589844,4136.410156,4147.179688,749.000000,4.000000,,,,0.000000,4.000000,4.000000,4.000000,4.000000,4.000000,4.000000,4.000000,4.000000,4.000000,4.000000,4.000000,4.000000,4.000000,4.000000,100.000000
1602006049.923085,94.000000,0.000000,4139.487305,4133.846191,4137.948730,4128.717773,4134.871582,4124.102539,4117.436035,4127.179688,4133.333496,4155.897461,4130.769043,4142.051270,4125.641113,4130.769043,870.000000,4.000000,,,,0.000000,4.000000,4.000000,4.000000,4.000000,4.000000,4.000000,4.000000,4.000000,4.000000,4.000000,4.000000,4.000000,4.000000,4.000000,100.000000
1602006049.930967,95.000000,0.000000,4144.102539,4125.128418,4142.563965,4123.589844,4136.410156,4131.794922,4131.794922,4131.794922,4135.897461,4153.333496,4133.846191,4146.666504,4128.717773,4131.282227,836.000000,4.000000,,,,0.000000,4.000000,4.000000,4.000000,4.000000,4.000000,4.000000,4.000000,4.000000,4.000000,4.000000,4.000000,4.000000,4.000000,4.000000,100.000000
1602006049.938849,96.000000,0.000000,4141.538574,4123.589844,4142.051270,4123.589844,4134.358887,4149.230957,4148.717773,4142.563965,4140.512695,4153.333496,4145.641113,4145.128418,4131.794922,4138.974121,763.000000,4.000000,,,,0.000000,4.000000,4.000000,4.000000,4.000000,4.000000,4.000000,4.000000,4.000000,4.000000,4.000000,4.000000,4.000000,4.000000,4.000000,100.000000
1602006049.946730,97.000000,0.000000,4134.871582,4125.128418,4135.897461,4123.077148,4125.128418,4150.256348,4156.410156,4144.615234,4141.538574,4142.051270,4143.589844,4140.000000,4127.179688,4132.307617,749.000000,4.000000,,,,0.000000,4.000000,4.000000,4.000000,4.000000,4.000000,4.000000,4.000000,4.000000,4.000000,4.000000,4.000000,4.000000,4.000000,4.000000,100.000000
1602006049.954612,98.000000,0.000000,4130.769043,4123.077148,4132.820313,4122.563965,4123.589844,4144.615234,4148.717773,4139.487305,4136.410156,4125.128418,4133.333496,4141.538574,4122.051270,4123.589844,870.000000,4.000000,,,,0.000000,4.000000,4.000000,4.000000,4.000000,4.000000,4.000000,4.000000,4.000000,4.000000,4.000000,4.000000,4.000000,4.000000,4.000000,100.000000
1602006049.962494,99.000000,0.000000,4127.179688,4120.512695,4129.230957,4123.077148,4126.666504,4153.333496,4142.563965,4142.051270,4134.358887,4122.563965,4131.282227,4141.538574,4120.512695,4124.615234,836.000000,4.000000,,,,0.000000,4.000000,4.000000,4.000000,4.000000,4.000000,4.000000,4.000000,4.000000,4.000000,4.000000,4.000000,4.000000,4.000000,4.000000,100.000000
1602006049.970276,100.000000,0.000000,4124.102539,4120.512695,4123.589844,4122.563965,4124.102539,4158.461426,4140.000000,4145.128418,4138.974121,4126.153809,4131.282227,4138.974121,4115.897461,4124.615234,763.000000,4.000000,,,,0.000000,4.000000,4.000000,4.000000,4.000000,4.000000,4.000000,4.000000,4.000000,4.000000,4.000000,4.000000,4.000000,4.000000,4.000000,100.000000
1602006049.978159,101.000000,0.000000,4124.615234,4119.487305,4123.077148,4122.051270,4125.128418,4143.589844,4126.666504,4138.974121,4135.897461,4130.256348,4123.077148,4133.846191,4109.743652,4121.538574,749.000000,4.000000,,,,0.000000,4.000000,4.000000,4.000000,4.000000,4.000000,4.000000,4.000000,4.000000,4.000000,4.000000,4.000000,4.000000,4.000000,4.000000,100.000000
1602006049.986041,102.000000,0.000000,4127.692383,4120.000000,4127.179688,4123.589844,4128.717773,4129.230957,4116.922852,4134.871582,4124.615234,4142.563965,4118.461426,4128.717773,4108.717773,4124.102539,870.000000,4.000000,,,,0.000000,4.000000,4.000000,4.000000,4.000000,4.000000,4.000000,4.000000,4.000000,4.000000,4.000000,4.000000,4.000000,4.000000,4.000000,100.000000
1602006049.993923,103.000000,0.000000,4124.615234,4121.025879,4127.692383,4124.102539,4126.153809,4123.077148,4120.000000,4139.487305,4121.025879,4143.077148,4127.692383,4132.307617,4114.358887,4126.153809,836.000000,4.000000,,,,0.000000,4.000000,4.000000,4.000000,4.000000,4.000000,4.000000,4.000000,4.000000,4.000000,4.000000,4.000000,4.000000,4.000000,4.000000,100.000000
1602006050.001805,104.000000,0.000000,4122.051270,4123.077148,4126.153809,4123.077148,4128.717773,4118.461426,4122.051270,4140.000000,4124.102539,4125.641113,4135.384766,4136.922852,4120.512695,4123.077148,763.000000,4.000000,,,,0.000000,4.000000,4.000000,4.000000,4.000000,4.000000,4.000000,4.000000,4.000000,4.000000,4.000000,4.000000,4.000000,4.000000,4.000000,100.000000
1602006050.009687,105.000000,0.000000,4124.615234,4123.589844,4125.128418,4122.563965,4136.922852,4125.128418,4124.102539,4133.846191,4121.538574,4122.563965,4130.769043,4137.436035,4121.025879,4123.077148,749.000000,4.000000,,,,0.000000,4.000000,4.000000,4.000000,4.000000,4.000000,4.000000,4.000000,4.000000,4.000000,4.000000,4.000000,4.000000,4.000000,4.000000,100.000000
1602006050.017569,106.000000,0.000000,4122.051270,4115.384766,4119.487305,4118.461426,4131.794922,4138.461426,4132.820313,4132.307617,4120.512695,4133.333496,4126.666504,4136.410156,4120.512695,4124.615234,870.000000,4.000000,,,,0.000000,4.000000,4.000000,4.000000,4.000000,4.000000,4.000000,4.000000,4.000000,4.000000,4.000000,4.000000,4.000000,4.000000,4.000000,100.000000
1602006050.025351,107.000000,0.000000,4117.436035,4109.230957,4115.384766,4114.358887,4121.538574,4135.897461,4139.487305,4134.358887,4125.641113,4126.153809,4131.794922,4131.794922,4122.563965,4123.589844,836.000000,4.000000,,,,0.000000,4.000000,4.000000,4.000000,4.000000,4.000000,4.000000,4.000000,4.000000,4.000000,4.000000,4.000000,4.000000,4.000000,4.000000,100.000000
1602006050.033233,108.000000,0.000000,4121.025879,4110.769043,4117.436035,4112.307617,4123.077148,4127.179688,4138.974121,4135.897461,4128.717773,4117.436035,4132.307617,4125.128418,4117.436035,4123.077148,763.000000,4.000000,,,,0.000000,4.000000,4.000000,4.000000,4.000000,4.000000,4.000000,4.000000,4.000000,4.000000,4.000000,4.000000,4.000000,4.000000,4.000000,100.000000
1602006050.041115,109.000000,0.000000,4121.025879,4109.230957,4112.307617,4109.230957,4123.589844,4133.333496,4137.948730,4136.410156,4130.769043,4132.307617,4121.538574,4122.051270,4108.717773,4121.025879,749.000000,4.000000,,,,0.000000,4.000000,4.000000,4.000000,4.000000,4.000000,4.000000,4.000000,4.000000,4.000000,4.000000,4.000000,4.000000,4.000000,4.000000,100.000000
1602006050.048997,110.000000,0.000000,4117.948730,4110.769043,4110.256348,4112.820313,4121.538574,4141.538574,4132.307617,4137.948730,4129.230957,4144.102539,4117.948730,4125.128418,4112.307617,4116.410156,870.000000,4.000000,,,,0.000000,4.000000,4.000000,4.000000,4.000000,4.000000,4.000000,4.000000,4.000000,4.000000,4.000000,4.000000,4.000000,4.000000,4.000000,100.000000
1602006050.056879,111.000000,0.000000,4121.025879,4119.487305,4119.487305,4120.512695,4124.102539,4134.358887,4125.128418,4138.974121,4126.153809,4134.358887,4124.615234,4133.333496,4122.051270,4120.000000,836.000000,4.000000,,,,0.000000,4.000000,4.000000,4.000000,4.000000,4.000000,4.000000,4.000000,4.000000,4.000000,4.000000,4.000000,4.000000,4.000000,4.000000,100.000000
1602006050.064760,112.000000,0.000000,4124.102539,4122.563965,4125.641113,4122.563965,4125.641113,4124.102539,4124.102539,4135.897461,4129.743652,4133.846191,4134.358887,4140.512695,4124.615234,4128.205078,763.000000,4.000000,,,,0.000000,4.000000,4.000000,4.000000,4.000000,4.000000,4.000000,4.000000,4.000000,4.000000,4.000000,4.000000,4.000000,4.000000,4.000000,100.000000
1602006050.072542,113.000000,0.000000,4126.153809,4121.538574,4124.615234,4120.512695,4126.666504,4122.051270,4118.461426,4127.179688,4127.179688,4142.051270,4135.897461,4134.871582,4118.974121,4126.666504,749.000000,4.000000,,,,0.000000,4.000000,4.000000,4.000000,4.000000,4.000000,4.000000,4.000000,4.000000,4.000000,4.000000,4.000000,4.000000,4.000000,4.000000,100.000000
1602006050.080424,114.000000,0.000000,4130.256348,4125.641113,4124.102539,4124.615234,4128.205078,4125.641113,4111.794922,4118.974121,4111.282227,4127.179688,4127.692383,4125.641113,4111.282227,4123.589844,870.000000,4.000000,,,,0.000000,4.000000,4.000000,4.000000,4.000000,4.000000,4.000000,4.000000,4.000000,4.000000,4.000000,4.000000,4.000000,4.000000,4.000000,100.000000
1602006050.088306,115.000000,0.000000,4132.820313,4128.205078,4125.641113,4127.692383,4127.179688,4126.666504,4114.871582,4120.512695,4103.589844,4099.487305,4123.077148,4124.102539,4109.743652,4125.641113,836.000000,4.000000,,,,0.000000,4.000000,4.000000,4.000000,4.000000,4.000000,4.000000,4.000000,4.000000,4.000000,4.000000,4.000000,4.000000,4.000000,4.000000,100.000000
1602006050.096188,116.000000,0.000000,4135.384766,4125.641113,4125.128418,4124.615234,4125.128418,4122.051270,4119.487305,4121.025879,4106.153809,4106.666504,4123.077148,4125.641113,4114.871582,4122.051270,763.000000,4.000000,,,,0.000000,4.000000,4.000000,4.000000,4.000000,4.000000,4.000000,4.000000,4.000000,4.000000,4.000000,4.000000,4.000000,4.000000,4.000000,100.000000
1602006050.104070,117.000000,0.000000,4138.974121,4123.077148,4123.077148,4121.538574,4123.589844,4126.666504,4120.000000,4117.948730,4103.589844,4136.410156,4127.179688,4129.743652,4119.487305,4121.538574,749.000000,4.000000,,,,0.000000,4.000000,4.000000,4.000000,4.000000,4.000000,4.000000,4.000000,4.000000,4.000000,4.000000,4.000000,4.000000,4.000000,4.000000,100.000000
1602006050.111952,118.000000,0.000000,4141.025879,4122.563965,4123.589844,4122.563965,4124.615234,4137.948730,4129.230957,4127.179688,4106.666504,4137.436035,4138.461426,4141.025879,4128.205078,4136.410156,870.000000,4.000000,,,,0.000000,4.000000,4.000000,4.000000,4.000000,4.000000,4.000000,4.000000,4.000000,4.000000,4.000000,4.000000,4.000000,4.000000,4.000000,100.000000
1602006050.119934,119.000000,0.000000,4142.563965,4125.128418,4128.717773,4123.589844,4123.589844,4134.871582,4139.487305,4140.512695,4120.000000,4127.179688,4144.102539,4149.230957,4137.436035,4141.538574,836.000000,4.000000,,,,0.000000,4.000000,4.000000,4.000000,4.000000,4.000000,4.000000,4.000000,4.000000,4.000000,4.000000,4.000000,4.000000,4.000000,4.000000,100.000000
1602006050.127817,120.000000,0.000000,4135.384766,4122.051270,4121.538574,4115.897461,4117.948730,4122.563965,4132.820313,4141.025879,4123.589844,4133.846191,4132.820313,4145.128418,4130.256348,4126.666504,763.000000,4.000000,,,,0.000000,4.000000,4.000000,4.000000,4.000000,4.000000,4.000000,4.000000,4.000000,4.000000,4.000000,4.000000,4.000000,4.000000,4.000000,100.000000
1602006050.135700,121.000000,0.000000,4119.487305,4116.410156,4105.128418,4108.717773,4116.922852,4121.538574,4121.025879,4136.922852,4121.538574,4134.358887,4124.102539,4137.436035,4117.948730,4120.512695,749.000000,4.000000,,,,0.000000,4.000000,4.000000,4.000000,4.000000,4.000000,4.000000,4.000000,4.000000,4.000000,4.000000,4.000000,4.000000,4.000000,4.000000,100.000000
1602006050.143582,122.000000,0.000000,4117.436035,4120.000000,4108.717773,4115.384766,4117.948730,4125.641113,4122.051270,4138.974121,4122.563965,4121.538574,4127.692383,4138.974121,4117.436035,4125.128418,870.000000,4.000000,,,,0.000000,4.000000,4.000000,4.000000,4.000000,4.000000,4.000000,4.000000,4.000000,4.000000,4.000000,4.000000,4.000000,4.000000,4.000000,100.000000
1602006050.151465,123.000000,0.000000,4124.615234,4124.615234,4122.051270,4124.615234,4116.410156,4125.641113,4125.128418,4133.333496,4114.871582,4120.512695,4128.717773,4139.487305,4115.384766,4122.563965,836.000000,4.000000,,,,0.000000,4.000000,4.000000,4.000000,4.000000,4.000000,4.000000,4.000000,4.000000,4.000000,4.000000,4.000000,4.000000,4.000000,4.000000,100.000000
1602006050.159347,124.000000,0.000000,4124.102539,4121.025879,4120.512695,4124.615234,4121.025879,4126.666504,4115.384766,4120.512695,4105.641113,4123.589844,4120.000000,4130.769043,4108.717773,4120.000000,763.000000,4.000000,,,,0.000000,4.000000,4.000000,4.000000,4.000000,4.000000,4.000000,4.000000,4.000000,4.000000,4.000000,4.000000,4.000000,4.000000,4.000000,100.000000
1602006050.167230,125.000000,0.000000,4124.102539,4121.538574,4117.948730,4123.589844,4126.153809,4129.743652,4107.179688,4117.948730,4107.692383,4118.974121,4118.974121,4131.794922,4111.794922,4125.641113,749.000000,4.000000,,,,0.000000,4.000000,4.000000,4.000000,4.000000,4.000000,4.000000,4.000000,4.000000,4.000000,4.000000,4.000000,4.000000,4.000000,4.000000,100.000000
1602006050.175113,126.000000,0.000000,4128.717773,4123.589844,4123.589844,4123.589844,4122.563965,4127.692383,4113.846191,4118.461426,4110.769043,4126.153809,4128.717773,4136.922852,4112.820313,4124.615234,870.000000,4.000000,,,,0.000000,4.000000,4.000000,4.000000,4.000000,4.000000,4.000000,4.000000,4.000000,4.000000,4.000000,4.000000,4.000000,4.000000,4.000000,100.000000
