Timestamp,EEG.Counter,EEG.Interpolated,EEG.AF3,EEG.F7,EEG.F3,EEG.FC5,EEG.T7,EEG.P7,EEG.O1,EEG.O2,EEG.P8,EEG.T8,EEG.FC6,EEG.F4,EEG.F8,EEG.AF4,EEG.RawCq,EEG.Battery,MarkerIndex,MarkerType,MarkerValueInt,EEG.MarkerHardware,CQ.AF3,CQ.F7,CQ.F3,CQ.FC5,CQ.T7,CQ.P7,CQ.O1,CQ.O2,CQ.P8,CQ.T8,CQ.FC6,CQ.F4,CQ.F8,CQ.AF4,CQ.Overall
1602006064.533438,13.000000,0.000000,4137.948730,4146.666504,4139.487305,4144.102539,4125.641113,4137.436035,4136.922852,4137.948730,4136.922852,4137.948730,4137.436035,4138.974121,4128.717773,4132.820313,748.000000,4.000000,,,,0.000000,4.000000,4.000000,4.000000,4.000000,4.000000,4.000000,4.000000,4.000000,4.000000,4.000000,4.000000,4.000000,4.000000,4.000000,100.000000
1602006064.541220,14.000000,0.000000,4135.384766,4140.512695,4137.948730,4142.051270,4131.794922,4139.487305,4136.922852,4133.846191,4128.205078,4133.846191,4132.307617,4140.000000,4127.179688,4131.282227,872.000000,4.000000,,,,0.000000,4.000000,4.000000,4.000000,4.000000,4.000000,4.000000,4.000000,4.000000,4.000000,4.000000,4.000000,4.000000,4.000000,4.000000,100.000000
1602006064.549101,15.000000,0.000000,4126.153809,4137.948730,4126.153809,4140.000000,4136.410156,4137.948730,4130.769043,4123.589844,4111.282227,4120.512695,4112.307617,4133.846191,4112.307617,4120.512695,837.000000,4.000000,,,,0.000000,4.000000,4.000000,4.000000,4.000000,4.000000,4.000000,4.000000,4.000000,4.000000,4.000000,4.000000,4.000000,4.000000,4.000000,100.000000
1602006064.556983,16.000000,0.000000,4120.000000,4136.922852,4121.025879,4137.436035,4136.922852,4139.487305,4125.641113,4118.461426,4098.461426,4102.051270,4102.051270,4128.205078,4101.538574,4110.769043,0.000000,4.000000,,,,0.000000,4.000000,4.000000,4.000000,4.000000,4.000000,4.000000,4.000000,4.000000,4.000000,4.000000,4.000000,4.000000,4.000000,4.000000,100.000000
1602006064.564865,17.000000,0.000000,4125.128418,4136.922852,4130.256348,4138.974121,4135.897461,4143.077148,4129.743652,4126.153809,4101.025879,4102.563965,4112.820313,4133.846191,4111.282227,4119.487305,0.000000,4.000000,,,,0.000000,4.000000,4.000000,4.000000,4.000000,4.000000,4.000000,4.000000,4.000000,4.000000,4.000000,4.000000,4.000000,4.000000,4.000000,100.000000
1602006064.572747,18.000000,0.000000,4127.692383,4137.436035,4133.846191,4140.512695,4129.743652,4138.461426,4132.307617,4128.717773,4108.717773,4119.487305,4121.025879,4138.461426,4117.436035,4127.179688,0.000000,4.000000,,,,0.000000,4.000000,4.000000,4.000000,4.000000,4.000000,4.000000,4.000000,4.000000,4.000000,4.000000,4.000000,4.000000,4.000000,4.000000,100.000000
1602006064.580629,19.000000,0.000000,4126.153809,4134.871582,4127.692383,4136.922852,4123.589844,4126.153809,4126.666504,4125.641113,4114.358887,4120.000000,4118.974121,4135.384766,4112.820313,4118.974121,0.000000,4.000000,,,,0.000000,4.000000,4.000000,4.000000,4.000000,4.000000,4.000000,4.000000,4.000000,4.000000,4.000000,4.000000,4.000000,4.000000,4.000000,100.000000
1602006064.588610,20.000000,0.000000,4128.205078,4135.384766,4124.615234,4133.846191,4123.589844,4120.000000,4125.128418,4129.743652,4120.512695,4103.589844,4122.051270,4135.384766,4116.922852,4117.948730,0.000000,4.000000,,,,0.000000,4.000000,4.000000,4.000000,4.000000,4.000000,4.000000,4.000000,4.000000,4.000000,4.000000,4.000000,4.000000,4.000000,4.000000,100.000000
1602006064.596492,21.000000,0.000000,4125.641113,4136.922852,4125.128418,4134.358887,4123.077148,4122.051270,4130.769043,4136.922852,4130.769043,4106.153809,4126.666504,4138.461426,4124.615234,4125.641113,0.000000,4.000000,,,,0.000000,4.000000,4.000000,4.000000,4.000000,4.000000,4.000000,4.000000,4.000000,4.000000,4.000000,4.000000,4.000000,4.000000,4.000000,100.000000
1602006064.604373,22.000000,0.000000,4124.615234,4134.871582,4129.230957,4134.871582,4117.436035,4121.025879,4133.846191,4138.974121,4142.051270,4132.307617,4124.615234,4137.948730,4123.077148,4126.153809,0.000000,4.000000,,,,0.000000,4.000000,4.000000,4.000000,4.000000,4.000000,4.000000,4.000000,4.000000,4.000000,4.000000,4.000000,4.000000,4.000000,4.000000,100.000000
1602006064.612254,23.000000,0.000000,4133.333496,4134.871582,4135.384766,4137.436035,4122.051270,4117.948730,4133.333496,4139.487305,4146.666504,4142.563965,4125.128418,4141.025879,4125.128418,4120.512695,0.000000,4.000000,,,,0.000000,4.000000,4.000000,4.000000,4.000000,4.000000,4.000000,4.000000,4.000000,4.000000,4.000000,4.000000,4.000000,4.000000,4.000000,100.000000
1602006064.620035,24.000000,0.000000,4140.000000,4138.461426,4136.922852,4142.563965,4132.820313,4121.025879,4134.358887,4138.974121,4139.487305,4131.794922,4127.692383,4147.179688,4136.922852,4127.179688,0.000000,4.000000,,,,0.000000,4.000000,4.000000,4.000000,4.000000,4.000000,4.000000,4.000000,4.000000,4.000000,4.000000,4.000000,4.000000,4.000000,4.000000,100.000000
1602006064.627916,25.000000,0.000000,4139.487305,4142.563965,4136.922852,4143.077148,4131.794922,4128.717773,4137.948730,4137.436035,4134.871582,4134.358887,4132.307617,4153.333496,4145.128418,4144.102539,0.000000,4.000000,,,,0.000000,4.000000,4.000000,4.000000,4.000000,4.000000,4.000000,4.000000,4.000000,4.000000,4.000000,4.000000,4.000000,4.000000,4.000000,100.000000
1602006064.635697,26.000000,0.000000,4138.461426,4141.538574,4133.846191,4140.000000,4124.615234,4137.948730,4139.487305,4138.974121,4138.461426,4149.743652,4136.410156,4151.794922,4139.487305,4140.512695,0.000000,4.000000,,,,0.000000,4.000000,4.000000,4.000000,4.000000,4.000000,4.000000,4.000000,4.000000,4.000000,4.000000,4.000000,4.000000,4.000000,4.000000,100.000000
1602006064.643578,27.000000,0.000000,4129.230957,4137.436035,4122.563965,4137.948730,4129.230957,4145.128418,4137.948730,4136.410156,4135.384766,4148.717773,4128.205078,4141.025879,4126.153809,4123.077148,0.000000,4.000000,,,,0.000000,4.000000,4.000000,4.000000,4.000000,4.000000,4.000000,4.000000,4.000000,4.000000,4.000000,4.000000,4.000000,4.000000,4.000000,100.000000
1602006064.651560,28.000000,0.000000,4122.051270,4136.922852,4123.077148,4137.948730,4137.948730,4145.128418,4137.436035,4133.333496,4132.307617,4138.461426,4115.897461,4134.358887,4121.025879,4120.000000,0.000000,4.000000,,,,0.000000,4.000000,4.000000,4.000000,4.000000,4.000000,4.000000,4.000000,4.000000,4.000000,4.000000,4.000000,4.000000,4.000000,4.000000,100.000000
1602006064.659442,29.000000,0.000000,4131.794922,4138.974121,4135.897461,4138.461426,4136.922852,4140.512695,4136.410156,4142.563965,4142.563965,4140.000000,4126.153809,4137.436035,4126.666504,4127.179688,0.000000,4.000000,,,,0.000000,4.000000,4.000000,4.000000,4.000000,4.000000,4.000000,4.000000,4.000000,4.000000,4.000000,4.000000,4.000000,4.000000,4.000000,100.000000
1602006064.667325,30.000000,0.000000,4141.025879,4137.948730,4140.512695,4138.461426,4128.717773,4137.436035,4133.846191,4154.358887,4155.384766,4142.563965,4138.461426,4141.538574,4127.179688,4127.692383,0.000000,4.000000,,,,0.000000,4.000000,4.000000,4.000000,4.000000,4.000000,4.000000,4.000000,4.000000,4.000000,4.000000,4.000000,4.000000,4.000000,4.000000,100.000000
1602006064.675207,31.000000,0.000000,4137.948730,4138.461426,4133.846191,4138.974121,4125.641113,4135.897461,4133.333496,4154.358887,4151.794922,4142.051270,4121.025879,4144.615234,4121.538574,4123.589844,0.000000,4.000000,,,,0.000000,4.000000,4.000000,4.000000,4.000000,4.000000,4.000000,4.000000,4.000000,4.000000,4.000000,4.000000,4.000000,4.000000,4.000000,100.000000
1602006064.683089,32.000000,0.000000,4130.769043,4136.410156,4126.153809,4136.410156,4120.000000,4128.717773,4137.436035,4146.666504,4142.051270,4140.000000,4107.179688,4141.538574,4114.871582,4111.282227,0.000000,4.000000,,,,0.000000,4.000000,4.000000,4.000000,4.000000,4.000000,4.000000,4.000000,4.000000,4.000000,4.000000,4.000000,4.000000,4.000000,4.000000,100.000000
1602006064.690971,33.000000,0.000000,4125.128418,4128.717773,4122.563965,4134.358887,4110.769043,4122.051270,4137.436035,4138.461426,4137.436035,4125.128418,4117.948730,4135.384766,4107.179688,4101.538574,0.000000,4.000000,,,,0.000000,4.000000,4.000000,4.000000,4.000000,4.000000,4.000000,4.000000,4.000000,4.000000,4.000000,4.000000,4.000000,4.000000,4.000000,100.000000
1602006064.698853,34.000000,0.000000,4123.077148,4126.153809,4124.102539,4137.948730,4113.846191,4131.282227,4133.846191,4130.769043,4129.743652,4120.000000,4125.641113,4137.436035,4110.769043,4115.897461,0.000000,4.000000,,,,0.000000,4.000000,4.000000,4.000000,4.000000,4.000000,4.000000,4.000000,4.000000,4.000000,4.000000,4.000000,4.000000,4.000000,4.000000,100.000000
1602006064.706835,35.000000,0.000000,4123.589844,4128.717773,4126.153809,4137.948730,4124.102539,4138.461426,4137.436035,4125.641113,4126.153809,4142.051270,4122.563965,4137.436035,4122.051270,4127.179688,0.000000,4.000000,,,,0.000000,4.000000,4.000000,4.000000,4.000000,4.000000,4.000000,4.000000,4.000000,4.000000,4.000000,4.000000,4.000000,4.000000,4.000000,100.000000
1602006064.714717,36.000000,0.000000,4121.538574,4125.128418,4122.563965,4130.769043,4123.077148,4127.692383,4137.948730,4121.025879,4126.153809,4147.692383,4123.589844,4124.102539,4121.025879,4111.794922,0.000000,4.000000,,,,0.000000,4.000000,4.000000,4.000000,4.000000,4.000000,4.000000,4.000000,4.000000,4.000000,4.000000,4.000000,4.000000,4.000000,4.000000,100.000000
1602006064.722599,37.000000,0.000000,4121.538574,4120.512695,4114.358887,4125.128418,4117.948730,4122.563965,4129.743652,4124.102539,4124.102539,4126.666504,4122.563965,4111.794922,4116.922852,4109.230957,0.000000,4.000000,,,,0.000000,4.000000,4.000000,4.000000,4.000000,4.000000,4.000000,4.000000,4.000000,4.000000,4.000000,4.000000,4.000000,4.000000,4.000000,100.000000
1602006064.730480,38.000000,0.000000,4123.589844,4125.128418,4109.230957,4125.641113,4126.153809,4136.410156,4127.692383,4135.897461,4128.717773,4136.410156,4113.846191,4108.205078,4122.563965,4123.077148,0.000000,4.000000,,,,0.000000,4.000000,4.000000,4.000000,4.000000,4.000000,4.000000,4.000000,4.000000,4.000000,4.000000,4.000000,4.000000,4.000000,4.000000,100.000000
1602006064.738362,39.000000,0.000000,4118.974121,4127.179688,4102.563965,4126.153809,4134.871582,4140.512695,4127.692383,4136.410156,4135.384766,4161.025879,4108.717773,4102.563965,4119.487305,4115.897461,0.000000,4.000000,,,,0.000000,4.000000,4.000000,4.000000,4.000000,4.000000,4.000000,4.000000,4.000000,4.000000,4.000000,4.000000,4.000000,4.000000,4.000000,100.000000
1602006064.746244,40.000000,0.000000,4111.282227,4123.589844,4094.871826,4123.589844,4129.230957,4131.282227,4122.563965,4123.077148,4125.641113,4143.077148,4103.589844,4096.922852,4105.128418,4098.461426,0.000000,4.000000,,,,0.000000,4.000000,4.000000,4.000000,4.000000,4.000000,4.000000,4.000000,4.000000,4.000000,4.000000,4.000000,4.000000,4.000000,4.000000,100.000000
1602006064.754026,41.000000,0.000000,4110.256348,4128.717773,4096.410156,4124.615234,4122.563965,4132.307617,4121.538574,4118.461426,4112.307617,4104.102539,4105.641113,4101.025879,4107.692383,4105.641113,0.000000,4.000000,,,,0.000000,4.000000,4.000000,4.000000,4.000000,4.000000,4.000000,4.000000,4.000000,4.000000,4.000000,4.000000,4.000000,4.000000,4.000000,100.000000
1602006064.761908,42.000000,0.000000,4116.410156,4137.436035,4106.666504,4133.333496,4129.230957,4138.461426,4125.641113,4125.128418,4110.256348,4090.256348,4117.948730,4113.846191,4120.512695,4116.410156,0.000000,4.000000,,,,0.000000,4.000000,4.000000,4.000000,4.000000,4.000000,4.000000,4.000000,4.000000,4.000000,4.000000,4.000000,4.000000,4.000000,4.000000,100.000000
1602006064.769789,43.000000,0.000000,4125.128418,4138.461426,4117.948730,4137.948730,4133.333496,4138.974121,4131.794922,4129.743652,4111.282227,4111.282227,4125.641113,4128.205078,4123.077148,4115.384766,0.000000,4.000000,,,,0.000000,4.000000,4.000000,4.000000,4.000000,4.000000,4.000000,4.000000,4.000000,4.000000,4.000000,4.000000,4.000000,4.000000,4.000000,100.000000
1602006064.777671,44.000000,0.000000,4134.871582,4136.410156,4131.282227,4136.410156,4125.128418,4137.436035,4137.948730,4134.871582,4118.461426,4133.333496,4123.589844,4137.948730,4121.538574,4122.051270,0.000000,4.000000,,,,0.000000,4.000000,4.000000,4.000000,4.000000,4.000000,4.000000,4.000000,4.000000,4.000000,4.000000,4.000000,4.000000,4.000000,4.000000,100.000000
1602006064.785553,45.000000,0.000000,4140.000000,4136.922852,4144.102539,4136.410156,4118.974121,4135.897461,4138.974121,4140.000000,4132.820313,4143.077148,4128.205078,4149.230957,4126.666504,4140.000000,0.000000,4.000000,,,,0.000000,4.000000,4.000000,4.000000,4.000000,4.000000,4.000000,4.000000,4.000000,4.000000,4.000000,4.000000,4.000000,4.000000,4.000000,100.000000
1602006064.793535,46.000000,0.000000,4134.358887,4130.769043,4144.102539,4134.358887,4122.051270,4136.922852,4144.615234,4145.128418,4142.051270,4161.025879,4139.487305,4155.897461,4129.230957,4144.615234,0.000000,4.000000,,,,0.000000,4.000000,4.000000,4.000000,4.000000,4.000000,4.000000,4.000000,4.000000,4.000000,4.000000,4.000000,4.000000,4.000000,4.000000,100.000000
1602006064.801418,47.000000,0.000000,4122.051270,4121.538574,4130.769043,4126.153809,4128.717773,4142.563965,4150.769043,4154.871582,4148.717773,4174.358887,4137.948730,4146.666504,4127.692383,4128.205078,0.000000,4.000000,,,,0.000000,4.000000,4.000000,4.000000,4.000000,4.000000,4.000000,4.000000,4.000000,4.000000,4.000000,4.000000,4.000000,4.000000,4.000000,100.000000
1602006064.809300,48.000000,0.000000,4108.205078,4119.487305,4111.282227,4122.051270,4136.922852,4145.641113,4146.666504,4160.000000,4158.974121,4163.077148,4130.769043,4131.794922,4131.794922,4121.025879,0.000000,4.000000,,,,0.000000,4.000000,4.000000,4.000000,4.000000,4.000000,4.000000,4.000000,4.000000,4.000000,4.000000,4.000000,4.000000,4.000000,4.000000,100.000000
1602006064.817183,49.000000,0.000000,4095.897461,4120.000000,4091.794922,4123.077148,4141.538574,4136.410156,4134.358887,4146.153809,4157.436035,4153.846191,4126.666504,4118.974121,4129.743652,4115.897461,0.000000,4.000000,,,,0.000000,4.000000,4.000000,4.000000,4.000000,4.000000,4.000000,4.000000,4.000000,4.000000,4.000000,4.000000,4.000000,4.000000,4.000000,100.000000
1602006064.825065,50.000000,0.000000,4083.589844,4114.358887,4083.589844,4122.563965,4134.358887,4120.000000,4123.077148,4125.128418,4135.897461,4153.846191,4110.256348,4102.563965,4108.717773,4090.769287,0.000000,4.000000,,,,0.000000,4.000000,4.000000,4.000000,4.000000,4.000000,4.000000,4.000000,4.000000,4.000000,4.000000,4.000000,4.000000,4.000000,4.000000,100.000000
1602006064.832948,51.000000,0.000000,4071.281982,4102.051270,4090.256348,4117.948730,4121.538574,4119.487305,4126.153809,4117.948730,4119.487305,4132.307617,4095.384521,4095.897461,4089.230713,4075.384521,0.000000,4.000000,,,,0.000000,4.000000,4.000000,4.000000,4.000000,4.000000,4.000000,4.000000,4.000000,4.000000,4.000000,4.000000,4.000000,4.000000,4.000000,100.000000
1602006064.840831,52.000000,0.000000,4078.974365,4107.179688,4105.128418,4118.974121,4120.000000,4134.358887,4136.922852,4123.077148,4122.051270,4107.692383,4098.974121,4110.769043,4088.205078,4086.153809,0.000000,4.000000,,,,0.000000,4.000000,4.000000,4.000000,4.000000,4.000000,4.000000,4.000000,4.000000,4.000000,4.000000,4.000000,4.000000,4.000000,4.000000,100.000000
1602006064.848713,53.000000,0.000000,4110.256348,4130.769043,4115.897461,4131.794922,4128.205078,4140.512695,4137.948730,4123.589844,4124.615234,4114.358887,4106.153809,4122.051270,4097.436035,4100.512695,0.000000,4.000000,,,,0.000000,4.000000,4.000000,4.000000,4.000000,4.000000,4.000000,4.000000,4.000000,4.000000,4.000000,4.000000,4.000000,4.000000,4.000000,100.000000
1602006064.856596,54.000000,0.000000,4135.897461,4142.051270,4120.512695,4140.512695,4128.205078,4138.461426,4133.333496,4120.000000,4117.436035,4123.589844,4105.128418,4122.051270,4103.077148,4109.230957,0.000000,4.000000,,,,0.000000,4.000000,4.000000,4.000000,4.000000,4.000000,4.000000,4.000000,4.000000,4.000000,4.000000,4.000000,4.000000,4.000000,4.000000,100.000000
1602006064.864578,55.000000,0.000000,4143.077148,4140.000000,4131.794922,4138.461426,4118.461426,4140.000000,4136.410156,4127.179688,4116.410156,4109.743652,4106.153809,4126.153809,4105.641113,4123.077148,0.000000,4.000000,,,,0.000000,4.000000,4.000000,4.000000,4.000000,4.000000,4.000000,4.000000,4.000000,4.000000,4.000000,4.000000,4.000000,4.000000,4.000000,100.000000
1602006064.872460,56.000000,0.000000,4143.589844,4135.384766,4136.922852,4133.846191,4114.358887,4140.512695,4139.487305,4137.436035,4122.051270,4103.077148,4111.282227,4129.743652,4106.666504,4127.692383,0.000000,4.000000,,,,0.000000,4.000000,4.000000,4.000000,4.000000,4.000000,4.000000,4.000000,4.000000,4.000000,4.000000,4.000000,4.000000,4.000000,4.000000,100.000000
1602006064.880342,57.000000,0.000000,4143.077148,4131.282227,4126.666504,4129.230957,4117.436035,4144.102539,4140.000000,4142.563965,4123.589844,4123.077148,4112.307617,4127.692383,4108.205078,4120.512695,0.000000,4.000000,,,,0.000000,4.000000,4.000000,4.000000,4.000000,4.000000,4.000000,4.000000,4.000000,4.000000,4.000000,4.000000,4.000000,4.000000,4.000000,100.000000
1602006064.888224,58.000000,0.000000,4140.000000,4135.897461,4121.538574,4132.820313,4127.692383,4155.384766,4141.538574,4144.102539,4127.692383,4142.051270,4111.794922,4125.641113,4108.717773,4111.794922,0.000000,4.000000,,,,0.000000,4.000000,4.000000,4.000000,4.000000,4.000000,4.000000,4.000000,4.000000,4.000000,4.000000,4.000000,4.000000,4.000000,4.000000,100.000000
1602006064.896106,59.000000,0.000000,4131.794922,4142.051270,4124.615234,4136.922852,4134.358887,4155.384766,4139.487305,4140.512695,4135.384766,4139.487305,4107.692383,4121.538574,4100.512695,4098.974121,0.000000,4.000000,,,,0.000000,4.000000,4.000000,4.000000,4.000000,4.000000,4.000000,4.000000,4.000000,4.000000,4.000000,4.000000,4.000000,4.000000,4.000000,100.000000
1602006064.903988,60.000000,0.000000,4117.436035,4130.769043,4121.025879,4127.179688,4127.692383,4141.538574,4137.436035,4137.948730,4136.922852,4125.641113,4098.974121,4122.051270,4090.769287,4088.718018,0.000000,4.000000,,,,0.000000,4.000000,4.000000,4.000000,4.000000,4.000000,4.000000,4.000000,4.000000,4.000000,4.000000,4.000000,4.000000,4.000000,4.000000,100.000000
1602006064.911871,61.000000,0.000000,4112.820313,4123.077148,4118.974121,4124.102539,4121.025879,4134.871582,4138.461426,4138.974121,4137.948730,4116.410156,4098.461426,4134.871582,4089.230713,4091.794922,0.000000,4.000000,,,,0.000000,4.000000,4.000000,4.000000,4.000000,4.000000,4.000000,4.000000,4.000000,4.000000,4.000000,4.000000,4.000000,4.000000,4.000000,100.000000
1602006064.919852,62.000000,0.000000,4119.487305,4129.230957,4124.615234,4133.846191,4123.077148,4131.794922,4139.487305,4138.974121,4140.000000,4127.692383,4107.692383,4142.563965,4089.743652,4101.025879,0.000000,4.000000,,,,0.000000,4.000000,4.000000,4.000000,4.000000,4.000000,4.000000,4.000000,4.000000,4.000000,4.000000,4.000000,4.000000,4.000000,4.000000,100.000000
1602006064.927734,63.000000,0.000000,4124.102539,4131.794922,4123.077148,4134.871582,4123.077148,4125.128418,4138.974121,4137.436035,4133.846191,4138.974121,4107.692383,4137.436035,4087.179443,4102.051270,0.000000,4.000000,,,,0.000000,4.000000,4.000000,4.000000,4.000000,4.000000,4.000000,4.000000,4.000000,4.000000,4.000000,4.000000,4.000000,4.000000,4.000000,100.000000
1602006064.935616,64.000000,0.000000,4130.769043,4133.846191,4124.615234,4133.846191,4120.512695,4122.563965,4138.974121,4137.436035,4127.692383,4125.641113,4102.563965,4137.948730,4087.179443,4103.589844,796.000000,4.000000,,,,0.000000,4.000000,4.000000,4.000000,4.000000,4.000000,4.000000,4.000000,4.000000,4.000000,4.000000,4.000000,4.000000,4.000000,4.000000,100.000000
1602006064.943498,65.000000,0.000000,4141.538574,4137.436035,4134.871582,4140.000000,4123.077148,4125.128418,4140.512695,4137.948730,4129.743652,4120.512695,4109.743652,4141.025879,4089.743652,4110.256348,792.000000,4.000000,,,,0.000000,4.000000,4.000000,4.000000,4.000000,4.000000,4.000000,4.000000,4.000000,4.000000,4.000000,4.000000,4.000000,4.000000,4.000000,100.000000
1602006064.951380,66.000000,0.000000,4142.563965,4136.922852,4137.948730,4137.436035,4123.077148,4126.153809,4140.000000,4134.358887,4127.179688,4131.282227,4110.256348,4137.948730,4095.897461,4106.153809,847.000000,4.000000,,,,0.000000,4.000000,4.000000,4.000000,4.000000,4.000000,4.000000,4.000000,4.000000,4.000000,4.000000,4.000000,4.000000,4.000000,4.000000,100.000000
1602006064.959262,67.000000,0.000000,4136.410156,4135.384766,4134.358887,4133.846191,4119.487305,4125.641113,4133.333496,4130.256348,4122.051270,4121.538574,4104.102539,4134.871582,4101.538574,4107.179688,869.000000,4.000000,,,,0.000000,4.000000,4.000000,4.000000,4.000000,4.000000,4.000000,4.000000,4.000000,4.000000,4.000000,4.000000,4.000000,4.000000,4.000000,100.000000
1602006064.967244,68.000000,0.000000,4141.538574,4137.436035,4137.948730,4140.000000,4121.538574,4128.205078,4127.179688,4133.846191,4128.717773,4112.307617,4116.922852,4140.000000,4106.666504,4129.230957,817.000000,4.000000,,,,0.000000,4.000000,4.000000,4.000000,4.000000,4.000000,4.000000,4.000000,4.000000,4.000000,4.000000,4.000000,4.000000,4.000000,4.000000,100.000000
1602006064.975126,69.000000,0.000000,4148.205078,4143.589844,4143.589844,4142.563965,4123.589844,4130.256348,4127.692383,4141.538574,4138.461426,4138.461426,4130.256348,4149.230957,4116.410156,4140.000000,826.000000,4.000000,,,,0.000000,4.000000,4.000000,4.000000,4.000000,4.000000,4.000000,4.000000,4.000000,4.000000,4.000000,4.000000,4.000000,4.000000,4.000000,100.000000
1602006064.983009,70.000000,0.000000,4140.512695,4150.769043,4139.487305,4141.025879,4121.538574,4125.128418,4127.179688,4140.000000,4138.974121,4151.282227,4128.205078,4153.846191,4121.025879,4127.692383,766.000000,4.000000,,,,0.000000,4.000000,4.000000,4.000000,4.000000,4.000000,4.000000,4.000000,4.000000,4.000000,4.000000,4.000000,4.000000,4.000000,4.000000,100.000000
1602006064.990891,71.000000,0.000000,4138.974121,4154.358887,4142.563965,4148.717773,4121.025879,4118.461426,4129.743652,4140.000000,4140.512695,4132.820313,4132.307617,4161.025879,4123.589844,4127.692383,674.000000,4.000000,,,,0.000000,4.000000,4.000000,4.000000,4.000000,4.000000,4.000000,4.000000,4.000000,4.000000,4.000000,4.000000,4.000000,4.000000,4.000000,100.000000
1602006064.998773,72.000000,0.000000,4150.256348,4156.410156,4152.820313,4157.436035,4125.128418,4121.025879,4141.538574,4152.820313,4152.820313,4141.538574,4138.974121,4175.897461,4136.410156,4143.589844,787.000000,4.000000,,,,0.000000,4.000000,4.000000,4.000000,4.000000,4.000000,4.000000,4.000000,4.000000,4.000000,4.000000,4.000000,4.000000,4.000000,4.000000,100.000000
1602006065.006656,73.000000,0.000000,4144.615234,4157.436035,4150.256348,4150.769043,4124.615234,4131.794922,4153.333496,4157.436035,4154.871582,4163.589844,4137.436035,4180.000000,4144.615234,4145.641113,842.000000,4.000000,,,,0.000000,4.000000,4.000000,4.000000,4.000000,4.000000,4.000000,4.000000,4.000000,4.000000,4.000000,4.000000,4.000000,4.000000,4.000000,100.000000
1602006065.014538,74.000000,0.000000,4125.128418,4150.769043,4137.436035,4139.487305,4122.563965,4136.922852,4154.871582,4145.641113,4141.538574,4149.230957,4135.384766,4161.538574,4136.410156,4132.307617,872.000000,4.000000,,,,0.000000,4.000000,4.000000,4.000000,4.000000,4.000000,4.000000,4.000000,4.000000,4.000000,4.000000,4.000000,4.000000,4.000000,4.000000,100.000000
1602006065.022420,75.000000,0.000000,4121.025879,4138.974121,4130.769043,4136.410156,4124.102539,4134.358887,4148.205078,4135.897461,4133.846191,4130.769043,4125.641113,4143.589844,4122.563965,4115.897461,837.000000,4.000000,,,,0.000000,4.000000,4.000000,4.000000,4.000000,4.000000,4.000000,4.000000,4.000000,4.000000,4.000000,4.000000,4.000000,4.000000,4.000000,100.000000
1602006065.030303,76.000000,0.000000,4115.897461,4128.717773,4122.051270,4130.769043,4124.102539,4126.153809,4140.000000,4133.333496,4133.846191,4133.333496,4110.256348,4137.948730,4106.153809,4102.563965,768.000000,4.000000,,,,0.000000,4.000000,4.000000,4.000000,4.000000,4.000000,4.000000,4.000000,4.000000,4.000000,4.000000,4.000000,4.000000,4.000000,4.000000,100.000000
1602006065.038085,77.000000,0.000000,4100.000000,4121.025879,4108.205078,4121.538574,4121.025879,4125.641113,4136.410156,4127.692383,4133.846191,4127.179688,4113.333496,4134.871582,4097.948730,4104.615234,748.000000,4.000000,,,,0.000000,4.000000,4.000000,4.000000,4.000000,4.000000,4.000000,4.000000,4.000000,4.000000,4.000000,4.000000,4.000000,4.000000,4.000000,100.000000
1602006065.045967,78.000000,0.000000,4093.333252,4121.025879,4105.128418,4120.000000,4124.102539,4134.871582,4136.922852,4121.025879,4133.333496,4118.974121,4118.461426,4130.256348,4103.589844,4108.205078,872.000000,4.000000,,,,0.000000,4.000000,4.000000,4.000000,4.000000,4.000000,4.000000,4.000000,4.000000,4.000000,4.000000,4.000000,4.000000,4.000000,4.000000,100.000000
1602006065.053849,79.000000,0.000000,4102.051270,4129.743652,4112.307617,4128.717773,4133.333496,4135.897461,4135.384766,4124.615234,4135.384766,4122.051270,4112.820313,4131.282227,4106.153809,4102.051270,837.000000,4.000000,,,,0.000000,4.000000,4.000000,4.000000,4.000000,4.000000,4.000000,4.000000,4.000000,4.000000,4.000000,4.000000,4.000000,4.000000,4.000000,100.000000
1602006065.061730,80.000000,0.000000,4116.410156,4138.461426,4121.538574,4136.922852,4140.000000,4138.461426,4138.974121,4140.512695,4145.641113,4122.051270,4114.871582,4145.641113,4111.794922,4106.666504,768.000000,4.000000,,,,0.000000,4.000000,4.000000,4.000000,4.000000,4.000000,4.000000,4.000000,4.000000,4.000000,4.000000,4.000000,4.000000,4.000000,4.000000,100.000000
1602006065.069612,81.000000,0.000000,4125.641113,4141.025879,4128.717773,4138.461426,4137.948730,4152.307617,4148.717773,4152.820313,4161.538574,4129.230957,4122.051270,4163.589844,4126.666504,4123.589844,748.000000,4.000000,,,,0.000000,4.000000,4.000000,4.000000,4.000000,4.000000,4.000000,4.000000,4.000000,4.000000,4.000000,4.000000,4.000000,4.000000,4.000000,100.000000
1602006065.077494,82.000000,0.000000,4126.153809,4139.487305,4130.256348,4137.436035,4134.871582,4159.487305,4153.333496,4153.333496,4171.794922,4146.153809,4123.589844,4172.307617,4129.743652,4130.769043,872.000000,4.000000,,,,0.000000,4.000000,4.000000,4.000000,4.000000,4.000000,4.000000,4.000000,4.000000,4.000000,4.000000,4.000000,4.000000,4.000000,4.000000,100.000000
1602006065.085376,83.000000,0.000000,4125.128418,4137.948730,4126.666504,4134.871582,4135.897461,4156.922852,4154.358887,4153.333496,4172.820313,4142.563965,4124.615234,4167.179688,4123.077148,4127.179688,837.000000,4.000000,,,,0.000000,4.000000,4.000000,4.000000,4.000000,4.000000,4.000000,4.000000,4.000000,4.000000,4.000000,4.000000,4.000000,4.000000,4.000000,100.000000
1602006065.093158,84.000000,0.000000,4126.666504,4136.410156,4124.615234,4129.230957,4136.410156,4156.922852,4155.384766,4151.282227,4166.666504,4126.153809,4119.487305,4155.897461,4124.102539,4124.615234,768.000000,4.000000,,,,0.000000,4.000000,4.000000,4.000000,4.000000,4.000000,4.000000,4.000000,4.000000,4.000000,4.000000,4.000000,4.000000,4.000000,4.000000,100.000000
1602006065.101040,85.000000,0.000000,4125.128418,4134.871582,4120.000000,4124.102539,4135.897461,4156.922852,4155.384766,4143.077148,4158.461426,4125.128418,4107.692383,4150.769043,4121.538574,4117.436035,748.000000,4.000000,,,,0.000000,4.000000,4.000000,4.000000,4.000000,4.000000,4.000000,4.000000,4.000000,4.000000,4.000000,4.000000,4.000000,4.000000,4.000000,100.000000
1602006065.108922,86.000000,0.000000,4117.436035,4135.384766,4109.743652,4127.179688,4138.461426,4149.230957,4148.205078,4135.384766,4148.205078,4126.666504,4103.077148,4151.794922,4108.205078,4103.589844,872.000000,4.000000,,,,0.000000,4.000000,4.000000,4.000000,4.000000,4.000000,4.000000,4.000000,4.000000,4.000000,4.000000,4.000000,4.000000,4.000000,4.000000,100.000000
1602006065.116804,87.000000,0.000000,4114.358887,4134.871582,4106.666504,4133.333496,4137.436035,4137.436035,4135.384766,4125.128418,4135.897461,4118.974121,4108.717773,4149.230957,4100.512695,4105.128418,837.000000,4.000000,,,,0.000000,4.000000,4.000000,4.000000,4.000000,4.000000,4.000000,4.000000,4.000000,4.000000,4.000000,4.000000,4.000000,4.000000,4.000000,100.000000
1602006065.124686,88.000000,0.000000,4123.077148,4134.871582,4120.512695,4138.461426,4135.897461,4131.794922,4130.769043,4121.025879,4138.974121,4122.563965,4116.410156,4150.769043,4112.307617,4118.974121,768.000000,4.000000,,,,0.000000,4.000000,4.000000,4.000000,4.000000,4.000000,4.000000,4.000000,4.000000,4.000000,4.000000,4.000000,4.000000,4.000000,4.000000,100.000000
1602006065.132567,89.000000,0.000000,4133.846191,4141.025879,4137.436035,4141.538574,4141.025879,4137.436035,4135.897461,4133.846191,4153.333496,4128.205078,4122.051270,4164.615234,4126.666504,4122.563965,748.000000,4.000000,,,,0.000000,4.000000,4.000000,4.000000,4.000000,4.000000,4.000000,4.000000,4.000000,4.000000,4.000000,4.000000,4.000000,4.000000,4.000000,100.000000
1602006065.140350,90.000000,0.000000,4139.487305,4145.128418,4141.025879,4140.512695,4137.436035,4135.384766,4136.410156,4141.025879,4145.128418,4113.846191,4123.589844,4180.000000,4123.589844,4126.666504,872.000000,4.000000,,,,0.000000,4.000000,4.000000,4.000000,4.000000,4.000000,4.000000,4.000000,4.000000,4.000000,4.000000,4.000000,4.000000,4.000000,4.000000,100.000000
1602006065.148233,91.000000,0.000000,4149.230957,4143.589844,4138.461426,4137.948730,4122.051270,4125.128418,4132.820313,4135.897461,4132.820313,4113.846191,4122.563965,4184.102539,4122.051270,4144.615234,837.000000,4.000000,,,,0.000000,4.000000,4.000000,4.000000,4.000000,4.000000,4.000000,4.000000,4.000000,4.000000,4.000000,4.000000,4.000000,4.000000,4.000000,100.000000
1602006065.156115,92.000000,0.000000,4163.589844,4142.563965,4142.563965,4136.922852,4121.538574,4130.769043,4143.589844,4143.589844,4151.794922,4145.128418,4129.230957,4185.641113,4141.025879,4156.410156,768.000000,4.000000,,,,0.000000,4.000000,4.000000,4.000000,4.000000,4.000000,4.000000,4.000000,4.000000,4.000000,4.000000,4.000000,4.000000,4.000000,4.000000,100.000000
1602006065.163998,93.000000,0.000000,4164.615234,4142.563965,4145.641113,4139.487305,4136.410156,4147.692383,4158.461426,4155.897461,4173.333496,4163.077148,4138.461426,4185.641113,4156.922852,4154.358887,748.000000,4.000000,,,,0.000000,4.000000,4.000000,4.000000,4.000000,4.000000,4.000000,4.000000,4.000000,4.000000,4.000000,4.000000,4.000000,4.000000,4.000000,100.000000
1602006065.171881,94.000000,0.000000,4155.897461,4141.538574,4143.077148,4141.538574,4138.461426,4155.384766,4160.000000,4154.358887,4171.794922,4158.974121,4146.153809,4185.128418,4152.820313,4150.256348,872.000000,4.000000,,,,0.000000,4.000000,4.000000,4.000000,4.000000,4.000000,4.000000,4.000000,4.000000,4.000000,4.000000,4.000000,4.000000,4.000000,4.000000,100.000000
1602006065.179763,95.000000,0.000000,4149.230957,4136.410156,4141.538574,4137.948730,4130.769043,4151.282227,4153.333496,4148.717773,4159.487305,4157.436035,4145.641113,4183.589844,4143.589844,4144.102539,837.000000,4.000000,,,,0.000000,4.000000,4.000000,4.000000,4.000000,4.000000,4.000000,4.000000,4.000000,4.000000,4.000000,4.000000,4.000000,4.000000,4.000000,100.000000
1602006065.187646,96.000000,0.000000,4137.436035,4126.153809,4133.846191,4133.333496,4127.692383,4142.563965,4145.641113,4140.512695,4145.641113,4144.615234,4129.743652,4175.897461,4132.820313,4135.897461,768.000000,4.000000,,,,0.000000,4.000000,4.000000,4.000000,4.000000,4.000000,4.000000,4.000000,4.000000,4.000000,4.000000,4.000000,4.000000,4.000000,4.000000,100.000000
1602006065.195528,97.000000,0.000000,4121.025879,4119.487305,4122.051270,4134.358887,4126.153809,4134.871582,4135.384766,4127.179688,4136.410156,4116.922852,4114.871582,4166.666504,4121.538574,4131.282227,748.000000,4.000000,,,,0.000000,4.000000,4.000000,4.000000,4.000000,4.000000,4.000000,4.000000,4.000000,4.000000,4.000000,4.000000,4.000000,4.000000,4.000000,100.000000
1602006065.203411,98.000000,0.000000,4116.922852,4122.563965,4126.153809,4136.922852,4126.153809,4130.256348,4129.230957,4121.538574,4131.794922,4101.538574,4117.436035,4166.153809,4120.000000,4120.512695,872.000000,4.000000,,,,0.000000,4.000000,4.000000,4.000000,4.000000,4.000000,4.000000,4.000000,4.000000,4.000000,4.000000,4.000000,4.000000,4.000000,4.000000,100.000000
1602006065.211392,99.000000,0.000000,4121.025879,4127.692383,4135.897461,4137.436035,4128.717773,4126.153809,4124.102539,4124.615234,4126.666504,4105.128418,4125.641113,4170.256348,4121.538574,4115.384766,837.000000,4.000000,,,,0.000000,4.000000,4.000000,4.000000,4.000000,4.000000,4.000000,4.000000,4.000000,4.000000,4.000000,4.000000,4.000000,4.000000,4.000000,100.000000
1602006065.219273,100.000000,0.000000,4121.538574,4128.205078,4130.769043,4137.436035,4125.128418,4115.897461,4113.333496,4123.077148,4125.128418,4117.436035,4123.077148,4166.153809,4115.384766,4124.102539,768.000000,4.000000,,,,0.000000,4.000000,4.000000,4.000000,4.000000,4.000000,4.000000,4.000000,4.000000,4.000000,4.000000,4.000000,4.000000,4.000000,4.000000,100.000000
1602006065.227154,101.000000,0.000000,4123.077148,4128.205078,4123.077148,4137.948730,4118.974121,4103.077148,4112.307617,4120.512695,4122.563965,4127.179688,4118.974121,4158.461426,4110.256348,4129.743652,748.000000,4.000000,,,,0.000000,4.000000,4.000000,4.000000,4.000000,4.000000,4.000000,4.000000,4.000000,4.000000,4.000000,4.000000,4.000000,4.000000,4.000000,100.000000
1602006065.234935,102.000000,0.000000,4129.743652,4132.820313,4128.717773,4138.461426,4116.410156,4102.051270,4122.051270,4121.538574,4115.384766,4128.205078,4118.461426,4158.974121,4113.846191,4124.615234,872.000000,4.000000,,,,0.000000,4.000000,4.000000,4.000000,4.000000,4.000000,4.000000,4.000000,4.000000,4.000000,4.000000,4.000000,4.000000,4.000000,4.000000,100.000000
1602006065.242917,103.000000,0.000000,4135.384766,4140.000000,4137.436035,4138.974121,4119.487305,4113.846191,4128.717773,4124.615234,4117.948730,4121.538574,4125.128418,4163.589844,4122.563965,4120.512695,837.000000,4.000000,,,,0.000000,4.000000,4.000000,4.000000,4.000000,4.000000,4.000000,4.000000,4.000000,4.000000,4.000000,4.000000,4.000000,4.000000,4.000000,100.000000
1602006065.250799,104.000000,0.000000,4137.948730,4142.051270,4138.461426,4140.000000,4130.769043,4121.538574,4131.794922,4126.666504,4130.769043,4122.563965,4136.410156,4166.666504,4134.358887,4127.692383,768.000000,4.000000,,,,0.000000,4.000000,4.000000,4.000000,4.000000,4.000000,4.000000,4.000000,4.000000,4.000000,4.000000,4.000000,4.000000,4.000000,4.000000,100.000000
1602006065.258682,105.000000,0.000000,4141.538574,4141.538574,4137.948730,4139.487305,4136.410156,4126.666504,4137.436035,4127.692383,4137.436035,4134.871582,4139.487305,4169.743652,4143.077148,4142.051270,748.000000,4.000000,,,,0.000000,4.000000,4.000000,4.000000,4.000000,4.000000,4.000000,4.000000,4.000000,4.000000,4.000000,4.000000,4.000000,4.000000,4.000000,100.000000
1602006065.266564,106.000000,0.000000,4140.512695,4138.461426,4137.436035,4136.922852,4128.205078,4130.256348,4136.922852,4127.179688,4137.436035,4139.487305,4136.922852,4167.692383,4141.025879,4140.512695,872.000000,4.000000,,,,0.000000,4.000000,4.000000,4.000000,4.000000,4.000000,4.000000,4.000000,4.000000,4.000000,4.000000,4.000000,4.000000,4.000000,4.000000,100.000000
1602006065.274446,107.000000,0.000000,4128.717773,4130.256348,4137.948730,4134.358887,4121.538574,4125.641113,4125.641113,4123.077148,4138.461426,4133.846191,4135.384766,4163.589844,4135.897461,4125.128418,837.000000,4.000000,,,,0.000000,4.000000,4.000000,4.000000,4.000000,4.000000,4.000000,4.000000,4.000000,4.000000,4.000000,4.000000,4.000000,4.000000,4.000000,100.000000
1602006065.282328,108.000000,0.000000,4120.512695,4128.717773,4138.974121,4135.384766,4124.615234,4124.615234,4121.025879,4121.025879,4137.948730,4137.436035,4130.769043,4166.666504,4137.948730,4122.051270,768.000000,4.000000,,,,0.000000,4.000000,4.000000,4.000000,4.000000,4.000000,4.000000,4.000000,4.000000,4.000000,4.000000,4.000000,4.000000,4.000000,4.000000,100.000000
1602006065.290210,109.000000,0.000000,4123.589844,4134.871582,4140.512695,4137.436035,4124.615234,4132.307617,4125.641113,4124.615234,4132.820313,4141.538574,4124.102539,4168.205078,4140.512695,4128.205078,748.000000,4.000000,,,,0.000000,4.000000,4.000000,4.000000,4.000000,4.000000,4.000000,4.000000,4.000000,4.000000,4.000000,4.000000,4.000000,4.000000,4.000000,100.000000
1602006065.297993,110.000000,0.000000,4125.641113,4137.436035,4139.487305,4140.512695,4119.487305,4132.820313,4124.615234,4123.589844,4125.128418,4129.743652,4121.025879,4162.051270,4127.179688,4125.128418,872.000000,4.000000,,,,0.000000,4.000000,4.000000,4.000000,4.000000,4.000000,4.000000,4.000000,4.000000,4.000000,4.000000,4.000000,4.000000,4.000000,4.000000,100.000000
1602006065.305875,111.000000,0.000000,4123.589844,4137.436035,4136.410156,4144.102539,4121.538574,4126.153809,4118.974121,4117.436035,4120.512695,4118.461426,4118.461426,4154.871582,4109.743652,4120.512695,837.000000,4.000000,,,,0.000000,4.000000,4.000000,4.000000,4.000000,4.000000,4.000000,4.000000,4.000000,4.000000,4.000000,4.000000,4.000000,4.000000,4.000000,100.000000
1602006065.313757,112.000000,0.000000,4130.769043,4138.461426,4133.846191,4141.538574,4131.282227,4124.615234,4120.000000,4120.512695,4121.025879,4120.000000,4120.512695,4147.692383,4115.384766,4123.589844,768.000000,4.000000,,,,0.000000,4.000000,4.000000,4.000000,4.000000,4.000000,4.000000,4.000000,4.000000,4.000000,4.000000,4.000000,4.000000,4.000000,4.000000,100.000000
1602006065.321640,113.000000,0.000000,4139.487305,4138.974121,4124.615234,4137.948730,4137.436035,4129.743652,4124.102539,4128.205078,4129.743652,4127.179688,4125.641113,4135.897461,4127.179688,4124.615234,748.000000,4.000000,,,,0.000000,4.000000,4.000000,4.000000,4.000000,4.000000,4.000000,4.000000,4.000000,4.000000,4.000000,4.000000,4.000000,4.000000,4.000000,100.000000
1602006065.329522,114.000000,0.000000,4132.820313,4138.461426,4112.820313,4138.974121,4136.410156,4135.384766,4129.743652,4125.641113,4135.897461,4136.922852,4122.051270,4126.153809,4122.563965,4112.820313,872.000000,4.000000,,,,0.000000,4.000000,4.000000,4.000000,4.000000,4.000000,4.000000,4.000000,4.000000,4.000000,4.000000,4.000000,4.000000,4.000000,4.000000,100.000000
1602006065.337404,115.000000,0.000000,4121.538574,4136.410156,4112.307617,4140.000000,4136.410156,4137.436035,4136.410156,4124.102539,4135.384766,4140.512695,4120.000000,4129.743652,4122.563965,4103.589844,837.000000,4.000000,,,,0.000000,4.000000,4.000000,4.000000,4.000000,4.000000,4.000000,4.000000,4.000000,4.000000,4.000000,4.000000,4.000000,4.000000,4.000000,100.000000
1602006065.345287,116.000000,0.000000,4122.563965,4135.384766,4122.051270,4138.974121,4138.461426,4137.436035,4138.974121,4132.307617,4144.102539,4137.436035,4130.769043,4142.051270,4137.948730,4114.358887,768.000000,4.000000,,,,0.000000,4.000000,4.000000,4.000000,4.000000,4.000000,4.000000,4.000000,4.000000,4.000000,4.000000,4.000000,4.000000,4.000000,4.000000,100.000000
1602006065.353169,117.000000,0.000000,4134.358887,4136.410156,4124.102539,4137.436035,4133.333496,4138.461426,4140.512695,4143.077148,4158.461426,4138.974121,4141.538574,4154.358887,4145.641113,4126.153809,748.000000,4.000000,,,,0.000000,4.000000,4.000000,4.000000,4.000000,4.000000,4.000000,4.000000,4.000000,4.000000,4.000000,4.000000,4.000000,4.000000,4.000000,100.000000
1602006065.361151,118.000000,0.000000,4136.410156,4135.897461,4126.153809,4135.384766,4125.641113,4138.461426,4144.102539,4150.769043,4161.025879,4142.051270,4138.974121,4164.102539,4142.051270,4127.692383,872.000000,4.000000,,,,0.000000,4.000000,4.000000,4.000000,4.000000,4.000000,4.000000,4.000000,4.000000,4.000000,4.000000,4.000000,4.000000,4.000000,4.000000,100.000000
1602006065.369034,119.000000,0.000000,4132.820313,4134.871582,4135.384766,4135.384766,4121.538574,4138.974121,4145.641113,4152.307617,4157.436035,4143.077148,4130.769043,4171.794922,4139.487305,4134.358887,837.000000,4.000000,,,,0.000000,4.000000,4.000000,4.000000,4.000000,4.000000,4.000000,4.000000,4.000000,4.000000,4.000000,4.000000,4.000000,4.000000,4.000000,100.000000
1602006065.376916,120.000000,0.000000,4143.589844,4138.974121,4144.615234,4141.538574,4120.512695,4136.922852,4142.051270,4144.102539,4145.641113,4141.538574,4125.641113,4169.743652,4132.307617,4141.025879,768.000000,4.000000,,,,0.000000,4.000000,4.000000,4.000000,4.000000,4.000000,4.000000,4.000000,4.000000,4.000000,4.000000,4.000000,4.000000,4.000000,4.000000,100.000000
1602006065.384798,121.000000,0.000000,4154.871582,4141.025879,4143.589844,4142.563965,4120.000000,4126.666504,4132.820313,4125.641113,4118.974121,4131.282227,4123.589844,4157.436035,4121.538574,4127.692383,748.000000,4.000000,,,,0.000000,4.000000,4.000000,4.000000,4.000000,4.000000,4.000000,4.000000,4.000000,4.000000,4.000000,4.000000,4.000000,4.000000,4.000000,100.000000
1602006065.392681,122.000000,0.000000,4143.589844,4136.922852,4131.794922,4138.461426,4120.000000,4113.333496,4115.384766,4108.205078,4097.436035,4120.512695,4122.051270,4144.615234,4118.461426,4114.358887,872.000000,4.000000,,,,0.000000,4.000000,4.000000,4.000000,4.000000,4.000000,4.000000,4.000000,4.000000,4.000000,4.000000,4.000000,4.000000,4.000000,4.000000,100.000000
1602006065.400563,123.000000,0.000000,4130.769043,4136.410156,4115.897461,4140.512695,4126.666504,4109.230957,4102.563965,4100.000000,4091.794922,4113.846191,4118.461426,4136.410156,4120.000000,4115.897461,837.000000,4.000000,,,,0.000000,4.000000,4.000000,4.000000,4.000000,4.000000,4.000000,4.000000,4.000000,4.000000,4.000000,4.000000,4.000000,4.000000,4.000000,100.000000
1602006065.408445,124.000000,0.000000,4138.974121,4143.077148,4108.717773,4145.641113,4139.487305,4117.436035,4108.205078,4101.025879,4088.205078,4099.487305,4116.922852,4134.871582,4123.589844,4113.333496,768.000000,4.000000,,,,0.000000,4.000000,4.000000,4.000000,4.000000,4.000000,4.000000,4.000000,4.000000,4.000000,4.000000,4.000000,4.000000,4.000000,4.000000,100.000000
1602006065.416328,125.000000,0.000000,4140.512695,4146.666504,4109.743652,4143.589844,4143.589844,4126.153809,4119.487305,4107.179688,4097.436035,4093.846191,4125.641113,4136.410156,4130.256348,4109.230957,748.000000,4.000000,,,,0.000000,4.000000,4.000000,4.000000,4.000000,4.000000,4.000000,4.000000,4.000000,4.000000,4.000000,4.000000,4.000000,4.000000,4.000000,100.000000
1602006065.424210,126.000000,0.000000,4126.666504,4141.538574,4116.922852,4138.974121,4137.948730,4124.615234,4121.025879,4116.922852,4124.102539,4125.128418,4135.384766,4141.538574,4137.436035,4120.512695,872.000000,4.000000,,,,0.000000,4.000000,4.000000,4.000000,4.000000,4.000000,4.000000,4.000000,4.000000,4.000000,4.000000,4.000000,4.000000,4.000000,4.000000,100.000000
1602006065.431992,127.000000,0.000000,4118.974121,4137.436035,4129.230957,4139.487305,4133.846191,4125.641113,4125.128418,4130.256348,4141.538574,4154.871582,4136.922852,4153.333496,4145.641113,4136.410156,837.000000,4.000000,,,,0.000000,4.000000,4.000000,4.000000,4.000000,4.000000,4.000000,4.000000,4.000000,4.000000,4.000000,4.000000,4.000000,4.000000,4.000000,100.000000
1602006065.439874,128.000000,0.000000,4124.102539,4134.871582,4139.487305,4138.974121,4129.743652,4135.897461,4137.436035,4146.153809,4149.230957,4148.717773,4144.615234,4167.692383,4154.871582,4149.743652,768.000000,4.000000,,,,0.000000,4.000000,4.000000,4.000000,4.000000,4.000000,4.000000,4.000000,4.000000,4.000000,4.000000,4.000000,4.000000,4.000000,4.000000,100.000000
1602006065.447757,0.000000,0.000000,4135.897461,4127.179688,4146.666504,4131.282227,4117.948730,4138.974121,4144.615234,4158.461426,4152.820313,4133.333496,4156.922852,4173.333496,4162.051270,4165.128418,796.000000,4.000000,,,,0.000000,4.000000,4.000000,4.000000,4.000000,4.000000,4.000000,4.000000,4.000000,4.000000,4.000000,4.000000,4.000000,4.000000,4.000000,100.000000
1602006065.455639,1.000000,0.000000,4141.025879,4123.077148,4150.256348,4126.153809,4108.205078,4135.897461,4145.641113,4154.871582,4141.538574,4126.666504,4153.846191,4168.717773,4158.974121,4169.230957,792.000000,4.000000,,,,0.000000,4.000000,4.000000,4.000000,4.000000,4.000000,4.000000,4.000000,4.000000,4.000000,4.000000,4.000000,4.000000,4.000000,4.000000,100.000000
1602006065.463521,2.000000,0.000000,4139.487305,4130.256348,4145.128418,4130.769043,4113.846191,4139.487305,4142.051270,4140.512695,4122.051270,4129.230957,4139.487305,4158.974121,4146.666504,4159.487305,850.000000,4.000000,,,,0.000000,4.000000,4.000000,4.000000,4.000000,4.000000,4.000000,4.000000,4.000000,4.000000,4.000000,4.000000,4.000000,4.000000,4.000000,100.000000
1602006065.471403,3.000000,0.000000,4138.974121,4135.897461,4132.820313,4136.410156,4129.230957,4135.897461,4124.615234,4120.512695,4104.615234,4126.666504,4125.128418,4139.487305,4139.487305,4149.743652,869.000000,4.000000,,,,0.000000,4.000000,4.000000,4.000000,4.000000,4.000000,4.000000,4.000000,4.000000,4.000000,4.000000,4.000000,4.000000,4.000000,4.000000,100.000000
1602006065.479285,4.000000,0.000000,4133.846191,4134.358887,4115.897461,4135.384766,4136.410156,4117.948730,4105.128418,4100.000000,4091.794922,4114.871582,4111.282227,4115.384766,4133.846191,4134.871582,817.000000,4.000000,,,,0.000000,4.000000,4.000000,4.000000,4.000000,4.000000,4.000000,4.000000,4.000000,4.000000,4.000000,4.000000,4.000000,4.000000,4.000000,100.000000
1602006065.487268,5.000000,0.000000,4121.538574,4135.897461,4103.589844,4137.436035,4135.897461,4112.820313,4101.025879,4095.384521,4094.871826,4115.897461,4107.692383,4102.563965,4126.153809,4114.871582,826.000000,4.000000,,,,0.000000,4.000000,4.000000,4.000000,4.000000,4.000000,4.000000,4.000000,4.000000,4.000000,4.000000,4.000000,4.000000,4.000000,4.000000,100.000000
1602006065.495150,6.000000,0.000000,4118.461426,4140.000000,4103.077148,4140.000000,4139.487305,4123.077148,4103.077148,4103.077148,4108.717773,4120.000000,4109.743652,4103.077148,4121.025879,4104.615234,766.000000,4.000000,,,,0.000000,4.000000,4.000000,4.000000,4.000000,4.000000,4.000000,4.000000,4.000000,4.000000,4.000000,4.000000,4.000000,4.000000,4.000000,100.000000
1602006065.503033,7.000000,0.000000,4121.025879,4139.487305,4109.230957,4136.922852,4142.563965,4125.641113,4103.077148,4111.282227,4114.871582,4112.307617,4107.179688,4111.282227,4118.974121,4104.615234,674.000000,4.000000,,,,0.000000,4.000000,4.000000,4.000000,4.000000,4.000000,4.000000,4.000000,4.000000,4.000000,4.000000,4.000000,4.000000,4.000000,4.000000,100.000000
1602006065.510915,8.000000,0.000000,4117.948730,4138.461426,4116.410156,4135.384766,4136.922852,4120.512695,4107.179688,4119.487305,4122.051270,4109.743652,4115.897461,4127.179688,4121.538574,4115.384766,787.000000,4.000000,,,,0.000000,4.000000,4.000000,4.000000,4.000000,4.000000,4.000000,4.000000,4.000000,4.000000,4.000000,4.000000,4.000000,4.000000,4.000000,100.000000
1602006065.518798,9.000000,0.000000,4127.179688,4141.025879,4129.230957,4137.436035,4130.256348,4122.051270,4120.512695,4129.230957,4138.974121,4126.666504,4135.897461,4140.000000,4133.333496,4142.051270,842.000000,4.000000,,,,0.000000,4.000000,4.000000,4.000000,4.000000,4.000000,4.000000,4.000000,4.000000,4.000000,4.000000,4.000000,4.000000,4.000000,4.000000,100.000000
1602006065.526681,10.000000,0.000000,4149.230957,4140.512695,4141.025879,4136.410156,4128.717773,4126.666504,4132.307617,4136.410156,4144.102539,4135.384766,4138.974121,4142.563965,4142.051270,4157.948730,872.000000,4.000000,,,,0.000000,4.000000,4.000000,4.000000,4.000000,4.000000,4.000000,4.000000,4.000000,4.000000,4.000000,4.000000,4.000000,4.000000,4.000000,100.000000
1602006065.534563,11.000000,0.000000,4161.025879,4135.897461,4142.051270,4135.384766,4118.974121,4125.641113,4138.461426,4137.948730,4133.846191,4116.922852,4129.230957,4141.025879,4136.922852,4148.717773,837.000000,4.000000,,,,0.000000,4.000000,4.000000,4.000000,4.000000,4.000000,4.000000,4.000000,4.000000,4.000000,4.000000,4.000000,4.000000,4.000000,4.000000,100.000000
1602006065.542446,12.000000,0.000000,4159.487305,4132.307617,4139.487305,4134.871582,4107.692383,4121.025879,4140.512695,4136.410156,4125.641113,4100.512695,4128.205078,4138.974121,4134.871582,4138.974121,768.000000,4.000000,,,,0.000000,4.000000,4.000000,4.000000,4.000000,4.000000,4.000000,4.000000,4.000000,4.000000,4.000000,4.000000,4.000000,4.000000,4.000000,100.000000
1602006065.550328,13.000000,0.000000,4157.948730,4136.410156,4143.077148,4138.461426,4116.922852,4121.025879,4134.871582,4136.922852,4126.153809,4110.769043,4136.410156,4140.512695,4139.487305,4141.538574,748.000000,4.000000,,,,0.000000,4.000000,4.000000,4.000000,4.000000,4.000000,4.000000,4.000000,4.000000,4.000000,4.000000,4.000000,4.000000,4.000000,4.000000,100.000000
1602006065.558211,14.000000,0.000000,4161.025879,4146.153809,4146.153809,4149.743652,4138.461426,4122.563965,4126.666504,4133.333496,4125.641113,4127.179688,4144.102539,4143.589844,4145.128418,4143.589844,872.000000,4.000000,,,,0.000000,4.000000,4.000000,4.000000,4.000000,4.000000,4.000000,4.000000,4.000000,4.000000,4.000000,4.000000,4.000000,4.000000,4.000000,100.000000
1602006065.565993,15.000000,0.000000,4155.897461,4148.205078,4135.897461,4153.333496,4143.077148,4120.512695,4118.461426,4120.512695,4116.922852,4121.025879,4137.436035,4136.410156,4143.077148,4135.897461,837.000000,4.000000,,,,0.000000,4.000000,4.000000,4.000000,4.000000,4.000000,4.000000,4.000000,4.000000,4.000000,4.000000,4.000000,4.000000,4.000000,4.000000,100.000000
1602006065.573875,16.000000,0.000000,4136.410156,4137.436035,4124.615234,4144.615234,4131.794922,4122.051270,4113.846191,4115.897461,4111.794922,4121.538574,4119.487305,4123.589844,4124.615234,4115.897461,0.000000,4.000000,,,,0.000000,4.000000,4.000000,4.000000,4.000000,4.000000,4.000000,4.000000,4.000000,4.000000,4.000000,4.000000,4.000000,4.000000,4.000000,100.000000
1602006065.581757,17.000000,0.000000,4113.846191,4123.589844,4116.410156,4132.307617,4122.563965,4122.563965,4113.846191,4120.000000,4115.384766,4125.641113,4107.692383,4116.922852,4106.153809,4088.718018,0.000000,4.000000,,,,0.000000,4.000000,4.000000,4.000000,4.000000,4.000000,4.000000,4.000000,4.000000,4.000000,4.000000,4.000000,4.000000,4.000000,4.000000,100.000000
1602006065.589639,18.000000,0.000000,4107.179688,4116.922852,4104.615234,4123.077148,4118.461426,4119.487305,4121.538574,4125.641113,4124.615234,4107.179688,4107.179688,4114.871582,4104.102539,4082.051270,0.000000,4.000000,,,,0.000000,4.000000,4.000000,4.000000,4.000000,4.000000,4.000000,4.000000,4.000000,4.000000,4.000000,4.000000,4.000000,4.000000,4.000000,100.000000
1602006065.597522,19.000000,0.000000,4114.358887,4120.512695,4104.102539,4123.077148,4119.487305,4129.743652,4135.384766,4135.384766,4136.410156,4108.717773,4111.794922,4120.000000,4109.743652,4101.538574,0.000000,4.000000,,,,0.000000,4.000000,4.000000,4.000000,4.000000,4.000000,4.000000,4.000000,4.000000,4.000000,4.000000,4.000000,4.000000,4.000000,4.000000,100.000000
1602006065.605404,20.000000,0.000000,4123.589844,4123.589844,4117.436035,4126.666504,4122.051270,4146.153809,4143.589844,4142.051270,4139.487305,4123.077148,4119.487305,4131.282227,4109.743652,4111.282227,0.000000,4.000000,,,,0.000000,4.000000,4.000000,4.000000,4.000000,4.000000,4.000000,4.000000,4.000000,4.000000,4.000000,4.000000,4.000000,4.000000,4.000000,100.000000
1602006065.613286,21.000000,0.000000,4124.615234,4118.461426,4123.077148,4123.589844,4123.589844,4142.563965,4144.102539,4140.000000,4137.948730,4114.358887,4122.563965,4138.974121,4106.153809,4101.538574,0.000000,4.000000,,,,0.000000,4.000000,4.000000,4.000000,4.000000,4.000000,4.000000,4.000000,4.000000,4.000000,4.000000,4.000000,4.000000,4.000000,4.000000,100.000000
1602006065.621268,22.000000,0.000000,4120.512695,4115.897461,4125.128418,4118.461426,4123.589844,4128.205078,4142.051270,4137.436035,4139.487305,4118.461426,4113.333496,4133.846191,4106.666504,4103.589844,0.000000,4.000000,,,,0.000000,4.000000,4.000000,4.000000,4.000000,4.000000,4.000000,4.000000,4.000000,4.000000,4.000000,4.000000,4.000000,4.000000,4.000000,100.000000
1602006065.629149,23.000000,0.000000,4130.256348,4119.487305,4135.897461,4123.589844,4122.563965,4127.692383,4138.974121,4133.333496,4133.333496,4140.512695,4112.820313,4128.717773,4113.333496,4127.179688,0.000000,4.000000,,,,0.000000,4.000000,4.000000,4.000000,4.000000,4.000000,4.000000,4.000000,4.000000,4.000000,4.000000,4.000000,4.000000,4.000000,4.000000,100.000000
1602006065.637031,24.000000,0.000000,4150.256348,4120.000000,4145.641113,4132.820313,4121.025879,4129.743652,4131.282227,4124.615234,4124.615234,4133.333496,4128.717773,4134.871582,4118.461426,4137.436035,0.000000,4.000000,,,,0.000000,4.000000,4.000000,4.000000,4.000000,4.000000,4.000000,4.000000,4.000000,4.000000,4.000000,4.000000,4.000000,4.000000,4.000000,100.000000
1602006065.644913,25.000000,0.000000,4156.922852,4130.256348,4151.282227,4140.512695,4122.563965,4126.666504,4123.077148,4121.538574,4131.794922,4114.871582,4143.077148,4142.051270,4129.743652,4135.384766,0.000000,4.000000,,,,0.000000,4.000000,4.000000,4.000000,4.000000,4.000000,4.000000,4.000000,4.000000,4.000000,4.000000,4.000000,4.000000,4.000000,4.000000,100.000000
1602006065.652795,26.000000,0.000000,4146.153809,4144.615234,4157.436035,4142.563965,4126.153809,4127.692383,4119.487305,4122.563965,4141.538574,4125.128418,4140.000000,4136.922852,4142.051270,4138.974121,0.000000,4.000000,,,,0.000000,4.000000,4.000000,4.000000,4.000000,4.000000,4.000000,4.000000,4.000000,4.000000,4.000000,4.000000,4.000000,4.000000,4.000000,100.000000
1602006065.660677,27.000000,0.000000,4128.717773,4134.871582,4152.307617,4135.384766,4125.128418,4128.717773,4119.487305,4122.051270,4137.948730,4131.794922,4123.077148,4126.153809,4127.179688,4116.922852,0.000000,4.000000,,,,0.000000,4.000000,4.000000,4.000000,4.000000,4.000000,4.000000,4.000000,4.000000,4.000000,4.000000,4.000000,4.000000,4.000000,4.000000,100.000000
1602006065.668659,28.000000,0.000000,4116.922852,4120.512695,4140.000000,4128.717773,4120.512695,4129.230957,4121.538574,4123.077148,4132.307617,4121.538574,4120.000000,4120.000000,4114.871582,4088.205078,0.000000,4.000000,,,,0.000000,4.000000,4.000000,4.000000,4.000000,4.000000,4.000000,4.000000,4.000000,4.000000,4.000000,4.000000,4.000000,4.000000,4.000000,100.000000
1602006065.676541,29.000000,0.000000,4107.692383,4123.589844,4132.307617,4127.179688,4121.025879,4134.358887,4121.538574,4122.563965,4132.820313,4117.436035,4134.871582,4120.000000,4137.948730,4109.743652,0.000000,4.000000,,,,0.000000,4.000000,4.000000,4.000000,4.000000,4.000000,4.000000,4.000000,4.000000,4.000000,4.000000,4.000000,4.000000,4.000000,4.000000,100.000000
1602006065.684423,30.000000,0.000000,4093.846191,4122.051270,4126.153809,4125.641113,4124.615234,4136.922852,4126.666504,4125.128418,4130.256348,4120.512695,4143.077148,4127.692383,4157.948730,4143.077148,0.000000,4.000000,,,,0.000000,4.000000,4.000000,4.000000,4.000000,4.000000,4.000000,4.000000,4.000000,4.000000,4.000000,4.000000,4.000000,4.000000,4.000000,100.000000
1602006065.692305,31.000000,0.000000,4084.615479,4105.641113,4119.487305,4120.512695,4128.205078,4134.358887,4135.897461,4134.358887,4122.051270,4124.102539,4140.000000,4135.384766,4158.461426,4135.897461,0.000000,4.000000,,,,0.000000,4.000000,4.000000,4.000000,4.000000,4.000000,4.000000,4.000000,4.000000,4.000000,4.000000,4.000000,4.000000,4.000000,4.000000,100.000000
1602006065.700187,32.000000,0.000000,4087.179443,4096.410156,4120.000000,4118.461426,4134.358887,4135.384766,4138.974121,4138.974121,4120.000000,4136.922852,4140.512695,4138.974121,4173.846191,4134.358887,0.000000,4.000000,,,,0.000000,4.000000,4.000000,4.000000,4.000000,4.000000,4.000000,4.000000,4.000000,4.000000,4.000000,4.000000,4.000000,4.000000,4.000000,100.000000
1602006065.708070,33.000000,0.000000,4089.743652,4096.922852,4128.205078,4120.512695,4144.102539,4138.974121,4139.487305,4140.000000,4135.384766,4158.461426,4151.282227,4147.692383,4194.358887,4162.051270,0.000000,4.000000,,,,0.000000,4.000000,4.000000,4.000000,4.000000,4.000000,4.000000,4.000000,4.000000,4.000000,4.000000,4.000000,4.000000,4.000000,4.000000,100.000000
1602006065.715952,34.000000,0.000000,4095.384521,4097.948730,4138.974121,4122.051270,4145.641113,4136.410156,4141.025879,4141.538574,4152.820313,4174.358887,4172.307617,4156.922852,4202.051270,4185.641113,0.000000,4.000000,,,,0.000000,4.000000,4.000000,4.000000,4.000000,4.000000,4.000000,4.000000,4.000000,4.000000,4.000000,4.000000,4.000000,4.000000,4.000000,100.000000
1602006065.723734,35.000000,0.000000,4107.179688,4101.025879,4147.692383,4121.538574,4140.512695,4137.436035,4138.461426,4139.487305,4161.538574,4189.743652,4188.205078,4158.974121,4214.871582,4195.897461,0.000000,4.000000,,,,0.000000,4.000000,4.000000,4.000000,4.000000,4.000000,4.000000,4.000000,4.000000,4.000000,4.000000,4.000000,4.000000,4.000000,4.000000,100.000000
1602006065.731616,36.000000,0.000000,4111.794922,4103.589844,4148.717773,4120.000000,4139.487305,4139.487305,4134.871582,4135.897461,4168.717773,4192.307617,4187.179688,4157.436035,4227.179688,4197.436035,0.000000,4.000000,,,,0.000000,4.000000,4.000000,4.000000,4.000000,4.000000,4.000000,4.000000,4.000000,4.000000,4.000000,4.000000,4.000000,4.000000,4.000000,100.000000
1602006065.739497,37.000000,0.000000,4119.487305,4105.641113,4143.077148,4120.512695,4131.282227,4130.769043,4134.871582,4137.948730,4170.256348,4180.000000,4183.077148,4154.358887,4225.641113,4195.897461,0.000000,4.000000,,,,0.000000,4.000000,4.000000,4.000000,4.000000,4.000000,4.000000,4.000000,4.000000,4.000000,4.000000,4.000000,4.000000,4.000000,4.000000,100.000000
1602006065.747379,38.000000,0.000000,4125.128418,4110.769043,4142.563965,4123.589844,4120.512695,4127.692383,4134.871582,4140.512695,4170.256348,4181.538574,4184.102539,4150.256348,4218.974121,4192.820313,0.000000,4.000000,,,,0.000000,4.000000,4.000000,4.000000,4.000000,4.000000,4.000000,4.000000,4.000000,4.000000,4.000000,4.000000,4.000000,4.000000,4.000000,100.000000
1602006065.755261,39.000000,0.000000,4115.384766,4113.846191,4140.000000,4125.641113,4126.153809,4137.436035,4135.897461,4136.922852,4169.743652,4183.589844,4175.897461,4152.307617,4210.256348,4181.025879,0.000000,4.000000,,,,0.000000,4.000000,4.000000,4.000000,4.000000,4.000000,4.000000,4.000000,4.000000,4.000000,4.000000,4.000000,4.000000,4.000000,4.000000,100.000000
1602006065.763143,40.000000,0.000000,4101.538574,4110.769043,4128.205078,4123.077148,4132.820313,4140.512695,4137.436035,4126.153809,4153.333496,4159.487305,4155.897461,4148.205078,4189.743652,4167.692383,0.000000,4.000000,,,,0.000000,4.000000,4.000000,4.000000,4.000000,4.000000,4.000000,4.000000,4.000000,4.000000,4.000000,4.000000,4.000000,4.000000,4.000000,100.000000
1602006065.771125,41.000000,0.000000,4094.358887,4103.077148,4116.410156,4118.974121,4128.205078,4132.820313,4136.410156,4119.487305,4132.820313,4136.410156,4143.077148,4134.358887,4168.205078,4166.666504,0.000000,4.000000,,,,0.000000,4.000000,4.000000,4.000000,4.000000,4.000000,4.000000,4.000000,4.000000,4.000000,4.000000,4.000000,4.000000,4.000000,4.000000,100.000000
1602006065.779008,42.000000,0.000000,4096.922852,4106.153809,4119.487305,4120.512695,4132.307617,4135.897461,4137.436035,4127.179688,4131.282227,4141.025879,4151.282227,4132.820313,4172.820313,4170.769043,0.000000,4.000000,,,,0.000000,4.000000,4.000000,4.000000,4.000000,4.000000,4.000000,4.000000,4.000000,4.000000,4.000000,4.000000,4.000000,4.000000,4.000000,100.000000
1602006065.786890,43.000000,0.000000,4106.153809,4115.384766,4129.230957,4125.128418,4142.563965,4142.563965,4141.025879,4138.974121,4142.051270,4152.307617,4161.538574,4142.563965,4184.615234,4168.205078,0.000000,4.000000,,,,0.000000,4.000000,4.000000,4.000000,4.000000,4.000000,4.000000,4.000000,4.000000,4.000000,4.000000,4.000000,4.000000,4.000000,4.000000,100.000000
1602006065.794772,44.000000,0.000000,4110.769043,4119.487305,4129.743652,4124.102539,4138.461426,4136.922852,4138.461426,4146.666504,4149.743652,4155.897461,4156.410156,4143.589844,4183.589844,4167.179688,0.000000,4.000000,,,,0.000000,4.000000,4.000000,4.000000,4.000000,4.000000,4.000000,4.000000,4.000000,4.000000,4.000000,4.000000,4.000000,4.000000,4.000000,100.000000
1602006065.802655,45.000000,0.000000,4112.307617,4117.436035,4126.153809,4122.563965,4133.846191,4132.820313,4133.333496,4154.358887,4158.461426,4157.948730,4154.871582,4142.051270,4185.128418,4168.717773,0.000000,4.000000,,,,0.000000,4.000000,4.000000,4.000000,4.000000,4.000000,4.000000,4.000000,4.000000,4.000000,4.000000,4.000000,4.000000,4.000000,4.000000,100.000000
1602006065.810537,46.000000,0.000000,4114.358887,4111.794922,4123.589844,4124.615234,4140.512695,4137.948730,4135.384766,4156.410156,4163.077148,4167.179688,4159.487305,4140.512695,4185.128418,4163.077148,0.000000,4.000000,,,,0.000000,4.000000,4.000000,4.000000,4.000000,4.000000,4.000000,4.000000,4.000000,4.000000,4.000000,4.000000,4.000000,4.000000,4.000000,100.000000
1602006065.818420,47.000000,0.000000,4109.743652,4100.512695,4116.922852,4116.410156,4140.000000,4138.461426,4140.512695,4147.179688,4159.487305,4183.077148,4149.230957,4133.846191,4171.794922,4152.307617,0.000000,4.000000,,,,0.000000,4.000000,4.000000,4.000000,4.000000,4.000000,4.000000,4.000000,4.000000,4.000000,4.000000,4.000000,4.000000,4.000000,4.000000,100.000000
1602006065.826302,48.000000,0.000000,4104.615234,4093.333252,4115.384766,4105.128418,4130.256348,4134.871582,4139.487305,4138.974121,4154.358887,4183.589844,4143.077148,4130.256348,4165.128418,4153.333496,0.000000,4.000000,,,,0.000000,4.000000,4.000000,4.000000,4.000000,4.000000,4.000000,4.000000,4.000000,4.000000,4.000000,4.000000,4.000000,4.000000,4.000000,100.000000
1602006065.834284,49.000000,0.000000,4111.794922,4102.563965,4130.769043,4113.846191,4128.717773,4143.077148,4140.512695,4138.974121,4151.282227,4159.487305,4154.358887,4140.000000,4168.205078,4159.487305,0.000000,4.000000,,,,0.000000,4.000000,4.000000,4.000000,4.000000,4.000000,4.000000,4.000000,4.000000,4.000000,4.000000,4.000000,4.000000,4.000000,4.000000,100.000000
1602006065.842167,50.000000,0.000000,4117.948730,4112.307617,4145.128418,4127.179688,4136.410156,4154.871582,4149.743652,4143.589844,4153.333496,4137.948730,4152.307617,4150.256348,4163.589844,4152.307617,0.000000,4.000000,,,,0.000000,4.000000,4.000000,4.000000,4.000000,4.000000,4.000000,4.000000,4.000000,4.000000,4.000000,4.000000,4.000000,4.000000,4.000000,100.000000
1602006065.850050,51.000000,0.000000,4113.846191,4102.563965,4138.974121,4119.487305,4137.948730,4154.871582,4152.820313,4142.051270,4153.846191,4135.384766,4128.205078,4146.153809,4149.743652,4139.487305,0.000000,4.000000,,,,0.000000,4.000000,4.000000,4.000000,4.000000,4.000000,4.000000,4.000000,4.000000,4.000000,4.000000,4.000000,4.000000,4.000000,4.000000,100.000000
1602006065.857932,52.000000,0.000000,4097.436035,4088.718018,4121.538574,4107.179688,4131.282227,4147.692383,4144.102539,4128.205078,4138.974121,4120.512695,4111.282227,4129.230957,4124.102539,4126.153809,0.000000,4.000000,,,,0.000000,4.000000,4.000000,4.000000,4.000000,4.000000,4.000000,4.000000,4.000000,4.000000,4.000000,4.000000,4.000000,4.000000,4.000000,100.000000
1602006065.865815,53.000000,0.000000,4081.025635,4080.512939,4103.589844,4102.051270,4123.589844,4140.000000,4136.922852,4117.436035,4111.282227,4093.333252,4102.563965,4110.256348,4097.436035,4107.179688,0.000000,4.000000,,,,0.000000,4.000000,4.000000,4.000000,4.000000,4.000000,4.000000,4.000000,4.000000,4.000000,4.000000,4.000000,4.000000,4.000000,4.000000,100.000000
1602006065.873697,54.000000,0.000000,4081.538574,4081.025635,4100.000000,4103.589844,4121.025879,4136.410156,4136.922852,4120.000000,4106.666504,4095.897461,4106.666504,4117.436035,4106.153809,4105.128418,0.000000,4.000000,,,,0.000000,4.000000,4.000000,4.000000,4.000000,4.000000,4.000000,4.000000,4.000000,4.000000,4.000000,4.000000,4.000000,4.000000,4.000000,100.000000
1602006065.881580,55.000000,0.000000,4098.974121,4095.897461,4116.410156,4114.871582,4127.692383,4137.948730,4138.974121,4130.769043,4125.641113,4124.102539,4132.820313,4151.282227,4141.025879,4127.692383,0.000000,4.000000,,,,0.000000,4.000000,4.000000,4.000000,4.000000,4.000000,4.000000,4.000000,4.000000,4.000000,4.000000,4.000000,4.000000,4.000000,4.000000,100.000000
1602006065.889463,56.000000,0.000000,4117.436035,4112.820313,4136.922852,4126.153809,4137.436035,4136.922852,4140.000000,4137.436035,4128.717773,4142.563965,4156.410156,4176.410156,4163.589844,4148.205078,0.000000,4.000000,,,,0.000000,4.000000,4.000000,4.000000,4.000000,4.000000,4.000000,4.000000,4.000000,4.000000,4.000000,4.000000,4.000000,4.000000,4.000000,100.000000
1602006065.897345,57.000000,0.000000,4126.153809,4113.846191,4140.000000,4126.153809,4138.461426,4133.333496,4138.974121,4137.948730,4125.128418,4134.871582,4157.948730,4172.307617,4169.743652,4153.333496,0.000000,4.000000,,,,0.000000,4.000000,4.000000,4.000000,4.000000,4.000000,4.000000,4.000000,4.000000,4.000000,4.000000,4.000000,4.000000,4.000000,4.000000,100.000000
1602006065.905228,58.000000,0.000000,4124.615234,4107.692383,4129.230957,4120.512695,4135.897461,4136.410156,4140.000000,4137.948730,4133.846191,4122.563965,4151.794922,4162.051270,4173.333496,4153.846191,0.000000,4.000000,,,,0.000000,4.000000,4.000000,4.000000,4.000000,4.000000,4.000000,4.000000,4.000000,4.000000,4.000000,4.000000,4.000000,4.000000,4.000000,100.000000
1602006065.913010,59.000000,0.000000,4118.461426,4103.589844,4124.615234,4114.358887,4137.948730,4138.974121,4141.025879,4138.974121,4148.205078,4142.563965,4153.846191,4163.589844,4177.436035,4157.436035,0.000000,4.000000,,,,0.000000,4.000000,4.000000,4.000000,4.000000,4.000000,4.000000,4.000000,4.000000,4.000000,4.000000,4.000000,4.000000,4.000000,4.000000,100.000000
1602006065.920893,60.000000,0.000000,4115.384766,4097.948730,4129.230957,4106.153809,4137.948730,4132.307617,4140.512695,4146.153809,4162.563965,4178.461426,4157.948730,4162.563965,4180.000000,4160.512695,0.000000,4.000000,,,,0.000000,4.000000,4.000000,4.000000,4.000000,4.000000,4.000000,4.000000,4.000000,4.000000,4.000000,4.000000,4.000000,4.000000,4.000000,100.000000
1602006065.928775,61.000000,0.000000,4108.205078,4092.307617,4126.666504,4102.563965,4130.769043,4122.563965,4137.948730,4152.307617,4172.307617,4175.897461,4151.794922,4157.436035,4176.410156,4145.641113,0.000000,4.000000,,,,0.000000,4.000000,4.000000,4.000000,4.000000,4.000000,4.000000,4.000000,4.000000,4.000000,4.000000,4.000000,4.000000,4.000000,4.000000,100.000000
1602006065.936657,62.000000,0.000000,4091.794922,4091.281982,4109.230957,4104.102539,4129.230957,4125.128418,4132.820313,4145.641113,4172.820313,4155.384766,4142.051270,4147.692383,4162.563965,4121.025879,0.000000,4.000000,,,,0.000000,4.000000,4.000000,4.000000,4.000000,4.000000,4.000000,4.000000,4.000000,4.000000,4.000000,4.000000,4.000000,4.000000,4.000000,100.000000
1602006065.944540,63.000000,0.000000,4083.076904,4089.230713,4101.025879,4103.589844,4134.358887,4136.410156,4129.230957,4138.974121,4168.717773,4152.820313,4141.025879,4144.102539,4154.358887,4115.897461,0.000000,4.000000,,,,0.000000,4.000000,4.000000,4.000000,4.000000,4.000000,4.000000,4.000000,4.000000,4.000000,4.000000,4.000000,4.000000,4.000000,4.000000,100.000000
1602006065.952422,64.000000,0.000000,4088.718018,4090.769287,4112.820313,4104.615234,4136.922852,4140.512695,4125.641113,4141.025879,4163.077148,4147.179688,4141.025879,4152.820313,4151.794922,4123.077148,827.000000,4.000000,,,,0.000000,4.000000,4.000000,4.000000,4.000000,4.000000,4.000000,4.000000,4.000000,4.000000,4.000000,4.000000,4.000000,4.000000,4.000000,100.000000
1602006065.960304,65.000000,0.000000,4091.281982,4101.025879,4123.589844,4111.794922,4137.436035,4137.436035,4126.666504,4133.846191,4152.307617,4130.769043,4130.256348,4152.307617,4142.563965,4125.641113,792.000000,4.000000,,,,0.000000,4.000000,4.000000,4.000000,4.000000,4.000000,4.000000,4.000000,4.000000,4.000000,4.000000,4.000000,4.000000,4.000000,4.000000,100.000000
1602006065.968187,66.000000,0.000000,4087.692383,4108.717773,4121.025879,4119.487305,4140.000000,4134.871582,4133.846191,4124.615234,4144.615234,4116.922852,4117.948730,4138.974121,4133.333496,4124.102539,850.000000,4.000000,,,,0.000000,4.000000,4.000000,4.000000,4.000000,4.000000,4.000000,4.000000,4.000000,4.000000,4.000000,4.000000,4.000000,4.000000,4.000000,100.000000
1602006065.975969,67.000000,0.000000,4087.692383,4108.717773,4118.974121,4122.051270,4140.000000,4132.820313,4136.410156,4130.769043,4135.897461,4108.205078,4117.948730,4133.846191,4126.666504,4120.000000,869.000000,4.000000,,,,0.000000,4.000000,4.000000,4.000000,4.000000,4.000000,4.000000,4.000000,4.000000,4.000000,4.000000,4.000000,4.000000,4.000000,4.000000,100.000000
1602006065.983851,68.000000,0.000000,4089.230713,4107.692383,4120.000000,4120.512695,4134.871582,4122.563965,4130.256348,4138.974121,4125.128418,4102.051270,4119.487305,4132.307617,4119.487305,4117.436035,816.000000,4.000000,,,,0.000000,4.000000,4.000000,4.000000,4.000000,4.000000,4.000000,4.000000,4.000000,4.000000,4.000000,4.000000,4.000000,4.000000,4.000000,100.000000
1602006065.991734,69.000000,0.000000,4094.358887,4109.230957,4117.436035,4119.487305,4131.794922,4108.717773,4124.102539,4134.358887,4125.641113,4104.615234,4114.871582,4121.538574,4120.000000,4117.948730,825.000000,4.000000,,,,0.000000,4.000000,4.000000,4.000000,4.000000,4.000000,4.000000,4.000000,4.000000,4.000000,4.000000,4.000000,4.000000,4.000000,4.000000,100.000000
1602006065.999616,70.000000,0.000000,4106.666504,4115.897461,4126.666504,4127.692383,4134.871582,4110.256348,4125.128418,4131.282227,4137.948730,4128.205078,4128.717773,4128.717773,4144.102539,4124.615234,766.000000,4.000000,,,,0.000000,4.000000,4.000000,4.000000,4.000000,4.000000,4.000000,4.000000,4.000000,4.000000,4.000000,4.000000,4.000000,4.000000,4.000000,100.000000
1602006066.007499,71.000000,0.000000,4126.153809,4132.820313,4149.230957,4140.000000,4141.538574,4123.589844,4133.333496,4145.128418,4155.897461,4149.230957,4164.102539,4160.512695,4179.487305,4153.333496,674.000000,4.000000,,,,0.000000,4.000000,4.000000,4.000000,4.000000,4.000000,4.000000,4.000000,4.000000,4.000000,4.000000,4.000000,4.000000,4.000000,4.000000,100.000000
1602006066.015381,72.000000,0.000000,4148.717773,4141.538574,4168.205078,4142.051270,4142.051270,4125.128418,4138.974121,4156.922852,4167.179688,4155.384766,4187.692383,4183.077148,4202.563965,4189.230957,787.000000,4.000000,,,,0.000000,4.000000,4.000000,4.000000,4.000000,4.000000,4.000000,4.000000,4.000000,4.000000,4.000000,4.000000,4.000000,4.000000,4.000000,100.000000
1602006066.023263,73.000000,0.000000,4157.436035,4131.282227,4172.307617,4132.307617,4136.410156,4113.846191,4132.820313,4154.358887,4170.769043,4171.794922,4189.743652,4187.692383,4207.179688,4194.871582,842.000000,4.000000,,,,0.000000,4.000000,4.000000,4.000000,4.000000,4.000000,4.000000,4.000000,4.000000,4.000000,4.000000,4.000000,4.000000,4.000000,4.000000,100.000000
1602006066.031146,74.000000,0.000000,4147.692383,4121.538574,4172.820313,4127.179688,4134.358887,4109.230957,4127.692383,4153.846191,4174.871582,4193.333496,4186.666504,4188.205078,4204.615234,4189.743652,872.000000,4.000000,,,,0.000000,4.000000,4.000000,4.000000,4.000000,4.000000,4.000000,4.000000,4.000000,4.000000,4.000000,4.000000,4.000000,4.000000,4.000000,100.000000
1602006066.039128,75.000000,0.000000,4138.461426,4121.025879,4170.769043,4126.666504,4136.922852,4110.769043,4128.717773,4151.282227,4164.615234,4176.922852,4172.307617,4182.563965,4194.358887,4190.769043,837.000000,4.000000,,,,0.000000,4.000000,4.000000,4.000000,4.000000,4.000000,4.000000,4.000000,4.000000,4.000000,4.000000,4.000000,4.000000,4.000000,4.000000,100.000000
1602006066.047011,76.000000,0.000000,4139.487305,4123.077148,4158.974121,4122.563965,4139.487305,4113.846191,4124.615234,4132.820313,4135.897461,4134.871582,4145.641113,4163.589844,4170.769043,4174.871582,768.000000,4.000000,,,,0.000000,4.000000,4.000000,4.000000,4.000000,4.000000,4.000000,4.000000,4.000000,4.000000,4.000000,4.000000,4.000000,4.000000,4.000000,100.000000
1602006066.054893,77.000000,0.000000,4135.384766,4121.025879,4141.538574,4122.563965,4142.051270,4121.538574,4121.025879,4115.897461,4119.487305,4115.384766,4129.230957,4142.051270,4153.333496,4152.820313,748.000000,4.000000,,,,0.000000,4.000000,4.000000,4.000000,4.000000,4.000000,4.000000,4.000000,4.000000,4.000000,4.000000,4.000000,4.000000,4.000000,4.000000,100.000000
1602006066.062776,78.000000,0.000000,4116.410156,4110.769043,4124.102539,4123.589844,4140.000000,4125.128418,4116.922852,4113.333496,4121.025879,4118.461426,4123.077148,4123.077148,4145.641113,4141.538574,872.000000,4.000000,,,,0.000000,4.000000,4.000000,4.000000,4.000000,4.000000,4.000000,4.000000,4.000000,4.000000,4.000000,4.000000,4.000000,4.000000,4.000000,100.000000
1602006066.070658,79.000000,0.000000,4100.512695,4101.538574,4109.743652,4116.410156,4131.794922,4121.025879,4109.743652,4105.641113,4116.922852,4124.102539,4117.948730,4109.743652,4134.358887,4125.641113,837.000000,4.000000,,,,0.000000,4.000000,4.000000,4.000000,4.000000,4.000000,4.000000,4.000000,4.000000,4.000000,4.000000,4.000000,4.000000,4.000000,4.000000,100.000000
1602006066.078541,80.000000,0.000000,4102.563965,4101.538574,4109.743652,4107.179688,4126.666504,4120.512695,4111.282227,4101.538574,4113.846191,4122.051270,4119.487305,4113.333496,4131.794922,4117.948730,768.000000,4.000000,,,,0.000000,4.000000,4.000000,4.000000,4.000000,4.000000,4.000000,4.000000,4.000000,4.000000,4.000000,4.000000,4.000000,4.000000,4.000000,100.000000
1602006066.086424,81.000000,0.000000,4108.717773,4100.512695,4125.128418,4107.179688,4126.153809,4124.102539,4123.077148,4114.358887,4123.589844,4124.102539,4129.743652,4124.102539,4141.025879,4132.307617,748.000000,4.000000,,,,0.000000,4.000000,4.000000,4.000000,4.000000,4.000000,4.000000,4.000000,4.000000,4.000000,4.000000,4.000000,4.000000,4.000000,4.000000,100.000000
1602006066.094306,82.000000,0.000000,4109.743652,4091.281982,4135.897461,4108.205078,4121.538574,4123.077148,4126.153809,4124.102539,4135.384766,4138.974121,4135.897461,4127.692383,4141.538574,4141.025879,872.000000,4.000000,,,,0.000000,4.000000,4.000000,4.000000,4.000000,4.000000,4.000000,4.000000,4.000000,4.000000,4.000000,4.000000,4.000000,4.000000,4.000000,100.000000
1602006066.102189,83.000000,0.000000,4115.384766,4087.692383,4142.051270,4104.615234,4118.461426,4121.025879,4121.538574,4126.153809,4140.512695,4137.436035,4137.948730,4134.871582,4137.948730,4136.922852,837.000000,4.000000,,,,0.000000,4.000000,4.000000,4.000000,4.000000,4.000000,4.000000,4.000000,4.000000,4.000000,4.000000,4.000000,4.000000,4.000000,4.000000,100.000000
1602006066.110071,84.000000,0.000000,4124.102539,4096.410156,4150.769043,4108.717773,4121.025879,4123.589844,4126.153809,4134.358887,4144.615234,4123.589844,4142.563965,4149.743652,4147.179688,4140.000000,768.000000,4.000000,,,,0.000000,4.000000,4.000000,4.000000,4.000000,4.000000,4.000000,4.000000,4.000000,4.000000,4.000000,4.000000,4.000000,4.000000,4.000000,100.000000
1602006066.117854,85.000000,0.000000,4130.769043,4107.692383,4156.410156,4121.025879,4121.025879,4131.282227,4136.410156,4142.563965,4153.846191,4136.410156,4143.589844,4158.461426,4157.948730,4142.563965,748.000000,4.000000,,,,0.000000,4.000000,4.000000,4.000000,4.000000,4.000000,4.000000,4.000000,4.000000,4.000000,4.000000,4.000000,4.000000,4.000000,4.000000,100.000000
1602006066.125736,86.000000,0.000000,4138.974121,4111.282227,4163.077148,4127.692383,4124.615234,4138.974121,4141.025879,4140.000000,4158.461426,4158.461426,4142.051270,4164.102539,4157.948730,4144.615234,872.000000,4.000000,,,,0.000000,4.000000,4.000000,4.000000,4.000000,4.000000,4.000000,4.000000,4.000000,4.000000,4.000000,4.000000,4.000000,4.000000,4.000000,100.000000
1602006066.133618,87.000000,0.000000,4142.051270,4107.179688,4166.153809,4123.589844,4127.692383,4132.820313,4138.974121,4134.871582,4143.589844,4160.000000,4142.051270,4167.692383,4152.820313,4152.820313,837.000000,4.000000,,,,0.000000,4.000000,4.000000,4.000000,4.000000,4.000000,4.000000,4.000000,4.000000,4.000000,4.000000,4.000000,4.000000,4.000000,4.000000,100.000000
1602006066.141500,88.000000,0.000000,4143.589844,4109.743652,4166.153809,4121.538574,4123.589844,4126.666504,4140.512695,4135.897461,4128.205078,4152.820313,4143.077148,4162.563965,4152.820313,4158.461426,768.000000,4.000000,,,,0.000000,4.000000,4.000000,4.000000,4.000000,4.000000,4.000000,4.000000,4.000000,4.000000,4.000000,4.000000,4.000000,4.000000,4.000000,100.000000
1602006066.149382,89.000000,0.000000,4145.641113,4120.512695,4168.205078,4131.282227,4127.179688,4136.410156,4146.666504,4137.948730,4132.820313,4140.000000,4141.025879,4156.410156,4155.897461,4156.922852,748.000000,4.000000,,,,0.000000,4.000000,4.000000,4.000000,4.000000,4.000000,4.000000,4.000000,4.000000,4.000000,4.000000,4.000000,4.000000,4.000000,4.000000,100.000000
1602006066.157264,90.000000,0.000000,4134.358887,4125.641113,4164.102539,4137.948730,4136.410156,4140.512695,4145.641113,4137.436035,4137.948730,4123.077148,4138.461426,4151.794922,4154.358887,4149.743652,872.000000,4.000000,,,,0.000000,4.000000,4.000000,4.000000,4.000000,4.000000,4.000000,4.000000,4.000000,4.000000,4.000000,4.000000,4.000000,4.000000,4.000000,100.000000
1602006066.165146,91.000000,0.000000,4122.051270,4124.615234,4150.769043,4135.384766,4136.922852,4127.179688,4133.846191,4135.384766,4137.948730,4128.717773,4143.077148,4148.717773,4152.820313,4143.077148,837.000000,4.000000,,,,0.000000,4.000000,4.000000,4.000000,4.000000,4.000000,4.000000,4.000000,4.000000,4.000000,4.000000,4.000000,4.000000,4.000000,4.000000,100.000000
1602006066.173129,92.000000,0.000000,4126.153809,4125.641113,4145.128418,4136.410156,4134.871582,4122.051270,4123.077148,4136.922852,4145.641113,4151.282227,4153.846191,4150.256348,4150.769043,4141.025879,768.000000,4.000000,,,,0.000000,4.000000,4.000000,4.000000,4.000000,4.000000,4.000000,4.000000,4.000000,4.000000,4.000000,4.000000,4.000000,4.000000,4.000000,100.000000
1602006066.181011,93.000000,0.000000,4126.666504,4127.692383,4140.000000,4137.436035,4137.948730,4126.666504,4120.000000,4137.948730,4155.384766,4166.153809,4150.769043,4153.846191,4141.538574,4140.512695,748.000000,4.000000,,,,0.000000,4.000000,4.000000,4.000000,4.000000,4.000000,4.000000,4.000000,4.000000,4.000000,4.000000,4.000000,4.000000,4.000000,4.000000,100.000000
1602006066.188893,94.000000,0.000000,4117.948730,4121.025879,4124.615234,4128.205078,4132.307617,4124.615234,4122.051270,4139.487305,4156.410156,4165.641113,4136.922852,4158.461426,4138.461426,4140.512695,872.000000,4.000000,,,,0.000000,4.000000,4.000000,4.000000,4.000000,4.000000,4.000000,4.000000,4.000000,4.000000,4.000000,4.000000,4.000000,4.000000,4.000000,100.000000
1602006066.196776,95.000000,0.000000,4118.461426,4113.846191,4124.102539,4121.538574,4122.563965,4128.205078,4131.282227,4149.743652,4157.948730,4154.871582,4142.563965,4169.230957,4151.794922,4148.205078,837.000000,4.000000,,,,0.000000,4.000000,4.000000,4.000000,4.000000,4.000000,4.000000,4.000000,4.000000,4.000000,4.000000,4.000000,4.000000,4.000000,4.000000,100.000000
1602006066.204658,96.000000,0.000000,4127.692383,4112.307617,4136.410156,4123.589844,4121.538574,4138.974121,4145.128418,4158.461426,4154.358887,4152.820313,4158.974121,4176.410156,4157.436035,4158.974121,768.000000,4.000000,,,,0.000000,4.000000,4.000000,4.000000,4.000000,4.000000,4.000000,4.000000,4.000000,4.000000,4.000000,4.000000,4.000000,4.000000,4.000000,100.000000
1602006066.212540,97.000000,0.000000,4129.230957,4106.666504,4133.846191,4116.922852,4118.974121,4136.922852,4147.179688,4153.333496,4140.000000,4144.102539,4156.410156,4171.282227,4145.128418,4158.461426,748.000000,4.000000,,,,0.000000,4.000000,4.000000,4.000000,4.000000,4.000000,4.000000,4.000000,4.000000,4.000000,4.000000,4.000000,4.000000,4.000000,4.000000,100.000000
1602006066.220423,98.000000,0.000000,4121.538574,4095.384521,4124.102539,4106.666504,4110.769043,4127.692383,4141.538574,4142.051270,4135.384766,4115.384766,4143.077148,4166.153809,4142.563965,4145.641113,872.000000,4.000000,,,,0.000000,4.000000,4.000000,4.000000,4.000000,4.000000,4.000000,4.000000,4.000000,4.000000,4.000000,4.000000,4.000000,4.000000,4.000000,100.000000
1602006066.228305,99.000000,0.000000,4118.461426,4096.922852,4130.769043,4109.230957,4112.307617,4123.077148,4136.410156,4136.410156,4136.410156,4117.948730,4137.436035,4167.179688,4152.820313,4141.538574,837.000000,4.000000,,,,0.000000,4.000000,4.000000,4.000000,4.000000,4.000000,4.000000,4.000000,4.000000,4.000000,4.000000,4.000000,4.000000,4.000000,4.000000,100.000000
1602006066.236188,100.000000,0.000000,4132.820313,4107.179688,4147.692383,4120.000000,4123.589844,4118.974121,4130.769043,4134.358887,4133.846191,4153.846191,4140.512695,4170.256348,4156.410156,4160.000000,768.000000,4.000000,,,,0.000000,4.000000,4.000000,4.000000,4.000000,4.000000,4.000000,4.000000,4.000000,4.000000,4.000000,4.000000,4.000000,4.000000,4.000000,100.000000
1602006066.243969,101.000000,0.000000,4141.538574,4107.692383,4151.282227,4122.563965,4124.102539,4118.461426,4128.717773,4132.820313,4134.871582,4162.563965,4149.230957,4170.769043,4153.846191,4172.307617,748.000000,4.000000,,,,0.000000,4.000000,4.000000,4.000000,4.000000,4.000000,4.000000,4.000000,4.000000,4.000000,4.000000,4.000000,4.000000,4.000000,4.000000,100.000000
1602006066.251850,102.000000,0.000000,4138.461426,4112.307617,4151.794922,4124.102539,4123.589844,4123.589844,4134.358887,4130.769043,4138.974121,4153.846191,4158.461426,4166.666504,4157.948730,4158.461426,872.000000,4.000000,,,,0.000000,4.000000,4.000000,4.000000,4.000000,4.000000,4.000000,4.000000,4.000000,4.000000,4.000000,4.000000,4.000000,4.000000,4.000000,100.000000
1602006066.259731,103.000000,0.000000,4139.487305,4123.589844,4152.307617,4133.333496,4132.820313,4125.641113,4138.461426,4128.205078,4135.384766,4155.897461,4153.333496,4160.512695,4159.487305,4146.666504,837.000000,4.000000,,,,0.000000,4.000000,4.000000,4.000000,4.000000,4.000000,4.000000,4.000000,4.000000,4.000000,4.000000,4.000000,4.000000,4.000000,4.000000,100.000000
1602006066.267512,104.000000,0.000000,4131.794922,4124.102539,4142.563965,4136.410156,4135.897461,4123.077148,4134.871582,4128.717773,4125.128418,4136.410156,4137.948730,4150.769043,4151.794922,4153.333496,768.000000,4.000000,,,,0.000000,4.000000,4.000000,4.000000,4.000000,4.000000,4.000000,4.000000,4.000000,4.000000,4.000000,4.000000,4.000000,4.000000,4.000000,100.000000
1602006066.275393,105.000000,0.000000,4126.666504,4120.000000,4139.487305,4132.307617,4132.820313,4125.641113,4131.794922,4134.358887,4121.538574,4121.025879,4137.948730,4143.077148,4151.282227,4157.436035,748.000000,4.000000,,,,0.000000,4.000000,4.000000,4.000000,4.000000,4.000000,4.000000,4.000000,4.000000,4.000000,4.000000,4.000000,4.000000,4.000000,4.000000,100.000000
1602006066.283174,106.000000,0.000000,4138.974121,4126.153809,4151.282227,4136.922852,4135.897461,4131.282227,4133.333496,4142.563965,4129.230957,4144.102539,4151.282227,4141.025879,4158.461426,4152.307617,872.000000,4.000000,,,,0.000000,4.000000,4.000000,4.000000,4.000000,4.000000,4.000000,4.000000,4.000000,4.000000,4.000000,4.000000,4.000000,4.000000,4.000000,100.000000
1602006066.291156,107.000000,0.000000,4143.589844,4128.717773,4151.282227,4140.512695,4140.512695,4130.256348,4135.384766,4145.128418,4137.948730,4154.871582,4156.410156,4141.025879,4157.948730,4149.743652,837.000000,4.000000,,,,0.000000,4.000000,4.000000,4.000000,4.000000,4.000000,4.000000,4.000000,4.000000,4.000000,4.000000,4.000000,4.000000,4.000000,4.000000,100.000000
1602006066.299038,108.000000,0.000000,4134.871582,4124.102539,4138.461426,4132.307617,4135.384766,4125.128418,4134.871582,4142.563965,4135.897461,4140.512695,4148.717773,4141.538574,4155.384766,4153.846191,768.000000,4.000000,,,,0.000000,4.000000,4.000000,4.000000,4.000000,4.000000,4.000000,4.000000,4.000000,4.000000,4.000000,4.000000,4.000000,4.000000,4.000000,100.000000
1602006066.306920,109.000000,0.000000,4131.794922,4123.077148,4132.307617,4125.128418,4128.717773,4123.077148,4135.384766,4140.512695,4134.871582,4149.230957,4145.128418,4143.589844,4153.846191,4153.333496,748.000000,4.000000,,,,0.000000,4.000000,4.000000,4.000000,4.000000,4.000000,4.000000,4.000000,4.000000,4.000000,4.000000,4.000000,4.000000,4.000000,4.000000,100.000000
1602006066.314802,110.000000,0.000000,4126.666504,4123.077148,4127.692383,4125.128418,4130.769043,4123.077148,4134.358887,4140.000000,4137.948730,4158.974121,4144.102539,4144.102539,4144.615234,4141.538574,872.000000,4.000000,,,,0.000000,4.000000,4.000000,4.000000,4.000000,4.000000,4.000000,4.000000,4.000000,4.000000,4.000000,4.000000,4.000000,4.000000,4.000000,100.000000
1602006066.322685,111.000000,0.000000,4117.948730,4121.538574,4121.538574,4124.615234,4137.436035,4123.077148,4127.179688,4133.333496,4132.307617,4136.922852,4137.436035,4140.512695,4136.922852,4132.307617,837.000000,4.000000,,,,0.000000,4.000000,4.000000,4.000000,4.000000,4.000000,4.000000,4.000000,4.000000,4.000000,4.000000,4.000000,4.000000,4.000000,4.000000,100.000000
1602006066.330567,112.000000,0.000000,4122.563965,4121.025879,4124.102539,4124.102539,4134.871582,4121.538574,4127.179688,4127.692383,4125.128418,4137.436035,4135.897461,4146.153809,4142.051270,4138.461426,768.000000,4.000000,,,,0.000000,4.000000,4.000000,4.000000,4.000000,4.000000,4.000000,4.000000,4.000000,4.000000,4.000000,4.000000,4.000000,4.000000,4.000000,100.000000
1602006066.338449,113.000000,0.000000,4125.128418,4121.538574,4124.102539,4124.102539,4124.102539,4120.512695,4134.871582,4126.153809,4117.436035,4157.948730,4140.000000,4151.794922,4143.077148,4144.102539,748.000000,4.000000,,,,0.000000,4.000000,4.000000,4.000000,4.000000,4.000000,4.000000,4.000000,4.000000,4.000000,4.000000,4.000000,4.000000,4.000000,4.000000,100.000000
1602006066.346431,114.000000,0.000000,4120.512695,4122.563965,4121.025879,4124.615234,4122.051270,4120.512695,4137.436035,4123.077148,4109.230957,4144.102539,4138.974121,4146.666504,4136.922852,4141.025879,872.000000,4.000000,,,,0.000000,4.000000,4.000000,4.000000,4.000000,4.000000,4.000000,4.000000,4.000000,4.000000,4.000000,4.000000,4.000000,4.000000,4.000000,100.000000
1602006066.354312,115.000000,0.000000,4129.230957,4123.077148,4124.102539,4124.615234,4126.666504,4121.538574,4135.384766,4126.153809,4111.282227,4120.512695,4138.974121,4147.179688,4137.436035,4145.641113,837.000000,4.000000,,,,0.000000,4.000000,4.000000,4.000000,4.000000,4.000000,4.000000,4.000000,4.000000,4.000000,4.000000,4.000000,4.000000,4.000000,4.000000,100.000000
1602006066.362194,116.000000,0.000000,4140.000000,4125.128418,4127.692383,4124.615234,4128.205078,4126.666504,4137.948730,4138.461426,4125.641113,4130.769043,4149.743652,4155.384766,4142.563965,4154.358887,768.000000,4.000000,,,,0.000000,4.000000,4.000000,4.000000,4.000000,4.000000,4.000000,4.000000,4.000000,4.000000,4.000000,4.000000,4.000000,4.000000,4.000000,100.000000
1602006066.370076,117.000000,0.000000,4135.384766,4125.128418,4129.230957,4124.102539,4125.641113,4138.461426,4144.102539,4146.153809,4138.461426,4149.743652,4153.846191,4159.487305,4143.077148,4155.384766,748.000000,4.000000,,,,0.000000,4.000000,4.000000,4.000000,4.000000,4.000000,4.000000,4.000000,4.000000,4.000000,4.000000,4.000000,4.000000,4.000000,4.000000,100.000000
1602006066.377958,118.000000,0.000000,4126.666504,4116.922852,4126.666504,4124.615234,4123.077148,4141.538574,4143.589844,4143.077148,4135.897461,4142.563965,4142.563965,4152.307617,4141.538574,4148.717773,872.000000,4.000000,,,,0.000000,4.000000,4.000000,4.000000,4.000000,4.000000,4.000000,4.000000,4.000000,4.000000,4.000000,4.000000,4.000000,4.000000,4.000000,100.000000
1602006066.385840,119.000000,0.000000,4123.589844,4106.153809,4123.589844,4125.128418,4121.025879,4130.769043,4129.743652,4132.820313,4124.615234,4129.230957,4133.846191,4144.102539,4138.461426,4138.974121,837.000000,4.000000,,,,0.000000,4.000000,4.000000,4.000000,4.000000,4.000000,4.000000,4.000000,4.000000,4.000000,4.000000,4.000000,4.000000,4.000000,4.000000,100.000000
1602006066.393622,120.000000,0.000000,4124.102539,4105.128418,4130.256348,4123.077148,4120.512695,4125.128418,4122.051270,4123.077148,4116.922852,4133.846191,4133.333496,4144.615234,4133.846191,4130.769043,768.000000,4.000000,,,,0.000000,4.000000,4.000000,4.000000,4.000000,4.000000,4.000000,4.000000,4.000000,4.000000,4.000000,4.000000,4.000000,4.000000,4.000000,100.000000
1602006066.401504,121.000000,0.000000,4132.307617,4115.384766,4141.538574,4126.153809,4127.179688,4130.769043,4133.333496,4124.615234,4118.461426,4144.102539,4135.384766,4152.307617,4135.384766,4139.487305,748.000000,4.000000,,,,0.000000,4.000000,4.000000,4.000000,4.000000,4.000000,4.000000,4.000000,4.000000,4.000000,4.000000,4.000000,4.000000,4.000000,4.000000,100.000000
1602006066.409386,122.000000,0.000000,4143.589844,4123.077148,4143.589844,4134.358887,4128.205078,4131.794922,4140.000000,4127.179688,4118.461426,4136.410156,4137.436035,4152.820313,4137.436035,4151.282227,872.000000,4.000000,,,,0.000000,4.000000,4.000000,4.000000,4.000000,4.000000,4.000000,4.000000,4.000000,4.000000,4.000000,4.000000,4.000000,4.000000,4.000000,100.000000
1602006066.417268,123.000000,0.000000,4145.128418,4122.051270,4141.538574,4137.436035,4119.487305,4118.461426,4129.230957,4124.102539,4114.358887,4127.179688,4136.922852,4146.666504,4137.948730,4142.563965,837.000000,4.000000,,,,0.000000,4.000000,4.000000,4.000000,4.000000,4.000000,4.000000,4.000000,4.000000,4.000000,4.000000,4.000000,4.000000,4.000000,4.000000,100.000000
1602006066.425149,124.000000,0.000000,4141.025879,4123.589844,4144.102539,4134.871582,4125.641113,4108.205078,4129.230957,4131.794922,4121.025879,4135.897461,4137.948730,4150.256348,4145.641113,4136.922852,768.000000,4.000000,,,,0.000000,4.000000,4.000000,4.000000,4.000000,4.000000,4.000000,4.000000,4.000000,4.000000,4.000000,4.000000,4.000000,4.000000,4.000000,100.000000
1602006066.433031,125.000000,0.000000,4138.461426,4131.794922,4143.077148,4133.846191,4136.410156,4114.358887,4137.436035,4141.538574,4128.205078,4141.538574,4144.102539,4155.897461,4153.333496,4150.769043,748.000000,4.000000,,,,0.000000,4.000000,4.000000,4.000000,4.000000,4.000000,4.000000,4.000000,4.000000,4.000000,4.000000,4.000000,4.000000,4.000000,4.000000,100.000000
1602006066.441014,126.000000,0.000000,4142.563965,4138.461426,4137.436035,4135.384766,4131.282227,4120.000000,4131.282227,4138.974121,4127.692383,4140.512695,4153.846191,4155.897461,4151.794922,4158.974121,872.000000,4.000000,,,,0.000000,4.000000,4.000000,4.000000,4.000000,4.000000,4.000000,4.000000,4.000000,4.000000,4.000000,4.000000,4.000000,4.000000,4.000000,100.000000
1602006066.448896,127.000000,0.000000,4151.282227,4142.051270,4137.436035,4138.974121,4130.256348,4119.487305,4121.538574,4136.410156,4131.282227,4148.205078,4157.948730,4154.358887,4155.384766,4154.871582,837.000000,4.000000,,,,0.000000,4.000000,4.000000,4.000000,4.000000,4.000000,4.000000,4.000000,4.000000,4.000000,4.000000,4.000000,4.000000,4.000000,4.000000,100.000000
1602006066.456778,128.000000,0.000000,4147.179688,4145.128418,4142.051270,4142.051270,4138.461426,4121.538574,4122.563965,4137.436035,4135.897461,4165.128418,4155.897461,4155.897461,4164.615234,4157.436035,768.000000,4.000000,,,,0.000000,4.000000,4.000000,4.000000,4.000000,4.000000,4.000000,4.000000,4.000000,4.000000,4.000000,4.000000,4.000000,4.000000,4.000000,100.000000
1602006066.464661,0.000000,0.000000,4135.384766,4141.025879,4136.410156,4135.384766,4138.461426,4122.563965,4125.128418,4135.384766,4128.717773,4170.256348,4153.846191,4160.512695,4160.000000,4161.025879,811.000000,4.000000,,,,0.000000,4.000000,4.000000,4.000000,4.000000,4.000000,4.000000,4.000000,4.000000,4.000000,4.000000,4.000000,4.000000,4.000000,4.000000,100.000000
1602006066.472543,1.000000,0.000000,4132.307617,4131.282227,4122.563965,4124.615234,4133.333496,4126.666504,4123.589844,4134.358887,4121.538574,4154.871582,4148.205078,4161.025879,4149.743652,4156.410156,792.000000,4.000000,,,,0.000000,4.000000,4.000000,4.000000,4.000000,4.000000,4.000000,4.000000,4.000000,4.000000,4.000000,4.000000,4.000000,4.000000,4.000000,100.000000
1602006066.480425,2.000000,0.000000,4136.410156,4127.179688,4118.461426,4123.077148,4128.717773,4134.358887,4126.666504,4136.922852,4126.666504,4136.410156,4145.128418,4156.410156,4152.307617,4154.871582,850.000000,4.000000,,,,0.000000,4.000000,4.000000,4.000000,4.000000,4.000000,4.000000,4.000000,4.000000,4.000000,4.000000,4.000000,4.000000,4.000000,4.000000,100.000000
1602006066.488308,3.000000,0.000000,4138.974121,4125.128418,4124.102539,4125.128418,4123.589844,4134.358887,4132.307617,4138.461426,4135.384766,4142.563965,4152.307617,4154.871582,4154.358887,4157.436035,869.000000,4.000000,,,,0.000000,4.000000,4.000000,4.000000,4.000000,4.000000,4.000000,4.000000,4.000000,4.000000,4.000000,4.000000,4.000000,4.000000,4.000000,100.000000
1602006066.496190,4.000000,0.000000,4133.846191,4122.051270,4124.102539,4122.563965,4120.512695,4122.563965,4126.666504,4138.974121,4138.461426,4161.025879,4150.256348,4153.333496,4144.615234,4151.794922,816.000000,4.000000,,,,0.000000,4.000000,4.000000,4.000000,4.000000,4.000000,4.000000,4.000000,4.000000,4.000000,4.000000,4.000000,4.000000,4.000000,4.000000,100.000000
1602006066.504172,5.000000,0.000000,4126.666504,4122.051270,4122.563965,4120.000000,4114.358887,4110.256348,4115.384766,4138.461426,4138.974121,4158.974121,4141.025879,4151.282227,4141.538574,4148.205078,825.000000,4.000000,,,,0.000000,4.000000,4.000000,4.000000,4.000000,4.000000,4.000000,4.000000,4.000000,4.000000,4.000000,4.000000,4.000000,4.000000,4.000000,100.000000
1602006066.512054,6.000000,0.000000,4131.282227,4123.589844,4131.282227,4124.615234,4109.743652,4103.589844,4114.358887,4140.000000,4140.000000,4150.256348,4146.666504,4158.974121,4151.282227,4157.948730,766.000000,4.000000,,,,0.000000,4.000000,4.000000,4.000000,4.000000,4.000000,4.000000,4.000000,4.000000,4.000000,4.000000,4.000000,4.000000,4.000000,4.000000,100.000000
1602006066.519936,7.000000,0.000000,4143.589844,4130.769043,4140.000000,4128.205078,4121.025879,4104.615234,4118.974121,4142.563965,4141.025879,4155.897461,4157.948730,4169.743652,4156.410156,4166.666504,674.000000,4.000000,,,,0.000000,4.000000,4.000000,4.000000,4.000000,4.000000,4.000000,4.000000,4.000000,4.000000,4.000000,4.000000,4.000000,4.000000,4.000000,100.000000
1602006066.527818,8.000000,0.000000,4144.615234,4135.384766,4141.538574,4126.666504,4131.282227,4112.307617,4120.000000,4144.102539,4140.000000,4150.256348,4158.461426,4171.794922,4156.922852,4163.589844,787.000000,4.000000,,,,0.000000,4.000000,4.000000,4.000000,4.000000,4.000000,4.000000,4.000000,4.000000,4.000000,4.000000,4.000000,4.000000,4.000000,4.000000,100.000000
1602006066.535699,9.000000,0.000000,4137.436035,4128.205078,4141.025879,4124.102539,4128.717773,4118.461426,4120.512695,4143.589844,4135.897461,4128.717773,4152.307617,4165.641113,4154.358887,4158.461426,842.000000,4.000000,,,,0.000000,4.000000,4.000000,4.000000,4.000000,4.000000,4.000000,4.000000,4.000000,4.000000,4.000000,4.000000,4.000000,4.000000,4.000000,100.000000
1602006066.543581,10.000000,0.000000,4135.384766,4118.974121,4138.461426,4120.512695,4122.563965,4121.025879,4122.563965,4134.358887,4123.589844,4125.641113,4142.051270,4154.358887,4143.589844,4154.871582,872.000000,4.000000,,,,0.000000,4.000000,4.000000,4.000000,4.000000,4.000000,4.000000,4.000000,4.000000,4.000000,4.000000,4.000000,4.000000,4.000000,4.000000,100.000000
1602006066.551363,11.000000,0.000000,4142.051270,4121.025879,4141.538574,4120.512695,4120.000000,4125.128418,4129.230957,4123.077148,4114.358887,4136.922852,4136.922852,4153.846191,4137.436035,4152.307617,837.000000,4.000000,,,,0.000000,4.000000,4.000000,4.000000,4.000000,4.000000,4.000000,4.000000,4.000000,4.000000,4.000000,4.000000,4.000000,4.000000,4.000000,100.000000
1602006066.559245,12.000000,0.000000,4145.641113,4125.128418,4152.820313,4122.051270,4120.512695,4127.692383,4136.922852,4123.589844,4114.871582,4144.102539,4142.563965,4171.794922,4141.538574,4156.410156,768.000000,4.000000,,,,0.000000,4.000000,4.000000,4.000000,4.000000,4.000000,4.000000,4.000000,4.000000,4.000000,4.000000,4.000000,4.000000,4.000000,4.000000,100.000000
1602006066.567126,13.000000,0.000000,4142.563965,4123.077148,4155.384766,4121.025879,4121.025879,4123.589844,4133.846191,4127.692383,4110.769043,4140.512695,4143.077148,4177.948730,4144.102539,4158.461426,748.000000,4.000000,,,,0.000000,4.000000,4.000000,4.000000,4.000000,4.000000,4.000000,4.000000,4.000000,4.000000,4.000000,4.000000,4.000000,4.000000,4.000000,100.000000
1602006066.575008,14.000000,0.000000,4138.974121,4122.563965,4143.589844,4122.563965,4120.512695,4121.538574,4125.128418,4124.102539,4101.025879,4129.743652,4136.922852,4160.000000,4134.871582,4153.846191,872.000000,4.000000,,,,0.000000,4.000000,4.000000,4.000000,4.000000,4.000000,4.000000,4.000000,4.000000,4.000000,4.000000,4.000000,4.000000,4.000000,4.000000,100.000000
1602006066.582890,15.000000,0.000000,4138.974121,4128.205078,4136.922852,4126.153809,4124.102539,4122.563965,4121.538574,4122.563965,4102.051270,4119.487305,4135.897461,4146.666504,4121.025879,4152.307617,837.000000,4.000000,,,,0.000000,4.000000,4.000000,4.000000,4.000000,4.000000,4.000000,4.000000,4.000000,4.000000,4.000000,4.000000,4.000000,4.000000,4.000000,100.000000
1602006066.590671,16.000000,0.000000,4136.922852,4130.256348,4136.922852,4126.666504,4128.205078,4112.307617,4113.333496,4132.307617,4107.179688,4113.333496,4137.948730,4143.077148,4123.589844,4153.333496,0.000000,4.000000,,,,0.000000,4.000000,4.000000,4.000000,4.000000,4.000000,4.000000,4.000000,4.000000,4.000000,4.000000,4.000000,4.000000,4.000000,4.000000,100.000000
1602006066.598552,17.000000,0.000000,4136.922852,4125.128418,4132.307617,4125.128418,4126.153809,4100.512695,4103.077148,4133.333496,4103.589844,4109.230957,4133.333496,4133.846191,4131.794922,4154.871582,0.000000,4.000000,,,,0.000000,4.000000,4.000000,4.000000,4.000000,4.000000,4.000000,4.000000,4.000000,4.000000,4.000000,4.000000,4.000000,4.000000,4.000000,100.000000
1602006066.606333,18.000000,0.000000,4144.102539,4129.230957,4128.717773,4125.641113,4120.000000,4104.102539,4110.769043,4127.692383,4108.205078,4118.461426,4127.179688,4133.333496,4128.205078,4157.948730,0.000000,4.000000,,,,0.000000,4.000000,4.000000,4.000000,4.000000,4.000000,4.000000,4.000000,4.000000,4.000000,4.000000,4.000000,4.000000,4.000000,4.000000,100.000000
1602006066.614214,19.000000,0.000000,4152.307617,4138.974121,4135.384766,4129.743652,4119.487305,4116.410156,4123.589844,4130.769043,4123.589844,4140.000000,4130.769043,4148.717773,4127.179688,4157.436035,0.000000,4.000000,,,,0.000000,4.000000,4.000000,4.000000,4.000000,4.000000,4.000000,4.000000,4.000000,4.000000,4.000000,4.000000,4.000000,4.000000,4.000000,100.000000
1602006066.621995,20.000000,0.000000,4154.871582,4140.000000,4147.179688,4135.897461,4130.256348,4127.179688,4126.153809,4131.794922,4127.179688,4144.102539,4142.051270,4158.974121,4143.589844,4160.512695,0.000000,4.000000,,,,0.000000,4.000000,4.000000,4.000000,4.000000,4.000000,4.000000,4.000000,4.000000,4.000000,4.000000,4.000000,4.000000,4.000000,4.000000,100.000000
1602006066.629877,21.000000,0.000000,4154.871582,4137.436035,4152.307617,4139.487305,4137.436035,4128.717773,4122.563965,4125.128418,4121.025879,4132.307617,4151.282227,4157.948730,4154.871582,4168.205078,0.000000,4.000000,,,,0.000000,4.000000,4.000000,4.000000,4.000000,4.000000,4.000000,4.000000,4.000000,4.000000,4.000000,4.000000,4.000000,4.000000,4.000000,100.000000
1602006066.637759,22.000000,0.000000,4156.922852,4146.153809,4154.871582,4138.974121,4135.384766,4124.615234,4120.512695,4128.717773,4127.692383,4144.102539,4154.871582,4160.512695,4155.897461,4172.307617,0.000000,4.000000,,,,0.000000,4.000000,4.000000,4.000000,4.000000,4.000000,4.000000,4.000000,4.000000,4.000000,4.000000,4.000000,4.000000,4.000000,4.000000,100.000000
1602006066.645640,23.000000,0.000000,4158.461426,4153.333496,4153.333496,4140.000000,4136.410156,4128.205078,4119.487305,4137.948730,4137.948730,4157.436035,4158.974121,4163.077148,4158.461426,4172.820313,0.000000,4.000000,,,,0.000000,4.000000,4.000000,4.000000,4.000000,4.000000,4.000000,4.000000,4.000000,4.000000,4.000000,4.000000,4.000000,4.000000,4.000000,100.000000
1602006066.653522,24.000000,0.000000,4151.794922,4146.153809,4142.051270,4140.512695,4140.000000,4136.922852,4120.512695,4131.794922,4127.692383,4138.974121,4153.333496,4151.282227,4151.282227,4166.153809,0.000000,4.000000,,,,0.000000,4.000000,4.000000,4.000000,4.000000,4.000000,4.000000,4.000000,4.000000,4.000000,4.000000,4.000000,4.000000,4.000000,4.000000,100.000000
1602006066.661304,25.000000,0.000000,4145.128418,4136.922852,4136.922852,4136.410156,4138.974121,4137.948730,4123.077148,4126.153809,4112.307617,4124.615234,4141.025879,4138.461426,4137.948730,4155.384766,0.000000,4.000000,,,,0.000000,4.000000,4.000000,4.000000,4.000000,4.000000,4.000000,4.000000,4.000000,4.000000,4.000000,4.000000,4.000000,4.000000,4.000000,100.000000
1602006066.669187,26.000000,0.000000,4142.563965,4131.794922,4136.410156,4131.282227,4134.358887,4138.461426,4126.153809,4133.333496,4112.820313,4132.307617,4134.358887,4137.948730,4133.333496,4145.641113,0.000000,4.000000,,,,0.000000,4.000000,4.000000,4.000000,4.000000,4.000000,4.000000,4.000000,4.000000,4.000000,4.000000,4.000000,4.000000,4.000000,4.000000,100.000000
1602006066.677069,27.000000,0.000000,4131.282227,4121.538574,4123.589844,4120.512695,4128.717773,4136.922852,4132.307617,4137.948730,4113.333496,4133.333496,4128.717773,4138.461426,4128.205078,4133.333496,0.000000,4.000000,,,,0.000000,4.000000,4.000000,4.000000,4.000000,4.000000,4.000000,4.000000,4.000000,4.000000,4.000000,4.000000,4.000000,4.000000,4.000000,100.000000
1602006066.684951,28.000000,0.000000,4112.307617,4107.692383,4112.307617,4110.256348,4118.461426,4128.205078,4135.897461,4133.846191,4104.615234,4131.282227,4123.077148,4131.282227,4114.358887,4120.512695,0.000000,4.000000,,,,0.000000,4.000000,4.000000,4.000000,4.000000,4.000000,4.000000,4.000000,4.000000,4.000000,4.000000,4.000000,4.000000,4.000000,4.000000,100.000000
1602006066.692834,29.000000,0.000000,4104.615234,4102.051270,4116.410156,4105.128418,4107.179688,4124.102539,4128.717773,4125.128418,4101.538574,4134.871582,4114.358887,4119.487305,4101.025879,4109.743652,0.000000,4.000000,,,,0.000000,4.000000,4.000000,4.000000,4.000000,4.000000,4.000000,4.000000,4.000000,4.000000,4.000000,4.000000,4.000000,4.000000,4.000000,100.000000
1602006066.700716,30.000000,0.000000,4110.769043,4101.538574,4118.461426,4103.589844,4103.077148,4116.410156,4114.871582,4118.974121,4103.077148,4122.563965,4109.743652,4115.384766,4100.000000,4107.179688,0.000000,4.000000,,,,0.000000,4.000000,4.000000,4.000000,4.000000,4.000000,4.000000,4.000000,4.000000,4.000000,4.000000,4.000000,4.000000,4.000000,4.000000,100.000000
1602006066.708598,31.000000,0.000000,4123.077148,4110.256348,4122.051270,4111.794922,4112.307617,4103.077148,4106.666504,4122.563965,4108.717773,4111.794922,4123.589844,4125.128418,4116.410156,4124.102539,0.000000,4.000000,,,,0.000000,4.000000,4.000000,4.000000,4.000000,4.000000,4.000000,4.000000,4.000000,4.000000,4.000000,4.000000,4.000000,4.000000,4.000000,100.000000
1602006066.716481,32.000000,0.000000,4138.461426,4123.077148,4140.000000,4123.589844,4124.102539,4107.692383,4108.717773,4134.358887,4127.692383,4127.179688,4149.230957,4143.077148,4138.461426,4150.769043,0.000000,4.000000,,,,0.000000,4.000000,4.000000,4.000000,4.000000,4.000000,4.000000,4.000000,4.000000,4.000000,4.000000,4.000000,4.000000,4.000000,4.000000,100.000000
1602006066.724363,33.000000,0.000000,4148.717773,4128.717773,4153.846191,4127.692383,4125.128418,4121.025879,4116.922852,4142.051270,4141.538574,4145.641113,4155.897461,4155.384766,4147.692383,4164.102539,0.000000,4.000000,,,,0.000000,4.000000,4.000000,4.000000,4.000000,4.000000,4.000000,4.000000,4.000000,4.000000,4.000000,4.000000,4.000000,4.000000,4.000000,100.000000
1602006066.732146,34.000000,0.000000,4152.820313,4135.384766,4153.333496,4128.205078,4128.205078,4123.077148,4127.692383,4144.102539,4142.563965,4156.922852,4153.333496,4163.077148,4152.307617,4168.717773,0.000000,4.000000,,,,0.000000,4.000000,4.000000,4.000000,4.000000,4.000000,4.000000,4.000000,4.000000,4.000000,4.000000,4.000000,4.000000,4.000000,4.000000,100.000000
1602006066.740028,35.000000,0.000000,4149.743652,4138.974121,4145.641113,4129.743652,4134.871582,4125.128418,4137.436035,4143.589844,4140.000000,4158.974121,4153.333496,4164.615234,4154.871582,4165.641113,0.000000,4.000000,,,,0.000000,4.000000,4.000000,4.000000,4.000000,4.000000,4.000000,4.000000,4.000000,4.000000,4.000000,4.000000,4.000000,4.000000,4.000000,100.000000
1602006066.747910,36.000000,0.000000,4138.461426,4131.282227,4132.820313,4127.179688,4134.871582,4135.897461,4140.512695,4141.025879,4126.666504,4146.153809,4135.384766,4151.794922,4138.461426,4147.179688,0.000000,4.000000,,,,0.000000,4.000000,4.000000,4.000000,4.000000,4.000000,4.000000,4.000000,4.000000,4.000000,4.000000,4.000000,4.000000,4.000000,4.000000,100.000000
1602006066.755793,37.000000,0.000000,4129.743652,4125.641113,4124.615234,4122.563965,4134.358887,4146.666504,4142.051270,4138.974121,4117.948730,4135.384766,4118.461426,4141.538574,4121.025879,4137.436035,0.000000,4.000000,,,,0.000000,4.000000,4.000000,4.000000,4.000000,4.000000,4.000000,4.000000,4.000000,4.000000,4.000000,4.000000,4.000000,4.000000,4.000000,100.000000
1602006066.763675,38.000000,0.000000,4128.717773,4127.692383,4119.487305,4120.512695,4141.025879,4157.436035,4145.641113,4140.000000,4127.692383,4135.384766,4125.128418,4147.692383,4124.615234,4139.487305,0.000000,4.000000,,,,0.000000,4.000000,4.000000,4.000000,4.000000,4.000000,4.000000,4.000000,4.000000,4.000000,4.000000,4.000000,4.000000,4.000000,4.000000,100.000000
1602006066.771557,39.000000,0.000000,4127.179688,4124.615234,4111.282227,4117.948730,4141.538574,4155.897461,4139.487305,4139.487305,4129.743652,4127.692383,4126.153809,4145.128418,4126.666504,4131.794922,0.000000,4.000000,,,,0.000000,4.000000,4.000000,4.000000,4.000000,4.000000,4.000000,4.000000,4.000000,4.000000,4.000000,4.000000,4.000000,4.000000,4.000000,100.000000
1602006066.779440,40.000000,0.000000,4126.153809,4123.077148,4111.794922,4119.487305,4131.282227,4142.051270,4121.025879,4134.871582,4125.641113,4114.358887,4115.897461,4127.692383,4118.461426,4119.487305,0.000000,4.000000,,,,0.000000,4.000000,4.000000,4.000000,4.000000,4.000000,4.000000,4.000000,4.000000,4.000000,4.000000,4.000000,4.000000,4.000000,4.000000,100.000000
1602006066.787322,41.000000,0.000000,4124.102539,4125.641113,4121.025879,4123.589844,4131.282227,4134.871582,4114.358887,4128.717773,4138.974121,4128.205078,4123.077148,4124.102539,4121.538574,4118.974121,0.000000,4.000000,,,,0.000000,4.000000,4.000000,4.000000,4.000000,4.000000,4.000000,4.000000,4.000000,4.000000,4.000000,4.000000,4.000000,4.000000,4.000000,100.000000
1602006066.795104,42.000000,0.000000,4122.563965,4126.666504,4126.153809,4123.077148,4140.000000,4130.769043,4120.000000,4126.153809,4152.307617,4148.717773,4137.436035,4133.846191,4135.384766,4130.256348,0.000000,4.000000,,,,0.000000,4.000000,4.000000,4.000000,4.000000,4.000000,4.000000,4.000000,4.000000,4.000000,4.000000,4.000000,4.000000,4.000000,4.000000,100.000000
1602006066.802986,43.000000,0.000000,4129.230957,4130.769043,4128.205078,4128.205078,4141.538574,4122.563965,4122.051270,4130.256348,4152.820313,4148.717773,4134.871582,4143.077148,4138.974121,4140.000000,0.000000,4.000000,,,,0.000000,4.000000,4.000000,4.000000,4.000000,4.000000,4.000000,4.000000,4.000000,4.000000,4.000000,4.000000,4.000000,4.000000,4.000000,100.000000
1602006066.810869,44.000000,0.000000,4141.025879,4137.436035,4131.794922,4136.410156,4136.922852,4125.641113,4126.153809,4136.410156,4154.871582,4138.974121,4132.820313,4151.282227,4137.948730,4142.051270,0.000000,4.000000,,,,0.000000,4.000000,4.000000,4.000000,4.000000,4.000000,4.000000,4.000000,4.000000,4.000000,4.000000,4.000000,4.000000,4.000000,4.000000,100.000000
1602006066.818751,45.000000,0.000000,4144.615234,4138.461426,4128.205078,4131.282227,4137.948730,4136.922852,4136.410156,4138.974121,4153.333496,4132.307617,4135.384766,4152.820313,4139.487305,4140.512695,0.000000,4.000000,,,,0.000000,4.000000,4.000000,4.000000,4.000000,4.000000,4.000000,4.000000,4.000000,4.000000,4.000000,4.000000,4.000000,4.000000,4.000000,100.000000
1602006066.826633,46.000000,0.000000,4133.333496,4136.410156,4121.025879,4124.615234,4140.512695,4140.512695,4137.436035,4138.974121,4142.051270,4133.333496,4132.820313,4149.230957,4138.461426,4138.974121,0.000000,4.000000,,,,0.000000,4.000000,4.000000,4.000000,4.000000,4.000000,4.000000,4.000000,4.000000,4.000000,4.000000,4.000000,4.000000,4.000000,4.000000,100.000000
1602006066.834515,47.000000,0.000000,4121.025879,4136.410156,4125.641113,4129.230957,4137.948730,4140.000000,4135.384766,4138.461426,4136.922852,4133.846191,4127.692383,4151.282227,4134.871582,4137.948730,0.000000,4.000000,,,,0.000000,4.000000,4.000000,4.000000,4.000000,4.000000,4.000000,4.000000,4.000000,4.000000,4.000000,4.000000,4.000000,4.000000,4.000000,100.000000
1602006066.842397,48.000000,0.000000,4123.077148,4137.436035,4136.922852,4131.794922,4135.897461,4142.051270,4137.436035,4135.384766,4136.410156,4126.153809,4123.077148,4153.333496,4134.358887,4135.384766,0.000000,4.000000,,,,0.000000,4.000000,4.000000,4.000000,4.000000,4.000000,4.000000,4.000000,4.000000,4.000000,4.000000,4.000000,4.000000,4.000000,4.000000,100.000000
1602006066.850379,49.000000,0.000000,4131.282227,4140.000000,4143.589844,4127.692383,4137.948730,4140.512695,4133.333496,4135.897461,4136.922852,4131.794922,4123.589844,4152.820313,4138.974121,4134.358887,0.000000,4.000000,,,,0.000000,4.000000,4.000000,4.000000,4.000000,4.000000,4.000000,4.000000,4.000000,4.000000,4.000000,4.000000,4.000000,4.000000,4.000000,100.000000
1602006066.858262,50.000000,0.000000,4127.179688,4137.948730,4134.871582,4125.641113,4135.384766,4133.333496,4121.025879,4137.436035,4139.487305,4150.769043,4133.333496,4152.307617,4136.410156,4136.410156,0.000000,4.000000,,,,0.000000,4.000000,4.000000,4.000000,4.000000,4.000000,4.000000,4.000000,4.000000,4.000000,4.000000,4.000000,4.000000,4.000000,4.000000,100.000000
1602006066.866144,51.000000,0.000000,4113.846191,4125.128418,4122.051270,4122.563965,4122.563965,4121.025879,4113.333496,4129.743652,4135.897461,4136.410156,4131.282227,4143.077148,4125.641113,4136.410156,0.000000,4.000000,,,,0.000000,4.000000,4.000000,4.000000,4.000000,4.000000,4.000000,4.000000,4.000000,4.000000,4.000000,4.000000,4.000000,4.000000,4.000000,100.000000
1602006066.874026,52.000000,0.000000,4116.922852,4122.051270,4122.563965,4121.025879,4123.077148,4114.871582,4116.410156,4120.000000,4126.666504,4112.820313,4118.974121,4135.897461,4127.179688,4135.897461,0.000000,4.000000,,,,0.000000,4.000000,4.000000,4.000000,4.000000,4.000000,4.000000,4.000000,4.000000,4.000000,4.000000,4.000000,4.000000,4.000000,4.000000,100.000000
1602006066.881909,53.000000,0.000000,4134.871582,4131.794922,4128.717773,4123.589844,4135.384766,4120.000000,4123.077148,4119.487305,4131.282227,4125.641113,4129.743652,4145.641113,4142.051270,4140.512695,0.000000,4.000000,,,,0.000000,4.000000,4.000000,4.000000,4.000000,4.000000,4.000000,4.000000,4.000000,4.000000,4.000000,4.000000,4.000000,4.000000,4.000000,100.000000
1602006066.889791,54.000000,0.000000,4136.410156,4129.230957,4127.179688,4123.589844,4131.794922,4119.487305,4127.692383,4122.051270,4139.487305,4126.153809,4141.025879,4154.358887,4145.641113,4142.051270,0.000000,4.000000,,,,0.000000,4.000000,4.000000,4.000000,4.000000,4.000000,4.000000,4.000000,4.000000,4.000000,4.000000,4.000000,4.000000,4.000000,4.000000,100.000000
1602006066.897673,55.000000,0.000000,4121.025879,4119.487305,4121.538574,4120.512695,4120.512695,4114.358887,4130.256348,4120.000000,4132.820313,4109.743652,4128.717773,4152.820313,4136.922852,4137.948730,0.000000,4.000000,,,,0.000000,4.000000,4.000000,4.000000,4.000000,4.000000,4.000000,4.000000,4.000000,4.000000,4.000000,4.000000,4.000000,4.000000,4.000000,100.000000
1602006066.905556,56.000000,0.000000,4117.436035,4121.025879,4122.563965,4121.538574,4121.538574,4119.487305,4135.897461,4123.077148,4126.666504,4118.461426,4120.512695,4151.282227,4133.333496,4133.846191,0.000000,4.000000,,,,0.000000,4.000000,4.000000,4.000000,4.000000,4.000000,4.000000,4.000000,4.000000,4.000000,4.000000,4.000000,4.000000,4.000000,4.000000,100.000000
1602006066.913438,57.000000,0.000000,4126.153809,4125.128418,4126.153809,4124.102539,4124.102539,4126.153809,4135.897461,4132.820313,4135.384766,4136.410156,4123.589844,4152.307617,4133.846191,4135.897461,0.000000,4.000000,,,,0.000000,4.000000,4.000000,4.000000,4.000000,4.000000,4.000000,4.000000,4.000000,4.000000,4.000000,4.000000,4.000000,4.000000,4.000000,100.000000
1602006066.921220,58.000000,0.000000,4128.205078,4131.282227,4128.205078,4124.102539,4124.615234,4123.077148,4126.666504,4144.102539,4148.717773,4148.205078,4124.615234,4155.384766,4137.948730,4141.538574,0.000000,4.000000,,,,0.000000,4.000000,4.000000,4.000000,4.000000,4.000000,4.000000,4.000000,4.000000,4.000000,4.000000,4.000000,4.000000,4.000000,4.000000,100.000000
1602006066.929102,59.000000,0.000000,4123.589844,4136.410156,4127.692383,4124.102539,4127.692383,4120.512695,4122.051270,4142.051270,4151.282227,4153.846191,4123.589844,4151.282227,4138.974121,4136.922852,0.000000,4.000000,,,,0.000000,4.000000,4.000000,4.000000,4.000000,4.000000,4.000000,4.000000,4.000000,4.000000,4.000000,4.000000,4.000000,4.000000,4.000000,100.000000
1602006066.936985,60.000000,0.000000,4117.436035,4128.717773,4119.487305,4123.077148,4127.179688,4122.563965,4121.538574,4127.692383,4138.974121,4129.743652,4122.563965,4138.461426,4127.179688,4120.512695,0.000000,4.000000,,,,0.000000,4.000000,4.000000,4.000000,4.000000,4.000000,4.000000,4.000000,4.000000,4.000000,4.000000,4.000000,4.000000,4.000000,4.000000,100.000000
1602006066.944867,61.000000,0.000000,4107.179688,4118.461426,4113.846191,4117.948730,4121.025879,4125.641113,4118.974121,4120.000000,4125.128418,4103.077148,4118.974121,4131.282227,4117.436035,4112.820313,0.000000,4.000000,,,,0.000000,4.000000,4.000000,4.000000,4.000000,4.000000,4.000000,4.000000,4.000000,4.000000,4.000000,4.000000,4.000000,4.000000,4.000000,100.000000
1602006066.952749,62.000000,0.000000,4109.743652,4126.153809,4116.922852,4120.000000,4125.128418,4127.179688,4118.974121,4121.025879,4129.230957,4126.666504,4123.589844,4137.948730,4124.615234,4121.025879,0.000000,4.000000,,,,0.000000,4.000000,4.000000,4.000000,4.000000,4.000000,4.000000,4.000000,4.000000,4.000000,4.000000,4.000000,4.000000,4.000000,4.000000,100.000000
1602006066.960631,63.000000,0.000000,4121.025879,4138.461426,4125.641113,4126.153809,4135.897461,4125.128418,4118.974121,4120.512695,4137.948730,4143.589844,4135.384766,4143.077148,4136.922852,4130.256348,0.000000,4.000000,,,,0.000000,4.000000,4.000000,4.000000,4.000000,4.000000,4.000000,4.000000,4.000000,4.000000,4.000000,4.000000,4.000000,4.000000,4.000000,100.000000
1602006066.968513,64.000000,0.000000,4125.128418,4137.948730,4131.794922,4125.128418,4134.871582,4118.974121,4115.384766,4116.410156,4129.743652,4116.922852,4134.358887,4141.538574,4137.948730,4135.384766,806.000000,4.000000,,,,0.000000,4.000000,4.000000,4.000000,4.000000,4.000000,4.000000,4.000000,4.000000,4.000000,4.000000,4.000000,4.000000,4.000000,4.000000,100.000000
1602006066.976495,65.000000,0.000000,4126.666504,4131.282227,4137.436035,4121.538574,4124.102539,4118.461426,4117.948730,4118.461426,4122.563965,4114.871582,4125.128418,4147.179688,4136.410156,4139.487305,792.000000,4.000000,,,,0.000000,4.000000,4.000000,4.000000,4.000000,4.000000,4.000000,4.000000,4.000000,4.000000,4.000000,4.000000,4.000000,4.000000,4.000000,100.000000
1602006066.984378,66.000000,0.000000,4130.256348,4125.641113,4137.436035,4121.025879,4120.512695,4124.102539,4130.769043,4122.051270,4127.692383,4143.589844,4126.153809,4154.358887,4135.897461,4138.974121,850.000000,4.000000,,,,0.000000,4.000000,4.000000,4.000000,4.000000,4.000000,4.000000,4.000000,4.000000,4.000000,4.000000,4.000000,4.000000,4.000000,4.000000,100.000000
1602006066.992260,67.000000,0.000000,4126.666504,4124.615234,4133.846191,4121.025879,4121.538574,4122.563965,4140.512695,4124.102539,4127.179688,4140.512695,4131.282227,4149.230957,4131.282227,4141.025879,869.000000,4.000000,,,,0.000000,4.000000,4.000000,4.000000,4.000000,4.000000,4.000000,4.000000,4.000000,4.000000,4.000000,4.000000,4.000000,4.000000,4.000000,100.000000
1602006067.000142,68.000000,0.000000,4121.538574,4125.128418,4134.358887,4122.563965,4122.051270,4121.025879,4143.589844,4130.256348,4118.461426,4118.461426,4126.666504,4138.461426,4127.179688,4141.538574,814.000000,4.000000,,,,0.000000,4.000000,4.000000,4.000000,4.000000,4.000000,4.000000,4.000000,4.000000,4.000000,4.000000,4.000000,4.000000,4.000000,4.000000,100.000000
1602006067.008025,69.000000,0.000000,4124.102539,4126.666504,4135.897461,4123.077148,4122.563965,4129.743652,4145.128418,4137.436035,4118.461426,4126.666504,4121.538574,4138.974121,4126.666504,4128.717773,825.000000,4.000000,,,,0.000000,4.000000,4.000000,4.000000,4.000000,4.000000,4.000000,4.000000,4.000000,4.000000,4.000000,4.000000,4.000000,4.000000,4.000000,100.000000
1602006067.015907,70.000000,0.000000,4124.615234,4132.307617,4136.922852,4123.589844,4125.641113,4137.436035,4143.589844,4138.461426,4126.153809,4145.128418,4123.589844,4141.538574,4125.128418,4125.641113,766.000000,4.000000,,,,0.000000,4.000000,4.000000,4.000000,4.000000,4.000000,4.000000,4.000000,4.000000,4.000000,4.000000,4.000000,4.000000,4.000000,4.000000,100.000000
1602006067.023789,71.000000,0.000000,4126.153809,4137.948730,4136.922852,4131.282227,4133.846191,4137.436035,4138.461426,4136.922852,4132.820313,4144.102539,4128.205078,4133.846191,4124.102539,4138.974121,674.000000,4.000000,,,,0.000000,4.000000,4.000000,4.000000,4.000000,4.000000,4.000000,4.000000,4.000000,4.000000,4.000000,4.000000,4.000000,4.000000,4.000000,100.000000
1602006067.031672,72.000000,0.000000,4129.230957,4140.512695,4131.794922,4136.410156,4140.512695,4138.461426,4131.282227,4136.922852,4138.461426,4140.000000,4129.743652,4125.641113,4125.128418,4135.897461,787.000000,4.000000,,,,0.000000,4.000000,4.000000,4.000000,4.000000,4.000000,4.000000,4.000000,4.000000,4.000000,4.000000,4.000000,4.000000,4.000000,4.000000,100.000000
1602006067.039554,73.000000,0.000000,4117.948730,4135.384766,4122.563965,4128.717773,4133.846191,4136.922852,4124.615234,4130.769043,4135.897461,4130.769043,4125.128418,4122.563965,4123.077148,4118.461426,842.000000,4.000000,,,,0.000000,4.000000,4.000000,4.000000,4.000000,4.000000,4.000000,4.000000,4.000000,4.000000,4.000000,4.000000,4.000000,4.000000,4.000000,100.000000
1602006067.047337,74.000000,0.000000,4110.256348,4127.692383,4118.461426,4122.051270,4123.077148,4130.769043,4120.000000,4124.102539,4125.641113,4108.205078,4124.102539,4128.717773,4123.589844,4121.025879,872.000000,4.000000,,,,0.000000,4.000000,4.000000,4.000000,4.000000,4.000000,4.000000,4.000000,4.000000,4.000000,4.000000,4.000000,4.000000,4.000000,4.000000,100.000000
