Timestamp,EEG.Counter,EEG.Interpolated,EEG.AF3,EEG.F7,EEG.F3,EEG.FC5,EEG.T7,EEG.P7,EEG.O1,EEG.O2,EEG.P8,EEG.T8,EEG.FC6,EEG.F4,EEG.F8,EEG.AF4,EEG.RawCq,EEG.Battery,MarkerIndex,MarkerType,MarkerValueInt,EEG.MarkerHardware,CQ.AF3,CQ.F7,CQ.F3,CQ.FC5,CQ.T7,CQ.P7,CQ.O1,CQ.O2,CQ.P8,CQ.T8,CQ.FC6,CQ.F4,CQ.F8,CQ.AF4,CQ.Overall
1602006088.482712,85.000000,0.000000,4122.563965,4138.974121,4122.051270,4123.077148,4128.205078,4121.538574,4128.205078,4139.487305,4145.128418,4128.205078,4132.307617,4131.794922,4135.897461,4115.384766,748.000000,4.000000,,,,0.000000,4.000000,4.000000,4.000000,4.000000,4.000000,4.000000,4.000000,4.000000,4.000000,4.000000,4.000000,4.000000,4.000000,4.000000,100.000000
1602006088.490494,86.000000,0.000000,4133.846191,4142.563965,4130.256348,4126.153809,4131.282227,4126.666504,4135.384766,4142.051270,4156.922852,4167.692383,4139.487305,4145.128418,4144.102539,4129.230957,874.000000,4.000000,,,,0.000000,4.000000,4.000000,4.000000,4.000000,4.000000,4.000000,4.000000,4.000000,4.000000,4.000000,4.000000,4.000000,4.000000,4.000000,100.000000
1602006088.498376,87.000000,0.000000,4135.897461,4129.743652,4138.974121,4122.051270,4122.051270,4122.563965,4140.000000,4141.025879,4163.077148,4167.692383,4141.025879,4148.717773,4141.538574,4124.615234,835.000000,4.000000,,,,0.000000,4.000000,4.000000,4.000000,4.000000,4.000000,4.000000,4.000000,4.000000,4.000000,4.000000,4.000000,4.000000,4.000000,4.000000,100.000000
1602006088.506258,88.000000,0.000000,4125.641113,4123.589844,4139.487305,4122.051270,4119.487305,4132.307617,4150.256348,4144.615234,4154.358887,4145.641113,4146.666504,4147.692383,4143.077148,4121.025879,769.000000,4.000000,,,,0.000000,4.000000,4.000000,4.000000,4.000000,4.000000,4.000000,4.000000,4.000000,4.000000,4.000000,4.000000,4.000000,4.000000,4.000000,100.000000
1602006088.514140,89.000000,0.000000,4111.282227,4122.051270,4128.205078,4118.974121,4124.615234,4142.563965,4153.846191,4143.589844,4141.025879,4144.102539,4144.102539,4141.025879,4144.615234,4122.051270,748.000000,4.000000,,,,0.000000,4.000000,4.000000,4.000000,4.000000,4.000000,4.000000,4.000000,4.000000,4.000000,4.000000,4.000000,4.000000,4.000000,4.000000,100.000000
1602006088.522022,90.000000,0.000000,4099.487305,4107.692383,4123.077148,4108.205078,4125.641113,4143.589844,4144.615234,4134.358887,4134.871582,4130.256348,4126.153809,4135.384766,4126.153809,4107.692383,874.000000,4.000000,,,,0.000000,4.000000,4.000000,4.000000,4.000000,4.000000,4.000000,4.000000,4.000000,4.000000,4.000000,4.000000,4.000000,4.000000,4.000000,100.000000
1602006088.529904,91.000000,0.000000,4107.179688,4108.205078,4124.102539,4111.282227,4126.153809,4136.922852,4132.307617,4122.563965,4123.589844,4098.974121,4116.410156,4134.358887,4110.769043,4104.615234,835.000000,4.000000,,,,0.000000,4.000000,4.000000,4.000000,4.000000,4.000000,4.000000,4.000000,4.000000,4.000000,4.000000,4.000000,4.000000,4.000000,4.000000,100.000000
1602006088.537787,92.000000,0.000000,4137.948730,4132.820313,4124.102539,4125.128418,4129.230957,4126.666504,4123.589844,4113.333496,4103.589844,4103.077148,4121.538574,4133.333496,4116.410156,4133.333496,769.000000,4.000000,,,,0.000000,4.000000,4.000000,4.000000,4.000000,4.000000,4.000000,4.000000,4.000000,4.000000,4.000000,4.000000,4.000000,4.000000,4.000000,100.000000
1602006088.545769,93.000000,0.000000,4166.153809,4144.102539,4131.282227,4127.179688,4127.179688,4121.538574,4121.025879,4116.410156,4092.820557,4128.717773,4124.102539,4138.461426,4122.563965,4150.769043,748.000000,4.000000,,,,0.000000,4.000000,4.000000,4.000000,4.000000,4.000000,4.000000,4.000000,4.000000,4.000000,4.000000,4.000000,4.000000,4.000000,4.000000,100.000000
1602006088.553651,94.000000,0.000000,4174.871582,4135.897461,4137.436035,4125.128418,4124.102539,4111.794922,4118.974121,4121.025879,4095.897461,4124.615234,4123.077148,4145.641113,4117.948730,4151.282227,874.000000,4.000000,,,,0.000000,4.000000,4.000000,4.000000,4.000000,4.000000,4.000000,4.000000,4.000000,4.000000,4.000000,4.000000,4.000000,4.000000,4.000000,100.000000
1602006088.561533,95.000000,0.000000,4188.717773,4145.128418,4143.589844,4135.384766,4130.256348,4105.128418,4119.487305,4123.589844,4106.666504,4117.948730,4133.333496,4148.205078,4120.512695,4164.102539,835.000000,4.000000,,,,0.000000,4.000000,4.000000,4.000000,4.000000,4.000000,4.000000,4.000000,4.000000,4.000000,4.000000,4.000000,4.000000,4.000000,4.000000,100.000000
1602006088.569416,96.000000,0.000000,4204.102539,4158.974121,4154.358887,4143.077148,4138.461426,4115.384766,4127.692383,4132.307617,4117.948730,4137.436035,4142.051270,4152.307617,4130.769043,4167.692383,769.000000,4.000000,,,,0.000000,4.000000,4.000000,4.000000,4.000000,4.000000,4.000000,4.000000,4.000000,4.000000,4.000000,4.000000,4.000000,4.000000,4.000000,100.000000
1602006088.577298,97.000000,0.000000,4192.820313,4148.205078,4158.974121,4140.000000,4132.307617,4124.102539,4137.948730,4139.487305,4123.077148,4143.589844,4134.358887,4156.410156,4129.230957,4160.512695,748.000000,4.000000,,,,0.000000,4.000000,4.000000,4.000000,4.000000,4.000000,4.000000,4.000000,4.000000,4.000000,4.000000,4.000000,4.000000,4.000000,4.000000,100.000000
1602006088.585181,98.000000,0.000000,4177.436035,4136.410156,4154.871582,4136.922852,4122.051270,4128.717773,4142.563965,4140.000000,4132.307617,4120.512695,4124.615234,4155.897461,4122.563965,4168.205078,874.000000,4.000000,,,,0.000000,4.000000,4.000000,4.000000,4.000000,4.000000,4.000000,4.000000,4.000000,4.000000,4.000000,4.000000,4.000000,4.000000,4.000000,100.000000
1602006088.593063,99.000000,0.000000,4182.563965,4135.897461,4154.871582,4132.820313,4123.589844,4134.871582,4143.589844,4140.512695,4137.948730,4106.153809,4122.563965,4151.794922,4123.589844,4165.128418,835.000000,4.000000,,,,0.000000,4.000000,4.000000,4.000000,4.000000,4.000000,4.000000,4.000000,4.000000,4.000000,4.000000,4.000000,4.000000,4.000000,4.000000,100.000000
1602006088.600945,100.000000,0.000000,4185.128418,4128.717773,4151.282227,4122.051270,4122.563965,4129.230957,4145.641113,4140.000000,4128.717773,4118.461426,4128.717773,4143.077148,4125.641113,4149.743652,769.000000,4.000000,,,,0.000000,4.000000,4.000000,4.000000,4.000000,4.000000,4.000000,4.000000,4.000000,4.000000,4.000000,4.000000,4.000000,4.000000,4.000000,100.000000
1602006088.608927,101.000000,0.000000,4167.692383,4120.512695,4141.025879,4115.897461,4117.948730,4123.077148,4151.794922,4138.974121,4129.743652,4134.871582,4141.025879,4136.922852,4125.641113,4153.846191,748.000000,4.000000,,,,0.000000,4.000000,4.000000,4.000000,4.000000,4.000000,4.000000,4.000000,4.000000,4.000000,4.000000,4.000000,4.000000,4.000000,4.000000,100.000000
1602006088.616808,102.000000,0.000000,4153.846191,4122.051270,4138.974121,4118.974121,4120.512695,4127.692383,4152.820313,4139.487305,4141.538574,4144.102539,4143.077148,4132.820313,4125.128418,4154.358887,874.000000,4.000000,,,,0.000000,4.000000,4.000000,4.000000,4.000000,4.000000,4.000000,4.000000,4.000000,4.000000,4.000000,4.000000,4.000000,4.000000,4.000000,100.000000
1602006088.624690,103.000000,0.000000,4153.846191,4123.589844,4133.846191,4118.974121,4121.538574,4126.153809,4142.563965,4137.436035,4133.846191,4148.205078,4122.563965,4125.128418,4117.948730,4133.846191,835.000000,4.000000,,,,0.000000,4.000000,4.000000,4.000000,4.000000,4.000000,4.000000,4.000000,4.000000,4.000000,4.000000,4.000000,4.000000,4.000000,4.000000,100.000000
1602006088.632572,104.000000,0.000000,4153.333496,4123.589844,4124.615234,4118.461426,4121.025879,4121.538574,4135.384766,4134.871582,4121.025879,4135.897461,4104.102539,4118.974121,4107.692383,4129.743652,769.000000,4.000000,,,,0.000000,4.000000,4.000000,4.000000,4.000000,4.000000,4.000000,4.000000,4.000000,4.000000,4.000000,4.000000,4.000000,4.000000,4.000000,100.000000
1602006088.640453,105.000000,0.000000,4146.153809,4128.205078,4121.025879,4124.102539,4124.615234,4124.615234,4136.922852,4135.897461,4129.743652,4122.051270,4114.358887,4118.974121,4105.641113,4130.256348,748.000000,4.000000,,,,0.000000,4.000000,4.000000,4.000000,4.000000,4.000000,4.000000,4.000000,4.000000,4.000000,4.000000,4.000000,4.000000,4.000000,4.000000,100.000000
1602006088.648335,106.000000,0.000000,4138.974121,4130.256348,4123.589844,4125.128418,4125.641113,4125.641113,4135.384766,4138.974121,4141.025879,4124.615234,4127.692383,4123.589844,4110.256348,4120.512695,874.000000,4.000000,,,,0.000000,4.000000,4.000000,4.000000,4.000000,4.000000,4.000000,4.000000,4.000000,4.000000,4.000000,4.000000,4.000000,4.000000,4.000000,100.000000
1602006088.656117,107.000000,0.000000,4137.948730,4127.692383,4121.025879,4120.000000,4122.563965,4123.077148,4134.871582,4136.922852,4130.769043,4112.820313,4117.436035,4126.666504,4105.128418,4120.000000,835.000000,4.000000,,,,0.000000,4.000000,4.000000,4.000000,4.000000,4.000000,4.000000,4.000000,4.000000,4.000000,4.000000,4.000000,4.000000,4.000000,4.000000,100.000000
1602006088.664000,108.000000,0.000000,4138.974121,4125.128418,4117.948730,4120.512695,4121.538574,4126.666504,4136.410156,4134.358887,4119.487305,4091.794922,4110.769043,4122.051270,4092.307617,4124.102539,769.000000,4.000000,,,,0.000000,4.000000,4.000000,4.000000,4.000000,4.000000,4.000000,4.000000,4.000000,4.000000,4.000000,4.000000,4.000000,4.000000,4.000000,100.000000
1602006088.671882,109.000000,0.000000,4146.153809,4125.641113,4129.230957,4125.641113,4125.128418,4135.897461,4138.461426,4137.948730,4124.615234,4105.641113,4114.358887,4125.128418,4096.410156,4127.692383,748.000000,4.000000,,,,0.000000,4.000000,4.000000,4.000000,4.000000,4.000000,4.000000,4.000000,4.000000,4.000000,4.000000,4.000000,4.000000,4.000000,4.000000,100.000000
1602006088.679765,110.000000,0.000000,4155.384766,4127.692383,4139.487305,4125.641113,4124.102539,4133.333496,4137.436035,4140.000000,4130.256348,4128.205078,4102.051270,4134.871582,4105.641113,4136.410156,874.000000,4.000000,,,,0.000000,4.000000,4.000000,4.000000,4.000000,4.000000,4.000000,4.000000,4.000000,4.000000,4.000000,4.000000,4.000000,4.000000,4.000000,100.000000
1602006088.687647,111.000000,0.000000,4151.794922,4123.077148,4139.487305,4122.051270,4118.461426,4113.846191,4131.282227,4137.948730,4130.769043,4127.179688,4100.000000,4136.410156,4104.102539,4141.025879,835.000000,4.000000,,,,0.000000,4.000000,4.000000,4.000000,4.000000,4.000000,4.000000,4.000000,4.000000,4.000000,4.000000,4.000000,4.000000,4.000000,4.000000,100.000000
1602006088.695529,112.000000,0.000000,4148.717773,4122.051270,4145.128418,4122.563965,4117.948730,4110.256348,4130.769043,4143.589844,4139.487305,4132.307617,4131.282227,4141.025879,4111.794922,4142.051270,769.000000,4.000000,,,,0.000000,4.000000,4.000000,4.000000,4.000000,4.000000,4.000000,4.000000,4.000000,4.000000,4.000000,4.000000,4.000000,4.000000,4.000000,100.000000
1602006088.703412,113.000000,0.000000,4157.948730,4132.307617,4156.922852,4125.128418,4122.051270,4120.512695,4136.922852,4147.179688,4142.563965,4142.563965,4147.692383,4149.743652,4127.179688,4145.128418,748.000000,4.000000,,,,0.000000,4.000000,4.000000,4.000000,4.000000,4.000000,4.000000,4.000000,4.000000,4.000000,4.000000,4.000000,4.000000,4.000000,4.000000,100.000000
1602006088.711294,114.000000,0.000000,4158.974121,4135.384766,4157.948730,4125.641113,4121.538574,4123.077148,4137.948730,4139.487305,4130.769043,4135.897461,4132.307617,4150.256348,4126.666504,4142.051270,874.000000,4.000000,,,,0.000000,4.000000,4.000000,4.000000,4.000000,4.000000,4.000000,4.000000,4.000000,4.000000,4.000000,4.000000,4.000000,4.000000,4.000000,100.000000
1602006088.719176,115.000000,0.000000,4149.743652,4133.846191,4153.333496,4129.230957,4123.077148,4129.743652,4136.922852,4138.461426,4126.153809,4134.871582,4121.538574,4147.692383,4120.512695,4145.641113,835.000000,4.000000,,,,0.000000,4.000000,4.000000,4.000000,4.000000,4.000000,4.000000,4.000000,4.000000,4.000000,4.000000,4.000000,4.000000,4.000000,4.000000,100.000000
1602006088.727059,116.000000,0.000000,4149.743652,4136.410156,4148.205078,4129.230957,4127.692383,4136.410156,4135.897461,4136.410156,4126.153809,4143.589844,4122.051270,4147.692383,4122.563965,4152.820313,769.000000,4.000000,,,,0.000000,4.000000,4.000000,4.000000,4.000000,4.000000,4.000000,4.000000,4.000000,4.000000,4.000000,4.000000,4.000000,4.000000,4.000000,100.000000
1602006088.734841,117.000000,0.000000,4151.282227,4137.948730,4140.000000,4125.128418,4125.128418,4131.282227,4128.205078,4126.153809,4116.922852,4140.000000,4130.769043,4141.025879,4121.538574,4142.051270,748.000000,4.000000,,,,0.000000,4.000000,4.000000,4.000000,4.000000,4.000000,4.000000,4.000000,4.000000,4.000000,4.000000,4.000000,4.000000,4.000000,4.000000,100.000000
1602006088.742723,118.000000,0.000000,4145.128418,4136.922852,4140.000000,4129.743652,4126.153809,4130.769043,4124.102539,4127.179688,4123.077148,4143.589844,4140.512695,4140.512695,4126.153809,4133.846191,874.000000,4.000000,,,,0.000000,4.000000,4.000000,4.000000,4.000000,4.000000,4.000000,4.000000,4.000000,4.000000,4.000000,4.000000,4.000000,4.000000,4.000000,100.000000
1602006088.750605,119.000000,0.000000,4135.384766,4136.410156,4141.025879,4132.820313,4131.282227,4141.025879,4131.282227,4134.871582,4137.948730,4152.307617,4133.846191,4141.025879,4127.179688,4136.410156,835.000000,4.000000,,,,0.000000,4.000000,4.000000,4.000000,4.000000,4.000000,4.000000,4.000000,4.000000,4.000000,4.000000,4.000000,4.000000,4.000000,4.000000,100.000000
1602006088.758487,120.000000,0.000000,4133.333496,4135.897461,4134.358887,4122.563965,4127.179688,4133.846191,4135.897461,4132.307617,4126.666504,4132.307617,4122.563965,4128.717773,4108.205078,4130.769043,769.000000,4.000000,,,,0.000000,4.000000,4.000000,4.000000,4.000000,4.000000,4.000000,4.000000,4.000000,4.000000,4.000000,4.000000,4.000000,4.000000,4.000000,100.000000
1602006088.766369,121.000000,0.000000,4144.615234,4135.384766,4141.538574,4124.615234,4122.051270,4119.487305,4135.897461,4132.820313,4111.794922,4121.538574,4118.974121,4125.128418,4096.922852,4127.179688,748.000000,4.000000,,,,0.000000,4.000000,4.000000,4.000000,4.000000,4.000000,4.000000,4.000000,4.000000,4.000000,4.000000,4.000000,4.000000,4.000000,4.000000,100.000000
1602006088.774252,122.000000,0.000000,4153.333496,4140.000000,4158.974121,4141.025879,4129.230957,4122.563965,4135.897461,4141.538574,4123.077148,4139.487305,4119.487305,4137.436035,4112.307617,4136.922852,874.000000,4.000000,,,,0.000000,4.000000,4.000000,4.000000,4.000000,4.000000,4.000000,4.000000,4.000000,4.000000,4.000000,4.000000,4.000000,4.000000,4.000000,100.000000
1602006088.782134,123.000000,0.000000,4143.077148,4137.948730,4158.974121,4137.436035,4125.641113,4128.205078,4141.025879,4143.077148,4131.282227,4131.282227,4127.179688,4143.589844,4127.179688,4140.000000,835.000000,4.000000,,,,0.000000,4.000000,4.000000,4.000000,4.000000,4.000000,4.000000,4.000000,4.000000,4.000000,4.000000,4.000000,4.000000,4.000000,4.000000,100.000000
1602006088.790016,124.000000,0.000000,4134.871582,4125.128418,4149.230957,4121.025879,4108.205078,4126.153809,4150.769043,4144.102539,4129.230957,4113.333496,4137.948730,4136.410156,4122.051270,4133.846191,769.000000,4.000000,,,,0.000000,4.000000,4.000000,4.000000,4.000000,4.000000,4.000000,4.000000,4.000000,4.000000,4.000000,4.000000,4.000000,4.000000,4.000000,100.000000
1602006088.797998,125.000000,0.000000,4150.256348,4123.589844,4152.307617,4121.538574,4110.769043,4133.846191,4157.948730,4155.384766,4141.538574,4140.512695,4140.512695,4136.922852,4120.512695,4134.871582,748.000000,4.000000,,,,0.000000,4.000000,4.000000,4.000000,4.000000,4.000000,4.000000,4.000000,4.000000,4.000000,4.000000,4.000000,4.000000,4.000000,4.000000,100.000000
1602006088.805879,126.000000,0.000000,4153.333496,4135.384766,4156.922852,4130.256348,4126.153809,4152.307617,4158.461426,4157.948730,4149.743652,4165.128418,4134.358887,4142.051270,4126.666504,4137.948730,874.000000,4.000000,,,,0.000000,4.000000,4.000000,4.000000,4.000000,4.000000,4.000000,4.000000,4.000000,4.000000,4.000000,4.000000,4.000000,4.000000,4.000000,100.000000
1602006088.813761,127.000000,0.000000,4133.333496,4138.461426,4154.358887,4132.820313,4125.641113,4154.871582,4155.384766,4144.615234,4135.384766,4153.333496,4125.128418,4135.897461,4120.512695,4134.871582,835.000000,4.000000,,,,0.000000,4.000000,4.000000,4.000000,4.000000,4.000000,4.000000,4.000000,4.000000,4.000000,4.000000,4.000000,4.000000,4.000000,4.000000,100.000000
1602006088.821643,128.000000,0.000000,4131.794922,4135.384766,4152.820313,4135.897461,4122.563965,4142.051270,4148.717773,4133.333496,4126.153809,4143.077148,4119.487305,4134.871582,4109.743652,4131.794922,769.000000,4.000000,,,,0.000000,4.000000,4.000000,4.000000,4.000000,4.000000,4.000000,4.000000,4.000000,4.000000,4.000000,4.000000,4.000000,4.000000,4.000000,100.000000
1602006088.829525,0.000000,0.000000,4141.538574,4138.461426,4147.179688,4136.410156,4130.769043,4136.922852,4138.461426,4129.230957,4122.051270,4124.102539,4118.974121,4137.436035,4107.692383,4122.563965,802.000000,4.000000,,,,0.000000,4.000000,4.000000,4.000000,4.000000,4.000000,4.000000,4.000000,4.000000,4.000000,4.000000,4.000000,4.000000,4.000000,4.000000,100.000000
1602006088.837407,1.000000,0.000000,4137.436035,4138.974121,4145.128418,4133.846191,4136.410156,4137.948730,4135.384766,4123.589844,4108.205078,4097.436035,4117.948730,4127.179688,4106.666504,4115.384766,789.000000,4.000000,,,,0.000000,4.000000,4.000000,4.000000,4.000000,4.000000,4.000000,4.000000,4.000000,4.000000,4.000000,4.000000,4.000000,4.000000,4.000000,100.000000
1602006088.845389,2.000000,0.000000,4134.358887,4138.461426,4154.358887,4137.948730,4136.922852,4138.974121,4137.436035,4119.487305,4107.179688,4109.230957,4123.589844,4118.974121,4104.102539,4129.230957,850.000000,4.000000,,,,0.000000,4.000000,4.000000,4.000000,4.000000,4.000000,4.000000,4.000000,4.000000,4.000000,4.000000,4.000000,4.000000,4.000000,4.000000,100.000000
1602006088.853272,3.000000,0.000000,4138.461426,4141.025879,4149.743652,4137.436035,4137.436035,4137.436035,4131.794922,4121.538574,4120.512695,4133.846191,4122.563965,4128.205078,4105.128418,4138.461426,871.000000,4.000000,,,,0.000000,4.000000,4.000000,4.000000,4.000000,4.000000,4.000000,4.000000,4.000000,4.000000,4.000000,4.000000,4.000000,4.000000,4.000000,100.000000
1602006088.861154,4.000000,0.000000,4135.897461,4137.948730,4135.384766,4128.717773,4129.743652,4127.692383,4123.077148,4121.025879,4118.974121,4121.025879,4107.692383,4138.974121,4104.615234,4122.051270,814.000000,4.000000,,,,0.000000,4.000000,4.000000,4.000000,4.000000,4.000000,4.000000,4.000000,4.000000,4.000000,4.000000,4.000000,4.000000,4.000000,4.000000,100.000000
1602006088.869036,5.000000,0.000000,4134.871582,4133.846191,4142.563965,4129.743652,4122.051270,4119.487305,4126.666504,4120.000000,4111.282227,4110.256348,4108.205078,4136.922852,4103.077148,4121.538574,824.000000,4.000000,,,,0.000000,4.000000,4.000000,4.000000,4.000000,4.000000,4.000000,4.000000,4.000000,4.000000,4.000000,4.000000,4.000000,4.000000,4.000000,100.000000
1602006088.876919,6.000000,0.000000,4141.538574,4135.897461,4157.436035,4138.461426,4122.563965,4126.153809,4137.436035,4127.692383,4121.025879,4124.102539,4125.128418,4138.461426,4112.307617,4149.230957,773.000000,4.000000,,,,0.000000,4.000000,4.000000,4.000000,4.000000,4.000000,4.000000,4.000000,4.000000,4.000000,4.000000,4.000000,4.000000,4.000000,4.000000,100.000000
1602006088.884801,7.000000,0.000000,4146.153809,4137.948730,4156.410156,4137.948730,4124.615234,4129.230957,4140.000000,4135.897461,4129.743652,4123.589844,4131.282227,4151.282227,4122.051270,4156.410156,675.000000,4.000000,,,,0.000000,4.000000,4.000000,4.000000,4.000000,4.000000,4.000000,4.000000,4.000000,4.000000,4.000000,4.000000,4.000000,4.000000,4.000000,100.000000
1602006088.892683,8.000000,0.000000,4145.128418,4138.974121,4154.871582,4134.358887,4123.589844,4123.077148,4138.974121,4138.974121,4127.692383,4126.153809,4127.692383,4159.487305,4123.077148,4141.025879,789.000000,4.000000,,,,0.000000,4.000000,4.000000,4.000000,4.000000,4.000000,4.000000,4.000000,4.000000,4.000000,4.000000,4.000000,4.000000,4.000000,4.000000,100.000000
1602006088.900566,9.000000,0.000000,4141.538574,4139.487305,4157.436035,4136.922852,4122.563965,4121.025879,4134.871582,4134.871582,4128.205078,4149.743652,4127.692383,4155.384766,4123.077148,4135.897461,841.000000,4.000000,,,,0.000000,4.000000,4.000000,4.000000,4.000000,4.000000,4.000000,4.000000,4.000000,4.000000,4.000000,4.000000,4.000000,4.000000,4.000000,100.000000
1602006088.908448,10.000000,0.000000,4138.974121,4139.487305,4155.384766,4138.461426,4123.589844,4119.487305,4125.128418,4126.153809,4127.179688,4152.307617,4131.282227,4152.307617,4124.615234,4140.512695,874.000000,4.000000,,,,0.000000,4.000000,4.000000,4.000000,4.000000,4.000000,4.000000,4.000000,4.000000,4.000000,4.000000,4.000000,4.000000,4.000000,4.000000,100.000000
1602006088.916230,11.000000,0.000000,4140.000000,4141.025879,4151.282227,4138.974121,4124.615234,4115.384766,4121.025879,4123.077148,4123.589844,4138.974121,4130.256348,4150.769043,4124.615234,4143.589844,835.000000,4.000000,,,,0.000000,4.000000,4.000000,4.000000,4.000000,4.000000,4.000000,4.000000,4.000000,4.000000,4.000000,4.000000,4.000000,4.000000,4.000000,100.000000
1602006088.924112,12.000000,0.000000,4135.384766,4138.461426,4142.563965,4134.871582,4122.051270,4107.692383,4122.563965,4120.512695,4117.948730,4140.000000,4121.538574,4142.563965,4118.461426,4138.974121,769.000000,4.000000,,,,0.000000,4.000000,4.000000,4.000000,4.000000,4.000000,4.000000,4.000000,4.000000,4.000000,4.000000,4.000000,4.000000,4.000000,4.000000,100.000000
1602006088.931994,13.000000,0.000000,4138.974121,4141.538574,4141.025879,4134.871582,4118.974121,4096.410156,4118.461426,4109.743652,4103.589844,4126.153809,4126.666504,4136.922852,4119.487305,4132.820313,748.000000,4.000000,,,,0.000000,4.000000,4.000000,4.000000,4.000000,4.000000,4.000000,4.000000,4.000000,4.000000,4.000000,4.000000,4.000000,4.000000,4.000000,100.000000
1602006088.939877,14.000000,0.000000,4148.205078,4148.205078,4153.333496,4142.051270,4123.589844,4105.641113,4117.948730,4109.230957,4095.897461,4106.666504,4140.512695,4138.974121,4125.641113,4129.230957,874.000000,4.000000,,,,0.000000,4.000000,4.000000,4.000000,4.000000,4.000000,4.000000,4.000000,4.000000,4.000000,4.000000,4.000000,4.000000,4.000000,4.000000,100.000000
1602006088.947759,15.000000,0.000000,4138.461426,4133.846191,4154.358887,4137.436035,4126.666504,4129.743652,4130.256348,4124.102539,4111.282227,4122.051270,4130.256348,4140.000000,4118.974121,4124.615234,835.000000,4.000000,,,,0.000000,4.000000,4.000000,4.000000,4.000000,4.000000,4.000000,4.000000,4.000000,4.000000,4.000000,4.000000,4.000000,4.000000,4.000000,100.000000
1602006088.955641,16.000000,0.000000,4129.230957,4125.641113,4140.512695,4129.743652,4121.538574,4129.743652,4135.897461,4125.641113,4125.641113,4144.615234,4118.974121,4136.410156,4110.256348,4122.051270,0.000000,4.000000,,,,0.000000,4.000000,4.000000,4.000000,4.000000,4.000000,4.000000,4.000000,4.000000,4.000000,4.000000,4.000000,4.000000,4.000000,4.000000,100.000000
1602006088.963523,17.000000,0.000000,4144.102539,4149.230957,4137.948730,4136.922852,4120.512695,4120.512695,4130.769043,4118.974121,4119.487305,4142.563965,4128.205078,4134.871582,4114.871582,4127.692383,0.000000,4.000000,,,,0.000000,4.000000,4.000000,4.000000,4.000000,4.000000,4.000000,4.000000,4.000000,4.000000,4.000000,4.000000,4.000000,4.000000,4.000000,100.000000
1602006088.971405,18.000000,0.000000,4144.102539,4158.461426,4142.051270,4140.512695,4121.538574,4122.051270,4126.666504,4125.641113,4117.948730,4135.897461,4130.769043,4135.897461,4115.897461,4128.717773,0.000000,4.000000,,,,0.000000,4.000000,4.000000,4.000000,4.000000,4.000000,4.000000,4.000000,4.000000,4.000000,4.000000,4.000000,4.000000,4.000000,4.000000,100.000000
1602006088.979287,19.000000,0.000000,4122.051270,4142.051270,4139.487305,4130.256348,4120.512695,4117.948730,4126.153809,4132.307617,4124.102539,4143.077148,4122.051270,4140.512695,4108.717773,4113.333496,0.000000,4.000000,,,,0.000000,4.000000,4.000000,4.000000,4.000000,4.000000,4.000000,4.000000,4.000000,4.000000,4.000000,4.000000,4.000000,4.000000,4.000000,100.000000
1602006088.987070,20.000000,0.000000,4125.641113,4144.102539,4140.000000,4129.743652,4127.692383,4116.410156,4126.153809,4130.256348,4118.461426,4138.974121,4122.563965,4147.179688,4109.743652,4108.717773,0.000000,4.000000,,,,0.000000,4.000000,4.000000,4.000000,4.000000,4.000000,4.000000,4.000000,4.000000,4.000000,4.000000,4.000000,4.000000,4.000000,4.000000,100.000000
1602006088.994952,21.000000,0.000000,4136.922852,4152.307617,4144.615234,4138.461426,4133.333496,4124.102539,4126.153809,4128.205078,4109.743652,4117.948730,4127.692383,4151.794922,4111.794922,4118.974121,0.000000,4.000000,,,,0.000000,4.000000,4.000000,4.000000,4.000000,4.000000,4.000000,4.000000,4.000000,4.000000,4.000000,4.000000,4.000000,4.000000,4.000000,100.000000
1602006089.002834,22.000000,0.000000,4127.179688,4147.179688,4143.077148,4136.922852,4130.256348,4122.051270,4125.128418,4127.179688,4113.846191,4110.256348,4122.051270,4153.846191,4108.717773,4119.487305,0.000000,4.000000,,,,0.000000,4.000000,4.000000,4.000000,4.000000,4.000000,4.000000,4.000000,4.000000,4.000000,4.000000,4.000000,4.000000,4.000000,4.000000,100.000000
1602006089.010717,23.000000,0.000000,4118.461426,4146.666504,4136.410156,4133.846191,4136.410156,4119.487305,4123.077148,4124.102539,4122.563965,4122.563965,4113.846191,4150.769043,4110.769043,4112.820313,0.000000,4.000000,,,,0.000000,4.000000,4.000000,4.000000,4.000000,4.000000,4.000000,4.000000,4.000000,4.000000,4.000000,4.000000,4.000000,4.000000,4.000000,100.000000
1602006089.018599,24.000000,0.000000,4112.820313,4145.128418,4127.692383,4133.333496,4139.487305,4122.563965,4124.615234,4121.025879,4123.589844,4126.153809,4114.871582,4143.589844,4106.666504,4107.179688,0.000000,4.000000,,,,0.000000,4.000000,4.000000,4.000000,4.000000,4.000000,4.000000,4.000000,4.000000,4.000000,4.000000,4.000000,4.000000,4.000000,4.000000,100.000000
1602006089.026481,25.000000,0.000000,4108.717773,4138.974121,4122.051270,4132.820313,4125.128418,4115.897461,4121.025879,4120.000000,4118.461426,4120.512695,4121.538574,4136.922852,4096.922852,4099.487305,0.000000,4.000000,,,,0.000000,4.000000,4.000000,4.000000,4.000000,4.000000,4.000000,4.000000,4.000000,4.000000,4.000000,4.000000,4.000000,4.000000,4.000000,100.000000
1602006089.034364,26.000000,0.000000,4117.948730,4143.077148,4125.641113,4134.358887,4123.077148,4114.358887,4120.512695,4117.948730,4114.358887,4131.794922,4122.563965,4135.897461,4098.461426,4099.487305,0.000000,4.000000,,,,0.000000,4.000000,4.000000,4.000000,4.000000,4.000000,4.000000,4.000000,4.000000,4.000000,4.000000,4.000000,4.000000,4.000000,4.000000,100.000000
1602006089.042246,27.000000,0.000000,4126.153809,4153.333496,4134.871582,4140.000000,4139.487305,4124.615234,4131.282227,4122.563965,4118.974121,4140.000000,4118.974121,4144.615234,4108.717773,4108.205078,0.000000,4.000000,,,,0.000000,4.000000,4.000000,4.000000,4.000000,4.000000,4.000000,4.000000,4.000000,4.000000,4.000000,4.000000,4.000000,4.000000,4.000000,100.000000
1602006089.050129,28.000000,0.000000,4121.538574,4152.820313,4140.512695,4138.974121,4136.410156,4125.128418,4138.461426,4134.358887,4130.769043,4122.051270,4123.077148,4154.358887,4114.871582,4108.717773,0.000000,4.000000,,,,0.000000,4.000000,4.000000,4.000000,4.000000,4.000000,4.000000,4.000000,4.000000,4.000000,4.000000,4.000000,4.000000,4.000000,4.000000,100.000000
1602006089.057910,29.000000,0.000000,4121.025879,4144.615234,4141.025879,4136.410156,4122.563965,4118.461426,4140.000000,4142.051270,4137.436035,4109.743652,4132.307617,4154.871582,4111.794922,4108.717773,0.000000,4.000000,,,,0.000000,4.000000,4.000000,4.000000,4.000000,4.000000,4.000000,4.000000,4.000000,4.000000,4.000000,4.000000,4.000000,4.000000,4.000000,100.000000
1602006089.065791,30.000000,0.000000,4118.974121,4140.000000,4138.461426,4137.436035,4129.230957,4122.051270,4146.666504,4142.051270,4140.512695,4128.717773,4130.256348,4152.307617,4114.871582,4113.333496,0.000000,4.000000,,,,0.000000,4.000000,4.000000,4.000000,4.000000,4.000000,4.000000,4.000000,4.000000,4.000000,4.000000,4.000000,4.000000,4.000000,4.000000,100.000000
1602006089.073673,31.000000,0.000000,4105.641113,4136.922852,4136.410156,4130.769043,4135.897461,4126.666504,4153.333496,4142.563965,4144.615234,4149.743652,4122.563965,4149.230957,4121.025879,4110.256348,0.000000,4.000000,,,,0.000000,4.000000,4.000000,4.000000,4.000000,4.000000,4.000000,4.000000,4.000000,4.000000,4.000000,4.000000,4.000000,4.000000,4.000000,100.000000
1602006089.081554,32.000000,0.000000,4101.025879,4129.230957,4136.410156,4120.512695,4126.666504,4123.077148,4151.794922,4146.153809,4144.102539,4135.897461,4126.153809,4143.589844,4114.358887,4104.615234,0.000000,4.000000,,,,0.000000,4.000000,4.000000,4.000000,4.000000,4.000000,4.000000,4.000000,4.000000,4.000000,4.000000,4.000000,4.000000,4.000000,4.000000,100.000000
1602006089.089536,33.000000,0.000000,4109.230957,4123.077148,4139.487305,4120.512695,4124.615234,4124.102539,4151.282227,4145.641113,4139.487305,4111.794922,4128.205078,4143.077148,4107.179688,4102.563965,0.000000,4.000000,,,,0.000000,4.000000,4.000000,4.000000,4.000000,4.000000,4.000000,4.000000,4.000000,4.000000,4.000000,4.000000,4.000000,4.000000,4.000000,100.000000
1602006089.097419,34.000000,0.000000,4105.641113,4124.102539,4133.333496,4119.487305,4129.743652,4124.615234,4149.230957,4141.025879,4137.436035,4108.205078,4112.307617,4139.487305,4102.051270,4090.769287,0.000000,4.000000,,,,0.000000,4.000000,4.000000,4.000000,4.000000,4.000000,4.000000,4.000000,4.000000,4.000000,4.000000,4.000000,4.000000,4.000000,4.000000,100.000000
1602006089.105301,35.000000,0.000000,4091.794922,4122.051270,4118.461426,4111.794922,4126.666504,4124.615234,4140.000000,4137.436035,4134.358887,4121.025879,4097.948730,4128.717773,4093.333252,4076.923096,0.000000,4.000000,,,,0.000000,4.000000,4.000000,4.000000,4.000000,4.000000,4.000000,4.000000,4.000000,4.000000,4.000000,4.000000,4.000000,4.000000,4.000000,100.000000
1602006089.113184,36.000000,0.000000,4096.922852,4122.563965,4116.410156,4116.410156,4132.307617,4134.871582,4132.307617,4131.794922,4127.692383,4132.307617,4103.589844,4131.282227,4096.922852,4081.538574,0.000000,4.000000,,,,0.000000,4.000000,4.000000,4.000000,4.000000,4.000000,4.000000,4.000000,4.000000,4.000000,4.000000,4.000000,4.000000,4.000000,4.000000,100.000000
1602006089.121066,37.000000,0.000000,4111.282227,4131.794922,4120.000000,4128.205078,4142.563965,4138.974121,4126.666504,4123.077148,4126.666504,4125.641113,4115.897461,4138.461426,4109.230957,4096.410156,0.000000,4.000000,,,,0.000000,4.000000,4.000000,4.000000,4.000000,4.000000,4.000000,4.000000,4.000000,4.000000,4.000000,4.000000,4.000000,4.000000,4.000000,100.000000
1602006089.128948,38.000000,0.000000,4097.436035,4125.641113,4108.717773,4118.461426,4132.307617,4125.641113,4125.128418,4116.922852,4122.563965,4110.769043,4113.333496,4133.846191,4098.974121,4092.307617,0.000000,4.000000,,,,0.000000,4.000000,4.000000,4.000000,4.000000,4.000000,4.000000,4.000000,4.000000,4.000000,4.000000,4.000000,4.000000,4.000000,4.000000,100.000000
1602006089.136831,39.000000,0.000000,4077.948730,4109.230957,4100.000000,4107.692383,4124.102539,4121.025879,4132.820313,4120.000000,4120.512695,4116.410156,4104.615234,4133.333496,4089.743652,4083.589844,0.000000,4.000000,,,,0.000000,4.000000,4.000000,4.000000,4.000000,4.000000,4.000000,4.000000,4.000000,4.000000,4.000000,4.000000,4.000000,4.000000,4.000000,100.000000
1602006089.144713,40.000000,0.000000,4100.000000,4125.128418,4113.333496,4124.615234,4136.922852,4129.230957,4138.461426,4127.692383,4131.794922,4123.077148,4114.358887,4140.512695,4105.641113,4093.846191,0.000000,4.000000,,,,0.000000,4.000000,4.000000,4.000000,4.000000,4.000000,4.000000,4.000000,4.000000,4.000000,4.000000,4.000000,4.000000,4.000000,4.000000,100.000000
1602006089.152595,41.000000,0.000000,4127.179688,4154.871582,4125.128418,4140.000000,4144.615234,4128.717773,4132.820313,4133.333496,4132.820313,4122.563965,4121.538574,4138.461426,4109.743652,4100.000000,0.000000,4.000000,,,,0.000000,4.000000,4.000000,4.000000,4.000000,4.000000,4.000000,4.000000,4.000000,4.000000,4.000000,4.000000,4.000000,4.000000,4.000000,100.000000
1602006089.160378,42.000000,0.000000,4118.461426,4155.897461,4122.051270,4133.846191,4136.410156,4122.563965,4130.256348,4136.410156,4127.692383,4129.230957,4111.794922,4134.358887,4091.794922,4087.692383,0.000000,4.000000,,,,0.000000,4.000000,4.000000,4.000000,4.000000,4.000000,4.000000,4.000000,4.000000,4.000000,4.000000,4.000000,4.000000,4.000000,4.000000,100.000000
1602006089.168260,43.000000,0.000000,4110.769043,4148.205078,4122.051270,4127.692383,4133.333496,4122.051270,4136.410156,4138.974121,4136.410156,4131.794922,4108.717773,4137.436035,4085.641113,4078.974365,0.000000,4.000000,,,,0.000000,4.000000,4.000000,4.000000,4.000000,4.000000,4.000000,4.000000,4.000000,4.000000,4.000000,4.000000,4.000000,4.000000,4.000000,100.000000
1602006089.176142,44.000000,0.000000,4122.051270,4149.743652,4127.179688,4130.256348,4137.436035,4124.615234,4136.922852,4134.358887,4143.077148,4125.641113,4114.358887,4140.512695,4093.846191,4081.538574,0.000000,4.000000,,,,0.000000,4.000000,4.000000,4.000000,4.000000,4.000000,4.000000,4.000000,4.000000,4.000000,4.000000,4.000000,4.000000,4.000000,4.000000,100.000000
1602006089.184024,45.000000,0.000000,4120.000000,4144.615234,4121.025879,4127.692383,4132.820313,4122.051270,4133.333496,4127.179688,4137.436035,4121.538574,4105.641113,4134.871582,4090.256348,4082.051270,0.000000,4.000000,,,,0.000000,4.000000,4.000000,4.000000,4.000000,4.000000,4.000000,4.000000,4.000000,4.000000,4.000000,4.000000,4.000000,4.000000,4.000000,100.000000
1602006089.191906,46.000000,0.000000,4103.589844,4136.410156,4111.794922,4125.128418,4127.692383,4114.358887,4137.436035,4125.641113,4130.256348,4108.717773,4097.436035,4128.717773,4079.487061,4077.948730,0.000000,4.000000,,,,0.000000,4.000000,4.000000,4.000000,4.000000,4.000000,4.000000,4.000000,4.000000,4.000000,4.000000,4.000000,4.000000,4.000000,4.000000,100.000000
1602006089.199788,47.000000,0.000000,4095.384521,4137.436035,4115.384766,4125.641113,4132.820313,4109.743652,4135.384766,4126.666504,4131.282227,4104.615234,4102.563965,4130.256348,4082.051270,4072.820557,0.000000,4.000000,,,,0.000000,4.000000,4.000000,4.000000,4.000000,4.000000,4.000000,4.000000,4.000000,4.000000,4.000000,4.000000,4.000000,4.000000,4.000000,100.000000
1602006089.207670,48.000000,0.000000,4098.461426,4138.461426,4123.077148,4125.128418,4139.487305,4112.307617,4124.102539,4130.769043,4135.384766,4128.717773,4107.179688,4136.410156,4090.769287,4070.256348,0.000000,4.000000,,,,0.000000,4.000000,4.000000,4.000000,4.000000,4.000000,4.000000,4.000000,4.000000,4.000000,4.000000,4.000000,4.000000,4.000000,4.000000,100.000000
1602006089.215651,49.000000,0.000000,4106.666504,4144.102539,4125.128418,4130.256348,4133.333496,4112.820313,4125.641113,4133.333496,4135.897461,4144.102539,4109.230957,4144.615234,4091.794922,4081.025635,0.000000,4.000000,,,,0.000000,4.000000,4.000000,4.000000,4.000000,4.000000,4.000000,4.000000,4.000000,4.000000,4.000000,4.000000,4.000000,4.000000,4.000000,100.000000
1602006089.223532,50.000000,0.000000,4110.256348,4152.307617,4126.153809,4138.461426,4124.102539,4110.769043,4136.922852,4130.256348,4134.871582,4142.051270,4112.820313,4155.897461,4096.922852,4091.281982,0.000000,4.000000,,,,0.000000,4.000000,4.000000,4.000000,4.000000,4.000000,4.000000,4.000000,4.000000,4.000000,4.000000,4.000000,4.000000,4.000000,4.000000,100.000000
1602006089.231414,51.000000,0.000000,4114.358887,4157.436035,4129.230957,4141.025879,4130.256348,4116.922852,4137.436035,4126.666504,4135.897461,4140.000000,4114.871582,4153.846191,4103.589844,4089.743652,0.000000,4.000000,,,,0.000000,4.000000,4.000000,4.000000,4.000000,4.000000,4.000000,4.000000,4.000000,4.000000,4.000000,4.000000,4.000000,4.000000,4.000000,100.000000
1602006089.239395,52.000000,0.000000,4124.102539,4165.128418,4125.641113,4141.025879,4138.461426,4123.589844,4134.871582,4126.153809,4123.077148,4124.615234,4110.769043,4141.538574,4098.974121,4092.820557,0.000000,4.000000,,,,0.000000,4.000000,4.000000,4.000000,4.000000,4.000000,4.000000,4.000000,4.000000,4.000000,4.000000,4.000000,4.000000,4.000000,4.000000,100.000000
1602006089.247276,53.000000,0.000000,4125.128418,4165.641113,4113.846191,4142.563965,4136.922852,4123.077148,4137.948730,4123.589844,4105.641113,4101.538574,4105.641113,4138.974121,4091.281982,4100.512695,0.000000,4.000000,,,,0.000000,4.000000,4.000000,4.000000,4.000000,4.000000,4.000000,4.000000,4.000000,4.000000,4.000000,4.000000,4.000000,4.000000,4.000000,100.000000
1602006089.255157,54.000000,0.000000,4120.512695,4157.948730,4105.128418,4141.538574,4134.871582,4123.589844,4138.461426,4119.487305,4103.589844,4100.000000,4104.102539,4133.846191,4089.743652,4089.743652,0.000000,4.000000,,,,0.000000,4.000000,4.000000,4.000000,4.000000,4.000000,4.000000,4.000000,4.000000,4.000000,4.000000,4.000000,4.000000,4.000000,4.000000,100.000000
1602006089.262939,55.000000,0.000000,4120.512695,4157.436035,4106.153809,4140.512695,4138.974121,4128.717773,4138.461426,4121.538574,4111.794922,4124.102539,4105.641113,4126.666504,4092.307617,4078.461426,0.000000,4.000000,,,,0.000000,4.000000,4.000000,4.000000,4.000000,4.000000,4.000000,4.000000,4.000000,4.000000,4.000000,4.000000,4.000000,4.000000,4.000000,100.000000
1602006089.270820,56.000000,0.000000,4117.948730,4155.384766,4110.256348,4137.948730,4133.846191,4125.641113,4134.871582,4129.230957,4123.077148,4140.512695,4107.179688,4131.282227,4096.922852,4085.641113,0.000000,4.000000,,,,0.000000,4.000000,4.000000,4.000000,4.000000,4.000000,4.000000,4.000000,4.000000,4.000000,4.000000,4.000000,4.000000,4.000000,4.000000,100.000000
1602006089.278702,57.000000,0.000000,4107.179688,4143.589844,4109.230957,4132.307617,4121.025879,4113.846191,4128.717773,4136.922852,4128.717773,4138.461426,4104.615234,4131.282227,4094.871826,4081.025635,0.000000,4.000000,,,,0.000000,4.000000,4.000000,4.000000,4.000000,4.000000,4.000000,4.000000,4.000000,4.000000,4.000000,4.000000,4.000000,4.000000,4.000000,100.000000
1602006089.286584,58.000000,0.000000,4104.102539,4143.077148,4108.205078,4132.820313,4123.077148,4112.307617,4131.794922,4140.512695,4125.641113,4137.948730,4109.743652,4124.102539,4088.718018,4070.256348,0.000000,4.000000,,,,0.000000,4.000000,4.000000,4.000000,4.000000,4.000000,4.000000,4.000000,4.000000,4.000000,4.000000,4.000000,4.000000,4.000000,4.000000,100.000000
1602006089.294465,59.000000,0.000000,4116.410156,4153.846191,4109.230957,4136.922852,4135.384766,4122.563965,4135.384766,4141.025879,4127.179688,4140.512695,4115.384766,4125.641113,4092.307617,4084.615479,0.000000,4.000000,,,,0.000000,4.000000,4.000000,4.000000,4.000000,4.000000,4.000000,4.000000,4.000000,4.000000,4.000000,4.000000,4.000000,4.000000,4.000000,100.000000
1602006089.302247,60.000000,0.000000,4123.077148,4156.410156,4107.179688,4136.922852,4140.512695,4127.692383,4130.256348,4134.358887,4129.230957,4123.077148,4112.820313,4125.128418,4093.846191,4096.410156,0.000000,4.000000,,,,0.000000,4.000000,4.000000,4.000000,4.000000,4.000000,4.000000,4.000000,4.000000,4.000000,4.000000,4.000000,4.000000,4.000000,4.000000,100.000000
1602006089.310129,61.000000,0.000000,4112.307617,4153.333496,4100.000000,4135.897461,4138.461426,4123.589844,4123.589844,4121.025879,4116.410156,4101.025879,4104.102539,4116.922852,4089.743652,4083.589844,0.000000,4.000000,,,,0.000000,4.000000,4.000000,4.000000,4.000000,4.000000,4.000000,4.000000,4.000000,4.000000,4.000000,4.000000,4.000000,4.000000,4.000000,100.000000
1602006089.318010,62.000000,0.000000,4107.692383,4154.358887,4093.333252,4136.922852,4136.922852,4122.051270,4124.615234,4114.871582,4101.025879,4108.205078,4096.410156,4114.871582,4091.281982,4078.461426,0.000000,4.000000,,,,0.000000,4.000000,4.000000,4.000000,4.000000,4.000000,4.000000,4.000000,4.000000,4.000000,4.000000,4.000000,4.000000,4.000000,4.000000,100.000000
1602006089.325892,63.000000,0.000000,4116.922852,4155.897461,4093.333252,4138.461426,4136.410156,4124.615234,4127.692383,4118.974121,4097.436035,4122.563965,4097.436035,4117.436035,4092.307617,4094.358887,0.000000,4.000000,,,,0.000000,4.000000,4.000000,4.000000,4.000000,4.000000,4.000000,4.000000,4.000000,4.000000,4.000000,4.000000,4.000000,4.000000,4.000000,100.000000
1602006089.333774,64.000000,0.000000,4123.589844,4154.358887,4108.205078,4138.461426,4137.436035,4123.589844,4129.743652,4122.051270,4102.051270,4128.205078,4110.769043,4125.641113,4095.384521,4105.128418,802.000000,4.000000,,,,0.000000,4.000000,4.000000,4.000000,4.000000,4.000000,4.000000,4.000000,4.000000,4.000000,4.000000,4.000000,4.000000,4.000000,4.000000,100.000000
1602006089.341555,65.000000,0.000000,4124.102539,4153.846191,4125.128418,4138.974121,4135.897461,4119.487305,4131.282227,4123.589844,4109.743652,4134.358887,4122.051270,4138.974121,4108.717773,4105.128418,789.000000,4.000000,,,,0.000000,4.000000,4.000000,4.000000,4.000000,4.000000,4.000000,4.000000,4.000000,4.000000,4.000000,4.000000,4.000000,4.000000,4.000000,100.000000
1602006089.349436,66.000000,0.000000,4124.615234,4153.333496,4127.692383,4139.487305,4128.717773,4120.000000,4134.358887,4128.205078,4121.538574,4138.461426,4121.538574,4142.563965,4121.538574,4110.769043,850.000000,4.000000,,,,0.000000,4.000000,4.000000,4.000000,4.000000,4.000000,4.000000,4.000000,4.000000,4.000000,4.000000,4.000000,4.000000,4.000000,4.000000,100.000000
1602006089.357218,67.000000,0.000000,4127.692383,4147.179688,4125.128418,4133.333496,4123.077148,4124.102539,4139.487305,4136.922852,4138.974121,4143.589844,4129.230957,4140.512695,4128.205078,4125.641113,871.000000,4.000000,,,,0.000000,4.000000,4.000000,4.000000,4.000000,4.000000,4.000000,4.000000,4.000000,4.000000,4.000000,4.000000,4.000000,4.000000,4.000000,100.000000
1602006089.365100,68.000000,0.000000,4130.256348,4137.436035,4123.589844,4123.077148,4121.538574,4122.563965,4140.512695,4138.461426,4143.589844,4156.410156,4140.000000,4141.538574,4129.230957,4128.205078,814.000000,4.000000,,,,0.000000,4.000000,4.000000,4.000000,4.000000,4.000000,4.000000,4.000000,4.000000,4.000000,4.000000,4.000000,4.000000,4.000000,4.000000,100.000000
1602006089.372982,69.000000,0.000000,4123.077148,4134.358887,4114.871582,4122.051270,4123.077148,4117.948730,4136.922852,4132.820313,4131.282227,4162.051270,4129.230957,4136.410156,4120.512695,4110.256348,824.000000,4.000000,,,,0.000000,4.000000,4.000000,4.000000,4.000000,4.000000,4.000000,4.000000,4.000000,4.000000,4.000000,4.000000,4.000000,4.000000,4.000000,100.000000
1602006089.380864,70.000000,0.000000,4111.282227,4136.922852,4104.615234,4125.641113,4124.102539,4121.025879,4134.871582,4128.205078,4122.563965,4143.589844,4111.282227,4124.615234,4104.615234,4094.358887,773.000000,4.000000,,,,0.000000,4.000000,4.000000,4.000000,4.000000,4.000000,4.000000,4.000000,4.000000,4.000000,4.000000,4.000000,4.000000,4.000000,4.000000,100.000000
1602006089.388746,71.000000,0.000000,4111.282227,4137.436035,4104.615234,4124.615234,4123.589844,4122.563965,4134.871582,4125.641113,4113.846191,4123.077148,4100.512695,4117.436035,4092.820557,4088.718018,675.000000,4.000000,,,,0.000000,4.000000,4.000000,4.000000,4.000000,4.000000,4.000000,4.000000,4.000000,4.000000,4.000000,4.000000,4.000000,4.000000,4.000000,100.000000
1602006089.396628,72.000000,0.000000,4113.846191,4137.436035,4107.179688,4129.230957,4123.589844,4118.974121,4130.769043,4122.563965,4108.717773,4114.871582,4092.307617,4120.512695,4085.128174,4082.564209,789.000000,4.000000,,,,0.000000,4.000000,4.000000,4.000000,4.000000,4.000000,4.000000,4.000000,4.000000,4.000000,4.000000,4.000000,4.000000,4.000000,4.000000,100.000000
1602006089.404511,73.000000,0.000000,4108.205078,4138.974121,4106.666504,4134.358887,4125.128418,4120.000000,4124.102539,4120.000000,4115.384766,4106.666504,4090.769287,4119.487305,4080.512939,4073.846191,841.000000,4.000000,,,,0.000000,4.000000,4.000000,4.000000,4.000000,4.000000,4.000000,4.000000,4.000000,4.000000,4.000000,4.000000,4.000000,4.000000,4.000000,100.000000
1602006089.412393,74.000000,0.000000,4110.256348,4139.487305,4106.153809,4127.692383,4124.102539,4123.077148,4122.563965,4124.615234,4122.563965,4104.615234,4097.436035,4107.692383,4074.358887,4072.307617,826.000000,4.000000,,,,0.000000,4.000000,4.000000,4.000000,4.000000,4.000000,4.000000,4.000000,4.000000,4.000000,4.000000,4.000000,4.000000,4.000000,4.000000,100.000000
1602006089.420175,75.000000,0.000000,4121.025879,4139.487305,4112.307617,4123.589844,4121.538574,4121.025879,4122.563965,4128.205078,4118.461426,4112.820313,4095.384521,4105.641113,4073.846191,4083.589844,1126.000000,4.000000,,,,0.000000,4.000000,4.000000,4.000000,4.000000,4.000000,4.000000,4.000000,4.000000,4.000000,4.000000,4.000000,4.000000,4.000000,4.000000,100.000000
1602006089.428057,76.000000,0.000000,4121.538574,4137.948730,4120.512695,4132.307617,4122.051270,4122.051270,4126.666504,4125.641113,4116.922852,4125.641113,4093.846191,4118.461426,4084.615479,4099.487305,769.000000,4.000000,,,,0.000000,4.000000,4.000000,4.000000,4.000000,4.000000,4.000000,4.000000,4.000000,4.000000,4.000000,4.000000,4.000000,4.000000,4.000000,100.000000
1602006089.435940,77.000000,0.000000,4122.563965,4138.461426,4130.256348,4135.897461,4127.692383,4129.230957,4133.846191,4130.769043,4124.102539,4133.846191,4113.333496,4136.410156,4105.128418,4108.205078,747.000000,4.000000,,,,0.000000,4.000000,4.000000,4.000000,4.000000,4.000000,4.000000,4.000000,4.000000,4.000000,4.000000,4.000000,4.000000,4.000000,4.000000,100.000000
1602006089.443822,78.000000,0.000000,4133.846191,4138.461426,4141.025879,4127.179688,4129.743652,4128.205078,4132.820313,4137.436035,4127.179688,4138.461426,4131.794922,4150.769043,4121.538574,4112.307617,826.000000,4.000000,,,,0.000000,4.000000,4.000000,4.000000,4.000000,4.000000,4.000000,4.000000,4.000000,4.000000,4.000000,4.000000,4.000000,4.000000,4.000000,100.000000
1602006089.451705,79.000000,0.000000,4131.794922,4133.333496,4138.461426,4122.563965,4124.102539,4114.871582,4126.153809,4131.794922,4124.615234,4140.512695,4129.743652,4150.256348,4118.974121,4120.000000,1126.000000,4.000000,,,,0.000000,4.000000,4.000000,4.000000,4.000000,4.000000,4.000000,4.000000,4.000000,4.000000,4.000000,4.000000,4.000000,4.000000,4.000000,100.000000
1602006089.459587,80.000000,0.000000,4121.025879,4128.717773,4125.641113,4123.589844,4118.974121,4104.615234,4124.615234,4128.717773,4123.589844,4133.333496,4120.000000,4140.000000,4113.846191,4123.589844,769.000000,4.000000,,,,0.000000,4.000000,4.000000,4.000000,4.000000,4.000000,4.000000,4.000000,4.000000,4.000000,4.000000,4.000000,4.000000,4.000000,4.000000,100.000000
1602006089.467469,81.000000,0.000000,4129.230957,4134.358887,4125.641113,4125.641113,4122.563965,4108.717773,4124.615234,4135.384766,4127.692383,4124.102539,4121.538574,4137.436035,4120.000000,4115.897461,747.000000,4.000000,,,,0.000000,4.000000,4.000000,4.000000,4.000000,4.000000,4.000000,4.000000,4.000000,4.000000,4.000000,4.000000,4.000000,4.000000,4.000000,100.000000
1602006089.475352,82.000000,0.000000,4136.922852,4143.589844,4130.769043,4129.743652,4125.128418,4115.897461,4123.077148,4130.769043,4125.128418,4129.230957,4128.205078,4138.974121,4117.948730,4109.743652,826.000000,4.000000,,,,0.000000,4.000000,4.000000,4.000000,4.000000,4.000000,4.000000,4.000000,4.000000,4.000000,4.000000,4.000000,4.000000,4.000000,4.000000,100.000000
1602006089.483234,83.000000,0.000000,4127.179688,4148.717773,4123.077148,4134.871582,4124.615234,4118.461426,4121.538574,4121.538574,4116.410156,4139.487305,4124.615234,4136.410156,4111.794922,4118.974121,1126.000000,4.000000,,,,0.000000,4.000000,4.000000,4.000000,4.000000,4.000000,4.000000,4.000000,4.000000,4.000000,4.000000,4.000000,4.000000,4.000000,4.000000,100.000000
1602006089.491216,84.000000,0.000000,4125.641113,4152.820313,4123.589844,4136.922852,4125.128418,4124.102539,4119.487305,4123.077148,4115.384766,4134.358887,4118.461426,4140.512695,4116.410156,4126.666504,769.000000,4.000000,,,,0.000000,4.000000,4.000000,4.000000,4.000000,4.000000,4.000000,4.000000,4.000000,4.000000,4.000000,4.000000,4.000000,4.000000,4.000000,100.000000
1602006089.499099,85.000000,0.000000,4128.717773,4150.256348,4133.333496,4137.948730,4127.179688,4121.538574,4111.282227,4122.563965,4107.179688,4122.563965,4116.410156,4143.077148,4114.358887,4111.794922,747.000000,4.000000,,,,0.000000,4.000000,4.000000,4.000000,4.000000,4.000000,4.000000,4.000000,4.000000,4.000000,4.000000,4.000000,4.000000,4.000000,4.000000,100.000000
1602006089.506981,86.000000,0.000000,4119.487305,4140.512695,4133.846191,4137.436035,4123.077148,4108.205078,4103.077148,4112.820313,4091.281982,4119.487305,4113.846191,4132.307617,4096.410156,4098.461426,826.000000,4.000000,,,,0.000000,4.000000,4.000000,4.000000,4.000000,4.000000,4.000000,4.000000,4.000000,4.000000,4.000000,4.000000,4.000000,4.000000,4.000000,100.000000
1602006089.514863,87.000000,0.000000,4121.538574,4142.051270,4134.871582,4136.922852,4111.794922,4106.666504,4109.743652,4109.230957,4091.281982,4118.974121,4108.205078,4129.230957,4092.820557,4106.153809,1126.000000,4.000000,,,,0.000000,4.000000,4.000000,4.000000,4.000000,4.000000,4.000000,4.000000,4.000000,4.000000,4.000000,4.000000,4.000000,4.000000,4.000000,100.000000
1602006089.522746,88.000000,0.000000,4137.948730,4145.641113,4140.512695,4141.025879,4109.230957,4112.307617,4120.512695,4114.358887,4102.563965,4121.538574,4105.641113,4136.410156,4101.025879,4109.230957,769.000000,4.000000,,,,0.000000,4.000000,4.000000,4.000000,4.000000,4.000000,4.000000,4.000000,4.000000,4.000000,4.000000,4.000000,4.000000,4.000000,4.000000,100.000000
1602006089.530628,89.000000,0.000000,4142.051270,4140.512695,4141.538574,4143.589844,4118.974121,4114.871582,4122.051270,4122.051270,4111.794922,4121.538574,4115.897461,4139.487305,4109.743652,4105.641113,747.000000,4.000000,,,,0.000000,4.000000,4.000000,4.000000,4.000000,4.000000,4.000000,4.000000,4.000000,4.000000,4.000000,4.000000,4.000000,4.000000,4.000000,100.000000
1602006089.538510,90.000000,0.000000,4136.922852,4142.051270,4145.641113,4139.487305,4125.128418,4122.051270,4123.589844,4130.769043,4121.025879,4114.358887,4133.846191,4141.538574,4118.974121,4120.512695,826.000000,4.000000,,,,0.000000,4.000000,4.000000,4.000000,4.000000,4.000000,4.000000,4.000000,4.000000,4.000000,4.000000,4.000000,4.000000,4.000000,4.000000,100.000000
1602006089.546393,91.000000,0.000000,4144.615234,4151.794922,4154.358887,4140.000000,4121.025879,4123.077148,4127.179688,4137.948730,4126.153809,4124.615234,4138.461426,4150.256348,4124.615234,4142.563965,1126.000000,4.000000,,,,0.000000,4.000000,4.000000,4.000000,4.000000,4.000000,4.000000,4.000000,4.000000,4.000000,4.000000,4.000000,4.000000,4.000000,4.000000,100.000000
1602006089.554275,92.000000,0.000000,4161.025879,4153.846191,4158.974121,4144.615234,4120.000000,4115.897461,4124.102539,4136.922852,4124.615234,4151.794922,4128.717773,4159.487305,4127.179688,4145.641113,769.000000,4.000000,,,,0.000000,4.000000,4.000000,4.000000,4.000000,4.000000,4.000000,4.000000,4.000000,4.000000,4.000000,4.000000,4.000000,4.000000,4.000000,100.000000
1602006089.562157,93.000000,0.000000,4159.487305,4146.666504,4157.948730,4143.077148,4121.025879,4121.025879,4121.025879,4131.282227,4127.692383,4157.436035,4121.538574,4159.487305,4116.410156,4124.615234,747.000000,4.000000,,,,0.000000,4.000000,4.000000,4.000000,4.000000,4.000000,4.000000,4.000000,4.000000,4.000000,4.000000,4.000000,4.000000,4.000000,4.000000,100.000000
1602006089.569940,94.000000,0.000000,4143.589844,4135.384766,4154.358887,4136.410156,4118.461426,4127.179688,4124.102539,4127.179688,4126.153809,4135.384766,4119.487305,4149.230957,4098.974121,4107.692383,826.000000,4.000000,,,,0.000000,4.000000,4.000000,4.000000,4.000000,4.000000,4.000000,4.000000,4.000000,4.000000,4.000000,4.000000,4.000000,4.000000,4.000000,100.000000
1602006089.577822,95.000000,0.000000,4135.897461,4129.230957,4153.846191,4132.820313,4120.512695,4123.589844,4125.128418,4127.179688,4120.000000,4122.563965,4117.948730,4145.641113,4104.615234,4125.128418,1126.000000,4.000000,,,,0.000000,4.000000,4.000000,4.000000,4.000000,4.000000,4.000000,4.000000,4.000000,4.000000,4.000000,4.000000,4.000000,4.000000,4.000000,100.000000
1602006089.585704,96.000000,0.000000,4132.820313,4126.153809,4153.846191,4129.230957,4120.512695,4123.589844,4120.000000,4123.077148,4120.512695,4127.179688,4117.436035,4147.692383,4121.538574,4142.051270,769.000000,4.000000,,,,0.000000,4.000000,4.000000,4.000000,4.000000,4.000000,4.000000,4.000000,4.000000,4.000000,4.000000,4.000000,4.000000,4.000000,4.000000,100.000000
1602006089.593586,97.000000,0.000000,4125.641113,4116.410156,4152.307617,4123.077148,4108.717773,4125.641113,4117.436035,4120.000000,4121.025879,4125.641113,4126.153809,4146.153809,4129.230957,4134.871582,747.000000,4.000000,,,,0.000000,4.000000,4.000000,4.000000,4.000000,4.000000,4.000000,4.000000,4.000000,4.000000,4.000000,4.000000,4.000000,4.000000,4.000000,100.000000
1602006089.601468,98.000000,0.000000,4122.563965,4104.102539,4153.846191,4123.077148,4108.205078,4125.128418,4122.051270,4129.743652,4126.153809,4127.179688,4147.692383,4153.846191,4145.128418,4143.589844,826.000000,4.000000,,,,0.000000,4.000000,4.000000,4.000000,4.000000,4.000000,4.000000,4.000000,4.000000,4.000000,4.000000,4.000000,4.000000,4.000000,4.000000,100.000000
1602006089.609350,99.000000,0.000000,4112.820313,4096.410156,4155.384766,4122.051270,4119.487305,4125.641113,4125.128418,4138.974121,4139.487305,4150.256348,4159.487305,4165.641113,4163.077148,4161.025879,1126.000000,4.000000,,,,0.000000,4.000000,4.000000,4.000000,4.000000,4.000000,4.000000,4.000000,4.000000,4.000000,4.000000,4.000000,4.000000,4.000000,4.000000,100.000000
1602006089.617232,100.000000,0.000000,4096.410156,4089.230713,4150.769043,4114.871582,4118.461426,4124.615234,4122.563965,4132.820313,4138.461426,4164.615234,4149.230957,4162.051270,4156.922852,4154.358887,769.000000,4.000000,,,,0.000000,4.000000,4.000000,4.000000,4.000000,4.000000,4.000000,4.000000,4.000000,4.000000,4.000000,4.000000,4.000000,4.000000,4.000000,100.000000
1602006089.625114,101.000000,0.000000,4095.384521,4089.743652,4151.794922,4116.922852,4113.846191,4125.641113,4120.512695,4129.743652,4122.563965,4146.153809,4138.461426,4160.512695,4150.769043,4146.666504,747.000000,4.000000,,,,0.000000,4.000000,4.000000,4.000000,4.000000,4.000000,4.000000,4.000000,4.000000,4.000000,4.000000,4.000000,4.000000,4.000000,4.000000,100.000000
1602006089.633096,102.000000,0.000000,4101.538574,4094.871826,4157.436035,4125.128418,4118.461426,4127.179688,4119.487305,4133.333496,4120.512695,4133.846191,4140.000000,4166.153809,4154.358887,4144.615234,826.000000,4.000000,,,,0.000000,4.000000,4.000000,4.000000,4.000000,4.000000,4.000000,4.000000,4.000000,4.000000,4.000000,4.000000,4.000000,4.000000,4.000000,100.000000
1602006089.640977,103.000000,0.000000,4095.384521,4089.230713,4156.410156,4118.974121,4111.794922,4118.974121,4121.025879,4131.282227,4127.179688,4146.153809,4139.487305,4164.615234,4145.128418,4134.871582,1126.000000,4.000000,,,,0.000000,4.000000,4.000000,4.000000,4.000000,4.000000,4.000000,4.000000,4.000000,4.000000,4.000000,4.000000,4.000000,4.000000,4.000000,100.000000
1602006089.648859,104.000000,0.000000,4092.820557,4083.589844,4152.820313,4108.205078,4100.512695,4108.205078,4123.589844,4126.153809,4125.641113,4137.436035,4133.846191,4164.102539,4133.846191,4142.051270,769.000000,4.000000,,,,0.000000,4.000000,4.000000,4.000000,4.000000,4.000000,4.000000,4.000000,4.000000,4.000000,4.000000,4.000000,4.000000,4.000000,4.000000,100.000000
1602006089.656740,105.000000,0.000000,4102.051270,4091.281982,4156.922852,4112.820313,4105.128418,4114.358887,4125.128418,4130.769043,4121.025879,4121.025879,4131.794922,4167.692383,4141.538574,4157.436035,747.000000,4.000000,,,,0.000000,4.000000,4.000000,4.000000,4.000000,4.000000,4.000000,4.000000,4.000000,4.000000,4.000000,4.000000,4.000000,4.000000,4.000000,100.000000
1602006089.664722,106.000000,0.000000,4110.256348,4104.615234,4162.563965,4123.077148,4114.358887,4128.205078,4129.743652,4137.436035,4124.102539,4141.025879,4143.077148,4169.230957,4154.358887,4151.794922,826.000000,4.000000,,,,0.000000,4.000000,4.000000,4.000000,4.000000,4.000000,4.000000,4.000000,4.000000,4.000000,4.000000,4.000000,4.000000,4.000000,4.000000,100.000000
1602006089.672604,107.000000,0.000000,4109.743652,4108.205078,4160.000000,4124.102539,4112.307617,4127.692383,4136.410156,4133.333496,4127.692383,4158.461426,4153.846191,4167.692383,4153.846191,4145.641113,1126.000000,4.000000,,,,0.000000,4.000000,4.000000,4.000000,4.000000,4.000000,4.000000,4.000000,4.000000,4.000000,4.000000,4.000000,4.000000,4.000000,4.000000,100.000000
1602006089.680486,108.000000,0.000000,4106.153809,4097.436035,4147.692383,4116.410156,4108.205078,4126.666504,4135.897461,4126.666504,4123.589844,4142.563965,4149.743652,4162.051270,4150.769043,4149.743652,769.000000,4.000000,,,,0.000000,4.000000,4.000000,4.000000,4.000000,4.000000,4.000000,4.000000,4.000000,4.000000,4.000000,4.000000,4.000000,4.000000,4.000000,100.000000
1602006089.688367,109.000000,0.000000,4105.128418,4094.358887,4138.974121,4114.871582,4114.358887,4134.871582,4136.410156,4132.307617,4126.153809,4144.615234,4141.025879,4156.410156,4152.820313,4145.128418,747.000000,4.000000,,,,0.000000,4.000000,4.000000,4.000000,4.000000,4.000000,4.000000,4.000000,4.000000,4.000000,4.000000,4.000000,4.000000,4.000000,4.000000,100.000000
1602006089.696249,110.000000,0.000000,4106.153809,4104.615234,4137.436035,4121.538574,4125.128418,4133.846191,4137.436035,4142.563965,4135.384766,4166.153809,4143.077148,4153.333496,4153.333496,4135.384766,826.000000,4.000000,,,,0.000000,4.000000,4.000000,4.000000,4.000000,4.000000,4.000000,4.000000,4.000000,4.000000,4.000000,4.000000,4.000000,4.000000,4.000000,100.000000
1602006089.704131,111.000000,0.000000,4104.615234,4108.717773,4130.256348,4124.615234,4128.717773,4127.692383,4130.256348,4146.666504,4139.487305,4158.974121,4149.230957,4147.179688,4156.922852,4140.512695,1126.000000,4.000000,,,,0.000000,4.000000,4.000000,4.000000,4.000000,4.000000,4.000000,4.000000,4.000000,4.000000,4.000000,4.000000,4.000000,4.000000,4.000000,100.000000
1602006089.712113,112.000000,0.000000,4105.128418,4108.717773,4122.563965,4126.153809,4132.307617,4135.897461,4129.230957,4153.333496,4147.692383,4151.794922,4153.333496,4144.615234,4170.256348,4157.948730,769.000000,4.000000,,,,0.000000,4.000000,4.000000,4.000000,4.000000,4.000000,4.000000,4.000000,4.000000,4.000000,4.000000,4.000000,4.000000,4.000000,4.000000,100.000000
1602006089.719995,113.000000,0.000000,4105.128418,4113.333496,4123.077148,4128.205078,4139.487305,4143.077148,4135.897461,4154.358887,4153.846191,4171.794922,4154.871582,4144.615234,4176.410156,4163.077148,747.000000,4.000000,,,,0.000000,4.000000,4.000000,4.000000,4.000000,4.000000,4.000000,4.000000,4.000000,4.000000,4.000000,4.000000,4.000000,4.000000,4.000000,100.000000
1602006089.727877,114.000000,0.000000,4096.410156,4111.794922,4119.487305,4125.641113,4136.410156,4136.410156,4129.230957,4140.000000,4141.538574,4173.846191,4154.358887,4133.846191,4167.179688,4149.230957,826.000000,4.000000,,,,0.000000,4.000000,4.000000,4.000000,4.000000,4.000000,4.000000,4.000000,4.000000,4.000000,4.000000,4.000000,4.000000,4.000000,4.000000,100.000000
1602006089.735759,115.000000,0.000000,4089.743652,4106.153809,4110.769043,4123.589844,4127.692383,4131.282227,4122.051270,4133.333496,4132.307617,4158.974121,4151.794922,4124.102539,4160.512695,4140.512695,1126.000000,4.000000,,,,0.000000,4.000000,4.000000,4.000000,4.000000,4.000000,4.000000,4.000000,4.000000,4.000000,4.000000,4.000000,4.000000,4.000000,4.000000,100.000000
1602006089.743640,116.000000,0.000000,4091.794922,4107.692383,4109.743652,4124.615234,4128.717773,4134.358887,4130.256348,4135.897461,4137.948730,4168.205078,4144.102539,4121.025879,4160.000000,4141.538574,769.000000,4.000000,,,,0.000000,4.000000,4.000000,4.000000,4.000000,4.000000,4.000000,4.000000,4.000000,4.000000,4.000000,4.000000,4.000000,4.000000,4.000000,100.000000
1602006089.751522,117.000000,0.000000,4088.718018,4109.230957,4109.230957,4120.512695,4137.436035,4144.102539,4138.974121,4132.307617,4134.871582,4177.948730,4138.461426,4115.897461,4156.922852,4130.256348,747.000000,4.000000,,,,0.000000,4.000000,4.000000,4.000000,4.000000,4.000000,4.000000,4.000000,4.000000,4.000000,4.000000,4.000000,4.000000,4.000000,4.000000,100.000000
1602006089.759404,118.000000,0.000000,4085.641113,4108.205078,4105.641113,4119.487305,4135.897461,4151.794922,4137.948730,4124.102539,4123.589844,4151.794922,4140.000000,4113.846191,4151.794922,4118.461426,826.000000,4.000000,,,,0.000000,4.000000,4.000000,4.000000,4.000000,4.000000,4.000000,4.000000,4.000000,4.000000,4.000000,4.000000,4.000000,4.000000,4.000000,100.000000
1602006089.767386,119.000000,0.000000,4097.436035,4110.769043,4106.666504,4123.589844,4125.128418,4146.666504,4131.282227,4120.000000,4120.512695,4136.410156,4138.461426,4112.307617,4150.769043,4126.153809,1126.000000,4.000000,,,,0.000000,4.000000,4.000000,4.000000,4.000000,4.000000,4.000000,4.000000,4.000000,4.000000,4.000000,4.000000,4.000000,4.000000,4.000000,100.000000
1602006089.775268,120.000000,0.000000,4108.205078,4117.436035,4110.256348,4122.051270,4126.666504,4141.538574,4123.077148,4122.051270,4122.563965,4154.871582,4133.846191,4111.794922,4150.769043,4138.461426,769.000000,4.000000,,,,0.000000,4.000000,4.000000,4.000000,4.000000,4.000000,4.000000,4.000000,4.000000,4.000000,4.000000,4.000000,4.000000,4.000000,4.000000,100.000000
1602006089.783150,121.000000,0.000000,4106.153809,4121.538574,4114.358887,4121.538574,4137.948730,4141.025879,4121.538574,4125.641113,4124.615234,4154.871582,4135.897461,4118.461426,4150.769043,4140.000000,747.000000,4.000000,,,,0.000000,4.000000,4.000000,4.000000,4.000000,4.000000,4.000000,4.000000,4.000000,4.000000,4.000000,4.000000,4.000000,4.000000,4.000000,100.000000
1602006089.791032,122.000000,0.000000,4104.102539,4124.102539,4122.563965,4127.692383,4141.538574,4138.974121,4124.615234,4125.641113,4122.563965,4136.410156,4140.000000,4124.615234,4155.384766,4139.487305,826.000000,4.000000,,,,0.000000,4.000000,4.000000,4.000000,4.000000,4.000000,4.000000,4.000000,4.000000,4.000000,4.000000,4.000000,4.000000,4.000000,4.000000,100.000000
1602006089.798914,123.000000,0.000000,4108.717773,4125.641113,4124.102539,4126.666504,4138.974121,4133.846191,4124.615234,4124.615234,4119.487305,4147.692383,4138.461426,4123.077148,4156.410156,4139.487305,1126.000000,4.000000,,,,0.000000,4.000000,4.000000,4.000000,4.000000,4.000000,4.000000,4.000000,4.000000,4.000000,4.000000,4.000000,4.000000,4.000000,4.000000,100.000000
1602006089.806795,124.000000,0.000000,4107.692383,4120.000000,4117.436035,4120.512695,4134.871582,4129.743652,4119.487305,4127.692383,4120.512695,4160.512695,4137.436035,4121.538574,4151.282227,4137.948730,769.000000,4.000000,,,,0.000000,4.000000,4.000000,4.000000,4.000000,4.000000,4.000000,4.000000,4.000000,4.000000,4.000000,4.000000,4.000000,4.000000,4.000000,100.000000
1602006089.814777,125.000000,0.000000,4104.102539,4115.897461,4118.974121,4121.025879,4128.717773,4123.077148,4115.897461,4129.230957,4120.000000,4138.974121,4139.487305,4122.563965,4149.230957,4141.025879,747.000000,4.000000,,,,0.000000,4.000000,4.000000,4.000000,4.000000,4.000000,4.000000,4.000000,4.000000,4.000000,4.000000,4.000000,4.000000,4.000000,4.000000,100.000000
1602006089.822659,126.000000,0.000000,4110.769043,4120.000000,4128.205078,4124.615234,4126.666504,4122.563965,4121.025879,4128.717773,4120.512695,4137.436035,4141.025879,4124.102539,4154.871582,4150.769043,826.000000,4.000000,,,,0.000000,4.000000,4.000000,4.000000,4.000000,4.000000,4.000000,4.000000,4.000000,4.000000,4.000000,4.000000,4.000000,4.000000,4.000000,100.000000
1602006089.830540,127.000000,0.000000,4121.538574,4122.563965,4130.769043,4126.666504,4132.307617,4132.307617,4125.128418,4129.230957,4122.563965,4166.666504,4145.128418,4131.794922,4159.487305,4157.436035,1126.000000,4.000000,,,,0.000000,4.000000,4.000000,4.000000,4.000000,4.000000,4.000000,4.000000,4.000000,4.000000,4.000000,4.000000,4.000000,4.000000,4.000000,100.000000
1602006089.838422,128.000000,0.000000,4123.077148,4118.461426,4125.641113,4130.256348,4133.846191,4136.922852,4120.000000,4127.692383,4127.692383,4166.153809,4149.743652,4132.820313,4154.871582,4149.230957,769.000000,4.000000,,,,0.000000,4.000000,4.000000,4.000000,4.000000,4.000000,4.000000,4.000000,4.000000,4.000000,4.000000,4.000000,4.000000,4.000000,4.000000,100.000000
1602006089.846304,0.000000,0.000000,4123.077148,4122.563965,4123.589844,4136.410156,4136.410156,4139.487305,4124.615234,4129.743652,4143.077148,4147.179688,4152.307617,4132.307617,4158.461426,4145.641113,802.000000,4.000000,,,,0.000000,4.000000,4.000000,4.000000,4.000000,4.000000,4.000000,4.000000,4.000000,4.000000,4.000000,4.000000,4.000000,4.000000,4.000000,100.000000
1602006089.854185,1.000000,0.000000,4129.230957,4131.794922,4128.205078,4135.384766,4140.512695,4144.615234,4138.974121,4140.000000,4156.410156,4164.102539,4154.358887,4139.487305,4172.820313,4154.358887,789.000000,4.000000,,,,0.000000,4.000000,4.000000,4.000000,4.000000,4.000000,4.000000,4.000000,4.000000,4.000000,4.000000,4.000000,4.000000,4.000000,4.000000,100.000000
1602006089.861967,2.000000,0.000000,4124.102539,4128.205078,4128.205078,4128.717773,4134.871582,4143.589844,4143.589844,4150.769043,4157.436035,4185.641113,4151.794922,4140.000000,4169.743652,4155.897461,850.000000,4.000000,,,,0.000000,4.000000,4.000000,4.000000,4.000000,4.000000,4.000000,4.000000,4.000000,4.000000,4.000000,4.000000,4.000000,4.000000,4.000000,100.000000
1602006089.869849,3.000000,0.000000,4110.256348,4118.974121,4124.102539,4123.589844,4127.692383,4141.025879,4144.615234,4154.358887,4157.436035,4177.436035,4146.666504,4133.846191,4153.846191,4147.179688,871.000000,4.000000,,,,0.000000,4.000000,4.000000,4.000000,4.000000,4.000000,4.000000,4.000000,4.000000,4.000000,4.000000,4.000000,4.000000,4.000000,4.000000,100.000000
1602006089.877731,4.000000,0.000000,4109.230957,4121.025879,4125.128418,4122.563965,4133.846191,4145.641113,4153.333496,4156.922852,4160.512695,4176.410156,4148.717773,4134.871582,4156.922852,4137.948730,814.000000,4.000000,,,,0.000000,4.000000,4.000000,4.000000,4.000000,4.000000,4.000000,4.000000,4.000000,4.000000,4.000000,4.000000,4.000000,4.000000,4.000000,100.000000
1602006089.885613,5.000000,0.000000,4109.743652,4127.692383,4123.589844,4123.077148,4144.102539,4147.692383,4155.384766,4161.538574,4157.436035,4187.692383,4157.436035,4136.922852,4168.205078,4132.820313,824.000000,4.000000,,,,0.000000,4.000000,4.000000,4.000000,4.000000,4.000000,4.000000,4.000000,4.000000,4.000000,4.000000,4.000000,4.000000,4.000000,4.000000,100.000000
1602006089.893495,6.000000,0.000000,4102.563965,4126.153809,4113.846191,4122.563965,4145.641113,4141.538574,4146.153809,4154.358887,4149.230957,4179.487305,4153.333496,4129.230957,4162.051270,4132.307617,773.000000,4.000000,,,,0.000000,4.000000,4.000000,4.000000,4.000000,4.000000,4.000000,4.000000,4.000000,4.000000,4.000000,4.000000,4.000000,4.000000,4.000000,100.000000
1602006089.901377,7.000000,0.000000,4106.666504,4126.666504,4114.358887,4124.615234,4140.000000,4139.487305,4136.922852,4139.487305,4141.025879,4165.641113,4136.922852,4129.743652,4151.282227,4134.871582,675.000000,4.000000,,,,0.000000,4.000000,4.000000,4.000000,4.000000,4.000000,4.000000,4.000000,4.000000,4.000000,4.000000,4.000000,4.000000,4.000000,4.000000,100.000000
1602006089.909258,8.000000,0.000000,4128.205078,4135.897461,4133.846191,4133.846191,4138.974121,4143.589844,4131.794922,4135.384766,4137.436035,4167.692383,4138.974121,4144.615234,4152.820313,4142.563965,789.000000,4.000000,,,,0.000000,4.000000,4.000000,4.000000,4.000000,4.000000,4.000000,4.000000,4.000000,4.000000,4.000000,4.000000,4.000000,4.000000,4.000000,100.000000
1602006089.917040,9.000000,0.000000,4142.051270,4143.077148,4148.717773,4142.563965,4144.102539,4143.077148,4126.153809,4138.461426,4143.077148,4168.205078,4156.922852,4157.436035,4160.512695,4155.384766,841.000000,4.000000,,,,0.000000,4.000000,4.000000,4.000000,4.000000,4.000000,4.000000,4.000000,4.000000,4.000000,4.000000,4.000000,4.000000,4.000000,4.000000,100.000000
1602006089.924922,10.000000,0.000000,4134.358887,4137.948730,4145.128418,4137.436035,4142.051270,4139.487305,4121.538574,4134.871582,4143.077148,4155.897461,4155.897461,4158.974121,4160.000000,4155.384766,862.000000,4.000000,,,,0.000000,4.000000,4.000000,4.000000,4.000000,4.000000,4.000000,4.000000,4.000000,4.000000,4.000000,4.000000,4.000000,4.000000,4.000000,100.000000
1602006089.932804,11.000000,0.000000,4122.051270,4125.641113,4136.410156,4124.102539,4130.769043,4134.871582,4122.051270,4131.794922,4135.897461,4153.846191,4137.948730,4150.256348,4154.871582,4143.589844,883.000000,4.000000,,,,0.000000,4.000000,4.000000,4.000000,4.000000,4.000000,4.000000,4.000000,4.000000,4.000000,4.000000,4.000000,4.000000,4.000000,4.000000,100.000000
1602006089.940686,12.000000,0.000000,4118.461426,4120.512695,4136.410156,4120.000000,4126.153809,4128.205078,4126.666504,4135.897461,4136.922852,4161.025879,4132.820313,4138.461426,4147.692383,4140.000000,769.000000,4.000000,,,,0.000000,4.000000,4.000000,4.000000,4.000000,4.000000,4.000000,4.000000,4.000000,4.000000,4.000000,4.000000,4.000000,4.000000,4.000000,100.000000
1602006089.948568,13.000000,0.000000,4116.922852,4116.922852,4135.897461,4117.948730,4124.102539,4111.282227,4127.179688,4139.487305,4132.307617,4153.333496,4134.871582,4130.769043,4138.461426,4136.922852,747.000000,4.000000,,,,0.000000,4.000000,4.000000,4.000000,4.000000,4.000000,4.000000,4.000000,4.000000,4.000000,4.000000,4.000000,4.000000,4.000000,4.000000,100.000000
1602006089.956450,14.000000,0.000000,4119.487305,4114.358887,4134.871582,4117.948730,4120.512695,4099.487305,4125.128418,4137.436035,4119.487305,4137.436035,4136.922852,4136.922852,4136.922852,4138.974121,862.000000,4.000000,,,,0.000000,4.000000,4.000000,4.000000,4.000000,4.000000,4.000000,4.000000,4.000000,4.000000,4.000000,4.000000,4.000000,4.000000,4.000000,100.000000
1602006089.964332,15.000000,0.000000,4135.897461,4126.153809,4147.179688,4129.230957,4130.769043,4111.794922,4129.230957,4141.025879,4124.615234,4155.897461,4152.820313,4161.025879,4155.897461,4161.538574,883.000000,4.000000,,,,0.000000,4.000000,4.000000,4.000000,4.000000,4.000000,4.000000,4.000000,4.000000,4.000000,4.000000,4.000000,4.000000,4.000000,4.000000,100.000000
1602006089.972113,16.000000,0.000000,4153.333496,4141.025879,4160.512695,4140.000000,4144.615234,4127.692383,4136.410156,4153.846191,4144.102539,4186.666504,4170.256348,4181.538574,4178.974121,4176.410156,0.000000,4.000000,,,,0.000000,4.000000,4.000000,4.000000,4.000000,4.000000,4.000000,4.000000,4.000000,4.000000,4.000000,4.000000,4.000000,4.000000,4.000000,100.000000
1602006089.979995,17.000000,0.000000,4149.230957,4140.000000,4152.307617,4135.897461,4145.641113,4130.769043,4137.948730,4154.871582,4152.820313,4176.922852,4173.846191,4181.538574,4188.717773,4171.794922,0.000000,4.000000,,,,0.000000,4.000000,4.000000,4.000000,4.000000,4.000000,4.000000,4.000000,4.000000,4.000000,4.000000,4.000000,4.000000,4.000000,4.000000,100.000000
1602006089.987877,18.000000,0.000000,4137.948730,4137.948730,4137.436035,4135.897461,4144.615234,4132.820313,4134.871582,4143.077148,4154.358887,4158.461426,4170.256348,4171.794922,4187.179688,4171.794922,0.000000,4.000000,,,,0.000000,4.000000,4.000000,4.000000,4.000000,4.000000,4.000000,4.000000,4.000000,4.000000,4.000000,4.000000,4.000000,4.000000,4.000000,100.000000
1602006089.995758,19.000000,0.000000,4135.384766,4141.538574,4138.974121,4140.512695,4145.128418,4139.487305,4128.717773,4138.974121,4156.922852,4169.743652,4163.077148,4162.563965,4178.461426,4168.717773,0.000000,4.000000,,,,0.000000,4.000000,4.000000,4.000000,4.000000,4.000000,4.000000,4.000000,4.000000,4.000000,4.000000,4.000000,4.000000,4.000000,4.000000,100.000000
1602006090.003640,20.000000,0.000000,4134.871582,4134.358887,4136.922852,4131.282227,4140.000000,4139.487305,4126.153809,4136.410156,4155.384766,4174.871582,4150.256348,4151.794922,4171.282227,4155.897461,0.000000,4.000000,,,,0.000000,4.000000,4.000000,4.000000,4.000000,4.000000,4.000000,4.000000,4.000000,4.000000,4.000000,4.000000,4.000000,4.000000,4.000000,100.000000
1602006090.011522,21.000000,0.000000,4128.205078,4126.153809,4117.436035,4122.051270,4140.512695,4141.538574,4131.794922,4128.717773,4151.282227,4155.384766,4142.563965,4143.589844,4166.666504,4153.333496,0.000000,4.000000,,,,0.000000,4.000000,4.000000,4.000000,4.000000,4.000000,4.000000,4.000000,4.000000,4.000000,4.000000,4.000000,4.000000,4.000000,4.000000,100.000000
1602006090.019304,22.000000,0.000000,4118.461426,4124.615234,4104.615234,4122.051270,4138.461426,4143.077148,4131.282227,4125.641113,4145.641113,4145.641113,4142.051270,4140.512695,4160.512695,4149.743652,0.000000,4.000000,,,,0.000000,4.000000,4.000000,4.000000,4.000000,4.000000,4.000000,4.000000,4.000000,4.000000,4.000000,4.000000,4.000000,4.000000,4.000000,100.000000
1602006090.027186,23.000000,0.000000,4108.717773,4120.000000,4103.077148,4120.000000,4123.589844,4129.743652,4118.461426,4124.102539,4136.410156,4145.641113,4136.922852,4142.051270,4147.179688,4134.358887,0.000000,4.000000,,,,0.000000,4.000000,4.000000,4.000000,4.000000,4.000000,4.000000,4.000000,4.000000,4.000000,4.000000,4.000000,4.000000,4.000000,4.000000,100.000000
1602006090.035068,24.000000,0.000000,4111.282227,4117.948730,4104.615234,4119.487305,4121.538574,4125.128418,4114.871582,4123.077148,4132.820313,4130.769043,4125.641113,4148.205078,4138.974121,4131.282227,0.000000,4.000000,,,,0.000000,4.000000,4.000000,4.000000,4.000000,4.000000,4.000000,4.000000,4.000000,4.000000,4.000000,4.000000,4.000000,4.000000,4.000000,100.000000
1602006090.042950,25.000000,0.000000,4125.641113,4126.153809,4114.358887,4126.666504,4134.358887,4136.922852,4121.538574,4128.205078,4140.000000,4123.077148,4126.153809,4152.307617,4147.179688,4143.077148,0.000000,4.000000,,,,0.000000,4.000000,4.000000,4.000000,4.000000,4.000000,4.000000,4.000000,4.000000,4.000000,4.000000,4.000000,4.000000,4.000000,4.000000,100.000000
1602006090.050832,26.000000,0.000000,4130.256348,4126.666504,4125.641113,4129.230957,4133.333496,4141.538574,4121.538574,4130.769043,4147.179688,4140.512695,4142.563965,4149.743652,4156.922852,4144.102539,0.000000,4.000000,,,,0.000000,4.000000,4.000000,4.000000,4.000000,4.000000,4.000000,4.000000,4.000000,4.000000,4.000000,4.000000,4.000000,4.000000,4.000000,100.000000
1602006090.058714,27.000000,0.000000,4125.128418,4120.512695,4127.692383,4124.102539,4122.563965,4138.974121,4125.641113,4126.666504,4145.128418,4157.948730,4153.333496,4149.230957,4156.922852,4134.358887,0.000000,4.000000,,,,0.000000,4.000000,4.000000,4.000000,4.000000,4.000000,4.000000,4.000000,4.000000,4.000000,4.000000,4.000000,4.000000,4.000000,4.000000,100.000000
1602006090.066597,28.000000,0.000000,4124.615234,4121.538574,4126.666504,4121.025879,4127.179688,4141.538574,4136.410156,4127.179688,4142.563965,4162.051270,4155.897461,4153.846191,4158.461426,4142.563965,0.000000,4.000000,,,,0.000000,4.000000,4.000000,4.000000,4.000000,4.000000,4.000000,4.000000,4.000000,4.000000,4.000000,4.000000,4.000000,4.000000,4.000000,100.000000
1602006090.074479,29.000000,0.000000,4124.615234,4123.589844,4125.641113,4120.512695,4136.410156,4142.051270,4136.922852,4128.205078,4138.974121,4150.769043,4154.871582,4152.307617,4160.512695,4156.410156,0.000000,4.000000,,,,0.000000,4.000000,4.000000,4.000000,4.000000,4.000000,4.000000,4.000000,4.000000,4.000000,4.000000,4.000000,4.000000,4.000000,4.000000,100.000000
1602006090.082461,30.000000,0.000000,4122.051270,4120.512695,4121.538574,4119.487305,4135.384766,4136.922852,4127.179688,4121.538574,4124.102539,4129.230957,4137.436035,4142.051270,4148.205078,4145.641113,0.000000,4.000000,,,,0.000000,4.000000,4.000000,4.000000,4.000000,4.000000,4.000000,4.000000,4.000000,4.000000,4.000000,4.000000,4.000000,4.000000,4.000000,100.000000
1602006090.090343,31.000000,0.000000,4124.102539,4121.025879,4121.025879,4120.512695,4135.897461,4137.436035,4125.641113,4118.461426,4114.358887,4114.871582,4121.025879,4135.384766,4136.922852,4133.333496,0.000000,4.000000,,,,0.000000,4.000000,4.000000,4.000000,4.000000,4.000000,4.000000,4.000000,4.000000,4.000000,4.000000,4.000000,4.000000,4.000000,4.000000,100.000000
1602006090.098225,32.000000,0.000000,4126.666504,4124.102539,4121.538574,4121.538574,4138.974121,4138.461426,4125.641113,4123.077148,4128.205078,4124.615234,4131.282227,4141.538574,4147.692383,4145.641113,0.000000,4.000000,,,,0.000000,4.000000,4.000000,4.000000,4.000000,4.000000,4.000000,4.000000,4.000000,4.000000,4.000000,4.000000,4.000000,4.000000,4.000000,100.000000
1602006090.106107,33.000000,0.000000,4118.461426,4124.102539,4115.384766,4122.051270,4137.948730,4138.461426,4120.512695,4128.205078,4149.743652,4143.589844,4145.128418,4151.282227,4165.128418,4154.358887,0.000000,4.000000,,,,0.000000,4.000000,4.000000,4.000000,4.000000,4.000000,4.000000,4.000000,4.000000,4.000000,4.000000,4.000000,4.000000,4.000000,4.000000,100.000000
1602006090.113989,34.000000,0.000000,4111.282227,4122.563965,4107.179688,4121.538574,4134.358887,4139.487305,4120.000000,4132.307617,4155.384766,4154.358887,4145.641113,4155.384766,4167.179688,4151.282227,0.000000,4.000000,,,,0.000000,4.000000,4.000000,4.000000,4.000000,4.000000,4.000000,4.000000,4.000000,4.000000,4.000000,4.000000,4.000000,4.000000,4.000000,100.000000
1602006090.121871,35.000000,0.000000,4115.897461,4123.077148,4104.615234,4121.538574,4135.897461,4136.410156,4123.589844,4136.410156,4151.794922,4159.487305,4148.717773,4161.538574,4162.563965,4147.179688,0.000000,4.000000,,,,0.000000,4.000000,4.000000,4.000000,4.000000,4.000000,4.000000,4.000000,4.000000,4.000000,4.000000,4.000000,4.000000,4.000000,4.000000,100.000000
1602006090.129753,36.000000,0.000000,4120.000000,4123.077148,4109.743652,4122.051270,4132.307617,4130.769043,4122.051270,4138.461426,4145.641113,4158.974121,4153.333496,4170.769043,4164.615234,4142.563965,0.000000,4.000000,,,,0.000000,4.000000,4.000000,4.000000,4.000000,4.000000,4.000000,4.000000,4.000000,4.000000,4.000000,4.000000,4.000000,4.000000,4.000000,100.000000
1602006090.137636,37.000000,0.000000,4125.641113,4127.179688,4118.974121,4123.589844,4130.769043,4135.384766,4122.051270,4137.948730,4138.974121,4155.384766,4152.307617,4175.897461,4167.692383,4145.641113,0.000000,4.000000,,,,0.000000,4.000000,4.000000,4.000000,4.000000,4.000000,4.000000,4.000000,4.000000,4.000000,4.000000,4.000000,4.000000,4.000000,4.000000,100.000000
1602006090.145618,38.000000,0.000000,4134.358887,4131.282227,4130.769043,4127.179688,4132.307617,4137.948730,4130.769043,4136.922852,4142.563965,4151.282227,4150.769043,4171.794922,4167.179688,4154.871582,0.000000,4.000000,,,,0.000000,4.000000,4.000000,4.000000,4.000000,4.000000,4.000000,4.000000,4.000000,4.000000,4.000000,4.000000,4.000000,4.000000,4.000000,100.000000
1602006090.153500,39.000000,0.000000,4136.410156,4130.769043,4138.461426,4131.794922,4127.179688,4127.692383,4136.410156,4140.512695,4151.282227,4157.948730,4149.743652,4173.846191,4167.179688,4164.102539,0.000000,4.000000,,,,0.000000,4.000000,4.000000,4.000000,4.000000,4.000000,4.000000,4.000000,4.000000,4.000000,4.000000,4.000000,4.000000,4.000000,4.000000,100.000000
1602006090.161382,40.000000,0.000000,4144.102539,4136.410156,4142.051270,4137.948730,4130.769043,4128.205078,4136.410156,4146.666504,4156.410156,4170.769043,4154.358887,4185.128418,4172.307617,4175.897461,0.000000,4.000000,,,,0.000000,4.000000,4.000000,4.000000,4.000000,4.000000,4.000000,4.000000,4.000000,4.000000,4.000000,4.000000,4.000000,4.000000,4.000000,100.000000
1602006090.169265,41.000000,0.000000,4150.769043,4140.512695,4143.077148,4136.410156,4140.512695,4139.487305,4137.436035,4145.641113,4158.974121,4167.179688,4160.000000,4185.128418,4174.871582,4178.461426,0.000000,4.000000,,,,0.000000,4.000000,4.000000,4.000000,4.000000,4.000000,4.000000,4.000000,4.000000,4.000000,4.000000,4.000000,4.000000,4.000000,4.000000,100.000000
1602006090.177147,42.000000,0.000000,4135.384766,4128.205078,4136.922852,4126.153809,4129.743652,4137.948730,4135.897461,4138.974121,4159.487305,4158.461426,4155.384766,4170.256348,4165.641113,4164.615234,0.000000,4.000000,,,,0.000000,4.000000,4.000000,4.000000,4.000000,4.000000,4.000000,4.000000,4.000000,4.000000,4.000000,4.000000,4.000000,4.000000,4.000000,100.000000
1602006090.185030,43.000000,0.000000,4128.717773,4117.436035,4126.666504,4121.538574,4116.410156,4134.358887,4134.871582,4138.974121,4150.256348,4149.230957,4147.692383,4158.461426,4155.384766,4156.410156,0.000000,4.000000,,,,0.000000,4.000000,4.000000,4.000000,4.000000,4.000000,4.000000,4.000000,4.000000,4.000000,4.000000,4.000000,4.000000,4.000000,4.000000,100.000000
1602006090.192912,44.000000,0.000000,4137.436035,4122.563965,4123.589844,4125.128418,4124.615234,4139.487305,4139.487305,4141.538574,4139.487305,4136.410156,4143.589844,4151.794922,4152.820313,4153.846191,0.000000,4.000000,,,,0.000000,4.000000,4.000000,4.000000,4.000000,4.000000,4.000000,4.000000,4.000000,4.000000,4.000000,4.000000,4.000000,4.000000,4.000000,100.000000
1602006090.200794,45.000000,0.000000,4127.179688,4122.563965,4121.538574,4124.102539,4129.230957,4141.538574,4138.974121,4137.436035,4135.897461,4136.922852,4138.461426,4140.512695,4146.153809,4140.000000,0.000000,4.000000,,,,0.000000,4.000000,4.000000,4.000000,4.000000,4.000000,4.000000,4.000000,4.000000,4.000000,4.000000,4.000000,4.000000,4.000000,4.000000,100.000000
1602006090.208677,46.000000,0.000000,4116.922852,4116.922852,4117.436035,4121.538574,4123.077148,4133.333496,4134.358887,4134.358887,4136.410156,4153.846191,4133.846191,4133.846191,4137.948730,4131.794922,0.000000,4.000000,,,,0.000000,4.000000,4.000000,4.000000,4.000000,4.000000,4.000000,4.000000,4.000000,4.000000,4.000000,4.000000,4.000000,4.000000,4.000000,100.000000
1602006090.216658,47.000000,0.000000,4129.743652,4124.102539,4121.538574,4124.615234,4124.615234,4127.179688,4134.358887,4136.410156,4136.922852,4160.000000,4138.461426,4137.436035,4143.589844,4141.538574,0.000000,4.000000,,,,0.000000,4.000000,4.000000,4.000000,4.000000,4.000000,4.000000,4.000000,4.000000,4.000000,4.000000,4.000000,4.000000,4.000000,4.000000,100.000000
1602006090.224539,48.000000,0.000000,4140.512695,4130.769043,4127.179688,4125.641113,4127.179688,4122.051270,4130.256348,4135.897461,4135.384766,4145.641113,4144.615234,4145.128418,4153.846191,4154.871582,0.000000,4.000000,,,,0.000000,4.000000,4.000000,4.000000,4.000000,4.000000,4.000000,4.000000,4.000000,4.000000,4.000000,4.000000,4.000000,4.000000,4.000000,100.000000
1602006090.232521,49.000000,0.000000,4137.948730,4129.743652,4129.230957,4127.179688,4125.128418,4117.436035,4121.538574,4133.333496,4135.897461,4145.128418,4145.128418,4152.307617,4155.384766,4155.897461,0.000000,4.000000,,,,0.000000,4.000000,4.000000,4.000000,4.000000,4.000000,4.000000,4.000000,4.000000,4.000000,4.000000,4.000000,4.000000,4.000000,4.000000,100.000000
1602006090.240403,50.000000,0.000000,4134.358887,4132.820313,4135.897461,4131.794922,4123.589844,4116.410156,4121.538574,4134.358887,4140.512695,4161.025879,4143.077148,4158.461426,4154.358887,4151.794922,0.000000,4.000000,,,,0.000000,4.000000,4.000000,4.000000,4.000000,4.000000,4.000000,4.000000,4.000000,4.000000,4.000000,4.000000,4.000000,4.000000,4.000000,100.000000
1602006090.248286,51.000000,0.000000,4135.384766,4133.333496,4139.487305,4131.282227,4123.077148,4117.948730,4129.743652,4134.871582,4139.487305,4146.666504,4141.538574,4156.922852,4154.358887,4157.436035,0.000000,4.000000,,,,0.000000,4.000000,4.000000,4.000000,4.000000,4.000000,4.000000,4.000000,4.000000,4.000000,4.000000,4.000000,4.000000,4.000000,4.000000,100.000000
1602006090.256168,52.000000,0.000000,4134.358887,4123.589844,4129.230957,4123.589844,4120.512695,4124.615234,4136.922852,4135.897461,4134.358887,4116.410156,4136.922852,4145.128418,4151.282227,4158.461426,0.000000,4.000000,,,,0.000000,4.000000,4.000000,4.000000,4.000000,4.000000,4.000000,4.000000,4.000000,4.000000,4.000000,4.000000,4.000000,4.000000,4.000000,100.000000
1602006090.264051,53.000000,0.000000,4127.179688,4119.487305,4121.025879,4120.512695,4121.025879,4135.897461,4140.000000,4138.974121,4134.871582,4128.205078,4139.487305,4142.563965,4150.769043,4150.256348,0.000000,4.000000,,,,0.000000,4.000000,4.000000,4.000000,4.000000,4.000000,4.000000,4.000000,4.000000,4.000000,4.000000,4.000000,4.000000,4.000000,4.000000,100.000000
1602006090.271933,54.000000,0.000000,4130.769043,4126.153809,4126.666504,4124.615234,4124.102539,4142.563965,4141.538574,4140.000000,4138.974121,4165.641113,4154.871582,4153.846191,4157.948730,4155.897461,0.000000,4.000000,,,,0.000000,4.000000,4.000000,4.000000,4.000000,4.000000,4.000000,4.000000,4.000000,4.000000,4.000000,4.000000,4.000000,4.000000,4.000000,100.000000
1602006090.279815,55.000000,0.000000,4138.974121,4126.153809,4130.769043,4124.102539,4122.051270,4141.025879,4138.974121,4138.461426,4143.077148,4162.563965,4152.820313,4157.948730,4158.974121,4170.769043,0.000000,4.000000,,,,0.000000,4.000000,4.000000,4.000000,4.000000,4.000000,4.000000,4.000000,4.000000,4.000000,4.000000,4.000000,4.000000,4.000000,4.000000,100.000000
1602006090.287698,56.000000,0.000000,4138.461426,4123.589844,4128.205078,4125.128418,4121.538574,4136.922852,4131.282227,4138.974121,4150.769043,4145.128418,4135.384766,4151.282227,4153.333496,4170.256348,0.000000,4.000000,,,,0.000000,4.000000,4.000000,4.000000,4.000000,4.000000,4.000000,4.000000,4.000000,4.000000,4.000000,4.000000,4.000000,4.000000,4.000000,100.000000
1602006090.295580,57.000000,0.000000,4140.512695,4132.307617,4133.333496,4135.384766,4125.128418,4130.769043,4126.153809,4140.000000,4156.922852,4159.487305,4142.563965,4152.820313,4154.871582,4158.974121,0.000000,4.000000,,,,0.000000,4.000000,4.000000,4.000000,4.000000,4.000000,4.000000,4.000000,4.000000,4.000000,4.000000,4.000000,4.000000,4.000000,4.000000,100.000000
1602006090.303562,58.000000,0.000000,4147.179688,4135.897461,4140.000000,4139.487305,4126.666504,4123.077148,4123.077148,4138.974121,4156.922852,4166.153809,4157.948730,4154.358887,4158.461426,4155.897461,0.000000,4.000000,,,,0.000000,4.000000,4.000000,4.000000,4.000000,4.000000,4.000000,4.000000,4.000000,4.000000,4.000000,4.000000,4.000000,4.000000,4.000000,100.000000
1602006090.311445,59.000000,0.000000,4141.025879,4129.743652,4136.410156,4131.282227,4124.615234,4117.436035,4124.615234,4140.000000,4158.461426,4146.153809,4148.205078,4150.256348,4155.897461,4158.974121,0.000000,4.000000,,,,0.000000,4.000000,4.000000,4.000000,4.000000,4.000000,4.000000,4.000000,4.000000,4.000000,4.000000,4.000000,4.000000,4.000000,4.000000,100.000000
1602006090.319327,60.000000,0.000000,4131.794922,4124.615234,4133.333496,4124.615234,4122.563965,4113.846191,4133.333496,4142.051270,4154.871582,4135.384766,4138.461426,4151.282227,4155.384766,4156.410156,0.000000,4.000000,,,,0.000000,4.000000,4.000000,4.000000,4.000000,4.000000,4.000000,4.000000,4.000000,4.000000,4.000000,4.000000,4.000000,4.000000,4.000000,100.000000
1602006090.327209,61.000000,0.000000,4133.333496,4123.589844,4135.384766,4124.102539,4123.077148,4121.025879,4137.436035,4138.974121,4141.538574,4144.615234,4146.666504,4154.871582,4155.384766,4154.358887,0.000000,4.000000,,,,0.000000,4.000000,4.000000,4.000000,4.000000,4.000000,4.000000,4.000000,4.000000,4.000000,4.000000,4.000000,4.000000,4.000000,4.000000,100.000000
1602006090.335092,62.000000,0.000000,4142.563965,4126.666504,4134.871582,4122.563965,4126.666504,4137.436035,4134.871582,4136.410156,4134.358887,4147.179688,4154.871582,4154.871582,4154.871582,4164.615234,0.000000,4.000000,,,,0.000000,4.000000,4.000000,4.000000,4.000000,4.000000,4.000000,4.000000,4.000000,4.000000,4.000000,4.000000,4.000000,4.000000,4.000000,100.000000
1602006090.342974,63.000000,0.000000,4152.307617,4131.282227,4134.358887,4122.051270,4128.205078,4143.589844,4136.922852,4137.948730,4135.897461,4133.846191,4150.256348,4151.794922,4156.922852,4169.743652,0.000000,4.000000,,,,0.000000,4.000000,4.000000,4.000000,4.000000,4.000000,4.000000,4.000000,4.000000,4.000000,4.000000,4.000000,4.000000,4.000000,4.000000,100.000000
1602006090.350856,64.000000,0.000000,4154.358887,4131.282227,4138.461426,4124.102539,4124.102539,4135.897461,4134.871582,4136.410156,4130.769043,4123.589844,4139.487305,4152.820313,4155.384766,4160.512695,802.000000,4.000000,,,,0.000000,4.000000,4.000000,4.000000,4.000000,4.000000,4.000000,4.000000,4.000000,4.000000,4.000000,4.000000,4.000000,4.000000,4.000000,100.000000
1602006090.358739,65.000000,0.000000,4146.153809,4126.153809,4142.563965,4124.102539,4120.512695,4125.641113,4123.589844,4130.256348,4121.538574,4122.563965,4133.333496,4154.871582,4150.256348,4157.436035,789.000000,4.000000,,,,0.000000,4.000000,4.000000,4.000000,4.000000,4.000000,4.000000,4.000000,4.000000,4.000000,4.000000,4.000000,4.000000,4.000000,4.000000,100.000000
1602006090.366621,66.000000,0.000000,4143.589844,4124.102539,4140.000000,4127.179688,4120.000000,4117.948730,4122.051270,4129.743652,4126.666504,4128.205078,4138.461426,4148.205078,4150.769043,4157.948730,850.000000,4.000000,,,,0.000000,4.000000,4.000000,4.000000,4.000000,4.000000,4.000000,4.000000,4.000000,4.000000,4.000000,4.000000,4.000000,4.000000,4.000000,100.000000
1602006090.374402,67.000000,0.000000,4152.307617,4130.256348,4142.051270,4135.384766,4122.051270,4117.436035,4133.333496,4136.922852,4138.974121,4139.487305,4150.769043,4146.153809,4155.897461,4152.307617,871.000000,4.000000,,,,0.000000,4.000000,4.000000,4.000000,4.000000,4.000000,4.000000,4.000000,4.000000,4.000000,4.000000,4.000000,4.000000,4.000000,4.000000,100.000000
1602006090.382283,68.000000,0.000000,4157.436035,4138.974121,4153.846191,4140.000000,4123.077148,4123.077148,4142.051270,4143.077148,4141.025879,4155.384766,4160.000000,4160.512695,4158.461426,4157.436035,814.000000,4.000000,,,,0.000000,4.000000,4.000000,4.000000,4.000000,4.000000,4.000000,4.000000,4.000000,4.000000,4.000000,4.000000,4.000000,4.000000,4.000000,100.000000
1602006090.390165,69.000000,0.000000,4154.358887,4132.820313,4157.436035,4135.897461,4118.974121,4121.538574,4141.025879,4142.563965,4138.974121,4154.871582,4152.820313,4167.179688,4152.307617,4161.538574,824.000000,4.000000,,,,0.000000,4.000000,4.000000,4.000000,4.000000,4.000000,4.000000,4.000000,4.000000,4.000000,4.000000,4.000000,4.000000,4.000000,4.000000,100.000000
1602006090.397946,70.000000,0.000000,4148.717773,4121.538574,4151.282227,4133.333496,4117.948730,4117.948730,4137.948730,4138.974121,4139.487305,4138.974121,4136.410156,4158.461426,4142.563965,4148.717773,773.000000,4.000000,,,,0.000000,4.000000,4.000000,4.000000,4.000000,4.000000,4.000000,4.000000,4.000000,4.000000,4.000000,4.000000,4.000000,4.000000,4.000000,100.000000
1602006090.405827,71.000000,0.000000,4145.128418,4124.102539,4149.743652,4136.922852,4124.615234,4128.205078,4139.487305,4137.948730,4141.025879,4136.922852,4135.897461,4154.871582,4138.974121,4146.153809,675.000000,4.000000,,,,0.000000,4.000000,4.000000,4.000000,4.000000,4.000000,4.000000,4.000000,4.000000,4.000000,4.000000,4.000000,4.000000,4.000000,4.000000,100.000000
1602006090.413607,72.000000,0.000000,4141.538574,4126.153809,4142.051270,4132.820313,4124.615234,4137.948730,4134.871582,4138.461426,4144.102539,4141.538574,4141.538574,4149.230957,4138.974121,4152.820313,789.000000,4.000000,,,,0.000000,4.000000,4.000000,4.000000,4.000000,4.000000,4.000000,4.000000,4.000000,4.000000,4.000000,4.000000,4.000000,4.000000,4.000000,100.000000
1602006090.421390,73.000000,0.000000,4135.897461,4116.410156,4125.128418,4122.563965,4120.000000,4128.717773,4124.615234,4136.410156,4142.051270,4137.948730,4125.641113,4134.358887,4133.333496,4141.538574,841.000000,4.000000,,,,0.000000,4.000000,4.000000,4.000000,4.000000,4.000000,4.000000,4.000000,4.000000,4.000000,4.000000,4.000000,4.000000,4.000000,4.000000,100.000000
1602006090.429272,74.000000,0.000000,4135.897461,4114.871582,4127.179688,4124.615234,4121.025879,4121.538574,4121.025879,4134.871582,4128.717773,4135.384766,4115.384766,4135.384766,4126.153809,4137.948730,868.000000,4.000000,,,,0.000000,4.000000,4.000000,4.000000,4.000000,4.000000,4.000000,4.000000,4.000000,4.000000,4.000000,4.000000,4.000000,4.000000,4.000000,100.000000
1602006090.437154,75.000000,0.000000,4148.717773,4128.205078,4147.692383,4136.410156,4126.153809,4125.641113,4125.128418,4136.410156,4126.666504,4135.897461,4136.922852,4153.333496,4133.333496,4161.538574,846.000000,4.000000,,,,0.000000,4.000000,4.000000,4.000000,4.000000,4.000000,4.000000,4.000000,4.000000,4.000000,4.000000,4.000000,4.000000,4.000000,4.000000,100.000000
1602006090.445036,76.000000,0.000000,4159.487305,4137.948730,4157.436035,4139.487305,4130.256348,4127.179688,4130.256348,4137.436035,4136.410156,4142.051270,4157.436035,4167.692383,4150.256348,4174.871582,769.000000,4.000000,,,,0.000000,4.000000,4.000000,4.000000,4.000000,4.000000,4.000000,4.000000,4.000000,4.000000,4.000000,4.000000,4.000000,4.000000,4.000000,100.000000
1602006090.452918,77.000000,0.000000,4156.922852,4136.922852,4151.282227,4136.922852,4129.743652,4125.128418,4134.871582,4135.897461,4131.794922,4140.512695,4153.846191,4173.846191,4156.922852,4166.666504,747.000000,4.000000,,,,0.000000,4.000000,4.000000,4.000000,4.000000,4.000000,4.000000,4.000000,4.000000,4.000000,4.000000,4.000000,4.000000,4.000000,4.000000,100.000000
1602006090.460800,78.000000,0.000000,4152.307617,4135.384766,4144.615234,4137.436035,4125.641113,4121.538574,4137.948730,4134.358887,4119.487305,4126.153809,4153.333496,4169.230957,4154.871582,4161.538574,868.000000,4.000000,,,,0.000000,4.000000,4.000000,4.000000,4.000000,4.000000,4.000000,4.000000,4.000000,4.000000,4.000000,4.000000,4.000000,4.000000,4.000000,100.000000
1602006090.468682,79.000000,0.000000,4151.794922,4137.436035,4140.512695,4137.436035,4121.538574,4120.000000,4138.461426,4135.384766,4125.128418,4128.717773,4153.846191,4160.000000,4152.820313,4157.436035,846.000000,4.000000,,,,0.000000,4.000000,4.000000,4.000000,4.000000,4.000000,4.000000,4.000000,4.000000,4.000000,4.000000,4.000000,4.000000,4.000000,4.000000,100.000000
1602006090.476665,80.000000,0.000000,4153.333496,4139.487305,4131.282227,4136.410156,4124.102539,4131.794922,4140.512695,4138.461426,4137.436035,4150.769043,4142.563965,4156.922852,4154.358887,4150.769043,769.000000,4.000000,,,,0.000000,4.000000,4.000000,4.000000,4.000000,4.000000,4.000000,4.000000,4.000000,4.000000,4.000000,4.000000,4.000000,4.000000,4.000000,100.000000
1602006090.484547,81.000000,0.000000,4148.717773,4137.948730,4123.077148,4136.410156,4131.282227,4141.025879,4139.487305,4138.461426,4134.358887,4154.871582,4136.410156,4150.256348,4149.743652,4150.256348,747.000000,4.000000,,,,0.000000,4.000000,4.000000,4.000000,4.000000,4.000000,4.000000,4.000000,4.000000,4.000000,4.000000,4.000000,4.000000,4.000000,4.000000,100.000000
1602006090.492430,82.000000,0.000000,4143.077148,4137.948730,4130.256348,4140.512695,4136.922852,4136.922852,4132.820313,4137.436035,4127.179688,4144.615234,4141.538574,4138.461426,4138.974121,4155.384766,868.000000,4.000000,,,,0.000000,4.000000,4.000000,4.000000,4.000000,4.000000,4.000000,4.000000,4.000000,4.000000,4.000000,4.000000,4.000000,4.000000,4.000000,100.000000
1602006090.500313,83.000000,0.000000,4152.307617,4141.538574,4142.051270,4145.128418,4135.384766,4137.436035,4128.205078,4139.487305,4128.717773,4139.487305,4139.487305,4135.897461,4135.384766,4150.256348,846.000000,4.000000,,,,0.000000,4.000000,4.000000,4.000000,4.000000,4.000000,4.000000,4.000000,4.000000,4.000000,4.000000,4.000000,4.000000,4.000000,4.000000,100.000000
1602006090.508195,84.000000,0.000000,4154.871582,4134.871582,4137.948730,4141.538574,4124.102539,4135.897461,4124.615234,4138.974121,4128.205078,4134.358887,4131.794922,4140.000000,4136.922852,4140.000000,769.000000,4.000000,,,,0.000000,4.000000,4.000000,4.000000,4.000000,4.000000,4.000000,4.000000,4.000000,4.000000,4.000000,4.000000,4.000000,4.000000,4.000000,100.000000
1602006090.516078,85.000000,0.000000,4137.436035,4121.025879,4128.717773,4133.333496,4118.974121,4125.641113,4124.615234,4136.410156,4123.077148,4142.051270,4129.743652,4142.051270,4135.897461,4144.102539,747.000000,4.000000,,,,0.000000,4.000000,4.000000,4.000000,4.000000,4.000000,4.000000,4.000000,4.000000,4.000000,4.000000,4.000000,4.000000,4.000000,4.000000,100.000000
1602006090.523960,86.000000,0.000000,4138.974121,4125.641113,4136.922852,4134.871582,4128.717773,4128.205078,4131.794922,4139.487305,4128.717773,4151.794922,4138.974121,4142.051270,4140.000000,4155.897461,868.000000,4.000000,,,,0.000000,4.000000,4.000000,4.000000,4.000000,4.000000,4.000000,4.000000,4.000000,4.000000,4.000000,4.000000,4.000000,4.000000,4.000000,100.000000
1602006090.531843,87.000000,0.000000,4164.615234,4144.102539,4152.820313,4147.179688,4140.512695,4142.051270,4137.436035,4145.128418,4139.487305,4142.051270,4149.230957,4145.641113,4157.436035,4165.128418,846.000000,4.000000,,,,0.000000,4.000000,4.000000,4.000000,4.000000,4.000000,4.000000,4.000000,4.000000,4.000000,4.000000,4.000000,4.000000,4.000000,4.000000,100.000000
1602006090.539726,88.000000,0.000000,4164.102539,4145.128418,4149.230957,4150.769043,4140.000000,4141.538574,4131.794922,4141.538574,4141.025879,4133.333496,4144.102539,4141.025879,4158.974121,4165.641113,769.000000,4.000000,,,,0.000000,4.000000,4.000000,4.000000,4.000000,4.000000,4.000000,4.000000,4.000000,4.000000,4.000000,4.000000,4.000000,4.000000,4.000000,100.000000
1602006090.547608,89.000000,0.000000,4141.025879,4135.384766,4128.205078,4141.538574,4136.922852,4135.384766,4121.025879,4133.846191,4137.948730,4142.563965,4135.384766,4127.692383,4143.589844,4157.948730,747.000000,4.000000,,,,0.000000,4.000000,4.000000,4.000000,4.000000,4.000000,4.000000,4.000000,4.000000,4.000000,4.000000,4.000000,4.000000,4.000000,4.000000,100.000000
1602006090.555590,90.000000,0.000000,4134.871582,4134.871582,4117.436035,4135.384766,4137.436035,4140.000000,4122.051270,4132.820313,4133.846191,4145.128418,4139.487305,4123.589844,4138.974121,4150.256348,868.000000,4.000000,,,,0.000000,4.000000,4.000000,4.000000,4.000000,4.000000,4.000000,4.000000,4.000000,4.000000,4.000000,4.000000,4.000000,4.000000,4.000000,100.000000
1602006090.563471,91.000000,0.000000,4140.000000,4136.922852,4125.641113,4137.436035,4136.410156,4149.230957,4131.794922,4138.461426,4134.871582,4134.871582,4141.538574,4135.384766,4142.051270,4151.794922,846.000000,4.000000,,,,0.000000,4.000000,4.000000,4.000000,4.000000,4.000000,4.000000,4.000000,4.000000,4.000000,4.000000,4.000000,4.000000,4.000000,4.000000,100.000000
1602006090.571353,92.000000,0.000000,4140.512695,4136.410156,4136.922852,4136.410156,4136.410156,4150.256348,4141.025879,4142.563965,4144.102539,4145.641113,4136.922852,4147.692383,4142.563965,4157.436035,769.000000,4.000000,,,,0.000000,4.000000,4.000000,4.000000,4.000000,4.000000,4.000000,4.000000,4.000000,4.000000,4.000000,4.000000,4.000000,4.000000,4.000000,100.000000
1602006090.579235,93.000000,0.000000,4142.563965,4137.948730,4136.410156,4137.948730,4135.384766,4145.641113,4142.051270,4144.615234,4148.717773,4167.179688,4139.487305,4154.358887,4149.230957,4159.487305,747.000000,4.000000,,,,0.000000,4.000000,4.000000,4.000000,4.000000,4.000000,4.000000,4.000000,4.000000,4.000000,4.000000,4.000000,4.000000,4.000000,4.000000,100.000000
1602006090.587116,94.000000,0.000000,4135.384766,4132.307617,4126.666504,4140.000000,4126.666504,4133.333496,4130.769043,4140.512695,4140.512695,4162.563965,4145.641113,4151.794922,4155.897461,4156.922852,868.000000,4.000000,,,,0.000000,4.000000,4.000000,4.000000,4.000000,4.000000,4.000000,4.000000,4.000000,4.000000,4.000000,4.000000,4.000000,4.000000,4.000000,100.000000
1602006090.594998,95.000000,0.000000,4125.641113,4120.512695,4121.025879,4130.769043,4115.897461,4117.948730,4118.461426,4133.846191,4133.333496,4140.000000,4142.051270,4139.487305,4147.692383,4151.282227,846.000000,4.000000,,,,0.000000,4.000000,4.000000,4.000000,4.000000,4.000000,4.000000,4.000000,4.000000,4.000000,4.000000,4.000000,4.000000,4.000000,4.000000,100.000000
1602006090.602780,96.000000,0.000000,4132.307617,4125.128418,4124.102539,4127.692383,4121.025879,4121.025879,4119.487305,4134.871582,4135.897461,4136.410156,4138.974121,4144.102539,4142.051270,4150.769043,769.000000,4.000000,,,,0.000000,4.000000,4.000000,4.000000,4.000000,4.000000,4.000000,4.000000,4.000000,4.000000,4.000000,4.000000,4.000000,4.000000,4.000000,100.000000
1602006090.610662,97.000000,0.000000,4142.563965,4137.948730,4124.102539,4135.384766,4134.358887,4140.000000,4127.179688,4138.461426,4136.922852,4151.794922,4140.000000,4158.461426,4152.307617,4151.282227,747.000000,4.000000,,,,0.000000,4.000000,4.000000,4.000000,4.000000,4.000000,4.000000,4.000000,4.000000,4.000000,4.000000,4.000000,4.000000,4.000000,4.000000,100.000000
1602006090.618544,98.000000,0.000000,4142.051270,4139.487305,4127.179688,4138.974121,4137.948730,4146.666504,4127.692383,4138.974121,4138.974121,4158.974121,4146.666504,4157.948730,4163.589844,4156.410156,868.000000,4.000000,,,,0.000000,4.000000,4.000000,4.000000,4.000000,4.000000,4.000000,4.000000,4.000000,4.000000,4.000000,4.000000,4.000000,4.000000,4.000000,100.000000
1602006090.626427,99.000000,0.000000,4141.538574,4142.051270,4137.948730,4138.461426,4140.512695,4139.487305,4128.205078,4140.512695,4144.102539,4157.948730,4152.307617,4156.922852,4165.641113,4166.153809,846.000000,4.000000,,,,0.000000,4.000000,4.000000,4.000000,4.000000,4.000000,4.000000,4.000000,4.000000,4.000000,4.000000,4.000000,4.000000,4.000000,4.000000,100.000000
1602006090.634309,100.000000,0.000000,4143.589844,4145.128418,4138.974121,4135.897461,4144.102539,4136.410156,4129.230957,4140.512695,4140.512695,4154.358887,4144.615234,4156.410156,4160.512695,4166.153809,769.000000,4.000000,,,,0.000000,4.000000,4.000000,4.000000,4.000000,4.000000,4.000000,4.000000,4.000000,4.000000,4.000000,4.000000,4.000000,4.000000,4.000000,100.000000
1602006090.642191,101.000000,0.000000,4139.487305,4135.384766,4124.615234,4131.794922,4142.563965,4138.974121,4125.128418,4138.461426,4135.897461,4143.077148,4135.384766,4144.102539,4149.230957,4151.282227,747.000000,4.000000,,,,0.000000,4.000000,4.000000,4.000000,4.000000,4.000000,4.000000,4.000000,4.000000,4.000000,4.000000,4.000000,4.000000,4.000000,4.000000,100.000000
1602006090.650073,102.000000,0.000000,4129.230957,4124.102539,4109.743652,4128.717773,4138.974121,4136.922852,4122.051270,4133.333496,4131.794922,4134.358887,4134.871582,4133.333496,4138.974121,4136.922852,868.000000,4.000000,,,,0.000000,4.000000,4.000000,4.000000,4.000000,4.000000,4.000000,4.000000,4.000000,4.000000,4.000000,4.000000,4.000000,4.000000,4.000000,100.000000
1602006090.657955,103.000000,0.000000,4120.000000,4123.077148,4108.205078,4125.641113,4133.846191,4124.102539,4114.871582,4124.102539,4118.974121,4139.487305,4129.230957,4134.358887,4133.846191,4131.794922,846.000000,4.000000,,,,0.000000,4.000000,4.000000,4.000000,4.000000,4.000000,4.000000,4.000000,4.000000,4.000000,4.000000,4.000000,4.000000,4.000000,4.000000,100.000000
1602006090.665837,104.000000,0.000000,4120.000000,4122.563965,4118.461426,4122.563965,4126.666504,4115.897461,4108.205078,4118.974121,4107.692383,4132.307617,4120.512695,4134.358887,4129.743652,4135.384766,769.000000,4.000000,,,,0.000000,4.000000,4.000000,4.000000,4.000000,4.000000,4.000000,4.000000,4.000000,4.000000,4.000000,4.000000,4.000000,4.000000,4.000000,100.000000
1602006090.673719,105.000000,0.000000,4121.025879,4121.538574,4119.487305,4123.589844,4124.102539,4128.717773,4115.897461,4120.512695,4110.256348,4109.230957,4122.563965,4129.743652,4123.589844,4135.384766,747.000000,4.000000,,,,0.000000,4.000000,4.000000,4.000000,4.000000,4.000000,4.000000,4.000000,4.000000,4.000000,4.000000,4.000000,4.000000,4.000000,4.000000,100.000000
1602006090.681601,106.000000,0.000000,4114.358887,4118.974121,4111.282227,4122.051270,4125.641113,4140.000000,4127.692383,4119.487305,4115.897461,4115.384766,4124.615234,4127.179688,4118.974121,4124.102539,868.000000,4.000000,,,,0.000000,4.000000,4.000000,4.000000,4.000000,4.000000,4.000000,4.000000,4.000000,4.000000,4.000000,4.000000,4.000000,4.000000,4.000000,100.000000
1602006090.689482,107.000000,0.000000,4117.948730,4120.512695,4116.922852,4122.563965,4127.692383,4140.512695,4129.743652,4123.589844,4118.974121,4141.025879,4123.077148,4126.666504,4124.615234,4122.051270,846.000000,4.000000,,,,0.000000,4.000000,4.000000,4.000000,4.000000,4.000000,4.000000,4.000000,4.000000,4.000000,4.000000,4.000000,4.000000,4.000000,4.000000,100.000000
1602006090.697364,108.000000,0.000000,4128.205078,4130.256348,4122.563965,4132.307617,4137.948730,4141.538574,4131.794922,4137.436035,4130.256348,4142.051270,4131.282227,4129.230957,4136.410156,4136.410156,769.000000,4.000000,,,,0.000000,4.000000,4.000000,4.000000,4.000000,4.000000,4.000000,4.000000,4.000000,4.000000,4.000000,4.000000,4.000000,4.000000,4.000000,100.000000
1602006090.705246,109.000000,0.000000,4126.666504,4136.922852,4113.333496,4137.948730,4145.128418,4141.025879,4135.897461,4145.641113,4141.538574,4144.615234,4140.512695,4133.333496,4140.000000,4149.743652,747.000000,4.000000,,,,0.000000,4.000000,4.000000,4.000000,4.000000,4.000000,4.000000,4.000000,4.000000,4.000000,4.000000,4.000000,4.000000,4.000000,4.000000,100.000000
1602006090.713128,110.000000,0.000000,4128.717773,4138.461426,4113.846191,4136.922852,4141.538574,4136.922852,4131.794922,4145.641113,4143.589844,4162.051270,4137.436035,4142.563965,4139.487305,4151.282227,868.000000,4.000000,,,,0.000000,4.000000,4.000000,4.000000,4.000000,4.000000,4.000000,4.000000,4.000000,4.000000,4.000000,4.000000,4.000000,4.000000,4.000000,100.000000
1602006090.721110,111.000000,0.000000,4145.641113,4141.538574,4134.871582,4137.436035,4138.461426,4133.846191,4123.077148,4143.589844,4142.563965,4163.589844,4137.948730,4153.333496,4149.743652,4153.333496,846.000000,4.000000,,,,0.000000,4.000000,4.000000,4.000000,4.000000,4.000000,4.000000,4.000000,4.000000,4.000000,4.000000,4.000000,4.000000,4.000000,4.000000,100.000000
1602006090.728991,112.000000,0.000000,4153.333496,4145.128418,4145.641113,4141.025879,4137.948730,4129.743652,4112.820313,4135.384766,4136.922852,4156.410156,4143.077148,4151.282227,4153.333496,4159.487305,769.000000,4.000000,,,,0.000000,4.000000,4.000000,4.000000,4.000000,4.000000,4.000000,4.000000,4.000000,4.000000,4.000000,4.000000,4.000000,4.000000,4.000000,100.000000
1602006090.736873,113.000000,0.000000,4141.025879,4141.025879,4135.384766,4140.512695,4132.820313,4123.589844,4106.153809,4118.461426,4124.102539,4135.897461,4133.846191,4139.487305,4140.000000,4151.794922,747.000000,4.000000,,,,0.000000,4.000000,4.000000,4.000000,4.000000,4.000000,4.000000,4.000000,4.000000,4.000000,4.000000,4.000000,4.000000,4.000000,4.000000,100.000000
1602006090.744755,114.000000,0.000000,4128.205078,4133.333496,4122.563965,4132.307617,4122.051270,4127.692383,4110.769043,4109.743652,4111.794922,4105.641113,4123.589844,4135.384766,4134.871582,4138.974121,868.000000,4.000000,,,,0.000000,4.000000,4.000000,4.000000,4.000000,4.000000,4.000000,4.000000,4.000000,4.000000,4.000000,4.000000,4.000000,4.000000,4.000000,100.000000
1602006090.752636,115.000000,0.000000,4126.153809,4127.179688,4118.461426,4122.051270,4115.897461,4137.436035,4124.102539,4115.384766,4114.871582,4110.769043,4132.820313,4138.461426,4135.897461,4137.948730,846.000000,4.000000,,,,0.000000,4.000000,4.000000,4.000000,4.000000,4.000000,4.000000,4.000000,4.000000,4.000000,4.000000,4.000000,4.000000,4.000000,4.000000,100.000000
1602006090.760518,116.000000,0.000000,4117.436035,4115.897461,4113.846191,4115.897461,4117.436035,4141.538574,4136.410156,4124.102539,4121.538574,4137.436035,4140.512695,4138.974121,4127.179688,4136.922852,769.000000,4.000000,,,,0.000000,4.000000,4.000000,4.000000,4.000000,4.000000,4.000000,4.000000,4.000000,4.000000,4.000000,4.000000,4.000000,4.000000,4.000000,100.000000
1602006090.768300,117.000000,0.000000,4104.102539,4105.641113,4105.128418,4116.922852,4119.487305,4139.487305,4140.512695,4130.256348,4121.538574,4138.461426,4132.820313,4137.948730,4120.512695,4129.743652,747.000000,4.000000,,,,0.000000,4.000000,4.000000,4.000000,4.000000,4.000000,4.000000,4.000000,4.000000,4.000000,4.000000,4.000000,4.000000,4.000000,4.000000,100.000000
1602006090.776182,118.000000,0.000000,4108.205078,4109.230957,4109.230957,4118.461426,4123.589844,4137.436035,4138.461426,4137.436035,4126.153809,4135.897461,4130.769043,4138.974121,4121.538574,4132.307617,868.000000,4.000000,,,,0.000000,4.000000,4.000000,4.000000,4.000000,4.000000,4.000000,4.000000,4.000000,4.000000,4.000000,4.000000,4.000000,4.000000,4.000000,100.000000
1602006090.784064,119.000000,0.000000,4121.025879,4119.487305,4120.512695,4125.641113,4132.307617,4140.000000,4137.948730,4147.179688,4137.948730,4152.307617,4135.384766,4139.487305,4125.641113,4137.948730,846.000000,4.000000,,,,0.000000,4.000000,4.000000,4.000000,4.000000,4.000000,4.000000,4.000000,4.000000,4.000000,4.000000,4.000000,4.000000,4.000000,4.000000,100.000000
1602006090.791946,120.000000,0.000000,4125.641113,4124.615234,4127.179688,4134.871582,4137.948730,4140.000000,4139.487305,4153.846191,4148.205078,4159.487305,4137.436035,4145.128418,4135.384766,4142.563965,769.000000,4.000000,,,,0.000000,4.000000,4.000000,4.000000,4.000000,4.000000,4.000000,4.000000,4.000000,4.000000,4.000000,4.000000,4.000000,4.000000,4.000000,100.000000
1602006090.799827,121.000000,0.000000,4125.128418,4125.641113,4129.230957,4137.436035,4140.512695,4140.000000,4138.974121,4152.307617,4145.641113,4148.205078,4140.512695,4152.307617,4142.563965,4151.794922,747.000000,4.000000,,,,0.000000,4.000000,4.000000,4.000000,4.000000,4.000000,4.000000,4.000000,4.000000,4.000000,4.000000,4.000000,4.000000,4.000000,4.000000,100.000000
1602006090.807709,122.000000,0.000000,4131.794922,4126.666504,4131.282227,4136.410156,4142.563965,4141.025879,4133.846191,4142.051270,4132.820313,4135.897461,4140.512695,4154.871582,4136.922852,4150.256348,868.000000,4.000000,,,,0.000000,4.000000,4.000000,4.000000,4.000000,4.000000,4.000000,4.000000,4.000000,4.000000,4.000000,4.000000,4.000000,4.000000,4.000000,100.000000
1602006090.815591,123.000000,0.000000,4137.948730,4123.589844,4135.384766,4134.871582,4140.512695,4138.461426,4129.230957,4131.794922,4124.102539,4133.846191,4134.871582,4151.794922,4133.333496,4137.436035,846.000000,4.000000,,,,0.000000,4.000000,4.000000,4.000000,4.000000,4.000000,4.000000,4.000000,4.000000,4.000000,4.000000,4.000000,4.000000,4.000000,4.000000,100.000000
1602006090.823373,124.000000,0.000000,4134.358887,4122.563965,4137.948730,4131.282227,4132.307617,4143.589844,4131.282227,4128.717773,4120.000000,4137.436035,4134.871582,4146.153809,4135.897461,4133.333496,769.000000,4.000000,,,,0.000000,4.000000,4.000000,4.000000,4.000000,4.000000,4.000000,4.000000,4.000000,4.000000,4.000000,4.000000,4.000000,4.000000,4.000000,100.000000
1602006090.831255,125.000000,0.000000,4127.692383,4124.615234,4137.948730,4126.666504,4127.692383,4160.512695,4141.025879,4133.846191,4120.512695,4140.512695,4138.461426,4143.077148,4133.333496,4140.000000,747.000000,4.000000,,,,0.000000,4.000000,4.000000,4.000000,4.000000,4.000000,4.000000,4.000000,4.000000,4.000000,4.000000,4.000000,4.000000,4.000000,4.000000,100.000000
1602006090.839137,126.000000,0.000000,4126.666504,4121.538574,4128.205078,4124.102539,4127.692383,4164.615234,4150.256348,4137.948730,4129.743652,4146.153809,4132.820313,4141.538574,4128.717773,4142.051270,868.000000,4.000000,,,,0.000000,4.000000,4.000000,4.000000,4.000000,4.000000,4.000000,4.000000,4.000000,4.000000,4.000000,4.000000,4.000000,4.000000,4.000000,100.000000
1602006090.847019,127.000000,0.000000,4121.025879,4113.333496,4110.769043,4120.000000,4123.589844,4149.743652,4151.282227,4135.384766,4139.487305,4147.179688,4121.538574,4135.897461,4122.563965,4135.897461,846.000000,4.000000,,,,0.000000,4.000000,4.000000,4.000000,4.000000,4.000000,4.000000,4.000000,4.000000,4.000000,4.000000,4.000000,4.000000,4.000000,4.000000,100.000000
1602006090.854901,128.000000,0.000000,4117.436035,4113.846191,4104.102539,4120.000000,4125.128418,4142.051270,4146.153809,4142.051270,4136.922852,4135.384766,4122.051270,4131.794922,4123.077148,4135.384766,769.000000,4.000000,,,,0.000000,4.000000,4.000000,4.000000,4.000000,4.000000,4.000000,4.000000,4.000000,4.000000,4.000000,4.000000,4.000000,4.000000,4.000000,100.000000
1602006090.862783,0.000000,0.000000,4130.769043,4124.615234,4117.436035,4126.153809,4135.384766,4140.000000,4141.025879,4152.307617,4137.436035,4132.820313,4134.358887,4138.461426,4134.358887,4144.102539,802.000000,4.000000,,,,0.000000,4.000000,4.000000,4.000000,4.000000,4.000000,4.000000,4.000000,4.000000,4.000000,4.000000,4.000000,4.000000,4.000000,4.000000,100.000000
1602006090.870765,1.000000,0.000000,4135.897461,4134.358887,4126.153809,4131.794922,4138.461426,4127.179688,4132.307617,4145.128418,4144.615234,4140.000000,4143.077148,4144.615234,4137.948730,4142.563965,790.000000,4.000000,,,,0.000000,4.000000,4.000000,4.000000,4.000000,4.000000,4.000000,4.000000,4.000000,4.000000,4.000000,4.000000,4.000000,4.000000,4.000000,100.000000
1602006090.878647,2.000000,0.000000,4127.179688,4136.410156,4119.487305,4135.384766,4136.410156,4120.000000,4122.563965,4136.410156,4141.538574,4141.538574,4134.358887,4140.000000,4126.153809,4127.692383,850.000000,4.000000,,,,0.000000,4.000000,4.000000,4.000000,4.000000,4.000000,4.000000,4.000000,4.000000,4.000000,4.000000,4.000000,4.000000,4.000000,4.000000,100.000000
1602006090.886529,3.000000,0.000000,4132.820313,4137.948730,4116.922852,4136.922852,4137.948730,4130.256348,4119.487305,4140.000000,4135.897461,4140.512695,4123.589844,4134.358887,4122.563965,4130.256348,871.000000,4.000000,,,,0.000000,4.000000,4.000000,4.000000,4.000000,4.000000,4.000000,4.000000,4.000000,4.000000,4.000000,4.000000,4.000000,4.000000,4.000000,100.000000
1602006090.894412,4.000000,0.000000,4143.589844,4140.000000,4118.974121,4137.436035,4132.307617,4138.461426,4122.051270,4142.563965,4144.615234,4147.692383,4129.230957,4137.436035,4135.384766,4153.333496,814.000000,4.000000,,,,0.000000,4.000000,4.000000,4.000000,4.000000,4.000000,4.000000,4.000000,4.000000,4.000000,4.000000,4.000000,4.000000,4.000000,4.000000,100.000000
1602006090.902294,5.000000,0.000000,4141.538574,4136.922852,4118.974121,4131.794922,4129.230957,4136.922852,4122.563965,4141.538574,4154.871582,4158.461426,4140.512695,4144.615234,4142.051270,4157.948730,824.000000,4.000000,,,,0.000000,4.000000,4.000000,4.000000,4.000000,4.000000,4.000000,4.000000,4.000000,4.000000,4.000000,4.000000,4.000000,4.000000,4.000000,100.000000
1602006090.910177,6.000000,0.000000,4135.897461,4128.205078,4120.512695,4122.563965,4134.871582,4135.897461,4121.025879,4142.051270,4147.179688,4149.230957,4140.512695,4148.205078,4133.846191,4141.025879,773.000000,4.000000,,,,0.000000,4.000000,4.000000,4.000000,4.000000,4.000000,4.000000,4.000000,4.000000,4.000000,4.000000,4.000000,4.000000,4.000000,4.000000,100.000000
1602006090.918059,7.000000,0.000000,4129.743652,4123.589844,4122.051270,4122.051270,4133.846191,4137.948730,4124.615234,4139.487305,4135.384766,4125.128418,4133.333496,4149.743652,4124.102539,4136.410156,675.000000,4.000000,,,,0.000000,4.000000,4.000000,4.000000,4.000000,4.000000,4.000000,4.000000,4.000000,4.000000,4.000000,4.000000,4.000000,4.000000,4.000000,100.000000
1602006090.925941,8.000000,0.000000,4122.051270,4123.589844,4117.948730,4125.641113,4127.692383,4137.948730,4132.820313,4130.256348,4133.333496,4114.358887,4126.153809,4151.282227,4120.000000,4140.512695,789.000000,4.000000,,,,0.000000,4.000000,4.000000,4.000000,4.000000,4.000000,4.000000,4.000000,4.000000,4.000000,4.000000,4.000000,4.000000,4.000000,4.000000,100.000000
1602006090.933824,9.000000,0.000000,4124.615234,4120.000000,4113.846191,4121.538574,4124.615234,4137.436035,4137.436035,4122.563965,4134.871582,4123.589844,4124.102539,4151.794922,4125.128418,4141.538574,841.000000,4.000000,,,,0.000000,4.000000,4.000000,4.000000,4.000000,4.000000,4.000000,4.000000,4.000000,4.000000,4.000000,4.000000,4.000000,4.000000,4.000000,100.000000
1602006090.941605,10.000000,0.000000,4136.922852,4128.205078,4121.025879,4123.077148,4129.743652,4137.436035,4137.948730,4130.769043,4138.974121,4144.102539,4134.871582,4157.436035,4137.436035,4150.769043,870.000000,4.000000,,,,0.000000,4.000000,4.000000,4.000000,4.000000,4.000000,4.000000,4.000000,4.000000,4.000000,4.000000,4.000000,4.000000,4.000000,4.000000,100.000000
1602006090.949487,11.000000,0.000000,4142.051270,4142.563965,4130.769043,4132.307617,4136.410156,4140.000000,4143.077148,4141.538574,4144.615234,4156.410156,4138.974121,4162.051270,4142.563965,4153.333496,844.000000,4.000000,,,,0.000000,4.000000,4.000000,4.000000,4.000000,4.000000,4.000000,4.000000,4.000000,4.000000,4.000000,4.000000,4.000000,4.000000,4.000000,100.000000
1602006090.957368,12.000000,0.000000,4127.692383,4134.871582,4121.538574,4128.205078,4131.794922,4141.025879,4143.589844,4134.358887,4141.538574,4146.666504,4127.692383,4149.230957,4133.846191,4138.461426,769.000000,4.000000,,,,0.000000,4.000000,4.000000,4.000000,4.000000,4.000000,4.000000,4.000000,4.000000,4.000000,4.000000,4.000000,4.000000,4.000000,4.000000,100.000000
1602006090.965249,13.000000,0.000000,4116.410156,4121.025879,4107.692383,4120.512695,4123.077148,4139.487305,4134.358887,4127.692383,4143.077148,4133.333496,4123.077148,4136.922852,4130.256348,4131.794922,747.000000,4.000000,,,,0.000000,4.000000,4.000000,4.000000,4.000000,4.000000,4.000000,4.000000,4.000000,4.000000,4.000000,4.000000,4.000000,4.000000,4.000000,100.000000
1602006090.973031,14.000000,0.000000,4130.256348,4129.230957,4112.307617,4124.615234,4128.717773,4138.974121,4126.153809,4136.410156,4155.384766,4135.384766,4125.128418,4146.153809,4137.436035,4137.948730,870.000000,4.000000,,,,0.000000,4.000000,4.000000,4.000000,4.000000,4.000000,4.000000,4.000000,4.000000,4.000000,4.000000,4.000000,4.000000,4.000000,4.000000,100.000000
1602006090.980912,15.000000,0.000000,4148.717773,4139.487305,4128.717773,4130.769043,4137.948730,4131.794922,4124.102539,4142.051270,4154.871582,4138.461426,4129.230957,4155.384766,4139.487305,4135.897461,844.000000,4.000000,,,,0.000000,4.000000,4.000000,4.000000,4.000000,4.000000,4.000000,4.000000,4.000000,4.000000,4.000000,4.000000,4.000000,4.000000,4.000000,100.000000
1602006090.988793,16.000000,0.000000,4150.769043,4135.897461,4137.436035,4131.794922,4135.384766,4121.025879,4120.512695,4139.487305,4138.461426,4125.641113,4134.871582,4153.333496,4137.948730,4137.948730,0.000000,4.000000,,,,0.000000,4.000000,4.000000,4.000000,4.000000,4.000000,4.000000,4.000000,4.000000,4.000000,4.000000,4.000000,4.000000,4.000000,4.000000,100.000000
1602006090.996574,17.000000,0.000000,4153.333496,4136.922852,4139.487305,4136.922852,4129.743652,4117.948730,4116.922852,4138.974121,4134.871582,4117.436035,4140.512695,4154.871582,4141.538574,4152.307617,0.000000,4.000000,,,,0.000000,4.000000,4.000000,4.000000,4.000000,4.000000,4.000000,4.000000,4.000000,4.000000,4.000000,4.000000,4.000000,4.000000,4.000000,100.000000
