Timestamp,EEG.Counter,EEG.Interpolated,EEG.AF3,EEG.F7,EEG.F3,EEG.FC5,EEG.T7,EEG.P7,EEG.O1,EEG.O2,EEG.P8,EEG.T8,EEG.FC6,EEG.F4,EEG.F8,EEG.AF4,EEG.RawCq,EEG.Battery,MarkerIndex,MarkerType,MarkerValueInt,EEG.MarkerHardware,CQ.AF3,CQ.F7,CQ.F3,CQ.FC5,CQ.T7,CQ.P7,CQ.O1,CQ.O2,CQ.P8,CQ.T8,CQ.FC6,CQ.F4,CQ.F8,CQ.AF4,CQ.Overall
1602006102.850647,102.000000,0.000000,4115.384766,4126.153809,4115.384766,4120.000000,4118.461426,4123.077148,4121.025879,4120.000000,4106.666504,4074.358887,4092.307617,4106.666504,4071.794922,4081.025635,871.000000,4.000000,,,,0.000000,4.000000,4.000000,4.000000,4.000000,4.000000,4.000000,4.000000,4.000000,4.000000,4.000000,4.000000,4.000000,4.000000,4.000000,100.000000
1602006102.858429,103.000000,0.000000,4125.641113,4126.666504,4116.922852,4120.000000,4118.974121,4123.077148,4124.615234,4121.538574,4106.666504,4090.769287,4085.641113,4102.051270,4064.615479,4073.333252,839.000000,4.000000,,,,0.000000,4.000000,4.000000,4.000000,4.000000,4.000000,4.000000,4.000000,4.000000,4.000000,4.000000,4.000000,4.000000,4.000000,4.000000,100.000000
1602006102.866312,104.000000,0.000000,4130.256348,4126.666504,4128.205078,4120.000000,4120.000000,4125.641113,4127.692383,4123.589844,4115.384766,4112.820313,4096.410156,4111.794922,4075.897461,4086.153809,770.000000,4.000000,,,,0.000000,4.000000,4.000000,4.000000,4.000000,4.000000,4.000000,4.000000,4.000000,4.000000,4.000000,4.000000,4.000000,4.000000,4.000000,100.000000
1602006102.874194,105.000000,0.000000,4122.563965,4124.102539,4135.897461,4119.487305,4115.384766,4121.025879,4123.589844,4124.102539,4119.487305,4114.871582,4105.128418,4120.512695,4077.948730,4090.256348,747.000000,4.000000,,,,0.000000,4.000000,4.000000,4.000000,4.000000,4.000000,4.000000,4.000000,4.000000,4.000000,4.000000,4.000000,4.000000,4.000000,4.000000,100.000000
1602006102.882076,106.000000,0.000000,4131.282227,4129.743652,4138.974121,4120.512695,4119.487305,4111.282227,4120.512695,4124.102539,4115.897461,4110.256348,4104.615234,4122.563965,4076.923096,4092.820557,871.000000,4.000000,,,,0.000000,4.000000,4.000000,4.000000,4.000000,4.000000,4.000000,4.000000,4.000000,4.000000,4.000000,4.000000,4.000000,4.000000,4.000000,100.000000
1602006102.889959,107.000000,0.000000,4143.589844,4137.436035,4140.512695,4121.538574,4122.563965,4103.589844,4120.000000,4122.563965,4110.769043,4109.230957,4105.128418,4130.256348,4088.205078,4102.051270,839.000000,4.000000,,,,0.000000,4.000000,4.000000,4.000000,4.000000,4.000000,4.000000,4.000000,4.000000,4.000000,4.000000,4.000000,4.000000,4.000000,4.000000,100.000000
1602006102.897841,108.000000,0.000000,4147.692383,4137.948730,4143.589844,4126.666504,4114.358887,4102.563965,4120.000000,4119.487305,4106.666504,4104.615234,4112.820313,4141.538574,4097.948730,4103.589844,770.000000,4.000000,,,,0.000000,4.000000,4.000000,4.000000,4.000000,4.000000,4.000000,4.000000,4.000000,4.000000,4.000000,4.000000,4.000000,4.000000,4.000000,100.000000
1602006102.905723,109.000000,0.000000,4154.358887,4138.974121,4153.333496,4138.974121,4114.358887,4110.256348,4122.563965,4118.461426,4107.179688,4095.384521,4115.384766,4144.102539,4095.384521,4110.256348,747.000000,4.000000,,,,0.000000,4.000000,4.000000,4.000000,4.000000,4.000000,4.000000,4.000000,4.000000,4.000000,4.000000,4.000000,4.000000,4.000000,4.000000,100.000000
1602006102.913606,110.000000,0.000000,4151.794922,4143.077148,4154.871582,4144.102539,4124.102539,4120.512695,4127.179688,4121.025879,4117.948730,4097.948730,4110.769043,4143.077148,4090.256348,4123.589844,871.000000,4.000000,,,,0.000000,4.000000,4.000000,4.000000,4.000000,4.000000,4.000000,4.000000,4.000000,4.000000,4.000000,4.000000,4.000000,4.000000,4.000000,100.000000
1602006102.921488,111.000000,0.000000,4137.436035,4142.051270,4135.384766,4133.333496,4124.102539,4122.563965,4127.692383,4120.512695,4121.538574,4113.846191,4107.692383,4135.384766,4082.051270,4113.846191,839.000000,4.000000,,,,0.000000,4.000000,4.000000,4.000000,4.000000,4.000000,4.000000,4.000000,4.000000,4.000000,4.000000,4.000000,4.000000,4.000000,4.000000,100.000000
1602006102.929270,112.000000,0.000000,4118.461426,4129.743652,4111.794922,4120.512695,4119.487305,4118.974121,4124.102539,4114.358887,4104.102539,4110.769043,4097.948730,4113.846191,4065.641113,4083.589844,770.000000,4.000000,,,,0.000000,4.000000,4.000000,4.000000,4.000000,4.000000,4.000000,4.000000,4.000000,4.000000,4.000000,4.000000,4.000000,4.000000,4.000000,100.000000
1602006102.937152,113.000000,0.000000,4107.179688,4120.512695,4104.102539,4118.461426,4122.051270,4122.563965,4124.615234,4112.820313,4093.846191,4101.538574,4088.718018,4100.000000,4059.487061,4074.871826,747.000000,4.000000,,,,0.000000,4.000000,4.000000,4.000000,4.000000,4.000000,4.000000,4.000000,4.000000,4.000000,4.000000,4.000000,4.000000,4.000000,4.000000,100.000000
1602006102.945035,114.000000,0.000000,4111.282227,4129.230957,4106.666504,4123.589844,4125.128418,4128.205078,4129.230957,4120.512695,4104.102539,4100.512695,4096.922852,4106.153809,4073.333252,4085.641113,871.000000,4.000000,,,,0.000000,4.000000,4.000000,4.000000,4.000000,4.000000,4.000000,4.000000,4.000000,4.000000,4.000000,4.000000,4.000000,4.000000,4.000000,100.000000
1602006102.952917,115.000000,0.000000,4120.512695,4138.461426,4103.589844,4129.743652,4132.307617,4125.128418,4125.641113,4125.128418,4107.179688,4094.358887,4103.589844,4109.743652,4087.179443,4090.256348,839.000000,4.000000,,,,0.000000,4.000000,4.000000,4.000000,4.000000,4.000000,4.000000,4.000000,4.000000,4.000000,4.000000,4.000000,4.000000,4.000000,4.000000,100.000000
1602006102.960799,116.000000,0.000000,4128.205078,4141.025879,4096.410156,4134.358887,4134.871582,4119.487305,4115.897461,4121.025879,4107.179688,4092.820557,4100.000000,4100.000000,4091.281982,4099.487305,770.000000,4.000000,,,,0.000000,4.000000,4.000000,4.000000,4.000000,4.000000,4.000000,4.000000,4.000000,4.000000,4.000000,4.000000,4.000000,4.000000,4.000000,100.000000
1602006102.968681,117.000000,0.000000,4135.897461,4148.205078,4098.974121,4136.922852,4129.743652,4121.025879,4116.922852,4121.538574,4117.948730,4102.563965,4110.769043,4091.281982,4099.487305,4107.179688,747.000000,4.000000,,,,0.000000,4.000000,4.000000,4.000000,4.000000,4.000000,4.000000,4.000000,4.000000,4.000000,4.000000,4.000000,4.000000,4.000000,4.000000,100.000000
1602006102.976563,118.000000,0.000000,4140.000000,4155.897461,4104.102539,4139.487305,4131.282227,4124.615234,4122.563965,4123.589844,4125.641113,4121.538574,4127.179688,4091.281982,4108.205078,4099.487305,871.000000,4.000000,,,,0.000000,4.000000,4.000000,4.000000,4.000000,4.000000,4.000000,4.000000,4.000000,4.000000,4.000000,4.000000,4.000000,4.000000,4.000000,100.000000
1602006102.984445,119.000000,0.000000,4142.563965,4162.563965,4104.615234,4147.179688,4139.487305,4127.179688,4121.025879,4121.538574,4131.282227,4144.102539,4124.615234,4097.948730,4115.384766,4098.461426,839.000000,4.000000,,,,0.000000,4.000000,4.000000,4.000000,4.000000,4.000000,4.000000,4.000000,4.000000,4.000000,4.000000,4.000000,4.000000,4.000000,4.000000,100.000000
1602006102.992427,120.000000,0.000000,4144.102539,4172.820313,4114.871582,4155.384766,4148.205078,4128.717773,4118.461426,4122.051270,4139.487305,4154.358887,4121.538574,4105.641113,4121.538574,4112.820313,770.000000,4.000000,,,,0.000000,4.000000,4.000000,4.000000,4.000000,4.000000,4.000000,4.000000,4.000000,4.000000,4.000000,4.000000,4.000000,4.000000,4.000000,100.000000
1602006103.000308,121.000000,0.000000,4134.871582,4168.717773,4124.102539,4152.307617,4150.769043,4128.717773,4118.461426,4118.974121,4133.333496,4137.948730,4122.051270,4106.153809,4116.922852,4109.230957,747.000000,4.000000,,,,0.000000,4.000000,4.000000,4.000000,4.000000,4.000000,4.000000,4.000000,4.000000,4.000000,4.000000,4.000000,4.000000,4.000000,4.000000,100.000000
1602006103.008190,122.000000,0.000000,4116.922852,4147.179688,4115.384766,4138.974121,4144.102539,4122.563965,4114.358887,4111.282227,4118.461426,4125.641113,4112.307617,4107.179688,4104.102539,4089.743652,871.000000,4.000000,,,,0.000000,4.000000,4.000000,4.000000,4.000000,4.000000,4.000000,4.000000,4.000000,4.000000,4.000000,4.000000,4.000000,4.000000,4.000000,100.000000
1602006103.016072,123.000000,0.000000,4107.692383,4137.436035,4112.820313,4129.230957,4135.897461,4115.897461,4110.256348,4103.589844,4104.615234,4119.487305,4107.179688,4118.974121,4098.974121,4087.179443,839.000000,4.000000,,,,0.000000,4.000000,4.000000,4.000000,4.000000,4.000000,4.000000,4.000000,4.000000,4.000000,4.000000,4.000000,4.000000,4.000000,4.000000,100.000000
1602006103.023953,124.000000,0.000000,4105.128418,4134.358887,4122.563965,4126.153809,4131.282227,4114.871582,4110.256348,4097.436035,4085.641113,4091.281982,4108.717773,4122.563965,4093.333252,4085.641113,770.000000,4.000000,,,,0.000000,4.000000,4.000000,4.000000,4.000000,4.000000,4.000000,4.000000,4.000000,4.000000,4.000000,4.000000,4.000000,4.000000,4.000000,100.000000
1602006103.031835,125.000000,0.000000,4104.102539,4123.589844,4121.538574,4123.589844,4124.102539,4118.974121,4114.358887,4102.563965,4077.948730,4082.051270,4102.563965,4111.794922,4084.102539,4071.794922,747.000000,4.000000,,,,0.000000,4.000000,4.000000,4.000000,4.000000,4.000000,4.000000,4.000000,4.000000,4.000000,4.000000,4.000000,4.000000,4.000000,4.000000,100.000000
1602006103.039617,126.000000,0.000000,4106.666504,4124.615234,4117.948730,4122.563965,4120.000000,4123.589844,4120.512695,4118.461426,4094.358887,4111.282227,4105.128418,4114.871582,4086.666748,4074.358887,871.000000,4.000000,,,,0.000000,4.000000,4.000000,4.000000,4.000000,4.000000,4.000000,4.000000,4.000000,4.000000,4.000000,4.000000,4.000000,4.000000,4.000000,100.000000
1602006103.047499,127.000000,0.000000,4113.846191,4137.436035,4122.563965,4123.589844,4124.102539,4124.102539,4124.615234,4128.717773,4115.897461,4138.461426,4117.948730,4122.563965,4095.897461,4090.256348,839.000000,4.000000,,,,0.000000,4.000000,4.000000,4.000000,4.000000,4.000000,4.000000,4.000000,4.000000,4.000000,4.000000,4.000000,4.000000,4.000000,4.000000,100.000000
1602006103.055381,128.000000,0.000000,4121.025879,4140.000000,4121.538574,4129.230957,4121.025879,4124.102539,4123.077148,4132.307617,4128.717773,4142.563965,4119.487305,4111.282227,4100.512695,4093.846191,770.000000,4.000000,,,,0.000000,4.000000,4.000000,4.000000,4.000000,4.000000,4.000000,4.000000,4.000000,4.000000,4.000000,4.000000,4.000000,4.000000,4.000000,100.000000
1602006103.063263,0.000000,0.000000,4128.205078,4135.897461,4119.487305,4134.358887,4118.461426,4130.769043,4121.025879,4137.948730,4136.410156,4143.077148,4115.384766,4104.102539,4105.128418,4093.333252,795.000000,4.000000,,,,0.000000,4.000000,4.000000,4.000000,4.000000,4.000000,4.000000,4.000000,4.000000,4.000000,4.000000,4.000000,4.000000,4.000000,4.000000,100.000000
1602006103.071146,1.000000,0.000000,4137.436035,4145.128418,4123.589844,4135.897461,4122.051270,4140.000000,4126.153809,4140.000000,4143.077148,4141.025879,4122.563965,4108.717773,4113.846191,4108.205078,795.000000,4.000000,,,,0.000000,4.000000,4.000000,4.000000,4.000000,4.000000,4.000000,4.000000,4.000000,4.000000,4.000000,4.000000,4.000000,4.000000,4.000000,100.000000
1602006103.079028,2.000000,0.000000,4140.000000,4154.871582,4127.179688,4137.948730,4126.666504,4142.563965,4137.436035,4138.461426,4145.128418,4136.922852,4129.743652,4112.820313,4123.077148,4125.128418,850.000000,4.000000,,,,0.000000,4.000000,4.000000,4.000000,4.000000,4.000000,4.000000,4.000000,4.000000,4.000000,4.000000,4.000000,4.000000,4.000000,4.000000,100.000000
1602006103.086910,3.000000,0.000000,4135.384766,4149.230957,4128.717773,4133.333496,4133.846191,4142.051270,4137.436035,4137.948730,4145.128418,4140.512695,4126.666504,4116.922852,4124.102539,4128.717773,870.000000,4.000000,,,,0.000000,4.000000,4.000000,4.000000,4.000000,4.000000,4.000000,4.000000,4.000000,4.000000,4.000000,4.000000,4.000000,4.000000,4.000000,100.000000
1602006103.094792,4.000000,0.000000,4134.871582,4139.487305,4125.641113,4123.077148,4136.410156,4140.000000,4125.128418,4133.333496,4141.025879,4132.307617,4121.025879,4122.563965,4115.384766,4117.436035,808.000000,4.000000,,,,0.000000,4.000000,4.000000,4.000000,4.000000,4.000000,4.000000,4.000000,4.000000,4.000000,4.000000,4.000000,4.000000,4.000000,4.000000,100.000000
1602006103.102674,5.000000,0.000000,4138.461426,4136.922852,4122.563965,4122.051270,4128.717773,4131.282227,4120.512695,4123.589844,4128.205078,4112.820313,4123.077148,4124.102539,4106.153809,4110.256348,827.000000,4.000000,,,,0.000000,4.000000,4.000000,4.000000,4.000000,4.000000,4.000000,4.000000,4.000000,4.000000,4.000000,4.000000,4.000000,4.000000,4.000000,100.000000
1602006103.110456,6.000000,0.000000,4137.948730,4135.897461,4124.615234,4124.615234,4120.512695,4122.051270,4121.538574,4112.820313,4108.717773,4094.358887,4124.102539,4124.102539,4102.051270,4110.256348,779.000000,4.000000,,,,0.000000,4.000000,4.000000,4.000000,4.000000,4.000000,4.000000,4.000000,4.000000,4.000000,4.000000,4.000000,4.000000,4.000000,4.000000,100.000000
1602006103.118338,7.000000,0.000000,4133.846191,4133.846191,4123.077148,4123.589844,4125.641113,4120.000000,4118.974121,4111.282227,4093.846191,4088.205078,4119.487305,4122.563965,4100.512695,4100.000000,680.000000,4.000000,,,,0.000000,4.000000,4.000000,4.000000,4.000000,4.000000,4.000000,4.000000,4.000000,4.000000,4.000000,4.000000,4.000000,4.000000,4.000000,100.000000
1602006103.126220,8.000000,0.000000,4133.846191,4133.846191,4124.102539,4129.230957,4136.410156,4120.512695,4117.948730,4118.461426,4092.820557,4101.538574,4119.487305,4123.589844,4101.538574,4091.281982,785.000000,4.000000,,,,0.000000,4.000000,4.000000,4.000000,4.000000,4.000000,4.000000,4.000000,4.000000,4.000000,4.000000,4.000000,4.000000,4.000000,4.000000,100.000000
1602006103.134102,9.000000,0.000000,4138.974121,4141.538574,4133.846191,4140.512695,4138.974121,4120.000000,4119.487305,4126.153809,4097.948730,4124.615234,4127.179688,4121.538574,4109.743652,4102.051270,841.000000,4.000000,,,,0.000000,4.000000,4.000000,4.000000,4.000000,4.000000,4.000000,4.000000,4.000000,4.000000,4.000000,4.000000,4.000000,4.000000,4.000000,100.000000
1602006103.141984,10.000000,0.000000,4140.512695,4151.282227,4133.333496,4141.025879,4137.436035,4125.128418,4121.025879,4128.717773,4106.153809,4143.589844,4127.179688,4108.205078,4120.000000,4103.589844,871.000000,4.000000,,,,0.000000,4.000000,4.000000,4.000000,4.000000,4.000000,4.000000,4.000000,4.000000,4.000000,4.000000,4.000000,4.000000,4.000000,4.000000,100.000000
1602006103.149865,11.000000,0.000000,4143.077148,4153.333496,4126.666504,4137.436035,4135.384766,4134.871582,4123.077148,4135.897461,4125.128418,4159.487305,4120.000000,4105.128418,4124.615234,4095.897461,839.000000,4.000000,,,,0.000000,4.000000,4.000000,4.000000,4.000000,4.000000,4.000000,4.000000,4.000000,4.000000,4.000000,4.000000,4.000000,4.000000,4.000000,100.000000
1602006103.157747,12.000000,0.000000,4153.846191,4153.846191,4134.871582,4141.538574,4136.922852,4137.948730,4131.794922,4150.769043,4150.769043,4171.282227,4130.256348,4125.128418,4132.307617,4112.307617,770.000000,4.000000,,,,0.000000,4.000000,4.000000,4.000000,4.000000,4.000000,4.000000,4.000000,4.000000,4.000000,4.000000,4.000000,4.000000,4.000000,4.000000,100.000000
1602006103.165530,13.000000,0.000000,4159.487305,4158.974121,4145.128418,4145.128418,4138.974121,4138.974121,4139.487305,4160.512695,4169.743652,4175.384766,4152.820313,4143.589844,4143.589844,4138.461426,747.000000,4.000000,,,,0.000000,4.000000,4.000000,4.000000,4.000000,4.000000,4.000000,4.000000,4.000000,4.000000,4.000000,4.000000,4.000000,4.000000,4.000000,100.000000
1602006103.173412,14.000000,0.000000,4158.461426,4155.897461,4142.051270,4141.025879,4135.897461,4140.512695,4139.487305,4154.871582,4172.307617,4176.410156,4155.897461,4145.641113,4145.641113,4142.051270,871.000000,4.000000,,,,0.000000,4.000000,4.000000,4.000000,4.000000,4.000000,4.000000,4.000000,4.000000,4.000000,4.000000,4.000000,4.000000,4.000000,4.000000,100.000000
1602006103.181294,15.000000,0.000000,4155.384766,4142.051270,4135.897461,4135.897461,4131.794922,4134.358887,4137.436035,4143.077148,4160.512695,4156.922852,4140.000000,4143.077148,4134.358887,4125.641113,839.000000,4.000000,,,,0.000000,4.000000,4.000000,4.000000,4.000000,4.000000,4.000000,4.000000,4.000000,4.000000,4.000000,4.000000,4.000000,4.000000,4.000000,100.000000
1602006103.189177,16.000000,0.000000,4146.153809,4134.358887,4131.282227,4129.743652,4133.846191,4129.743652,4135.384766,4139.487305,4143.589844,4123.077148,4124.615234,4138.974121,4115.897461,4107.692383,0.000000,4.000000,,,,0.000000,4.000000,4.000000,4.000000,4.000000,4.000000,4.000000,4.000000,4.000000,4.000000,4.000000,4.000000,4.000000,4.000000,4.000000,100.000000
1602006103.197059,17.000000,0.000000,4130.256348,4129.743652,4124.102539,4123.589844,4138.461426,4132.820313,4131.282227,4131.282227,4125.641113,4105.128418,4107.179688,4128.717773,4093.846191,4094.358887,0.000000,4.000000,,,,0.000000,4.000000,4.000000,4.000000,4.000000,4.000000,4.000000,4.000000,4.000000,4.000000,4.000000,4.000000,4.000000,4.000000,4.000000,100.000000
1602006103.204942,18.000000,0.000000,4121.538574,4120.512695,4118.461426,4119.487305,4133.333496,4126.666504,4123.589844,4113.846191,4102.051270,4090.769287,4088.718018,4113.846191,4072.820557,4081.538574,0.000000,4.000000,,,,0.000000,4.000000,4.000000,4.000000,4.000000,4.000000,4.000000,4.000000,4.000000,4.000000,4.000000,4.000000,4.000000,4.000000,4.000000,100.000000
1602006103.212824,19.000000,0.000000,4126.666504,4121.538574,4116.410156,4119.487305,4125.641113,4112.307617,4112.307617,4102.051270,4083.076904,4066.153809,4082.564209,4105.128418,4064.102539,4081.025635,0.000000,4.000000,,,,0.000000,4.000000,4.000000,4.000000,4.000000,4.000000,4.000000,4.000000,4.000000,4.000000,4.000000,4.000000,4.000000,4.000000,4.000000,100.000000
1602006103.220706,20.000000,0.000000,4138.461426,4136.410156,4118.974121,4126.666504,4129.230957,4111.794922,4108.205078,4101.538574,4085.641113,4059.487061,4090.769287,4108.205078,4074.871826,4091.794922,0.000000,4.000000,,,,0.000000,4.000000,4.000000,4.000000,4.000000,4.000000,4.000000,4.000000,4.000000,4.000000,4.000000,4.000000,4.000000,4.000000,4.000000,100.000000
1602006103.228589,21.000000,0.000000,4146.153809,4144.615234,4128.205078,4136.922852,4137.948730,4119.487305,4116.410156,4109.743652,4098.974121,4073.846191,4107.179688,4116.410156,4093.846191,4091.281982,0.000000,4.000000,,,,0.000000,4.000000,4.000000,4.000000,4.000000,4.000000,4.000000,4.000000,4.000000,4.000000,4.000000,4.000000,4.000000,4.000000,4.000000,100.000000
1602006103.236569,22.000000,0.000000,4145.641113,4142.563965,4137.436035,4139.487305,4133.333496,4121.538574,4122.051270,4118.461426,4112.307617,4093.333252,4120.000000,4123.589844,4106.666504,4094.358887,0.000000,4.000000,,,,0.000000,4.000000,4.000000,4.000000,4.000000,4.000000,4.000000,4.000000,4.000000,4.000000,4.000000,4.000000,4.000000,4.000000,4.000000,100.000000
1602006103.244450,23.000000,0.000000,4142.563965,4145.128418,4133.333496,4137.436035,4126.153809,4124.102539,4127.179688,4123.077148,4130.769043,4113.333496,4126.153809,4135.897461,4117.436035,4120.000000,0.000000,4.000000,,,,0.000000,4.000000,4.000000,4.000000,4.000000,4.000000,4.000000,4.000000,4.000000,4.000000,4.000000,4.000000,4.000000,4.000000,4.000000,100.000000
1602006103.252432,24.000000,0.000000,4140.512695,4147.179688,4127.179688,4138.461426,4132.820313,4129.743652,4136.410156,4130.769043,4143.589844,4127.179688,4132.820313,4148.205078,4127.179688,4130.256348,0.000000,4.000000,,,,0.000000,4.000000,4.000000,4.000000,4.000000,4.000000,4.000000,4.000000,4.000000,4.000000,4.000000,4.000000,4.000000,4.000000,4.000000,100.000000
1602006103.260314,25.000000,0.000000,4139.487305,4141.025879,4133.333496,4136.410156,4138.974121,4135.897461,4139.487305,4139.487305,4149.230957,4141.538574,4140.000000,4155.897461,4133.846191,4118.974121,0.000000,4.000000,,,,0.000000,4.000000,4.000000,4.000000,4.000000,4.000000,4.000000,4.000000,4.000000,4.000000,4.000000,4.000000,4.000000,4.000000,4.000000,100.000000
1602006103.268195,26.000000,0.000000,4145.641113,4140.512695,4140.000000,4134.871582,4136.922852,4139.487305,4138.461426,4142.051270,4163.077148,4157.436035,4144.615234,4163.589844,4142.051270,4130.256348,0.000000,4.000000,,,,0.000000,4.000000,4.000000,4.000000,4.000000,4.000000,4.000000,4.000000,4.000000,4.000000,4.000000,4.000000,4.000000,4.000000,4.000000,100.000000
1602006103.276077,27.000000,0.000000,4150.256348,4147.692383,4136.922852,4137.948730,4138.461426,4138.974121,4141.025879,4143.589844,4171.794922,4162.563965,4146.666504,4166.153809,4146.153809,4144.615234,0.000000,4.000000,,,,0.000000,4.000000,4.000000,4.000000,4.000000,4.000000,4.000000,4.000000,4.000000,4.000000,4.000000,4.000000,4.000000,4.000000,4.000000,100.000000
1602006103.283958,28.000000,0.000000,4146.153809,4152.307617,4135.384766,4140.000000,4147.179688,4138.461426,4138.974121,4140.512695,4157.948730,4150.769043,4140.000000,4154.871582,4137.436035,4131.282227,0.000000,4.000000,,,,0.000000,4.000000,4.000000,4.000000,4.000000,4.000000,4.000000,4.000000,4.000000,4.000000,4.000000,4.000000,4.000000,4.000000,4.000000,100.000000
1602006103.291840,29.000000,0.000000,4143.589844,4152.307617,4136.922852,4140.000000,4151.794922,4139.487305,4131.282227,4126.666504,4137.948730,4118.974121,4121.538574,4143.077148,4125.641113,4118.974121,0.000000,4.000000,,,,0.000000,4.000000,4.000000,4.000000,4.000000,4.000000,4.000000,4.000000,4.000000,4.000000,4.000000,4.000000,4.000000,4.000000,4.000000,100.000000
1602006103.299622,30.000000,0.000000,4150.769043,4153.333496,4136.410156,4140.512695,4151.282227,4137.436035,4124.102539,4113.846191,4125.641113,4089.743652,4107.179688,4138.974121,4115.384766,4115.384766,0.000000,4.000000,,,,0.000000,4.000000,4.000000,4.000000,4.000000,4.000000,4.000000,4.000000,4.000000,4.000000,4.000000,4.000000,4.000000,4.000000,4.000000,100.000000
1602006103.307504,31.000000,0.000000,4154.358887,4154.871582,4136.410156,4140.512695,4151.282227,4129.230957,4114.358887,4107.692383,4114.871582,4097.436035,4110.769043,4140.000000,4106.153809,4107.179688,0.000000,4.000000,,,,0.000000,4.000000,4.000000,4.000000,4.000000,4.000000,4.000000,4.000000,4.000000,4.000000,4.000000,4.000000,4.000000,4.000000,4.000000,100.000000
1602006103.315387,32.000000,0.000000,4145.641113,4149.230957,4136.410156,4138.974121,4149.743652,4122.563965,4112.820313,4104.615234,4115.384766,4127.692383,4123.077148,4147.692383,4111.794922,4110.256348,0.000000,4.000000,,,,0.000000,4.000000,4.000000,4.000000,4.000000,4.000000,4.000000,4.000000,4.000000,4.000000,4.000000,4.000000,4.000000,4.000000,4.000000,100.000000
1602006103.323269,33.000000,0.000000,4135.897461,4140.000000,4135.897461,4137.948730,4145.128418,4122.051270,4117.436035,4110.769043,4122.563965,4135.384766,4126.153809,4154.871582,4124.102539,4122.563965,0.000000,4.000000,,,,0.000000,4.000000,4.000000,4.000000,4.000000,4.000000,4.000000,4.000000,4.000000,4.000000,4.000000,4.000000,4.000000,4.000000,4.000000,100.000000
1602006103.331151,34.000000,0.000000,4141.538574,4144.102539,4136.410156,4137.948730,4139.487305,4118.461426,4115.384766,4119.487305,4123.589844,4120.512695,4122.051270,4153.333496,4122.563965,4122.563965,0.000000,4.000000,,,,0.000000,4.000000,4.000000,4.000000,4.000000,4.000000,4.000000,4.000000,4.000000,4.000000,4.000000,4.000000,4.000000,4.000000,4.000000,100.000000
1602006103.339033,35.000000,0.000000,4157.948730,4155.384766,4139.487305,4138.974121,4137.948730,4115.897461,4113.846191,4122.563965,4130.256348,4120.512695,4126.666504,4153.846191,4118.974121,4124.102539,0.000000,4.000000,,,,0.000000,4.000000,4.000000,4.000000,4.000000,4.000000,4.000000,4.000000,4.000000,4.000000,4.000000,4.000000,4.000000,4.000000,4.000000,100.000000
1602006103.346915,36.000000,0.000000,4157.436035,4151.282227,4144.102539,4140.000000,4140.000000,4120.512695,4119.487305,4124.102539,4141.538574,4130.769043,4127.692383,4157.436035,4127.179688,4127.179688,0.000000,4.000000,,,,0.000000,4.000000,4.000000,4.000000,4.000000,4.000000,4.000000,4.000000,4.000000,4.000000,4.000000,4.000000,4.000000,4.000000,4.000000,100.000000
1602006103.354797,37.000000,0.000000,4138.974121,4138.974121,4138.974121,4132.820313,4140.512695,4121.538574,4122.051270,4123.077148,4135.897461,4114.358887,4112.820313,4149.230957,4123.589844,4119.487305,0.000000,4.000000,,,,0.000000,4.000000,4.000000,4.000000,4.000000,4.000000,4.000000,4.000000,4.000000,4.000000,4.000000,4.000000,4.000000,4.000000,4.000000,100.000000
1602006103.362579,38.000000,0.000000,4131.794922,4134.871582,4124.102539,4122.563965,4137.948730,4118.974121,4118.974121,4116.410156,4120.000000,4094.871826,4104.102539,4136.410156,4108.205078,4114.871582,0.000000,4.000000,,,,0.000000,4.000000,4.000000,4.000000,4.000000,4.000000,4.000000,4.000000,4.000000,4.000000,4.000000,4.000000,4.000000,4.000000,4.000000,100.000000
1602006103.370461,39.000000,0.000000,4140.512695,4137.436035,4119.487305,4123.589844,4140.000000,4122.563965,4117.948730,4110.769043,4116.922852,4110.769043,4106.666504,4134.871582,4105.128418,4114.358887,0.000000,4.000000,,,,0.000000,4.000000,4.000000,4.000000,4.000000,4.000000,4.000000,4.000000,4.000000,4.000000,4.000000,4.000000,4.000000,4.000000,4.000000,100.000000
1602006103.378342,40.000000,0.000000,4146.153809,4141.538574,4126.153809,4135.897461,4145.128418,4128.717773,4114.358887,4108.717773,4122.563965,4128.717773,4105.641113,4138.461426,4110.769043,4109.230957,0.000000,4.000000,,,,0.000000,4.000000,4.000000,4.000000,4.000000,4.000000,4.000000,4.000000,4.000000,4.000000,4.000000,4.000000,4.000000,4.000000,4.000000,100.000000
1602006103.386224,41.000000,0.000000,4141.538574,4141.025879,4126.153809,4138.461426,4140.512695,4123.589844,4106.153809,4105.128418,4122.051270,4116.410156,4102.563965,4136.922852,4105.128418,4104.615234,0.000000,4.000000,,,,0.000000,4.000000,4.000000,4.000000,4.000000,4.000000,4.000000,4.000000,4.000000,4.000000,4.000000,4.000000,4.000000,4.000000,4.000000,100.000000
1602006103.394105,42.000000,0.000000,4135.384766,4134.871582,4124.102539,4126.666504,4133.846191,4112.820313,4108.205078,4103.077148,4115.897461,4098.461426,4104.102539,4135.897461,4095.384521,4103.077148,0.000000,4.000000,,,,0.000000,4.000000,4.000000,4.000000,4.000000,4.000000,4.000000,4.000000,4.000000,4.000000,4.000000,4.000000,4.000000,4.000000,4.000000,100.000000
1602006103.402087,43.000000,0.000000,4138.974121,4134.871582,4132.307617,4126.153809,4134.871582,4114.871582,4117.436035,4103.589844,4111.794922,4095.384521,4110.769043,4140.512695,4098.974121,4108.205078,0.000000,4.000000,,,,0.000000,4.000000,4.000000,4.000000,4.000000,4.000000,4.000000,4.000000,4.000000,4.000000,4.000000,4.000000,4.000000,4.000000,4.000000,100.000000
1602006103.409969,44.000000,0.000000,4144.102539,4140.512695,4141.025879,4138.461426,4139.487305,4132.307617,4127.692383,4109.743652,4115.384766,4111.282227,4120.000000,4144.102539,4108.717773,4120.512695,0.000000,4.000000,,,,0.000000,4.000000,4.000000,4.000000,4.000000,4.000000,4.000000,4.000000,4.000000,4.000000,4.000000,4.000000,4.000000,4.000000,4.000000,100.000000
1602006103.417851,45.000000,0.000000,4142.563965,4140.000000,4137.436035,4142.051270,4139.487305,4138.974121,4133.333496,4120.512695,4118.974121,4127.692383,4123.077148,4141.025879,4115.897461,4127.179688,0.000000,4.000000,,,,0.000000,4.000000,4.000000,4.000000,4.000000,4.000000,4.000000,4.000000,4.000000,4.000000,4.000000,4.000000,4.000000,4.000000,4.000000,100.000000
1602006103.425733,46.000000,0.000000,4141.025879,4135.384766,4129.743652,4136.410156,4136.922852,4127.179688,4130.769043,4126.153809,4115.384766,4118.974121,4118.974121,4137.436035,4120.512695,4122.563965,0.000000,4.000000,,,,0.000000,4.000000,4.000000,4.000000,4.000000,4.000000,4.000000,4.000000,4.000000,4.000000,4.000000,4.000000,4.000000,4.000000,4.000000,100.000000
1602006103.433615,47.000000,0.000000,4138.974121,4134.358887,4125.128418,4134.871582,4135.897461,4119.487305,4126.153809,4125.641113,4115.384766,4110.769043,4118.974121,4138.461426,4122.051270,4121.538574,0.000000,4.000000,,,,0.000000,4.000000,4.000000,4.000000,4.000000,4.000000,4.000000,4.000000,4.000000,4.000000,4.000000,4.000000,4.000000,4.000000,4.000000,100.000000
1602006103.441497,48.000000,0.000000,4134.358887,4137.436035,4122.563965,4136.922852,4137.436035,4120.000000,4123.589844,4126.153809,4122.051270,4132.307617,4122.051270,4138.974121,4120.000000,4120.512695,0.000000,4.000000,,,,0.000000,4.000000,4.000000,4.000000,4.000000,4.000000,4.000000,4.000000,4.000000,4.000000,4.000000,4.000000,4.000000,4.000000,4.000000,100.000000
1602006103.449379,49.000000,0.000000,4135.897461,4142.051270,4123.589844,4137.948730,4137.948730,4121.025879,4121.025879,4126.153809,4127.692383,4147.179688,4122.563965,4135.384766,4121.538574,4116.922852,0.000000,4.000000,,,,0.000000,4.000000,4.000000,4.000000,4.000000,4.000000,4.000000,4.000000,4.000000,4.000000,4.000000,4.000000,4.000000,4.000000,4.000000,100.000000
1602006103.457161,50.000000,0.000000,4140.512695,4146.153809,4126.666504,4139.487305,4137.948730,4122.563965,4118.974121,4121.025879,4129.743652,4125.641113,4124.615234,4135.897461,4126.153809,4122.051270,0.000000,4.000000,,,,0.000000,4.000000,4.000000,4.000000,4.000000,4.000000,4.000000,4.000000,4.000000,4.000000,4.000000,4.000000,4.000000,4.000000,4.000000,100.000000
1602006103.465042,51.000000,0.000000,4138.461426,4142.563965,4129.230957,4140.000000,4138.974121,4121.538574,4119.487305,4110.256348,4115.384766,4098.974121,4122.051270,4138.461426,4123.077148,4131.282227,0.000000,4.000000,,,,0.000000,4.000000,4.000000,4.000000,4.000000,4.000000,4.000000,4.000000,4.000000,4.000000,4.000000,4.000000,4.000000,4.000000,4.000000,100.000000
1602006103.472924,52.000000,0.000000,4138.974121,4137.436035,4133.333496,4138.974121,4136.410156,4120.512695,4118.974121,4103.077148,4096.922852,4094.871826,4117.436035,4138.461426,4119.487305,4135.384766,0.000000,4.000000,,,,0.000000,4.000000,4.000000,4.000000,4.000000,4.000000,4.000000,4.000000,4.000000,4.000000,4.000000,4.000000,4.000000,4.000000,4.000000,100.000000
1602006103.480806,53.000000,0.000000,4150.256348,4144.102539,4142.051270,4141.025879,4138.974121,4130.769043,4120.512695,4110.256348,4104.615234,4110.769043,4123.077148,4147.692383,4127.692383,4136.410156,0.000000,4.000000,,,,0.000000,4.000000,4.000000,4.000000,4.000000,4.000000,4.000000,4.000000,4.000000,4.000000,4.000000,4.000000,4.000000,4.000000,4.000000,100.000000
1602006103.488688,54.000000,0.000000,4161.025879,4150.256348,4152.820313,4145.128418,4145.641113,4140.000000,4129.230957,4121.538574,4123.589844,4132.820313,4136.410156,4161.025879,4140.000000,4146.666504,0.000000,4.000000,,,,0.000000,4.000000,4.000000,4.000000,4.000000,4.000000,4.000000,4.000000,4.000000,4.000000,4.000000,4.000000,4.000000,4.000000,4.000000,100.000000
1602006103.496570,55.000000,0.000000,4158.974121,4143.077148,4152.307617,4144.615234,4143.077148,4138.461426,4136.410156,4127.692383,4127.692383,4136.922852,4138.461426,4161.025879,4140.000000,4158.974121,0.000000,4.000000,,,,0.000000,4.000000,4.000000,4.000000,4.000000,4.000000,4.000000,4.000000,4.000000,4.000000,4.000000,4.000000,4.000000,4.000000,4.000000,100.000000
1602006103.504552,56.000000,0.000000,4149.230957,4135.384766,4139.487305,4139.487305,4137.948730,4136.410156,4138.461426,4133.333496,4128.717773,4137.948730,4134.358887,4160.000000,4135.897461,4162.563965,0.000000,4.000000,,,,0.000000,4.000000,4.000000,4.000000,4.000000,4.000000,4.000000,4.000000,4.000000,4.000000,4.000000,4.000000,4.000000,4.000000,4.000000,100.000000
1602006103.512434,57.000000,0.000000,4146.666504,4139.487305,4138.974121,4141.025879,4137.436035,4139.487305,4137.436035,4139.487305,4142.563965,4162.051270,4146.153809,4169.743652,4146.666504,4161.025879,0.000000,4.000000,,,,0.000000,4.000000,4.000000,4.000000,4.000000,4.000000,4.000000,4.000000,4.000000,4.000000,4.000000,4.000000,4.000000,4.000000,4.000000,100.000000
1602006103.520316,58.000000,0.000000,4153.333496,4148.205078,4152.820313,4145.641113,4142.563965,4143.589844,4135.897461,4138.461426,4150.256348,4170.769043,4162.051270,4175.897461,4163.589844,4158.974121,0.000000,4.000000,,,,0.000000,4.000000,4.000000,4.000000,4.000000,4.000000,4.000000,4.000000,4.000000,4.000000,4.000000,4.000000,4.000000,4.000000,4.000000,100.000000
1602006103.528198,59.000000,0.000000,4154.871582,4151.282227,4151.794922,4144.102539,4150.256348,4143.077148,4136.922852,4132.820313,4142.563965,4150.256348,4158.974121,4172.307617,4167.692383,4165.128418,0.000000,4.000000,,,,0.000000,4.000000,4.000000,4.000000,4.000000,4.000000,4.000000,4.000000,4.000000,4.000000,4.000000,4.000000,4.000000,4.000000,4.000000,100.000000
1602006103.536080,60.000000,0.000000,4147.179688,4150.769043,4140.512695,4143.077148,4153.846191,4139.487305,4132.820313,4132.307617,4136.922852,4145.641113,4147.692383,4164.102539,4161.538574,4168.205078,0.000000,4.000000,,,,0.000000,4.000000,4.000000,4.000000,4.000000,4.000000,4.000000,4.000000,4.000000,4.000000,4.000000,4.000000,4.000000,4.000000,4.000000,100.000000
1602006103.543963,61.000000,0.000000,4142.051270,4151.794922,4136.922852,4145.641113,4158.461426,4138.974121,4126.153809,4134.358887,4137.948730,4157.948730,4145.128418,4156.410156,4156.410156,4157.948730,0.000000,4.000000,,,,0.000000,4.000000,4.000000,4.000000,4.000000,4.000000,4.000000,4.000000,4.000000,4.000000,4.000000,4.000000,4.000000,4.000000,4.000000,100.000000
1602006103.551845,62.000000,0.000000,4140.000000,4153.333496,4130.769043,4144.615234,4164.102539,4142.051270,4124.615234,4129.230957,4135.384766,4155.384766,4137.948730,4151.794922,4148.717773,4144.615234,0.000000,4.000000,,,,0.000000,4.000000,4.000000,4.000000,4.000000,4.000000,4.000000,4.000000,4.000000,4.000000,4.000000,4.000000,4.000000,4.000000,4.000000,100.000000
1602006103.559727,63.000000,0.000000,4137.436035,4147.692383,4124.615234,4141.538574,4161.538574,4140.512695,4125.641113,4122.563965,4123.077148,4141.538574,4124.615234,4142.563965,4133.333496,4131.794922,0.000000,4.000000,,,,0.000000,4.000000,4.000000,4.000000,4.000000,4.000000,4.000000,4.000000,4.000000,4.000000,4.000000,4.000000,4.000000,4.000000,4.000000,100.000000
1602006103.567609,64.000000,0.000000,4137.436035,4140.000000,4130.256348,4141.025879,4154.871582,4133.846191,4124.102539,4124.615234,4110.769043,4117.948730,4120.000000,4127.179688,4122.051270,4116.410156,795.000000,4.000000,,,,0.000000,4.000000,4.000000,4.000000,4.000000,4.000000,4.000000,4.000000,4.000000,4.000000,4.000000,4.000000,4.000000,4.000000,4.000000,100.000000
1602006103.575391,65.000000,0.000000,4136.922852,4137.948730,4137.948730,4138.461426,4152.307617,4127.179688,4123.077148,4118.461426,4101.538574,4105.128418,4121.025879,4122.563965,4120.000000,4116.410156,795.000000,4.000000,,,,0.000000,4.000000,4.000000,4.000000,4.000000,4.000000,4.000000,4.000000,4.000000,4.000000,4.000000,4.000000,4.000000,4.000000,4.000000,100.000000
1602006103.583273,66.000000,0.000000,4137.436035,4137.948730,4134.358887,4134.358887,4145.641113,4123.589844,4122.051270,4110.256348,4100.512695,4127.179688,4126.666504,4134.358887,4124.102539,4132.820313,850.000000,4.000000,,,,0.000000,4.000000,4.000000,4.000000,4.000000,4.000000,4.000000,4.000000,4.000000,4.000000,4.000000,4.000000,4.000000,4.000000,4.000000,100.000000
1602006103.591155,67.000000,0.000000,4146.153809,4140.000000,4135.897461,4134.871582,4138.974121,4122.051270,4119.487305,4116.410156,4112.820313,4149.743652,4135.897461,4148.205078,4134.871582,4141.025879,870.000000,4.000000,,,,0.000000,4.000000,4.000000,4.000000,4.000000,4.000000,4.000000,4.000000,4.000000,4.000000,4.000000,4.000000,4.000000,4.000000,4.000000,100.000000
1602006103.599037,68.000000,0.000000,4155.384766,4139.487305,4149.230957,4137.948730,4138.974121,4120.000000,4120.512695,4123.077148,4121.025879,4149.743652,4141.025879,4154.358887,4145.641113,4144.102539,809.000000,4.000000,,,,0.000000,4.000000,4.000000,4.000000,4.000000,4.000000,4.000000,4.000000,4.000000,4.000000,4.000000,4.000000,4.000000,4.000000,4.000000,100.000000
1602006103.606918,69.000000,0.000000,4155.384766,4137.436035,4154.871582,4138.974121,4138.461426,4120.512695,4124.102539,4127.692383,4125.641113,4158.461426,4140.512695,4155.384766,4152.820313,4146.666504,827.000000,4.000000,,,,0.000000,4.000000,4.000000,4.000000,4.000000,4.000000,4.000000,4.000000,4.000000,4.000000,4.000000,4.000000,4.000000,4.000000,4.000000,100.000000
1602006103.614800,70.000000,0.000000,4152.820313,4137.948730,4145.641113,4138.461426,4134.871582,4123.077148,4120.000000,4135.897461,4133.846191,4171.282227,4143.589844,4151.794922,4154.871582,4142.051270,775.000000,4.000000,,,,0.000000,4.000000,4.000000,4.000000,4.000000,4.000000,4.000000,4.000000,4.000000,4.000000,4.000000,4.000000,4.000000,4.000000,4.000000,100.000000
1602006103.622682,71.000000,0.000000,4154.358887,4140.000000,4136.922852,4138.461426,4134.358887,4123.077148,4110.769043,4137.436035,4140.512695,4155.897461,4144.102539,4141.538574,4154.358887,4140.000000,680.000000,4.000000,,,,0.000000,4.000000,4.000000,4.000000,4.000000,4.000000,4.000000,4.000000,4.000000,4.000000,4.000000,4.000000,4.000000,4.000000,4.000000,100.000000
1602006103.630463,72.000000,0.000000,4156.922852,4141.025879,4140.512695,4140.512695,4142.563965,4128.717773,4113.333496,4132.307617,4145.641113,4148.717773,4133.333496,4128.717773,4155.897461,4142.563965,785.000000,4.000000,,,,0.000000,4.000000,4.000000,4.000000,4.000000,4.000000,4.000000,4.000000,4.000000,4.000000,4.000000,4.000000,4.000000,4.000000,4.000000,100.000000
1602006103.638344,73.000000,0.000000,4148.205078,4141.025879,4137.436035,4136.922852,4153.333496,4136.410156,4124.615234,4130.769043,4145.128418,4170.256348,4124.615234,4121.025879,4152.307617,4141.538574,841.000000,4.000000,,,,0.000000,4.000000,4.000000,4.000000,4.000000,4.000000,4.000000,4.000000,4.000000,4.000000,4.000000,4.000000,4.000000,4.000000,4.000000,100.000000
1602006103.646127,74.000000,0.000000,4136.922852,4137.436035,4124.615234,4126.666504,4154.358887,4136.922852,4125.128418,4126.153809,4133.846191,4170.769043,4120.512695,4122.563965,4141.538574,4138.974121,871.000000,4.000000,,,,0.000000,4.000000,4.000000,4.000000,4.000000,4.000000,4.000000,4.000000,4.000000,4.000000,4.000000,4.000000,4.000000,4.000000,4.000000,100.000000
1602006103.654009,75.000000,0.000000,4142.563965,4135.897461,4124.615234,4127.692383,4148.717773,4135.897461,4123.077148,4120.000000,4120.512695,4149.743652,4120.000000,4136.410156,4140.000000,4147.692383,839.000000,4.000000,,,,0.000000,4.000000,4.000000,4.000000,4.000000,4.000000,4.000000,4.000000,4.000000,4.000000,4.000000,4.000000,4.000000,4.000000,4.000000,100.000000
1602006103.661891,76.000000,0.000000,4154.871582,4144.102539,4136.410156,4138.974121,4146.666504,4134.871582,4128.205078,4123.589844,4114.871582,4145.128418,4133.333496,4154.871582,4152.820313,4163.589844,768.000000,4.000000,,,,0.000000,4.000000,4.000000,4.000000,4.000000,4.000000,4.000000,4.000000,4.000000,4.000000,4.000000,4.000000,4.000000,4.000000,4.000000,100.000000
1602006103.669774,77.000000,0.000000,4154.358887,4153.333496,4140.000000,4142.051270,4146.153809,4129.230957,4126.666504,4125.641113,4105.128418,4130.256348,4149.743652,4160.000000,4156.922852,4171.282227,747.000000,4.000000,,,,0.000000,4.000000,4.000000,4.000000,4.000000,4.000000,4.000000,4.000000,4.000000,4.000000,4.000000,4.000000,4.000000,4.000000,4.000000,100.000000
1602006103.677656,78.000000,0.000000,4152.307617,4149.743652,4138.461426,4138.461426,4140.512695,4121.025879,4118.974121,4119.487305,4097.948730,4115.384766,4151.794922,4156.922852,4151.282227,4171.794922,871.000000,4.000000,,,,0.000000,4.000000,4.000000,4.000000,4.000000,4.000000,4.000000,4.000000,4.000000,4.000000,4.000000,4.000000,4.000000,4.000000,4.000000,100.000000
1602006103.685538,79.000000,0.000000,4161.025879,4142.563965,4148.205078,4139.487305,4136.922852,4120.000000,4118.974121,4123.589844,4112.307617,4145.641113,4149.230957,4163.589844,4160.000000,4174.358887,839.000000,4.000000,,,,0.000000,4.000000,4.000000,4.000000,4.000000,4.000000,4.000000,4.000000,4.000000,4.000000,4.000000,4.000000,4.000000,4.000000,4.000000,100.000000
1602006103.693421,80.000000,0.000000,4167.179688,4141.538574,4157.948730,4140.000000,4137.436035,4123.077148,4123.589844,4137.948730,4134.871582,4179.487305,4153.846191,4168.205078,4172.307617,4175.384766,768.000000,4.000000,,,,0.000000,4.000000,4.000000,4.000000,4.000000,4.000000,4.000000,4.000000,4.000000,4.000000,4.000000,4.000000,4.000000,4.000000,4.000000,100.000000
1602006103.701303,81.000000,0.000000,4168.717773,4145.128418,4150.256348,4138.461426,4138.974121,4125.641113,4123.589844,4142.563965,4147.692383,4177.948730,4158.461426,4158.461426,4171.794922,4171.794922,747.000000,4.000000,,,,0.000000,4.000000,4.000000,4.000000,4.000000,4.000000,4.000000,4.000000,4.000000,4.000000,4.000000,4.000000,4.000000,4.000000,4.000000,100.000000
1602006103.709185,82.000000,0.000000,4168.717773,4146.666504,4140.512695,4138.974121,4137.436035,4129.743652,4122.051270,4143.589844,4155.897461,4180.512695,4154.358887,4145.641113,4169.230957,4166.153809,871.000000,4.000000,,,,0.000000,4.000000,4.000000,4.000000,4.000000,4.000000,4.000000,4.000000,4.000000,4.000000,4.000000,4.000000,4.000000,4.000000,4.000000,100.000000
1602006103.717068,83.000000,0.000000,4162.563965,4146.666504,4134.871582,4137.436035,4138.974121,4136.410156,4123.589844,4149.743652,4165.128418,4193.846191,4140.000000,4141.025879,4166.666504,4157.948730,839.000000,4.000000,,,,0.000000,4.000000,4.000000,4.000000,4.000000,4.000000,4.000000,4.000000,4.000000,4.000000,4.000000,4.000000,4.000000,4.000000,4.000000,100.000000
1602006103.724849,84.000000,0.000000,4153.333496,4147.692383,4125.128418,4134.358887,4141.025879,4139.487305,4124.102539,4147.179688,4161.025879,4174.358887,4124.615234,4131.794922,4156.410156,4146.153809,768.000000,4.000000,,,,0.000000,4.000000,4.000000,4.000000,4.000000,4.000000,4.000000,4.000000,4.000000,4.000000,4.000000,4.000000,4.000000,4.000000,4.000000,100.000000
1602006103.732730,85.000000,0.000000,4149.743652,4150.769043,4115.384766,4133.846191,4141.025879,4135.384766,4123.077148,4137.436035,4137.948730,4138.461426,4124.102539,4123.077148,4149.743652,4140.000000,747.000000,4.000000,,,,0.000000,4.000000,4.000000,4.000000,4.000000,4.000000,4.000000,4.000000,4.000000,4.000000,4.000000,4.000000,4.000000,4.000000,4.000000,100.000000
1602006103.740611,86.000000,0.000000,4153.846191,4153.333496,4118.461426,4137.436035,4145.641113,4137.436035,4127.692383,4136.922852,4123.077148,4135.384766,4128.205078,4130.256348,4151.282227,4139.487305,871.000000,4.000000,,,,0.000000,4.000000,4.000000,4.000000,4.000000,4.000000,4.000000,4.000000,4.000000,4.000000,4.000000,4.000000,4.000000,4.000000,4.000000,100.000000
1602006103.748493,87.000000,0.000000,4154.358887,4149.230957,4129.230957,4137.948730,4144.102539,4140.512695,4130.256348,4133.333496,4108.205078,4143.589844,4121.025879,4138.974121,4141.025879,4138.974121,839.000000,4.000000,,,,0.000000,4.000000,4.000000,4.000000,4.000000,4.000000,4.000000,4.000000,4.000000,4.000000,4.000000,4.000000,4.000000,4.000000,4.000000,100.000000
1602006103.756275,88.000000,0.000000,4149.230957,4139.487305,4134.871582,4134.871582,4132.307617,4133.333496,4126.153809,4121.538574,4074.358887,4117.436035,4116.922852,4134.871582,4121.025879,4144.615234,768.000000,4.000000,,,,0.000000,4.000000,4.000000,4.000000,4.000000,4.000000,4.000000,4.000000,4.000000,4.000000,4.000000,4.000000,4.000000,4.000000,4.000000,100.000000
1602006103.764157,89.000000,0.000000,4149.230957,4135.384766,4138.461426,4134.358887,4126.153809,4126.153809,4130.256348,4118.974121,4057.435791,4094.358887,4123.077148,4137.948730,4120.000000,4152.307617,747.000000,4.000000,,,,0.000000,4.000000,4.000000,4.000000,4.000000,4.000000,4.000000,4.000000,4.000000,4.000000,4.000000,4.000000,4.000000,4.000000,4.000000,100.000000
1602006103.772039,90.000000,0.000000,4164.102539,4145.641113,4147.692383,4138.461426,4127.692383,4124.615234,4137.948730,4122.563965,4078.461426,4112.307617,4134.871582,4158.974121,4140.512695,4157.948730,871.000000,4.000000,,,,0.000000,4.000000,4.000000,4.000000,4.000000,4.000000,4.000000,4.000000,4.000000,4.000000,4.000000,4.000000,4.000000,4.000000,4.000000,100.000000
1602006103.779921,91.000000,0.000000,4174.358887,4153.846191,4154.871582,4141.025879,4123.589844,4115.384766,4130.256348,4123.589844,4103.077148,4134.358887,4147.692383,4167.692383,4154.358887,4168.717773,839.000000,4.000000,,,,0.000000,4.000000,4.000000,4.000000,4.000000,4.000000,4.000000,4.000000,4.000000,4.000000,4.000000,4.000000,4.000000,4.000000,4.000000,100.000000
1602006103.787803,92.000000,0.000000,4167.179688,4151.282227,4154.871582,4142.051270,4124.102539,4110.256348,4121.538574,4130.769043,4122.563965,4152.307617,4156.922852,4164.102539,4162.051270,4184.615234,768.000000,4.000000,,,,0.000000,4.000000,4.000000,4.000000,4.000000,4.000000,4.000000,4.000000,4.000000,4.000000,4.000000,4.000000,4.000000,4.000000,4.000000,100.000000
1602006103.795685,93.000000,0.000000,4161.538574,4149.230957,4150.769043,4140.000000,4131.282227,4117.436035,4121.025879,4140.000000,4149.230957,4174.358887,4154.871582,4165.128418,4170.769043,4187.179688,747.000000,4.000000,,,,0.000000,4.000000,4.000000,4.000000,4.000000,4.000000,4.000000,4.000000,4.000000,4.000000,4.000000,4.000000,4.000000,4.000000,4.000000,100.000000
1602006103.803567,94.000000,0.000000,4161.025879,4145.128418,4147.179688,4137.948730,4130.769043,4117.948730,4115.384766,4137.948730,4161.025879,4177.436035,4150.769043,4162.051270,4164.615234,4177.436035,871.000000,4.000000,,,,0.000000,4.000000,4.000000,4.000000,4.000000,4.000000,4.000000,4.000000,4.000000,4.000000,4.000000,4.000000,4.000000,4.000000,4.000000,100.000000
1602006103.811450,95.000000,0.000000,4156.922852,4140.000000,4143.077148,4136.410156,4131.794922,4114.358887,4112.820313,4137.948730,4158.974121,4172.307617,4153.333496,4155.897461,4154.358887,4172.307617,839.000000,4.000000,,,,0.000000,4.000000,4.000000,4.000000,4.000000,4.000000,4.000000,4.000000,4.000000,4.000000,4.000000,4.000000,4.000000,4.000000,4.000000,100.000000
1602006103.819432,96.000000,0.000000,4152.307617,4137.436035,4141.025879,4130.256348,4140.000000,4123.589844,4121.538574,4143.077148,4160.512695,4169.743652,4152.307617,4155.897461,4154.871582,4165.641113,768.000000,4.000000,,,,0.000000,4.000000,4.000000,4.000000,4.000000,4.000000,4.000000,4.000000,4.000000,4.000000,4.000000,4.000000,4.000000,4.000000,4.000000,100.000000
1602006103.827314,97.000000,0.000000,4148.205078,4131.794922,4137.948730,4123.589844,4142.563965,4138.974121,4131.282227,4143.077148,4150.256348,4151.282227,4141.538574,4152.307617,4149.230957,4157.436035,747.000000,4.000000,,,,0.000000,4.000000,4.000000,4.000000,4.000000,4.000000,4.000000,4.000000,4.000000,4.000000,4.000000,4.000000,4.000000,4.000000,4.000000,100.000000
1602006103.835196,98.000000,0.000000,4138.461426,4121.538574,4132.820313,4120.512695,4135.897461,4143.589844,4138.461426,4135.384766,4124.102539,4133.333496,4129.743652,4141.538574,4130.769043,4147.179688,871.000000,4.000000,,,,0.000000,4.000000,4.000000,4.000000,4.000000,4.000000,4.000000,4.000000,4.000000,4.000000,4.000000,4.000000,4.000000,4.000000,4.000000,100.000000
1602006103.843078,99.000000,0.000000,4134.358887,4118.974121,4132.820313,4119.487305,4126.666504,4137.436035,4140.512695,4124.615234,4102.563965,4134.358887,4120.000000,4137.948730,4124.615234,4140.512695,839.000000,4.000000,,,,0.000000,4.000000,4.000000,4.000000,4.000000,4.000000,4.000000,4.000000,4.000000,4.000000,4.000000,4.000000,4.000000,4.000000,4.000000,100.000000
1602006103.850960,100.000000,0.000000,4145.128418,4128.205078,4134.871582,4125.641113,4122.563965,4124.615234,4134.358887,4119.487305,4091.281982,4134.358887,4117.948730,4140.000000,4134.358887,4146.153809,768.000000,4.000000,,,,0.000000,4.000000,4.000000,4.000000,4.000000,4.000000,4.000000,4.000000,4.000000,4.000000,4.000000,4.000000,4.000000,4.000000,4.000000,100.000000
1602006103.858842,101.000000,0.000000,4154.358887,4136.410156,4137.948730,4136.410156,4122.563965,4107.692383,4125.128418,4120.000000,4088.205078,4134.871582,4127.692383,4145.128418,4141.025879,4158.461426,747.000000,4.000000,,,,0.000000,4.000000,4.000000,4.000000,4.000000,4.000000,4.000000,4.000000,4.000000,4.000000,4.000000,4.000000,4.000000,4.000000,4.000000,100.000000
1602006103.866724,102.000000,0.000000,4154.871582,4140.000000,4140.000000,4137.948730,4123.589844,4092.307617,4116.410156,4121.025879,4095.384521,4137.436035,4133.846191,4150.769043,4138.974121,4160.000000,871.000000,4.000000,,,,0.000000,4.000000,4.000000,4.000000,4.000000,4.000000,4.000000,4.000000,4.000000,4.000000,4.000000,4.000000,4.000000,4.000000,4.000000,100.000000
1602006103.874606,103.000000,0.000000,4160.000000,4146.666504,4138.461426,4138.974121,4127.179688,4089.230713,4107.179688,4122.051270,4113.846191,4132.307617,4137.436035,4152.307617,4143.077148,4155.384766,839.000000,4.000000,,,,0.000000,4.000000,4.000000,4.000000,4.000000,4.000000,4.000000,4.000000,4.000000,4.000000,4.000000,4.000000,4.000000,4.000000,4.000000,100.000000
1602006103.882388,104.000000,0.000000,4170.769043,4157.436035,4141.538574,4146.666504,4137.436035,4100.512695,4101.538574,4124.102539,4136.922852,4143.077148,4148.717773,4152.820313,4157.436035,4158.974121,768.000000,4.000000,,,,0.000000,4.000000,4.000000,4.000000,4.000000,4.000000,4.000000,4.000000,4.000000,4.000000,4.000000,4.000000,4.000000,4.000000,4.000000,100.000000
1602006103.890270,105.000000,0.000000,4172.820313,4161.025879,4150.256348,4147.179688,4144.102539,4114.871582,4106.666504,4124.102539,4149.743652,4162.563965,4155.384766,4154.358887,4162.051270,4159.487305,747.000000,4.000000,,,,0.000000,4.000000,4.000000,4.000000,4.000000,4.000000,4.000000,4.000000,4.000000,4.000000,4.000000,4.000000,4.000000,4.000000,4.000000,100.000000
1602006103.898152,106.000000,0.000000,4162.563965,4155.384766,4155.384766,4140.512695,4144.102539,4125.128418,4117.948730,4123.077148,4142.563965,4157.436035,4147.692383,4149.743652,4154.358887,4155.897461,871.000000,4.000000,,,,0.000000,4.000000,4.000000,4.000000,4.000000,4.000000,4.000000,4.000000,4.000000,4.000000,4.000000,4.000000,4.000000,4.000000,4.000000,100.000000
1602006103.906034,107.000000,0.000000,4156.922852,4150.769043,4148.717773,4140.000000,4142.051270,4133.333496,4126.666504,4122.563965,4132.307617,4153.846191,4140.512695,4144.615234,4151.794922,4157.948730,839.000000,4.000000,,,,0.000000,4.000000,4.000000,4.000000,4.000000,4.000000,4.000000,4.000000,4.000000,4.000000,4.000000,4.000000,4.000000,4.000000,4.000000,100.000000
1602006103.913916,108.000000,0.000000,4147.692383,4142.051270,4138.974121,4137.948730,4140.512695,4137.436035,4132.307617,4123.077148,4124.615234,4154.871582,4133.333496,4146.666504,4141.538574,4148.205078,768.000000,4.000000,,,,0.000000,4.000000,4.000000,4.000000,4.000000,4.000000,4.000000,4.000000,4.000000,4.000000,4.000000,4.000000,4.000000,4.000000,4.000000,100.000000
1602006103.921798,109.000000,0.000000,4134.358887,4133.333496,4142.563965,4135.384766,4138.974121,4140.000000,4140.512695,4130.256348,4116.922852,4141.538574,4127.692383,4151.282227,4126.666504,4135.384766,747.000000,4.000000,,,,0.000000,4.000000,4.000000,4.000000,4.000000,4.000000,4.000000,4.000000,4.000000,4.000000,4.000000,4.000000,4.000000,4.000000,4.000000,100.000000
1602006103.929779,110.000000,0.000000,4147.179688,4145.641113,4155.384766,4140.000000,4138.974121,4139.487305,4146.153809,4141.538574,4117.436035,4146.153809,4146.153809,4164.615234,4147.179688,4161.025879,871.000000,4.000000,,,,0.000000,4.000000,4.000000,4.000000,4.000000,4.000000,4.000000,4.000000,4.000000,4.000000,4.000000,4.000000,4.000000,4.000000,4.000000,100.000000
1602006103.937661,111.000000,0.000000,4166.153809,4156.410156,4159.487305,4142.563965,4138.461426,4132.307617,4136.922852,4140.000000,4116.922852,4162.563965,4170.256348,4177.436035,4185.128418,4197.436035,839.000000,4.000000,,,,0.000000,4.000000,4.000000,4.000000,4.000000,4.000000,4.000000,4.000000,4.000000,4.000000,4.000000,4.000000,4.000000,4.000000,4.000000,100.000000
1602006103.945543,112.000000,0.000000,4154.871582,4139.487305,4149.743652,4137.436035,4138.974121,4124.102539,4124.615234,4125.641113,4106.153809,4144.615234,4170.256348,4174.358887,4196.922852,4197.436035,768.000000,4.000000,,,,0.000000,4.000000,4.000000,4.000000,4.000000,4.000000,4.000000,4.000000,4.000000,4.000000,4.000000,4.000000,4.000000,4.000000,4.000000,100.000000
1602006103.953424,113.000000,0.000000,4133.333496,4121.025879,4140.000000,4130.256348,4135.897461,4118.974121,4117.436035,4120.000000,4110.769043,4139.487305,4167.179688,4171.282227,4196.410156,4190.769043,747.000000,4.000000,,,,0.000000,4.000000,4.000000,4.000000,4.000000,4.000000,4.000000,4.000000,4.000000,4.000000,4.000000,4.000000,4.000000,4.000000,4.000000,100.000000
1602006103.961306,114.000000,0.000000,4125.641113,4122.051270,4140.000000,4126.666504,4128.205078,4112.820313,4110.256348,4125.641113,4135.384766,4177.436035,4177.948730,4183.589844,4209.230957,4204.615234,871.000000,4.000000,,,,0.000000,4.000000,4.000000,4.000000,4.000000,4.000000,4.000000,4.000000,4.000000,4.000000,4.000000,4.000000,4.000000,4.000000,4.000000,100.000000
1602006103.969188,115.000000,0.000000,4126.666504,4126.153809,4153.846191,4131.794922,4129.230957,4104.615234,4103.589844,4130.256348,4146.153809,4193.333496,4186.153809,4193.846191,4221.025879,4215.897461,839.000000,4.000000,,,,0.000000,4.000000,4.000000,4.000000,4.000000,4.000000,4.000000,4.000000,4.000000,4.000000,4.000000,4.000000,4.000000,4.000000,4.000000,100.000000
1602006103.976970,116.000000,0.000000,4134.871582,4129.230957,4168.717773,4141.025879,4136.922852,4105.641113,4102.051270,4128.717773,4140.512695,4185.128418,4185.641113,4193.846191,4223.589844,4217.436035,768.000000,4.000000,,,,0.000000,4.000000,4.000000,4.000000,4.000000,4.000000,4.000000,4.000000,4.000000,4.000000,4.000000,4.000000,4.000000,4.000000,4.000000,100.000000
1602006103.984851,117.000000,0.000000,4130.769043,4124.615234,4162.051270,4135.384766,4130.769043,4117.436035,4107.179688,4123.077148,4138.974121,4182.051270,4177.436035,4186.153809,4213.333496,4205.641113,747.000000,4.000000,,,,0.000000,4.000000,4.000000,4.000000,4.000000,4.000000,4.000000,4.000000,4.000000,4.000000,4.000000,4.000000,4.000000,4.000000,4.000000,100.000000
1602006103.992733,118.000000,0.000000,4111.282227,4107.692383,4140.000000,4119.487305,4117.948730,4130.769043,4121.538574,4123.589844,4138.461426,4168.717773,4168.717773,4169.743652,4197.436035,4178.974121,871.000000,4.000000,,,,0.000000,4.000000,4.000000,4.000000,4.000000,4.000000,4.000000,4.000000,4.000000,4.000000,4.000000,4.000000,4.000000,4.000000,4.000000,100.000000
1602006104.000615,119.000000,0.000000,4106.153809,4102.563965,4126.153809,4115.897461,4126.153809,4140.512695,4136.410156,4133.846191,4137.948730,4162.051270,4167.179688,4160.000000,4195.384766,4167.179688,839.000000,4.000000,,,,0.000000,4.000000,4.000000,4.000000,4.000000,4.000000,4.000000,4.000000,4.000000,4.000000,4.000000,4.000000,4.000000,4.000000,4.000000,100.000000
1602006104.008497,120.000000,0.000000,4098.461426,4105.641113,4117.436035,4115.384766,4139.487305,4141.538574,4145.128418,4143.589844,4140.000000,4175.897461,4160.512695,4152.820313,4192.820313,4169.743652,768.000000,4.000000,,,,0.000000,4.000000,4.000000,4.000000,4.000000,4.000000,4.000000,4.000000,4.000000,4.000000,4.000000,4.000000,4.000000,4.000000,4.000000,100.000000
1602006104.016379,121.000000,0.000000,4080.000000,4097.948730,4105.128418,4106.666504,4136.410156,4142.051270,4153.333496,4149.230957,4139.487305,4167.692383,4152.307617,4142.563965,4183.077148,4157.948730,747.000000,4.000000,,,,0.000000,4.000000,4.000000,4.000000,4.000000,4.000000,4.000000,4.000000,4.000000,4.000000,4.000000,4.000000,4.000000,4.000000,4.000000,100.000000
1602006104.024261,122.000000,0.000000,4088.205078,4097.948730,4111.282227,4109.743652,4134.358887,4143.077148,4154.871582,4155.384766,4141.025879,4150.769043,4155.897461,4145.641113,4181.538574,4149.743652,871.000000,4.000000,,,,0.000000,4.000000,4.000000,4.000000,4.000000,4.000000,4.000000,4.000000,4.000000,4.000000,4.000000,4.000000,4.000000,4.000000,4.000000,100.000000
1602006104.032143,123.000000,0.000000,4110.256348,4111.794922,4133.333496,4123.077148,4143.077148,4138.974121,4145.128418,4155.897461,4147.179688,4165.641113,4159.487305,4157.948730,4185.641113,4161.538574,839.000000,4.000000,,,,0.000000,4.000000,4.000000,4.000000,4.000000,4.000000,4.000000,4.000000,4.000000,4.000000,4.000000,4.000000,4.000000,4.000000,4.000000,100.000000
1602006104.039925,124.000000,0.000000,4112.820313,4115.384766,4138.974121,4126.666504,4145.128418,4136.922852,4139.487305,4153.333496,4152.820313,4175.897461,4157.948730,4157.948730,4184.102539,4168.205078,768.000000,4.000000,,,,0.000000,4.000000,4.000000,4.000000,4.000000,4.000000,4.000000,4.000000,4.000000,4.000000,4.000000,4.000000,4.000000,4.000000,4.000000,100.000000
1602006104.047808,125.000000,0.000000,4101.025879,4107.179688,4121.025879,4120.512695,4138.461426,4139.487305,4138.461426,4148.205078,4154.871582,4169.230957,4153.333496,4148.205078,4179.487305,4157.948730,747.000000,4.000000,,,,0.000000,4.000000,4.000000,4.000000,4.000000,4.000000,4.000000,4.000000,4.000000,4.000000,4.000000,4.000000,4.000000,4.000000,4.000000,100.000000
1602006104.055690,126.000000,0.000000,4097.948730,4104.615234,4106.153809,4119.487305,4136.922852,4141.538574,4129.743652,4139.487305,4155.384766,4168.205078,4143.077148,4145.641113,4176.922852,4154.871582,871.000000,4.000000,,,,0.000000,4.000000,4.000000,4.000000,4.000000,4.000000,4.000000,4.000000,4.000000,4.000000,4.000000,4.000000,4.000000,4.000000,4.000000,100.000000
1602006104.063572,127.000000,0.000000,4106.666504,4106.666504,4111.794922,4120.000000,4138.461426,4140.000000,4126.153809,4133.846191,4151.794922,4149.743652,4136.922852,4150.769043,4174.358887,4157.948730,839.000000,4.000000,,,,0.000000,4.000000,4.000000,4.000000,4.000000,4.000000,4.000000,4.000000,4.000000,4.000000,4.000000,4.000000,4.000000,4.000000,4.000000,100.000000
1602006104.071455,128.000000,0.000000,4109.743652,4106.153809,4120.512695,4119.487305,4134.871582,4135.897461,4131.794922,4132.820313,4148.205078,4128.205078,4140.000000,4149.743652,4173.333496,4155.897461,768.000000,4.000000,,,,0.000000,4.000000,4.000000,4.000000,4.000000,4.000000,4.000000,4.000000,4.000000,4.000000,4.000000,4.000000,4.000000,4.000000,4.000000,100.000000
1602006104.079337,0.000000,0.000000,4106.666504,4106.153809,4126.153809,4121.538574,4128.717773,4142.563965,4138.974121,4135.897461,4151.282227,4152.820313,4146.153809,4150.769043,4178.974121,4158.974121,797.000000,4.000000,,,,0.000000,4.000000,4.000000,4.000000,4.000000,4.000000,4.000000,4.000000,4.000000,4.000000,4.000000,4.000000,4.000000,4.000000,4.000000,100.000000
1602006104.087219,1.000000,0.000000,4111.794922,4106.666504,4136.922852,4123.077148,4128.717773,4154.358887,4146.666504,4140.000000,4155.384766,4173.846191,4159.487305,4165.128418,4188.205078,4172.820313,795.000000,4.000000,,,,0.000000,4.000000,4.000000,4.000000,4.000000,4.000000,4.000000,4.000000,4.000000,4.000000,4.000000,4.000000,4.000000,4.000000,4.000000,100.000000
1602006104.095102,2.000000,0.000000,4114.871582,4104.615234,4142.051270,4121.025879,4135.384766,4148.717773,4152.820313,4142.051270,4155.897461,4144.615234,4159.487305,4170.256348,4180.512695,4174.871582,850.000000,4.000000,,,,0.000000,4.000000,4.000000,4.000000,4.000000,4.000000,4.000000,4.000000,4.000000,4.000000,4.000000,4.000000,4.000000,4.000000,4.000000,100.000000
1602006104.102984,3.000000,0.000000,4101.538574,4102.563965,4133.333496,4120.512695,4138.461426,4143.589844,4154.358887,4148.205078,4156.410156,4126.153809,4141.538574,4157.436035,4168.717773,4153.846191,870.000000,4.000000,,,,0.000000,4.000000,4.000000,4.000000,4.000000,4.000000,4.000000,4.000000,4.000000,4.000000,4.000000,4.000000,4.000000,4.000000,4.000000,100.000000
1602006104.110766,4.000000,0.000000,4088.205078,4104.102539,4122.051270,4122.051270,4137.436035,4153.333496,4154.358887,4156.410156,4156.410156,4139.487305,4134.358887,4146.153809,4167.179688,4134.358887,809.000000,4.000000,,,,0.000000,4.000000,4.000000,4.000000,4.000000,4.000000,4.000000,4.000000,4.000000,4.000000,4.000000,4.000000,4.000000,4.000000,4.000000,100.000000
1602006104.118648,5.000000,0.000000,4087.179443,4103.589844,4120.512695,4119.487305,4140.512695,4152.820313,4151.282227,4157.436035,4156.922852,4143.077148,4140.512695,4139.487305,4159.487305,4136.922852,827.000000,4.000000,,,,0.000000,4.000000,4.000000,4.000000,4.000000,4.000000,4.000000,4.000000,4.000000,4.000000,4.000000,4.000000,4.000000,4.000000,4.000000,100.000000
1602006104.126530,6.000000,0.000000,4099.487305,4104.102539,4129.743652,4120.000000,4144.102539,4141.025879,4142.563965,4151.794922,4156.922852,4141.025879,4138.974121,4138.461426,4157.436035,4147.692383,775.000000,4.000000,,,,0.000000,4.000000,4.000000,4.000000,4.000000,4.000000,4.000000,4.000000,4.000000,4.000000,4.000000,4.000000,4.000000,4.000000,4.000000,100.000000
1602006104.134412,7.000000,0.000000,4109.230957,4110.256348,4136.410156,4125.641113,4143.589844,4138.974121,4138.461426,4145.128418,4149.230957,4148.717773,4140.000000,4151.282227,4170.256348,4144.615234,680.000000,4.000000,,,,0.000000,4.000000,4.000000,4.000000,4.000000,4.000000,4.000000,4.000000,4.000000,4.000000,4.000000,4.000000,4.000000,4.000000,4.000000,100.000000
1602006104.142294,8.000000,0.000000,4097.436035,4104.102539,4125.128418,4116.922852,4141.025879,4137.948730,4138.461426,4138.461426,4139.487305,4152.820313,4139.487305,4156.410156,4166.153809,4135.897461,785.000000,4.000000,,,,0.000000,4.000000,4.000000,4.000000,4.000000,4.000000,4.000000,4.000000,4.000000,4.000000,4.000000,4.000000,4.000000,4.000000,4.000000,100.000000
1602006104.150175,9.000000,0.000000,4084.615479,4093.846191,4113.846191,4107.692383,4137.436035,4135.384766,4137.436035,4136.410156,4136.410156,4140.512695,4135.897461,4152.820313,4154.358887,4144.102539,841.000000,4.000000,,,,0.000000,4.000000,4.000000,4.000000,4.000000,4.000000,4.000000,4.000000,4.000000,4.000000,4.000000,4.000000,4.000000,4.000000,4.000000,100.000000
1602006104.158057,10.000000,0.000000,4090.769287,4102.051270,4124.102539,4117.436035,4136.410156,4140.512695,4142.051270,4136.410156,4134.871582,4122.051270,4146.666504,4164.102539,4166.666504,4158.461426,871.000000,4.000000,,,,0.000000,4.000000,4.000000,4.000000,4.000000,4.000000,4.000000,4.000000,4.000000,4.000000,4.000000,4.000000,4.000000,4.000000,4.000000,100.000000
1602006104.165840,11.000000,0.000000,4095.384521,4109.743652,4132.307617,4121.538574,4139.487305,4140.512695,4145.641113,4136.922852,4136.410156,4122.051270,4156.922852,4173.846191,4173.846191,4155.897461,839.000000,4.000000,,,,0.000000,4.000000,4.000000,4.000000,4.000000,4.000000,4.000000,4.000000,4.000000,4.000000,4.000000,4.000000,4.000000,4.000000,4.000000,100.000000
1602006104.173722,12.000000,0.000000,4087.179443,4099.487305,4125.128418,4111.282227,4137.436035,4134.871582,4139.487305,4137.436035,4135.897461,4132.820313,4143.589844,4167.692383,4155.384766,4137.436035,768.000000,4.000000,,,,0.000000,4.000000,4.000000,4.000000,4.000000,4.000000,4.000000,4.000000,4.000000,4.000000,4.000000,4.000000,4.000000,4.000000,4.000000,100.000000
1602006104.181604,13.000000,0.000000,4087.692383,4096.410156,4118.461426,4112.307617,4129.230957,4134.358887,4138.461426,4134.871582,4135.897461,4138.974121,4136.410156,4164.615234,4150.769043,4131.794922,747.000000,4.000000,,,,0.000000,4.000000,4.000000,4.000000,4.000000,4.000000,4.000000,4.000000,4.000000,4.000000,4.000000,4.000000,4.000000,4.000000,4.000000,100.000000
1602006104.189487,14.000000,0.000000,4109.743652,4113.846191,4130.256348,4125.128418,4133.846191,4142.563965,4150.769043,4139.487305,4153.846191,4155.897461,4151.794922,4176.922852,4174.358887,4148.205078,871.000000,4.000000,,,,0.000000,4.000000,4.000000,4.000000,4.000000,4.000000,4.000000,4.000000,4.000000,4.000000,4.000000,4.000000,4.000000,4.000000,4.000000,100.000000
1602006104.197369,15.000000,0.000000,4124.102539,4125.641113,4150.256348,4130.256348,4147.692383,4151.794922,4155.897461,4151.282227,4175.384766,4172.820313,4160.000000,4189.230957,4183.589844,4156.922852,839.000000,4.000000,,,,0.000000,4.000000,4.000000,4.000000,4.000000,4.000000,4.000000,4.000000,4.000000,4.000000,4.000000,4.000000,4.000000,4.000000,4.000000,100.000000
1602006104.205252,16.000000,0.000000,4115.897461,4125.641113,4151.794922,4129.743652,4150.769043,4155.384766,4149.743652,4154.358887,4175.897461,4160.512695,4153.846191,4185.641113,4172.307617,4156.922852,0.000000,4.000000,,,,0.000000,4.000000,4.000000,4.000000,4.000000,4.000000,4.000000,4.000000,4.000000,4.000000,4.000000,4.000000,4.000000,4.000000,4.000000,100.000000
1602006104.213134,17.000000,0.000000,4109.743652,4121.538574,4140.000000,4127.179688,4142.563965,4152.307617,4150.256348,4152.820313,4171.794922,4146.666504,4153.333496,4175.897461,4171.794922,4162.563965,0.000000,4.000000,,,,0.000000,4.000000,4.000000,4.000000,4.000000,4.000000,4.000000,4.000000,4.000000,4.000000,4.000000,4.000000,4.000000,4.000000,4.000000,100.000000
1602006104.221016,18.000000,0.000000,4112.307617,4112.820313,4133.333496,4124.102539,4138.974121,4145.641113,4155.384766,4157.948730,4176.922852,4157.436035,4156.410156,4170.769043,4175.384766,4162.563965,0.000000,4.000000,,,,0.000000,4.000000,4.000000,4.000000,4.000000,4.000000,4.000000,4.000000,4.000000,4.000000,4.000000,4.000000,4.000000,4.000000,4.000000,100.000000
1602006104.228899,19.000000,0.000000,4107.692383,4107.179688,4132.820313,4124.102539,4142.051270,4140.000000,4148.205078,4155.384766,4172.307617,4160.512695,4149.743652,4168.717773,4168.717773,4151.282227,0.000000,4.000000,,,,0.000000,4.000000,4.000000,4.000000,4.000000,4.000000,4.000000,4.000000,4.000000,4.000000,4.000000,4.000000,4.000000,4.000000,4.000000,100.000000
1602006104.236781,20.000000,0.000000,4105.128418,4109.743652,4134.358887,4122.563965,4143.077148,4136.410156,4138.461426,4142.563965,4158.461426,4147.179688,4138.974121,4167.692383,4167.692383,4146.666504,0.000000,4.000000,,,,0.000000,4.000000,4.000000,4.000000,4.000000,4.000000,4.000000,4.000000,4.000000,4.000000,4.000000,4.000000,4.000000,4.000000,4.000000,100.000000
1602006104.244562,21.000000,0.000000,4110.769043,4111.794922,4136.922852,4122.563965,4141.538574,4130.256348,4136.922852,4136.922852,4150.256348,4137.436035,4141.538574,4169.743652,4166.153809,4151.282227,0.000000,4.000000,,,,0.000000,4.000000,4.000000,4.000000,4.000000,4.000000,4.000000,4.000000,4.000000,4.000000,4.000000,4.000000,4.000000,4.000000,4.000000,100.000000
1602006104.252443,22.000000,0.000000,4107.179688,4106.666504,4135.897461,4121.025879,4140.000000,4121.538574,4133.846191,4137.948730,4149.230957,4135.384766,4148.717773,4165.128418,4157.436035,4147.692383,0.000000,4.000000,,,,0.000000,4.000000,4.000000,4.000000,4.000000,4.000000,4.000000,4.000000,4.000000,4.000000,4.000000,4.000000,4.000000,4.000000,4.000000,100.000000
1602006104.260224,23.000000,0.000000,4102.563965,4104.102539,4132.820313,4115.897461,4137.436035,4122.051270,4130.769043,4135.384766,4150.769043,4138.974121,4145.641113,4155.897461,4162.563965,4142.563965,0.000000,4.000000,,,,0.000000,4.000000,4.000000,4.000000,4.000000,4.000000,4.000000,4.000000,4.000000,4.000000,4.000000,4.000000,4.000000,4.000000,4.000000,100.000000
1602006104.268206,24.000000,0.000000,4108.717773,4105.128418,4136.410156,4115.897461,4136.922852,4130.769043,4134.358887,4135.384766,4149.743652,4147.692383,4141.538574,4157.948730,4168.205078,4147.179688,0.000000,4.000000,,,,0.000000,4.000000,4.000000,4.000000,4.000000,4.000000,4.000000,4.000000,4.000000,4.000000,4.000000,4.000000,4.000000,4.000000,4.000000,100.000000
1602006104.276088,25.000000,0.000000,4110.769043,4106.153809,4140.000000,4121.025879,4138.461426,4136.410156,4136.922852,4137.436035,4148.717773,4153.333496,4143.077148,4169.743652,4158.461426,4152.307617,0.000000,4.000000,,,,0.000000,4.000000,4.000000,4.000000,4.000000,4.000000,4.000000,4.000000,4.000000,4.000000,4.000000,4.000000,4.000000,4.000000,4.000000,100.000000
1602006104.283969,26.000000,0.000000,4107.179688,4109.230957,4140.000000,4125.128418,4138.974121,4138.461426,4134.358887,4137.436035,4152.307617,4147.692383,4141.025879,4171.794922,4158.974121,4153.333496,0.000000,4.000000,,,,0.000000,4.000000,4.000000,4.000000,4.000000,4.000000,4.000000,4.000000,4.000000,4.000000,4.000000,4.000000,4.000000,4.000000,4.000000,100.000000
1602006104.291851,27.000000,0.000000,4106.666504,4111.282227,4137.948730,4125.128418,4140.000000,4139.487305,4137.436035,4144.102539,4155.897461,4145.128418,4144.615234,4169.230957,4172.307617,4156.922852,0.000000,4.000000,,,,0.000000,4.000000,4.000000,4.000000,4.000000,4.000000,4.000000,4.000000,4.000000,4.000000,4.000000,4.000000,4.000000,4.000000,4.000000,100.000000
1602006104.299733,28.000000,0.000000,4102.051270,4110.256348,4125.641113,4123.589844,4138.461426,4140.512695,4142.051270,4154.871582,4156.922852,4150.256348,4150.256348,4169.230957,4167.692383,4162.051270,0.000000,4.000000,,,,0.000000,4.000000,4.000000,4.000000,4.000000,4.000000,4.000000,4.000000,4.000000,4.000000,4.000000,4.000000,4.000000,4.000000,4.000000,100.000000
1602006104.307615,29.000000,0.000000,4089.230713,4106.666504,4109.743652,4122.563965,4134.358887,4139.487305,4140.512695,4155.897461,4155.384766,4145.128418,4144.102539,4160.512695,4154.358887,4151.282227,0.000000,4.000000,,,,0.000000,4.000000,4.000000,4.000000,4.000000,4.000000,4.000000,4.000000,4.000000,4.000000,4.000000,4.000000,4.000000,4.000000,4.000000,100.000000
1602006104.315497,30.000000,0.000000,4092.820557,4108.205078,4109.743652,4123.589844,4135.897461,4137.436035,4146.153809,4153.846191,4155.384766,4136.922852,4138.461426,4154.871582,4156.922852,4138.461426,0.000000,4.000000,,,,0.000000,4.000000,4.000000,4.000000,4.000000,4.000000,4.000000,4.000000,4.000000,4.000000,4.000000,4.000000,4.000000,4.000000,4.000000,100.000000
1602006104.323379,31.000000,0.000000,4105.641113,4114.871582,4120.000000,4123.589844,4137.948730,4137.436035,4150.769043,4156.410156,4155.384766,4143.077148,4141.025879,4158.974121,4167.179688,4139.487305,0.000000,4.000000,,,,0.000000,4.000000,4.000000,4.000000,4.000000,4.000000,4.000000,4.000000,4.000000,4.000000,4.000000,4.000000,4.000000,4.000000,4.000000,100.000000
1602006104.331161,32.000000,0.000000,4106.666504,4117.948730,4129.743652,4125.128418,4137.436035,4136.922852,4144.102539,4151.282227,4154.358887,4160.000000,4148.717773,4164.102539,4171.794922,4143.589844,0.000000,4.000000,,,,0.000000,4.000000,4.000000,4.000000,4.000000,4.000000,4.000000,4.000000,4.000000,4.000000,4.000000,4.000000,4.000000,4.000000,4.000000,100.000000
1602006104.339043,33.000000,0.000000,4106.666504,4116.922852,4134.871582,4128.717773,4142.051270,4140.000000,4138.461426,4140.512695,4153.846191,4161.538574,4150.769043,4165.128418,4169.230957,4144.102539,0.000000,4.000000,,,,0.000000,4.000000,4.000000,4.000000,4.000000,4.000000,4.000000,4.000000,4.000000,4.000000,4.000000,4.000000,4.000000,4.000000,4.000000,100.000000
1602006104.346925,34.000000,0.000000,4102.051270,4108.717773,4124.102539,4125.641113,4144.102539,4141.538574,4140.512695,4137.436035,4148.205078,4142.563965,4141.025879,4161.025879,4160.000000,4137.436035,0.000000,4.000000,,,,0.000000,4.000000,4.000000,4.000000,4.000000,4.000000,4.000000,4.000000,4.000000,4.000000,4.000000,4.000000,4.000000,4.000000,4.000000,100.000000
1602006104.354807,35.000000,0.000000,4086.153809,4098.461426,4111.282227,4116.922852,4137.436035,4141.538574,4141.025879,4137.436035,4144.615234,4136.922852,4132.820313,4150.769043,4149.230957,4130.769043,0.000000,4.000000,,,,0.000000,4.000000,4.000000,4.000000,4.000000,4.000000,4.000000,4.000000,4.000000,4.000000,4.000000,4.000000,4.000000,4.000000,4.000000,100.000000
1602006104.362690,36.000000,0.000000,4088.718018,4103.589844,4122.563965,4116.410156,4136.410156,4146.666504,4138.461426,4137.436035,4151.282227,4158.974121,4140.000000,4148.205078,4154.871582,4136.410156,0.000000,4.000000,,,,0.000000,4.000000,4.000000,4.000000,4.000000,4.000000,4.000000,4.000000,4.000000,4.000000,4.000000,4.000000,4.000000,4.000000,4.000000,100.000000
1602006104.370572,37.000000,0.000000,4116.410156,4121.538574,4142.051270,4129.743652,4142.051270,4150.769043,4140.512695,4147.692383,4158.461426,4171.282227,4154.871582,4164.102539,4172.820313,4154.358887,0.000000,4.000000,,,,0.000000,4.000000,4.000000,4.000000,4.000000,4.000000,4.000000,4.000000,4.000000,4.000000,4.000000,4.000000,4.000000,4.000000,4.000000,100.000000
1602006104.378454,38.000000,0.000000,4126.153809,4128.717773,4141.538574,4140.512695,4141.538574,4141.025879,4140.000000,4155.384766,4158.461426,4154.358887,4156.922852,4175.384766,4174.871582,4165.128418,0.000000,4.000000,,,,0.000000,4.000000,4.000000,4.000000,4.000000,4.000000,4.000000,4.000000,4.000000,4.000000,4.000000,4.000000,4.000000,4.000000,4.000000,100.000000
1602006104.386336,39.000000,0.000000,4110.769043,4120.000000,4134.358887,4134.871582,4134.358887,4118.461426,4130.769043,4143.589844,4152.820313,4124.615234,4144.615234,4165.641113,4160.000000,4152.820313,0.000000,4.000000,,,,0.000000,4.000000,4.000000,4.000000,4.000000,4.000000,4.000000,4.000000,4.000000,4.000000,4.000000,4.000000,4.000000,4.000000,4.000000,100.000000
1602006104.394118,40.000000,0.000000,4108.717773,4116.410156,4136.410156,4129.230957,4127.692383,4106.153809,4125.128418,4134.871582,4149.743652,4109.230957,4141.538574,4158.461426,4151.282227,4136.922852,0.000000,4.000000,,,,0.000000,4.000000,4.000000,4.000000,4.000000,4.000000,4.000000,4.000000,4.000000,4.000000,4.000000,4.000000,4.000000,4.000000,4.000000,100.000000
1602006104.402000,41.000000,0.000000,4122.051270,4120.512695,4142.563965,4135.384766,4128.205078,4111.794922,4132.307617,4144.615234,4152.820313,4132.820313,4153.333496,4166.666504,4155.897461,4138.974121,0.000000,4.000000,,,,0.000000,4.000000,4.000000,4.000000,4.000000,4.000000,4.000000,4.000000,4.000000,4.000000,4.000000,4.000000,4.000000,4.000000,4.000000,100.000000
1602006104.409882,42.000000,0.000000,4125.641113,4124.102539,4145.641113,4138.461426,4134.871582,4121.538574,4138.461426,4148.205078,4155.897461,4166.666504,4155.384766,4171.282227,4162.563965,4142.051270,0.000000,4.000000,,,,0.000000,4.000000,4.000000,4.000000,4.000000,4.000000,4.000000,4.000000,4.000000,4.000000,4.000000,4.000000,4.000000,4.000000,4.000000,100.000000
1602006104.417764,43.000000,0.000000,4120.000000,4123.589844,4144.102539,4137.436035,4137.948730,4126.666504,4135.384766,4140.000000,4153.333496,4170.256348,4148.717773,4165.641113,4166.153809,4137.436035,0.000000,4.000000,,,,0.000000,4.000000,4.000000,4.000000,4.000000,4.000000,4.000000,4.000000,4.000000,4.000000,4.000000,4.000000,4.000000,4.000000,4.000000,100.000000
1602006104.425645,44.000000,0.000000,4122.051270,4122.051270,4140.512695,4138.461426,4136.922852,4126.153809,4133.333496,4137.948730,4151.794922,4159.487305,4152.820313,4162.563965,4168.205078,4143.589844,0.000000,4.000000,,,,0.000000,4.000000,4.000000,4.000000,4.000000,4.000000,4.000000,4.000000,4.000000,4.000000,4.000000,4.000000,4.000000,4.000000,4.000000,100.000000
1602006104.433527,45.000000,0.000000,4124.615234,4125.641113,4136.410156,4135.384766,4135.384766,4123.589844,4136.922852,4141.538574,4153.846191,4155.384766,4154.358887,4161.025879,4166.666504,4157.948730,0.000000,4.000000,,,,0.000000,4.000000,4.000000,4.000000,4.000000,4.000000,4.000000,4.000000,4.000000,4.000000,4.000000,4.000000,4.000000,4.000000,4.000000,100.000000
1602006104.441409,46.000000,0.000000,4116.410156,4124.102539,4135.384766,4128.717773,4134.871582,4129.743652,4138.461426,4144.615234,4152.307617,4143.077148,4145.128418,4156.922852,4160.512695,4153.846191,0.000000,4.000000,,,,0.000000,4.000000,4.000000,4.000000,4.000000,4.000000,4.000000,4.000000,4.000000,4.000000,4.000000,4.000000,4.000000,4.000000,4.000000,100.000000
1602006104.449192,47.000000,0.000000,4106.153809,4115.897461,4135.897461,4123.077148,4134.871582,4133.333496,4137.436035,4145.641113,4143.589844,4124.102539,4135.897461,4152.307617,4152.307617,4134.358887,0.000000,4.000000,,,,0.000000,4.000000,4.000000,4.000000,4.000000,4.000000,4.000000,4.000000,4.000000,4.000000,4.000000,4.000000,4.000000,4.000000,4.000000,100.000000
1602006104.457074,48.000000,0.000000,4111.794922,4115.897461,4137.436035,4126.666504,4134.871582,4128.717773,4136.922852,4140.512695,4134.358887,4127.179688,4133.333496,4151.282227,4150.769043,4128.205078,0.000000,4.000000,,,,0.000000,4.000000,4.000000,4.000000,4.000000,4.000000,4.000000,4.000000,4.000000,4.000000,4.000000,4.000000,4.000000,4.000000,4.000000,100.000000
1602006104.464956,49.000000,0.000000,4121.025879,4124.102539,4140.000000,4136.922852,4136.922852,4132.820313,4135.384766,4138.461426,4133.333496,4147.179688,4143.589844,4151.794922,4154.358887,4147.179688,0.000000,4.000000,,,,0.000000,4.000000,4.000000,4.000000,4.000000,4.000000,4.000000,4.000000,4.000000,4.000000,4.000000,4.000000,4.000000,4.000000,4.000000,100.000000
1602006104.472839,50.000000,0.000000,4113.846191,4125.641113,4135.384766,4137.948730,4141.025879,4136.922852,4124.102539,4141.538574,4141.025879,4155.384766,4157.436035,4153.846191,4155.897461,4157.436035,0.000000,4.000000,,,,0.000000,4.000000,4.000000,4.000000,4.000000,4.000000,4.000000,4.000000,4.000000,4.000000,4.000000,4.000000,4.000000,4.000000,4.000000,100.000000
1602006104.480721,51.000000,0.000000,4101.538574,4116.922852,4124.615234,4128.717773,4138.974121,4125.128418,4114.871582,4139.487305,4144.615234,4155.384766,4153.333496,4152.820313,4154.358887,4143.077148,0.000000,4.000000,,,,0.000000,4.000000,4.000000,4.000000,4.000000,4.000000,4.000000,4.000000,4.000000,4.000000,4.000000,4.000000,4.000000,4.000000,4.000000,100.000000
1602006104.488603,52.000000,0.000000,4102.051270,4108.205078,4120.000000,4122.051270,4129.743652,4120.000000,4117.436035,4137.948730,4140.512695,4143.077148,4140.512695,4143.077148,4148.717773,4135.384766,0.000000,4.000000,,,,0.000000,4.000000,4.000000,4.000000,4.000000,4.000000,4.000000,4.000000,4.000000,4.000000,4.000000,4.000000,4.000000,4.000000,4.000000,100.000000
1602006104.496486,53.000000,0.000000,4106.666504,4105.128418,4122.563965,4122.051270,4128.717773,4124.102539,4123.589844,4138.461426,4139.487305,4114.871582,4139.487305,4136.410156,4139.487305,4140.512695,0.000000,4.000000,,,,0.000000,4.000000,4.000000,4.000000,4.000000,4.000000,4.000000,4.000000,4.000000,4.000000,4.000000,4.000000,4.000000,4.000000,4.000000,100.000000
1602006104.504368,54.000000,0.000000,4103.589844,4107.692383,4122.051270,4123.077148,4134.358887,4122.051270,4125.128418,4137.948730,4143.077148,4116.922852,4141.025879,4141.538574,4135.897461,4138.974121,0.000000,4.000000,,,,0.000000,4.000000,4.000000,4.000000,4.000000,4.000000,4.000000,4.000000,4.000000,4.000000,4.000000,4.000000,4.000000,4.000000,4.000000,100.000000
1602006104.512250,55.000000,0.000000,4103.589844,4108.717773,4119.487305,4123.077148,4136.922852,4126.666504,4127.179688,4143.077148,4143.077148,4146.153809,4139.487305,4145.128418,4144.102539,4137.436035,0.000000,4.000000,,,,0.000000,4.000000,4.000000,4.000000,4.000000,4.000000,4.000000,4.000000,4.000000,4.000000,4.000000,4.000000,4.000000,4.000000,4.000000,100.000000
1602006104.520032,56.000000,0.000000,4114.871582,4110.256348,4121.538574,4122.051270,4136.922852,4136.922852,4131.282227,4152.820313,4146.153809,4150.769043,4138.461426,4140.512695,4150.769043,4141.025879,0.000000,4.000000,,,,0.000000,4.000000,4.000000,4.000000,4.000000,4.000000,4.000000,4.000000,4.000000,4.000000,4.000000,4.000000,4.000000,4.000000,4.000000,100.000000
1602006104.527913,57.000000,0.000000,4125.641113,4120.000000,4126.153809,4126.666504,4135.384766,4137.948730,4134.871582,4153.333496,4151.794922,4144.615234,4130.256348,4138.974121,4144.615234,4140.000000,0.000000,4.000000,,,,0.000000,4.000000,4.000000,4.000000,4.000000,4.000000,4.000000,4.000000,4.000000,4.000000,4.000000,4.000000,4.000000,4.000000,4.000000,100.000000
1602006104.535795,58.000000,0.000000,4123.589844,4121.025879,4124.102539,4130.256348,4129.230957,4134.871582,4136.922852,4144.102539,4144.615234,4144.102539,4122.051270,4140.000000,4136.922852,4137.436035,0.000000,4.000000,,,,0.000000,4.000000,4.000000,4.000000,4.000000,4.000000,4.000000,4.000000,4.000000,4.000000,4.000000,4.000000,4.000000,4.000000,4.000000,100.000000
1602006104.543676,59.000000,0.000000,4119.487305,4114.358887,4120.512695,4125.641113,4128.205078,4136.922852,4133.333496,4137.948730,4134.358887,4126.153809,4123.077148,4139.487305,4136.922852,4136.410156,0.000000,4.000000,,,,0.000000,4.000000,4.000000,4.000000,4.000000,4.000000,4.000000,4.000000,4.000000,4.000000,4.000000,4.000000,4.000000,4.000000,4.000000,100.000000
1602006104.551558,60.000000,0.000000,4120.512695,4115.384766,4123.589844,4125.128418,4135.897461,4141.025879,4127.692383,4134.871582,4134.358887,4112.820313,4124.615234,4138.461426,4136.410156,4135.897461,0.000000,4.000000,,,,0.000000,4.000000,4.000000,4.000000,4.000000,4.000000,4.000000,4.000000,4.000000,4.000000,4.000000,4.000000,4.000000,4.000000,4.000000,100.000000
1602006104.559340,61.000000,0.000000,4109.230957,4118.461426,4120.512695,4128.205078,4137.436035,4136.922852,4121.538574,4127.692383,4127.692383,4118.974121,4122.563965,4132.307617,4129.230957,4131.282227,0.000000,4.000000,,,,0.000000,4.000000,4.000000,4.000000,4.000000,4.000000,4.000000,4.000000,4.000000,4.000000,4.000000,4.000000,4.000000,4.000000,4.000000,100.000000
1602006104.567222,62.000000,0.000000,4095.897461,4111.282227,4107.179688,4124.615234,4136.410156,4130.769043,4118.974121,4119.487305,4114.871582,4120.512695,4123.077148,4122.051270,4121.538574,4123.589844,0.000000,4.000000,,,,0.000000,4.000000,4.000000,4.000000,4.000000,4.000000,4.000000,4.000000,4.000000,4.000000,4.000000,4.000000,4.000000,4.000000,4.000000,100.000000
1602006104.575104,63.000000,0.000000,4100.512695,4106.153809,4103.589844,4120.512695,4140.512695,4133.333496,4121.538574,4122.051270,4115.384766,4118.974121,4123.589844,4119.487305,4122.563965,4116.410156,0.000000,4.000000,,,,0.000000,4.000000,4.000000,4.000000,4.000000,4.000000,4.000000,4.000000,4.000000,4.000000,4.000000,4.000000,4.000000,4.000000,4.000000,100.000000
1602006104.582986,64.000000,0.000000,4107.692383,4112.820313,4113.846191,4122.563965,4141.538574,4138.974121,4123.589844,4134.871582,4127.692383,4126.666504,4122.051270,4125.641113,4133.846191,4120.000000,758.000000,4.000000,,,,0.000000,4.000000,4.000000,4.000000,4.000000,4.000000,4.000000,4.000000,4.000000,4.000000,4.000000,4.000000,4.000000,4.000000,4.000000,100.000000
1602006104.590868,65.000000,0.000000,4105.128418,4119.487305,4120.000000,4126.153809,4138.974121,4132.307617,4122.563965,4140.512695,4135.384766,4134.871582,4129.230957,4133.846191,4138.461426,4130.769043,768.000000,4.000000,,,,0.000000,4.000000,4.000000,4.000000,4.000000,4.000000,4.000000,4.000000,4.000000,4.000000,4.000000,4.000000,4.000000,4.000000,4.000000,100.000000
1602006104.598750,66.000000,0.000000,4108.717773,4122.563965,4126.153809,4129.230957,4137.436035,4123.077148,4124.102539,4139.487305,4134.871582,4145.128418,4144.102539,4141.025879,4141.025879,4138.461426,822.000000,4.000000,,,,0.000000,4.000000,4.000000,4.000000,4.000000,4.000000,4.000000,4.000000,4.000000,4.000000,4.000000,4.000000,4.000000,4.000000,4.000000,100.000000
1602006104.606633,67.000000,0.000000,4117.948730,4124.615234,4136.410156,4128.717773,4135.897461,4128.717773,4134.358887,4146.153809,4143.077148,4154.871582,4154.871582,4153.333496,4151.282227,4145.128418,870.000000,4.000000,,,,0.000000,4.000000,4.000000,4.000000,4.000000,4.000000,4.000000,4.000000,4.000000,4.000000,4.000000,4.000000,4.000000,4.000000,4.000000,100.000000
1602006104.614515,68.000000,0.000000,4122.563965,4123.077148,4141.025879,4125.641113,4136.922852,4136.922852,4140.512695,4155.897461,4152.820313,4156.410156,4152.307617,4167.692383,4158.461426,4155.897461,809.000000,4.000000,,,,0.000000,4.000000,4.000000,4.000000,4.000000,4.000000,4.000000,4.000000,4.000000,4.000000,4.000000,4.000000,4.000000,4.000000,4.000000,100.000000
1602006104.622296,69.000000,0.000000,4126.153809,4121.025879,4141.025879,4127.692383,4137.436035,4135.897461,4136.922852,4154.358887,4147.692383,4154.871582,4145.128418,4169.743652,4156.922852,4165.128418,827.000000,4.000000,,,,0.000000,4.000000,4.000000,4.000000,4.000000,4.000000,4.000000,4.000000,4.000000,4.000000,4.000000,4.000000,4.000000,4.000000,4.000000,100.000000
1602006104.630178,70.000000,0.000000,4127.692383,4123.077148,4144.102539,4129.743652,4135.897461,4134.871582,4135.897461,4144.102539,4137.948730,4156.410156,4140.512695,4162.051270,4157.436035,4165.641113,775.000000,4.000000,,,,0.000000,4.000000,4.000000,4.000000,4.000000,4.000000,4.000000,4.000000,4.000000,4.000000,4.000000,4.000000,4.000000,4.000000,4.000000,100.000000
1602006104.638059,71.000000,0.000000,4122.051270,4121.025879,4141.538574,4124.102539,4133.846191,4137.948730,4137.948730,4137.436035,4137.436035,4151.794922,4141.538574,4155.384766,4157.948730,4156.410156,637.000000,4.000000,,,,0.000000,4.000000,4.000000,4.000000,4.000000,4.000000,4.000000,4.000000,4.000000,4.000000,4.000000,4.000000,4.000000,4.000000,4.000000,100.000000
1602006104.645940,72.000000,0.000000,4113.846191,4114.358887,4129.230957,4119.487305,4134.358887,4137.436035,4137.436035,4136.410156,4135.897461,4143.589844,4139.487305,4149.230957,4146.666504,4142.563965,785.000000,4.000000,,,,0.000000,4.000000,4.000000,4.000000,4.000000,4.000000,4.000000,4.000000,4.000000,4.000000,4.000000,4.000000,4.000000,4.000000,4.000000,100.000000
1602006104.653922,73.000000,0.000000,4110.256348,4112.307617,4121.538574,4120.512695,4136.922852,4137.948730,4138.974121,4135.384766,4127.692383,4142.051270,4129.230957,4141.025879,4136.410156,4135.384766,841.000000,4.000000,,,,0.000000,4.000000,4.000000,4.000000,4.000000,4.000000,4.000000,4.000000,4.000000,4.000000,4.000000,4.000000,4.000000,4.000000,4.000000,100.000000
1602006104.661804,74.000000,0.000000,4113.846191,4111.282227,4120.512695,4120.000000,4132.307617,4141.025879,4139.487305,4133.333496,4121.025879,4136.410156,4128.205078,4136.410156,4135.384766,4131.282227,871.000000,4.000000,,,,0.000000,4.000000,4.000000,4.000000,4.000000,4.000000,4.000000,4.000000,4.000000,4.000000,4.000000,4.000000,4.000000,4.000000,4.000000,100.000000
1602006104.669687,75.000000,0.000000,4117.948730,4115.384766,4123.077148,4119.487305,4128.205078,4141.025879,4135.897461,4133.846191,4118.974121,4123.589844,4136.922852,4142.563965,4138.461426,4126.666504,839.000000,4.000000,,,,0.000000,4.000000,4.000000,4.000000,4.000000,4.000000,4.000000,4.000000,4.000000,4.000000,4.000000,4.000000,4.000000,4.000000,4.000000,100.000000
1602006104.677569,76.000000,0.000000,4122.563965,4121.538574,4132.820313,4123.589844,4135.384766,4140.512695,4134.358887,4137.436035,4122.051270,4124.615234,4139.487305,4154.358887,4143.589844,4138.461426,768.000000,4.000000,,,,0.000000,4.000000,4.000000,4.000000,4.000000,4.000000,4.000000,4.000000,4.000000,4.000000,4.000000,4.000000,4.000000,4.000000,4.000000,100.000000
1602006104.685451,77.000000,0.000000,4131.794922,4126.153809,4141.538574,4133.333496,4142.563965,4138.974121,4134.871582,4138.974121,4134.358887,4141.025879,4143.077148,4159.487305,4153.846191,4156.922852,747.000000,4.000000,,,,0.000000,4.000000,4.000000,4.000000,4.000000,4.000000,4.000000,4.000000,4.000000,4.000000,4.000000,4.000000,4.000000,4.000000,4.000000,100.000000
1602006104.693333,78.000000,0.000000,4140.000000,4132.820313,4141.538574,4139.487305,4142.563965,4137.948730,4133.846191,4139.487305,4151.794922,4160.000000,4157.436035,4153.846191,4162.051270,4158.974121,871.000000,4.000000,,,,0.000000,4.000000,4.000000,4.000000,4.000000,4.000000,4.000000,4.000000,4.000000,4.000000,4.000000,4.000000,4.000000,4.000000,4.000000,100.000000
1602006104.701215,79.000000,0.000000,4141.025879,4136.410156,4140.512695,4141.025879,4141.025879,4141.025879,4137.948730,4146.666504,4157.948730,4178.461426,4161.538574,4153.846191,4162.051270,4156.922852,839.000000,4.000000,,,,0.000000,4.000000,4.000000,4.000000,4.000000,4.000000,4.000000,4.000000,4.000000,4.000000,4.000000,4.000000,4.000000,4.000000,4.000000,100.000000
1602006104.709097,80.000000,0.000000,4134.358887,4129.743652,4140.512695,4139.487305,4140.000000,4141.538574,4149.230957,4155.384766,4146.666504,4176.922852,4149.743652,4155.384766,4160.000000,4156.922852,768.000000,4.000000,,,,0.000000,4.000000,4.000000,4.000000,4.000000,4.000000,4.000000,4.000000,4.000000,4.000000,4.000000,4.000000,4.000000,4.000000,4.000000,100.000000
1602006104.717079,81.000000,0.000000,4126.153809,4123.077148,4134.358887,4132.820313,4136.922852,4137.948730,4151.282227,4152.307617,4132.307617,4143.589844,4140.512695,4141.538574,4149.230957,4143.589844,747.000000,4.000000,,,,0.000000,4.000000,4.000000,4.000000,4.000000,4.000000,4.000000,4.000000,4.000000,4.000000,4.000000,4.000000,4.000000,4.000000,4.000000,100.000000
1602006104.724961,82.000000,0.000000,4113.333496,4119.487305,4121.025879,4123.589844,4131.794922,4137.436035,4141.538574,4141.025879,4117.948730,4108.717773,4131.282227,4121.025879,4130.256348,4126.666504,871.000000,4.000000,,,,0.000000,4.000000,4.000000,4.000000,4.000000,4.000000,4.000000,4.000000,4.000000,4.000000,4.000000,4.000000,4.000000,4.000000,4.000000,100.000000
1602006104.732843,83.000000,0.000000,4105.641113,4111.794922,4109.230957,4121.025879,4126.153809,4134.871582,4136.410156,4132.820313,4104.102539,4105.641113,4121.538574,4109.230957,4117.948730,4118.461426,839.000000,4.000000,,,,0.000000,4.000000,4.000000,4.000000,4.000000,4.000000,4.000000,4.000000,4.000000,4.000000,4.000000,4.000000,4.000000,4.000000,4.000000,100.000000
1602006104.740725,84.000000,0.000000,4114.871582,4111.282227,4110.769043,4126.666504,4126.153809,4127.179688,4138.974121,4133.846191,4103.077148,4123.589844,4117.436035,4111.282227,4119.487305,4117.948730,768.000000,4.000000,,,,0.000000,4.000000,4.000000,4.000000,4.000000,4.000000,4.000000,4.000000,4.000000,4.000000,4.000000,4.000000,4.000000,4.000000,4.000000,100.000000
1602006104.748606,85.000000,0.000000,4121.025879,4117.948730,4117.948730,4124.615234,4126.666504,4122.051270,4132.307617,4132.307617,4109.230957,4128.205078,4118.461426,4118.461426,4120.000000,4118.461426,747.000000,4.000000,,,,0.000000,4.000000,4.000000,4.000000,4.000000,4.000000,4.000000,4.000000,4.000000,4.000000,4.000000,4.000000,4.000000,4.000000,4.000000,100.000000
1602006104.756488,86.000000,0.000000,4116.922852,4118.461426,4118.974121,4118.461426,4123.589844,4119.487305,4120.000000,4124.102539,4111.794922,4122.563965,4124.102539,4123.589844,4118.461426,4120.512695,871.000000,4.000000,,,,0.000000,4.000000,4.000000,4.000000,4.000000,4.000000,4.000000,4.000000,4.000000,4.000000,4.000000,4.000000,4.000000,4.000000,4.000000,100.000000
1602006104.764470,87.000000,0.000000,4124.615234,4120.000000,4126.153809,4126.153809,4124.615234,4119.487305,4124.102539,4124.615234,4116.922852,4133.333496,4136.922852,4133.333496,4129.743652,4134.358887,839.000000,4.000000,,,,0.000000,4.000000,4.000000,4.000000,4.000000,4.000000,4.000000,4.000000,4.000000,4.000000,4.000000,4.000000,4.000000,4.000000,4.000000,100.000000
1602006104.772352,88.000000,0.000000,4147.179688,4128.717773,4140.000000,4140.000000,4128.717773,4124.615234,4135.897461,4135.384766,4125.641113,4139.487305,4148.205078,4148.717773,4147.179688,4160.000000,768.000000,4.000000,,,,0.000000,4.000000,4.000000,4.000000,4.000000,4.000000,4.000000,4.000000,4.000000,4.000000,4.000000,4.000000,4.000000,4.000000,4.000000,100.000000
1602006104.780234,89.000000,0.000000,4156.410156,4131.794922,4148.205078,4141.538574,4124.615234,4128.205078,4136.410156,4138.974121,4128.205078,4123.077148,4150.256348,4156.410156,4152.820313,4173.846191,747.000000,4.000000,,,,0.000000,4.000000,4.000000,4.000000,4.000000,4.000000,4.000000,4.000000,4.000000,4.000000,4.000000,4.000000,4.000000,4.000000,4.000000,100.000000
1602006104.788116,90.000000,0.000000,4151.282227,4125.641113,4151.794922,4135.384766,4119.487305,4127.692383,4134.358887,4138.461426,4128.205078,4120.512695,4155.897461,4160.000000,4156.922852,4172.307617,871.000000,4.000000,,,,0.000000,4.000000,4.000000,4.000000,4.000000,4.000000,4.000000,4.000000,4.000000,4.000000,4.000000,4.000000,4.000000,4.000000,4.000000,100.000000
1602006104.795998,91.000000,0.000000,4150.769043,4122.051270,4158.461426,4136.410156,4127.692383,4128.717773,4139.487305,4147.692383,4129.743652,4146.153809,4161.025879,4168.717773,4166.153809,4175.384766,839.000000,4.000000,,,,0.000000,4.000000,4.000000,4.000000,4.000000,4.000000,4.000000,4.000000,4.000000,4.000000,4.000000,4.000000,4.000000,4.000000,4.000000,100.000000
1602006104.803880,92.000000,0.000000,4154.871582,4126.666504,4155.897461,4140.512695,4141.025879,4128.717773,4142.051270,4152.307617,4129.230957,4163.589844,4151.794922,4172.307617,4162.563965,4176.922852,768.000000,4.000000,,,,0.000000,4.000000,4.000000,4.000000,4.000000,4.000000,4.000000,4.000000,4.000000,4.000000,4.000000,4.000000,4.000000,4.000000,4.000000,100.000000
1602006104.811761,93.000000,0.000000,4150.256348,4134.358887,4142.563965,4140.512695,4142.051270,4125.641113,4137.948730,4144.615234,4125.128418,4157.948730,4145.128418,4158.461426,4152.820313,4164.615234,747.000000,4.000000,,,,0.000000,4.000000,4.000000,4.000000,4.000000,4.000000,4.000000,4.000000,4.000000,4.000000,4.000000,4.000000,4.000000,4.000000,4.000000,100.000000
1602006104.819743,94.000000,0.000000,4138.974121,4134.871582,4134.871582,4138.974121,4137.948730,4121.538574,4132.820313,4142.563965,4125.128418,4143.077148,4149.230957,4141.025879,4153.846191,4155.897461,871.000000,4.000000,,,,0.000000,4.000000,4.000000,4.000000,4.000000,4.000000,4.000000,4.000000,4.000000,4.000000,4.000000,4.000000,4.000000,4.000000,4.000000,100.000000
1602006104.827625,95.000000,0.000000,4138.461426,4129.743652,4135.897461,4138.974121,4138.461426,4123.077148,4131.794922,4149.743652,4135.384766,4145.128418,4149.230957,4137.948730,4156.410156,4156.410156,839.000000,4.000000,,,,0.000000,4.000000,4.000000,4.000000,4.000000,4.000000,4.000000,4.000000,4.000000,4.000000,4.000000,4.000000,4.000000,4.000000,4.000000,100.000000
1602006104.835506,96.000000,0.000000,4141.025879,4125.641113,4130.769043,4138.974121,4140.000000,4132.307617,4138.461426,4149.230957,4141.538574,4162.051270,4138.461426,4136.410156,4149.743652,4150.769043,768.000000,4.000000,,,,0.000000,4.000000,4.000000,4.000000,4.000000,4.000000,4.000000,4.000000,4.000000,4.000000,4.000000,4.000000,4.000000,4.000000,4.000000,100.000000
1602006104.843388,97.000000,0.000000,4137.436035,4124.615234,4121.538574,4136.922852,4131.794922,4138.974121,4147.692383,4145.641113,4136.922852,4158.461426,4135.897461,4128.717773,4143.589844,4142.051270,747.000000,4.000000,,,,0.000000,4.000000,4.000000,4.000000,4.000000,4.000000,4.000000,4.000000,4.000000,4.000000,4.000000,4.000000,4.000000,4.000000,4.000000,100.000000
1602006104.851270,98.000000,0.000000,4138.974121,4123.589844,4129.743652,4136.922852,4121.025879,4137.436035,4147.692383,4149.743652,4137.948730,4140.000000,4144.615234,4129.743652,4147.179688,4142.051270,871.000000,4.000000,,,,0.000000,4.000000,4.000000,4.000000,4.000000,4.000000,4.000000,4.000000,4.000000,4.000000,4.000000,4.000000,4.000000,4.000000,4.000000,100.000000
1602006104.859151,99.000000,0.000000,4142.051270,4127.179688,4143.077148,4137.436035,4119.487305,4135.384766,4142.051270,4148.205078,4147.179688,4138.461426,4152.820313,4139.487305,4154.871582,4147.179688,839.000000,4.000000,,,,0.000000,4.000000,4.000000,4.000000,4.000000,4.000000,4.000000,4.000000,4.000000,4.000000,4.000000,4.000000,4.000000,4.000000,4.000000,100.000000
1602006104.866933,100.000000,0.000000,4138.974121,4124.615234,4143.077148,4130.256348,4122.563965,4133.333496,4138.974121,4138.974121,4140.512695,4141.025879,4155.897461,4139.487305,4153.333496,4147.179688,768.000000,4.000000,,,,0.000000,4.000000,4.000000,4.000000,4.000000,4.000000,4.000000,4.000000,4.000000,4.000000,4.000000,4.000000,4.000000,4.000000,4.000000,100.000000
1602006104.874816,101.000000,0.000000,4134.871582,4112.820313,4134.358887,4122.563965,4122.051270,4125.128418,4134.358887,4133.846191,4123.077148,4130.769043,4149.230957,4136.410156,4141.025879,4139.487305,747.000000,4.000000,,,,0.000000,4.000000,4.000000,4.000000,4.000000,4.000000,4.000000,4.000000,4.000000,4.000000,4.000000,4.000000,4.000000,4.000000,4.000000,100.000000
1602006104.882698,102.000000,0.000000,4134.871582,4112.307617,4129.230957,4122.563965,4127.179688,4123.589844,4126.666504,4133.846191,4120.512695,4140.000000,4140.512695,4138.461426,4136.410156,4136.922852,871.000000,4.000000,,,,0.000000,4.000000,4.000000,4.000000,4.000000,4.000000,4.000000,4.000000,4.000000,4.000000,4.000000,4.000000,4.000000,4.000000,4.000000,100.000000
1602006104.890580,103.000000,0.000000,4137.436035,4123.077148,4130.769043,4124.102539,4138.974121,4134.358887,4122.563965,4126.153809,4124.615234,4156.410156,4137.436035,4136.410156,4140.512695,4141.538574,839.000000,4.000000,,,,0.000000,4.000000,4.000000,4.000000,4.000000,4.000000,4.000000,4.000000,4.000000,4.000000,4.000000,4.000000,4.000000,4.000000,4.000000,100.000000
1602006104.898462,104.000000,0.000000,4136.410156,4124.615234,4130.256348,4125.128418,4141.538574,4134.358887,4122.563965,4120.512695,4114.871582,4150.769043,4128.205078,4128.205078,4133.333496,4133.846191,768.000000,4.000000,,,,0.000000,4.000000,4.000000,4.000000,4.000000,4.000000,4.000000,4.000000,4.000000,4.000000,4.000000,4.000000,4.000000,4.000000,4.000000,100.000000
1602006104.906344,105.000000,0.000000,4129.230957,4117.948730,4121.025879,4123.589844,4135.897461,4126.666504,4122.051270,4125.641113,4107.692383,4134.871582,4111.794922,4121.538574,4120.512695,4120.512695,747.000000,4.000000,,,,0.000000,4.000000,4.000000,4.000000,4.000000,4.000000,4.000000,4.000000,4.000000,4.000000,4.000000,4.000000,4.000000,4.000000,4.000000,100.000000
1602006104.914226,106.000000,0.000000,4124.615234,4117.948730,4115.897461,4121.025879,4130.256348,4132.820313,4126.666504,4136.922852,4121.538574,4122.051270,4114.358887,4122.563965,4121.025879,4121.538574,871.000000,4.000000,,,,0.000000,4.000000,4.000000,4.000000,4.000000,4.000000,4.000000,4.000000,4.000000,4.000000,4.000000,4.000000,4.000000,4.000000,4.000000,100.000000
1602006104.922108,107.000000,0.000000,4122.563965,4121.025879,4119.487305,4120.512695,4126.153809,4141.538574,4138.974121,4148.717773,4140.000000,4116.410156,4127.692383,4126.666504,4124.615234,4124.615234,839.000000,4.000000,,,,0.000000,4.000000,4.000000,4.000000,4.000000,4.000000,4.000000,4.000000,4.000000,4.000000,4.000000,4.000000,4.000000,4.000000,4.000000,100.000000
1602006104.929990,108.000000,0.000000,4120.000000,4119.487305,4119.487305,4121.538574,4123.077148,4136.922852,4145.128418,4156.410156,4143.589844,4118.461426,4127.179688,4134.358887,4121.538574,4127.179688,768.000000,4.000000,,,,0.000000,4.000000,4.000000,4.000000,4.000000,4.000000,4.000000,4.000000,4.000000,4.000000,4.000000,4.000000,4.000000,4.000000,4.000000,100.000000
1602006104.937772,109.000000,0.000000,4128.717773,4120.512695,4125.641113,4121.538574,4122.051270,4135.897461,4142.563965,4158.461426,4143.589844,4123.077148,4132.307617,4148.205078,4128.205078,4137.436035,747.000000,4.000000,,,,0.000000,4.000000,4.000000,4.000000,4.000000,4.000000,4.000000,4.000000,4.000000,4.000000,4.000000,4.000000,4.000000,4.000000,4.000000,100.000000
1602006104.945653,110.000000,0.000000,4142.051270,4126.153809,4138.461426,4128.205078,4124.102539,4138.461426,4137.948730,4151.794922,4150.769043,4134.871582,4144.615234,4155.897461,4140.000000,4145.128418,871.000000,4.000000,,,,0.000000,4.000000,4.000000,4.000000,4.000000,4.000000,4.000000,4.000000,4.000000,4.000000,4.000000,4.000000,4.000000,4.000000,4.000000,100.000000
1602006104.953535,111.000000,0.000000,4142.563965,4130.769043,4143.589844,4135.897461,4126.666504,4128.205078,4129.743652,4140.512695,4153.846191,4157.436035,4142.563965,4156.410156,4142.051270,4143.589844,839.000000,4.000000,,,,0.000000,4.000000,4.000000,4.000000,4.000000,4.000000,4.000000,4.000000,4.000000,4.000000,4.000000,4.000000,4.000000,4.000000,4.000000,100.000000
1602006104.961416,112.000000,0.000000,4140.512695,4130.256348,4141.538574,4138.461426,4130.769043,4118.974121,4120.512695,4131.794922,4146.153809,4157.436035,4136.922852,4153.846191,4141.538574,4143.077148,768.000000,4.000000,,,,0.000000,4.000000,4.000000,4.000000,4.000000,4.000000,4.000000,4.000000,4.000000,4.000000,4.000000,4.000000,4.000000,4.000000,4.000000,100.000000
1602006104.969297,113.000000,0.000000,4141.025879,4128.205078,4134.871582,4134.871582,4137.948730,4120.000000,4118.974121,4122.563965,4132.820313,4127.692383,4137.948730,4145.128418,4134.871582,4136.410156,747.000000,4.000000,,,,0.000000,4.000000,4.000000,4.000000,4.000000,4.000000,4.000000,4.000000,4.000000,4.000000,4.000000,4.000000,4.000000,4.000000,4.000000,100.000000
1602006104.977079,114.000000,0.000000,4136.922852,4124.615234,4124.615234,4127.692383,4143.077148,4123.077148,4118.461426,4112.307617,4124.615234,4111.282227,4130.769043,4134.871582,4124.102539,4125.128418,871.000000,4.000000,,,,0.000000,4.000000,4.000000,4.000000,4.000000,4.000000,4.000000,4.000000,4.000000,4.000000,4.000000,4.000000,4.000000,4.000000,4.000000,100.000000
1602006104.984961,115.000000,0.000000,4133.333496,4122.051270,4117.436035,4122.051270,4140.512695,4119.487305,4112.307617,4109.743652,4120.512695,4105.128418,4112.820313,4127.179688,4116.410156,4121.538574,839.000000,4.000000,,,,0.000000,4.000000,4.000000,4.000000,4.000000,4.000000,4.000000,4.000000,4.000000,4.000000,4.000000,4.000000,4.000000,4.000000,4.000000,100.000000
1602006104.992843,116.000000,0.000000,4136.410156,4123.589844,4119.487305,4123.589844,4137.436035,4120.000000,4113.333496,4117.948730,4122.563965,4095.384521,4105.128418,4125.641113,4112.820313,4120.000000,768.000000,4.000000,,,,0.000000,4.000000,4.000000,4.000000,4.000000,4.000000,4.000000,4.000000,4.000000,4.000000,4.000000,4.000000,4.000000,4.000000,4.000000,100.000000
1602006105.000725,117.000000,0.000000,4137.436035,4126.666504,4123.077148,4127.179688,4139.487305,4131.794922,4123.077148,4130.256348,4134.358887,4109.230957,4116.410156,4132.307617,4115.897461,4118.461426,747.000000,4.000000,,,,0.000000,4.000000,4.000000,4.000000,4.000000,4.000000,4.000000,4.000000,4.000000,4.000000,4.000000,4.000000,4.000000,4.000000,4.000000,100.000000
1602006105.008607,118.000000,0.000000,4136.922852,4125.128418,4123.589844,4124.102539,4136.922852,4134.871582,4123.589844,4137.436035,4140.512695,4128.717773,4124.615234,4139.487305,4120.000000,4126.153809,871.000000,4.000000,,,,0.000000,4.000000,4.000000,4.000000,4.000000,4.000000,4.000000,4.000000,4.000000,4.000000,4.000000,4.000000,4.000000,4.000000,4.000000,100.000000
1602006105.016489,119.000000,0.000000,4140.512695,4124.615234,4124.102539,4123.077148,4130.256348,4126.153809,4123.077148,4137.948730,4137.948730,4126.153809,4121.538574,4141.538574,4123.077148,4136.922852,839.000000,4.000000,,,,0.000000,4.000000,4.000000,4.000000,4.000000,4.000000,4.000000,4.000000,4.000000,4.000000,4.000000,4.000000,4.000000,4.000000,4.000000,100.000000
1602006105.024371,120.000000,0.000000,4142.563965,4130.769043,4130.256348,4129.743652,4125.641113,4123.077148,4132.307617,4136.922852,4143.589844,4125.641113,4129.743652,4148.717773,4134.358887,4137.436035,768.000000,4.000000,,,,0.000000,4.000000,4.000000,4.000000,4.000000,4.000000,4.000000,4.000000,4.000000,4.000000,4.000000,4.000000,4.000000,4.000000,4.000000,100.000000
1602006105.032352,121.000000,0.000000,4142.563965,4135.384766,4137.436035,4135.897461,4125.641113,4124.102539,4134.871582,4139.487305,4155.897461,4135.897461,4142.563965,4150.256348,4145.128418,4133.846191,747.000000,4.000000,,,,0.000000,4.000000,4.000000,4.000000,4.000000,4.000000,4.000000,4.000000,4.000000,4.000000,4.000000,4.000000,4.000000,4.000000,4.000000,100.000000
1602006105.040234,122.000000,0.000000,4149.230957,4136.410156,4139.487305,4138.974121,4130.256348,4121.538574,4129.230957,4139.487305,4154.358887,4140.000000,4141.538574,4140.000000,4144.102539,4134.871582,871.000000,4.000000,,,,0.000000,4.000000,4.000000,4.000000,4.000000,4.000000,4.000000,4.000000,4.000000,4.000000,4.000000,4.000000,4.000000,4.000000,4.000000,100.000000
1602006105.048116,123.000000,0.000000,4152.307617,4133.333496,4138.974121,4138.461426,4134.871582,4120.000000,4128.205078,4130.769043,4144.102539,4136.410156,4140.512695,4136.410156,4142.051270,4134.358887,839.000000,4.000000,,,,0.000000,4.000000,4.000000,4.000000,4.000000,4.000000,4.000000,4.000000,4.000000,4.000000,4.000000,4.000000,4.000000,4.000000,4.000000,100.000000
1602006105.055998,124.000000,0.000000,4141.025879,4124.615234,4139.487305,4136.922852,4135.897461,4117.436035,4127.179688,4121.025879,4132.820313,4130.256348,4142.563965,4140.000000,4141.025879,4130.256348,768.000000,4.000000,,,,0.000000,4.000000,4.000000,4.000000,4.000000,4.000000,4.000000,4.000000,4.000000,4.000000,4.000000,4.000000,4.000000,4.000000,4.000000,100.000000
1602006105.063880,125.000000,0.000000,4133.846191,4122.563965,4141.025879,4136.922852,4134.871582,4115.897461,4121.538574,4112.820313,4122.563965,4117.436035,4136.922852,4142.051270,4136.410156,4123.077148,747.000000,4.000000,,,,0.000000,4.000000,4.000000,4.000000,4.000000,4.000000,4.000000,4.000000,4.000000,4.000000,4.000000,4.000000,4.000000,4.000000,4.000000,100.000000
1602006105.071762,126.000000,0.000000,4135.897461,4132.307617,4140.512695,4138.461426,4137.436035,4120.000000,4112.307617,4107.692383,4118.974121,4111.794922,4135.384766,4141.025879,4134.871582,4124.615234,871.000000,4.000000,,,,0.000000,4.000000,4.000000,4.000000,4.000000,4.000000,4.000000,4.000000,4.000000,4.000000,4.000000,4.000000,4.000000,4.000000,4.000000,100.000000
1602006105.079644,127.000000,0.000000,4137.948730,4137.436035,4137.948730,4136.922852,4145.128418,4121.538574,4105.128418,4107.179688,4121.025879,4121.025879,4137.948730,4137.948730,4134.871582,4134.358887,839.000000,4.000000,,,,0.000000,4.000000,4.000000,4.000000,4.000000,4.000000,4.000000,4.000000,4.000000,4.000000,4.000000,4.000000,4.000000,4.000000,4.000000,100.000000
1602006105.087426,128.000000,0.000000,4140.000000,4138.974121,4136.410156,4138.974121,4153.846191,4125.641113,4109.230957,4118.461426,4133.846191,4135.897461,4134.871582,4142.563965,4138.974121,4139.487305,768.000000,4.000000,,,,0.000000,4.000000,4.000000,4.000000,4.000000,4.000000,4.000000,4.000000,4.000000,4.000000,4.000000,4.000000,4.000000,4.000000,4.000000,100.000000
1602006105.095309,0.000000,0.000000,4138.461426,4142.563965,4138.461426,4146.666504,4156.922852,4136.410156,4122.051270,4135.897461,4153.333496,4151.282227,4141.538574,4155.384766,4150.769043,4145.128418,774.000000,4.000000,,,,0.000000,4.000000,4.000000,4.000000,4.000000,4.000000,4.000000,4.000000,4.000000,4.000000,4.000000,4.000000,4.000000,4.000000,4.000000,100.000000
1602006105.103191,1.000000,0.000000,4138.974121,4142.563965,4140.512695,4144.102539,4150.256348,4137.948730,4131.794922,4143.589844,4160.512695,4156.922852,4156.410156,4157.948730,4157.948730,4152.820313,778.000000,4.000000,,,,0.000000,4.000000,4.000000,4.000000,4.000000,4.000000,4.000000,4.000000,4.000000,4.000000,4.000000,4.000000,4.000000,4.000000,4.000000,100.000000
1602006105.111073,2.000000,0.000000,4150.256348,4139.487305,4140.512695,4133.846191,4141.025879,4135.384766,4136.410156,4143.077148,4151.282227,4147.692383,4154.358887,4153.333496,4149.743652,4153.846191,833.000000,4.000000,,,,0.000000,4.000000,4.000000,4.000000,4.000000,4.000000,4.000000,4.000000,4.000000,4.000000,4.000000,4.000000,4.000000,4.000000,4.000000,100.000000
1602006105.118956,3.000000,0.000000,4153.333496,4133.846191,4140.000000,4134.871582,4137.948730,4138.974121,4138.974121,4135.384766,4134.358887,4132.307617,4140.512695,4158.974121,4140.000000,4148.717773,870.000000,4.000000,,,,0.000000,4.000000,4.000000,4.000000,4.000000,4.000000,4.000000,4.000000,4.000000,4.000000,4.000000,4.000000,4.000000,4.000000,4.000000,100.000000
1602006105.126838,4.000000,0.000000,4138.974121,4128.205078,4138.974121,4134.871582,4138.974121,4135.384766,4141.025879,4125.641113,4118.461426,4121.025879,4138.461426,4165.128418,4138.974121,4144.102539,809.000000,4.000000,,,,0.000000,4.000000,4.000000,4.000000,4.000000,4.000000,4.000000,4.000000,4.000000,4.000000,4.000000,4.000000,4.000000,4.000000,4.000000,100.000000
1602006105.134720,5.000000,0.000000,4132.820313,4128.205078,4135.897461,4125.641113,4137.436035,4126.666504,4135.897461,4121.025879,4113.333496,4113.333496,4140.512695,4158.461426,4138.461426,4140.000000,826.000000,4.000000,,,,0.000000,4.000000,4.000000,4.000000,4.000000,4.000000,4.000000,4.000000,4.000000,4.000000,4.000000,4.000000,4.000000,4.000000,4.000000,100.000000
1602006105.142603,6.000000,0.000000,4146.666504,4139.487305,4134.871582,4127.179688,4137.436035,4125.641113,4124.102539,4122.563965,4119.487305,4120.000000,4137.436035,4153.846191,4140.000000,4144.102539,772.000000,4.000000,,,,0.000000,4.000000,4.000000,4.000000,4.000000,4.000000,4.000000,4.000000,4.000000,4.000000,4.000000,4.000000,4.000000,4.000000,4.000000,100.000000
1602006105.150485,7.000000,0.000000,4163.077148,4152.820313,4143.589844,4138.974121,4145.641113,4124.615234,4118.974121,4124.615234,4129.230957,4143.589844,4145.641113,4163.077148,4153.333496,4161.025879,663.000000,4.000000,,,,0.000000,4.000000,4.000000,4.000000,4.000000,4.000000,4.000000,4.000000,4.000000,4.000000,4.000000,4.000000,4.000000,4.000000,4.000000,100.000000
1602006105.158467,8.000000,0.000000,4169.230957,4156.922852,4158.461426,4146.666504,4152.307617,4119.487305,4116.922852,4123.589844,4136.410156,4157.948730,4162.051270,4169.743652,4170.256348,4173.846191,785.000000,4.000000,,,,0.000000,4.000000,4.000000,4.000000,4.000000,4.000000,4.000000,4.000000,4.000000,4.000000,4.000000,4.000000,4.000000,4.000000,4.000000,100.000000
1602006105.166350,9.000000,0.000000,4172.307617,4156.410156,4168.205078,4152.820313,4152.307617,4120.000000,4114.358887,4123.589844,4138.974121,4161.025879,4166.153809,4167.692383,4172.307617,4176.410156,841.000000,4.000000,,,,0.000000,4.000000,4.000000,4.000000,4.000000,4.000000,4.000000,4.000000,4.000000,4.000000,4.000000,4.000000,4.000000,4.000000,4.000000,100.000000
1602006105.174232,10.000000,0.000000,4174.358887,4153.846191,4170.256348,4151.282227,4147.179688,4122.051270,4118.461426,4123.077148,4140.512695,4154.871582,4161.538574,4168.717773,4160.512695,4169.230957,871.000000,4.000000,,,,0.000000,4.000000,4.000000,4.000000,4.000000,4.000000,4.000000,4.000000,4.000000,4.000000,4.000000,4.000000,4.000000,4.000000,4.000000,100.000000
1602006105.182114,11.000000,0.000000,4167.179688,4147.179688,4170.256348,4140.512695,4138.461426,4120.000000,4122.563965,4123.077148,4138.461426,4139.487305,4155.897461,4164.615234,4155.897461,4157.948730,839.000000,4.000000,,,,0.000000,4.000000,4.000000,4.000000,4.000000,4.000000,4.000000,4.000000,4.000000,4.000000,4.000000,4.000000,4.000000,4.000000,4.000000,100.000000
1602006105.189997,12.000000,0.000000,4155.897461,4139.487305,4169.743652,4136.922852,4138.974121,4127.179688,4127.692383,4122.563965,4127.179688,4137.436035,4145.641113,4151.282227,4153.846191,4146.666504,768.000000,4.000000,,,,0.000000,4.000000,4.000000,4.000000,4.000000,4.000000,4.000000,4.000000,4.000000,4.000000,4.000000,4.000000,4.000000,4.000000,4.000000,100.000000
1602006105.197879,13.000000,0.000000,4152.820313,4138.461426,4166.666504,4140.512695,4145.128418,4141.025879,4137.948730,4127.179688,4121.538574,4148.717773,4136.922852,4143.077148,4144.102539,4141.538574,747.000000,4.000000,,,,0.000000,4.000000,4.000000,4.000000,4.000000,4.000000,4.000000,4.000000,4.000000,4.000000,4.000000,4.000000,4.000000,4.000000,4.000000,100.000000
1602006105.205761,14.000000,0.000000,4151.794922,4139.487305,4158.461426,4138.974121,4144.102539,4143.077148,4144.615234,4136.922852,4131.282227,4142.563965,4137.948730,4140.512695,4135.897461,4138.974121,871.000000,4.000000,,,,0.000000,4.000000,4.000000,4.000000,4.000000,4.000000,4.000000,4.000000,4.000000,4.000000,4.000000,4.000000,4.000000,4.000000,4.000000,100.000000
1602006105.213644,15.000000,0.000000,4149.743652,4138.461426,4151.794922,4138.974121,4144.102539,4140.512695,4144.102539,4141.538574,4138.461426,4130.769043,4137.436035,4137.436035,4138.974121,4139.487305,839.000000,4.000000,,,,0.000000,4.000000,4.000000,4.000000,4.000000,4.000000,4.000000,4.000000,4.000000,4.000000,4.000000,4.000000,4.000000,4.000000,4.000000,100.000000
1602006105.221526,16.000000,0.000000,4149.230957,4138.974121,4150.769043,4140.000000,4153.846191,4141.025879,4141.538574,4140.512695,4144.615234,4143.589844,4134.871582,4141.025879,4141.025879,4146.666504,0.000000,4.000000,,,,0.000000,4.000000,4.000000,4.000000,4.000000,4.000000,4.000000,4.000000,4.000000,4.000000,4.000000,4.000000,4.000000,4.000000,4.000000,100.000000
1602006105.229507,17.000000,0.000000,4143.077148,4139.487305,4151.282227,4133.846191,4157.948730,4134.871582,4137.436035,4141.025879,4155.897461,4144.615234,4137.948730,4149.230957,4138.974121,4154.358887,0.000000,4.000000,,,,0.000000,4.000000,4.000000,4.000000,4.000000,4.000000,4.000000,4.000000,4.000000,4.000000,4.000000,4.000000,4.000000,4.000000,4.000000,100.000000
1602006105.237388,18.000000,0.000000,4137.436035,4139.487305,4150.256348,4131.794922,4153.333496,4128.717773,4135.897461,4138.974121,4152.307617,4119.487305,4143.077148,4155.384766,4141.538574,4152.307617,0.000000,4.000000,,,,0.000000,4.000000,4.000000,4.000000,4.000000,4.000000,4.000000,4.000000,4.000000,4.000000,4.000000,4.000000,4.000000,4.000000,4.000000,100.000000
1602006105.245270,19.000000,0.000000,4142.051270,4139.487305,4145.128418,4136.922852,4148.717773,4133.846191,4135.897461,4127.179688,4131.794922,4113.846191,4137.948730,4153.333496,4140.512695,4145.128418,0.000000,4.000000,,,,0.000000,4.000000,4.000000,4.000000,4.000000,4.000000,4.000000,4.000000,4.000000,4.000000,4.000000,4.000000,4.000000,4.000000,4.000000,100.000000
1602006105.253051,20.000000,0.000000,4143.077148,4139.487305,4138.461426,4132.820313,4142.051270,4138.461426,4134.871582,4117.948730,4123.077148,4134.871582,4128.205078,4141.025879,4135.384766,4138.461426,0.000000,4.000000,,,,0.000000,4.000000,4.000000,4.000000,4.000000,4.000000,4.000000,4.000000,4.000000,4.000000,4.000000,4.000000,4.000000,4.000000,4.000000,100.000000
1602006105.261032,21.000000,0.000000,4139.487305,4139.487305,4138.461426,4126.153809,4136.922852,4140.512695,4135.897461,4117.948730,4127.692383,4142.563965,4129.743652,4138.974121,4133.333496,4133.846191,0.000000,4.000000,,,,0.000000,4.000000,4.000000,4.000000,4.000000,4.000000,4.000000,4.000000,4.000000,4.000000,4.000000,4.000000,4.000000,4.000000,4.000000,100.000000
1602006105.268914,22.000000,0.000000,4137.436035,4140.000000,4140.000000,4126.153809,4137.436035,4139.487305,4137.436035,4122.563965,4127.692383,4138.974121,4137.436035,4152.307617,4136.410156,4135.384766,0.000000,4.000000,,,,0.000000,4.000000,4.000000,4.000000,4.000000,4.000000,4.000000,4.000000,4.000000,4.000000,4.000000,4.000000,4.000000,4.000000,4.000000,100.000000
1602006105.276796,23.000000,0.000000,4140.512695,4140.000000,4138.974121,4127.692383,4137.948730,4126.666504,4133.333496,4131.282227,4131.794922,4140.000000,4141.025879,4158.461426,4147.179688,4141.538574,0.000000,4.000000,,,,0.000000,4.000000,4.000000,4.000000,4.000000,4.000000,4.000000,4.000000,4.000000,4.000000,4.000000,4.000000,4.000000,4.000000,4.000000,100.000000
1602006105.284678,24.000000,0.000000,4146.666504,4137.948730,4145.128418,4126.666504,4139.487305,4114.871582,4129.743652,4139.487305,4146.666504,4135.384766,4142.051270,4153.846191,4153.846191,4143.589844,0.000000,4.000000,,,,0.000000,4.000000,4.000000,4.000000,4.000000,4.000000,4.000000,4.000000,4.000000,4.000000,4.000000,4.000000,4.000000,4.000000,4.000000,100.000000
1602006105.292560,25.000000,0.000000,4146.666504,4140.512695,4154.871582,4126.153809,4142.563965,4122.563965,4133.846191,4143.589844,4158.461426,4131.794922,4141.538574,4155.384766,4147.179688,4143.077148,0.000000,4.000000,,,,0.000000,4.000000,4.000000,4.000000,4.000000,4.000000,4.000000,4.000000,4.000000,4.000000,4.000000,4.000000,4.000000,4.000000,4.000000,100.000000
1602006105.300442,26.000000,0.000000,4142.051270,4140.512695,4150.769043,4125.128418,4140.512695,4127.692383,4140.512695,4143.077148,4155.384766,4137.948730,4135.897461,4150.769043,4137.436035,4140.000000,0.000000,4.000000,,,,0.000000,4.000000,4.000000,4.000000,4.000000,4.000000,4.000000,4.000000,4.000000,4.000000,4.000000,4.000000,4.000000,4.000000,4.000000,100.000000
1602006105.308324,27.000000,0.000000,4138.461426,4129.743652,4139.487305,4122.051270,4134.358887,4121.025879,4140.512695,4134.358887,4141.025879,4139.487305,4129.743652,4139.487305,4129.230957,4140.512695,0.000000,4.000000,,,,0.000000,4.000000,4.000000,4.000000,4.000000,4.000000,4.000000,4.000000,4.000000,4.000000,4.000000,4.000000,4.000000,4.000000,4.000000,100.000000
1602006105.316305,28.000000,0.000000,4137.948730,4126.666504,4136.410156,4124.615234,4133.846191,4127.179688,4138.974121,4126.153809,4128.205078,4134.358887,4128.205078,4136.410156,4125.128418,4142.563965,0.000000,4.000000,,,,0.000000,4.000000,4.000000,4.000000,4.000000,4.000000,4.000000,4.000000,4.000000,4.000000,4.000000,4.000000,4.000000,4.000000,4.000000,100.000000
1602006105.324187,29.000000,0.000000,4140.512695,4135.384766,4137.948730,4132.307617,4138.461426,4136.922852,4141.025879,4127.179688,4126.666504,4135.897461,4128.205078,4141.025879,4128.205078,4131.794922,0.000000,4.000000,,,,0.000000,4.000000,4.000000,4.000000,4.000000,4.000000,4.000000,4.000000,4.000000,4.000000,4.000000,4.000000,4.000000,4.000000,4.000000,100.000000
1602006105.332068,30.000000,0.000000,4147.179688,4138.974121,4144.615234,4137.436035,4139.487305,4130.769043,4136.410156,4127.179688,4129.743652,4138.461426,4134.358887,4148.717773,4130.769043,4124.102539,0.000000,4.000000,,,,0.000000,4.000000,4.000000,4.000000,4.000000,4.000000,4.000000,4.000000,4.000000,4.000000,4.000000,4.000000,4.000000,4.000000,4.000000,100.000000
1602006105.339950,31.000000,0.000000,4150.769043,4137.436035,4153.333496,4136.922852,4136.410156,4121.025879,4122.051270,4120.000000,4126.153809,4120.000000,4134.871582,4150.769043,4127.179688,4132.820313,0.000000,4.000000,,,,0.000000,4.000000,4.000000,4.000000,4.000000,4.000000,4.000000,4.000000,4.000000,4.000000,4.000000,4.000000,4.000000,4.000000,4.000000,100.000000
1602006105.347832,32.000000,0.000000,4145.128418,4138.974121,4149.743652,4136.922852,4136.410156,4120.000000,4109.230957,4116.922852,4119.487305,4100.512695,4124.615234,4140.000000,4123.077148,4133.846191,0.000000,4.000000,,,,0.000000,4.000000,4.000000,4.000000,4.000000,4.000000,4.000000,4.000000,4.000000,4.000000,4.000000,4.000000,4.000000,4.000000,4.000000,100.000000
1602006105.355713,33.000000,0.000000,4140.512695,4138.974121,4141.538574,4136.922852,4139.487305,4120.000000,4109.743652,4119.487305,4120.000000,4111.282227,4122.563965,4133.333496,4123.077148,4119.487305,0.000000,4.000000,,,,0.000000,4.000000,4.000000,4.000000,4.000000,4.000000,4.000000,4.000000,4.000000,4.000000,4.000000,4.000000,4.000000,4.000000,4.000000,100.000000
1602006105.363695,34.000000,0.000000,4137.948730,4132.307617,4140.000000,4129.230957,4141.025879,4121.538574,4117.948730,4125.128418,4128.717773,4128.205078,4126.153809,4134.871582,4124.102539,4118.974121,0.000000,4.000000,,,,0.000000,4.000000,4.000000,4.000000,4.000000,4.000000,4.000000,4.000000,4.000000,4.000000,4.000000,4.000000,4.000000,4.000000,4.000000,100.000000
