Timestamp,EEG.Counter,EEG.Interpolated,EEG.AF3,EEG.F7,EEG.F3,EEG.FC5,EEG.T7,EEG.P7,EEG.O1,EEG.O2,EEG.P8,EEG.T8,EEG.FC6,EEG.F4,EEG.F8,EEG.AF4,EEG.RawCq,EEG.Battery,MarkerIndex,MarkerType,MarkerValueInt,EEG.MarkerHardware,CQ.AF3,CQ.F7,CQ.F3,CQ.FC5,CQ.T7,CQ.P7,CQ.O1,CQ.O2,CQ.P8,CQ.T8,CQ.FC6,CQ.F4,CQ.F8,CQ.AF4,CQ.Overall
1602006151.425547,74.000000,0.000000,4135.897461,4141.538574,4129.230957,4137.948730,4141.025879,4124.615234,4129.743652,4124.102539,4135.897461,4126.666504,4122.563965,4140.000000,4123.077148,4126.153809,872.000000,4.000000,,,,0.000000,4.000000,4.000000,4.000000,4.000000,4.000000,4.000000,4.000000,4.000000,4.000000,4.000000,4.000000,4.000000,4.000000,4.000000,100.000000
1602006151.433329,75.000000,0.000000,4137.436035,4141.025879,4124.615234,4136.410156,4138.461426,4114.871582,4124.102539,4123.589844,4129.230957,4115.384766,4125.641113,4148.717773,4124.615234,4127.179688,836.000000,4.000000,,,,0.000000,4.000000,4.000000,4.000000,4.000000,4.000000,4.000000,4.000000,4.000000,4.000000,4.000000,4.000000,4.000000,4.000000,4.000000,100.000000
1602006151.441211,76.000000,0.000000,4133.333496,4136.922852,4127.179688,4137.948730,4127.692383,4106.666504,4118.461426,4122.051270,4124.615234,4120.512695,4119.487305,4145.641113,4118.974121,4116.410156,763.000000,4.000000,,,,0.000000,4.000000,4.000000,4.000000,4.000000,4.000000,4.000000,4.000000,4.000000,4.000000,4.000000,4.000000,4.000000,4.000000,4.000000,100.000000
1602006151.449092,77.000000,0.000000,4142.563965,4144.102539,4137.436035,4138.974121,4124.615234,4109.230957,4121.025879,4122.051270,4132.307617,4120.512695,4123.077148,4148.205078,4124.102539,4124.102539,746.000000,4.000000,,,,0.000000,4.000000,4.000000,4.000000,4.000000,4.000000,4.000000,4.000000,4.000000,4.000000,4.000000,4.000000,4.000000,4.000000,4.000000,100.000000
1602006151.456974,78.000000,0.000000,4152.307617,4154.358887,4144.615234,4143.077148,4125.641113,4115.384766,4128.205078,4124.615234,4144.102539,4127.179688,4136.922852,4157.436035,4140.512695,4145.128418,872.000000,4.000000,,,,0.000000,4.000000,4.000000,4.000000,4.000000,4.000000,4.000000,4.000000,4.000000,4.000000,4.000000,4.000000,4.000000,4.000000,4.000000,100.000000
1602006151.464856,79.000000,0.000000,4144.102539,4144.102539,4140.512695,4142.563965,4119.487305,4108.205078,4128.717773,4122.563965,4137.948730,4140.512695,4139.487305,4154.871582,4135.384766,4139.487305,836.000000,4.000000,,,,0.000000,4.000000,4.000000,4.000000,4.000000,4.000000,4.000000,4.000000,4.000000,4.000000,4.000000,4.000000,4.000000,4.000000,4.000000,100.000000
1602006151.472737,80.000000,0.000000,4137.948730,4133.333496,4136.922852,4136.410156,4117.948730,4108.205078,4124.615234,4114.358887,4125.128418,4135.384766,4136.922852,4149.743652,4127.179688,4123.077148,763.000000,4.000000,,,,0.000000,4.000000,4.000000,4.000000,4.000000,4.000000,4.000000,4.000000,4.000000,4.000000,4.000000,4.000000,4.000000,4.000000,4.000000,100.000000
1602006151.480519,81.000000,0.000000,4141.538574,4137.436035,4138.461426,4132.820313,4124.102539,4120.000000,4121.538574,4107.692383,4114.358887,4116.922852,4132.820313,4152.307617,4132.820313,4129.230957,746.000000,4.000000,,,,0.000000,4.000000,4.000000,4.000000,4.000000,4.000000,4.000000,4.000000,4.000000,4.000000,4.000000,4.000000,4.000000,4.000000,4.000000,100.000000
1602006151.488401,82.000000,0.000000,4146.666504,4138.974121,4138.461426,4134.871582,4123.589844,4121.538574,4116.922852,4106.153809,4099.487305,4109.743652,4123.077148,4153.333496,4129.743652,4143.077148,872.000000,4.000000,,,,0.000000,4.000000,4.000000,4.000000,4.000000,4.000000,4.000000,4.000000,4.000000,4.000000,4.000000,4.000000,4.000000,4.000000,4.000000,100.000000
1602006151.496283,83.000000,0.000000,4149.230957,4138.974121,4140.000000,4136.922852,4123.077148,4114.358887,4113.333496,4102.563965,4079.487061,4102.563965,4121.538574,4152.820313,4121.025879,4137.948730,836.000000,4.000000,,,,0.000000,4.000000,4.000000,4.000000,4.000000,4.000000,4.000000,4.000000,4.000000,4.000000,4.000000,4.000000,4.000000,4.000000,4.000000,100.000000
1602006151.504165,84.000000,0.000000,4145.641113,4141.538574,4138.974121,4135.897461,4126.666504,4108.205078,4109.230957,4096.410156,4067.179443,4079.487061,4123.589844,4150.769043,4120.512695,4124.102539,763.000000,4.000000,,,,0.000000,4.000000,4.000000,4.000000,4.000000,4.000000,4.000000,4.000000,4.000000,4.000000,4.000000,4.000000,4.000000,4.000000,4.000000,100.000000
1602006151.512047,85.000000,0.000000,4144.615234,4141.025879,4140.000000,4136.922852,4126.153809,4102.563965,4103.077148,4097.436035,4080.512939,4080.000000,4118.974121,4148.205078,4120.512695,4127.179688,746.000000,4.000000,,,,0.000000,4.000000,4.000000,4.000000,4.000000,4.000000,4.000000,4.000000,4.000000,4.000000,4.000000,4.000000,4.000000,4.000000,4.000000,100.000000
1602006151.519929,86.000000,0.000000,4155.384766,4145.128418,4152.307617,4142.051270,4130.256348,4103.077148,4104.102539,4110.256348,4117.948730,4120.000000,4128.717773,4153.333496,4129.230957,4139.487305,872.000000,4.000000,,,,0.000000,4.000000,4.000000,4.000000,4.000000,4.000000,4.000000,4.000000,4.000000,4.000000,4.000000,4.000000,4.000000,4.000000,4.000000,100.000000
1602006151.527811,87.000000,0.000000,4157.436035,4152.307617,4155.384766,4145.641113,4138.461426,4113.846191,4109.230957,4119.487305,4148.717773,4146.666504,4143.077148,4155.384766,4139.487305,4141.538574,836.000000,4.000000,,,,0.000000,4.000000,4.000000,4.000000,4.000000,4.000000,4.000000,4.000000,4.000000,4.000000,4.000000,4.000000,4.000000,4.000000,4.000000,100.000000
1602006151.535693,88.000000,0.000000,4148.205078,4151.282227,4141.538574,4142.051270,4140.000000,4124.102539,4107.179688,4116.922852,4155.384766,4136.410156,4135.384766,4149.230957,4132.820313,4135.897461,763.000000,4.000000,,,,0.000000,4.000000,4.000000,4.000000,4.000000,4.000000,4.000000,4.000000,4.000000,4.000000,4.000000,4.000000,4.000000,4.000000,4.000000,100.000000
1602006151.543474,89.000000,0.000000,4152.307617,4146.666504,4136.922852,4140.000000,4136.410156,4129.743652,4110.769043,4116.410156,4157.948730,4133.333496,4123.589844,4150.256348,4129.743652,4138.974121,746.000000,4.000000,,,,0.000000,4.000000,4.000000,4.000000,4.000000,4.000000,4.000000,4.000000,4.000000,4.000000,4.000000,4.000000,4.000000,4.000000,4.000000,100.000000
1602006151.551355,90.000000,0.000000,4154.358887,4141.025879,4141.025879,4138.974121,4130.769043,4126.153809,4122.051270,4121.025879,4156.410156,4139.487305,4127.179688,4150.769043,4141.025879,4144.102539,872.000000,4.000000,,,,0.000000,4.000000,4.000000,4.000000,4.000000,4.000000,4.000000,4.000000,4.000000,4.000000,4.000000,4.000000,4.000000,4.000000,4.000000,100.000000
1602006151.559237,91.000000,0.000000,4144.102539,4136.922852,4135.897461,4131.282227,4123.589844,4122.563965,4124.102539,4114.871582,4144.615234,4128.205078,4129.743652,4141.025879,4139.487305,4139.487305,836.000000,4.000000,,,,0.000000,4.000000,4.000000,4.000000,4.000000,4.000000,4.000000,4.000000,4.000000,4.000000,4.000000,4.000000,4.000000,4.000000,4.000000,100.000000
1602006151.567118,92.000000,0.000000,4143.077148,4137.948730,4134.871582,4124.615234,4120.512695,4122.563965,4121.025879,4104.102539,4132.820313,4121.538574,4122.563965,4138.974121,4126.153809,4136.922852,763.000000,4.000000,,,,0.000000,4.000000,4.000000,4.000000,4.000000,4.000000,4.000000,4.000000,4.000000,4.000000,4.000000,4.000000,4.000000,4.000000,4.000000,100.000000
1602006151.575000,93.000000,0.000000,4155.384766,4136.410156,4143.077148,4126.153809,4120.000000,4118.974121,4122.051270,4112.820313,4124.615234,4123.589844,4118.461426,4151.282227,4129.743652,4148.717773,746.000000,4.000000,,,,0.000000,4.000000,4.000000,4.000000,4.000000,4.000000,4.000000,4.000000,4.000000,4.000000,4.000000,4.000000,4.000000,4.000000,4.000000,100.000000
1602006151.582781,94.000000,0.000000,4157.436035,4127.692383,4145.128418,4127.692383,4119.487305,4114.871582,4122.051270,4121.538574,4117.948730,4113.846191,4125.641113,4158.461426,4140.000000,4153.333496,872.000000,4.000000,,,,0.000000,4.000000,4.000000,4.000000,4.000000,4.000000,4.000000,4.000000,4.000000,4.000000,4.000000,4.000000,4.000000,4.000000,4.000000,100.000000
1602006151.590663,95.000000,0.000000,4137.436035,4121.025879,4137.948730,4123.589844,4119.487305,4117.948730,4119.487305,4113.333496,4118.461426,4121.538574,4136.922852,4152.307617,4140.000000,4142.051270,836.000000,4.000000,,,,0.000000,4.000000,4.000000,4.000000,4.000000,4.000000,4.000000,4.000000,4.000000,4.000000,4.000000,4.000000,4.000000,4.000000,4.000000,100.000000
1602006151.598544,96.000000,0.000000,4119.487305,4119.487305,4126.153809,4116.410156,4114.358887,4123.077148,4121.538574,4113.846191,4123.589844,4140.000000,4141.025879,4142.051270,4136.410156,4134.871582,763.000000,4.000000,,,,0.000000,4.000000,4.000000,4.000000,4.000000,4.000000,4.000000,4.000000,4.000000,4.000000,4.000000,4.000000,4.000000,4.000000,4.000000,100.000000
1602006151.606425,97.000000,0.000000,4117.436035,4117.436035,4118.461426,4111.794922,4110.256348,4122.563965,4124.615234,4122.563965,4124.615234,4130.256348,4134.358887,4134.871582,4133.846191,4129.743652,746.000000,4.000000,,,,0.000000,4.000000,4.000000,4.000000,4.000000,4.000000,4.000000,4.000000,4.000000,4.000000,4.000000,4.000000,4.000000,4.000000,4.000000,100.000000
1602006151.614307,98.000000,0.000000,4115.384766,4113.846191,4118.974121,4110.769043,4112.307617,4122.051270,4123.589844,4121.538574,4131.794922,4122.051270,4129.230957,4135.897461,4136.922852,4123.589844,872.000000,4.000000,,,,0.000000,4.000000,4.000000,4.000000,4.000000,4.000000,4.000000,4.000000,4.000000,4.000000,4.000000,4.000000,4.000000,4.000000,4.000000,100.000000
1602006151.622188,99.000000,0.000000,4102.051270,4103.077148,4116.922852,4105.128418,4112.820313,4126.153809,4122.563965,4118.461426,4145.641113,4138.974121,4135.384766,4138.974121,4140.000000,4126.666504,836.000000,4.000000,,,,0.000000,4.000000,4.000000,4.000000,4.000000,4.000000,4.000000,4.000000,4.000000,4.000000,4.000000,4.000000,4.000000,4.000000,4.000000,100.000000
1602006151.629970,100.000000,0.000000,4102.563965,4105.128418,4118.461426,4108.205078,4114.871582,4130.769043,4124.615234,4123.077148,4146.666504,4143.589844,4141.025879,4139.487305,4133.333496,4127.692383,763.000000,4.000000,,,,0.000000,4.000000,4.000000,4.000000,4.000000,4.000000,4.000000,4.000000,4.000000,4.000000,4.000000,4.000000,4.000000,4.000000,4.000000,100.000000
1602006151.637852,101.000000,0.000000,4129.230957,4131.282227,4131.282227,4128.205078,4117.948730,4125.641113,4120.512695,4120.000000,4138.461426,4127.692383,4131.282227,4138.461426,4123.077148,4120.000000,746.000000,4.000000,,,,0.000000,4.000000,4.000000,4.000000,4.000000,4.000000,4.000000,4.000000,4.000000,4.000000,4.000000,4.000000,4.000000,4.000000,4.000000,100.000000
1602006151.645733,102.000000,0.000000,4152.820313,4152.820313,4141.025879,4140.000000,4115.384766,4114.358887,4111.794922,4116.410156,4136.922852,4120.000000,4120.000000,4138.974121,4120.000000,4124.615234,872.000000,4.000000,,,,0.000000,4.000000,4.000000,4.000000,4.000000,4.000000,4.000000,4.000000,4.000000,4.000000,4.000000,4.000000,4.000000,4.000000,4.000000,100.000000
1602006151.653615,103.000000,0.000000,4164.615234,4162.051270,4146.153809,4138.461426,4112.820313,4111.794922,4109.743652,4119.487305,4139.487305,4125.641113,4121.025879,4142.051270,4114.871582,4127.692383,836.000000,4.000000,,,,0.000000,4.000000,4.000000,4.000000,4.000000,4.000000,4.000000,4.000000,4.000000,4.000000,4.000000,4.000000,4.000000,4.000000,4.000000,100.000000
1602006151.661496,104.000000,0.000000,4171.282227,4170.256348,4152.307617,4138.974121,4109.230957,4111.282227,4108.205078,4111.282227,4131.282227,4120.512695,4115.384766,4138.461426,4096.922852,4109.230957,763.000000,4.000000,,,,0.000000,4.000000,4.000000,4.000000,4.000000,4.000000,4.000000,4.000000,4.000000,4.000000,4.000000,4.000000,4.000000,4.000000,4.000000,100.000000
1602006151.669378,105.000000,0.000000,4171.794922,4174.358887,4154.358887,4145.128418,4106.153809,4105.641113,4103.589844,4101.025879,4113.846191,4095.897461,4104.615234,4135.897461,4084.102539,4101.538574,746.000000,4.000000,,,,0.000000,4.000000,4.000000,4.000000,4.000000,4.000000,4.000000,4.000000,4.000000,4.000000,4.000000,4.000000,4.000000,4.000000,4.000000,100.000000
1602006151.677360,106.000000,0.000000,4173.333496,4174.358887,4153.333496,4152.307617,4109.230957,4107.179688,4103.077148,4101.538574,4101.538574,4082.051270,4111.794922,4148.205078,4091.794922,4118.974121,872.000000,4.000000,,,,0.000000,4.000000,4.000000,4.000000,4.000000,4.000000,4.000000,4.000000,4.000000,4.000000,4.000000,4.000000,4.000000,4.000000,4.000000,100.000000
1602006151.685241,107.000000,0.000000,4177.436035,4175.897461,4156.922852,4152.307617,4111.282227,4111.282227,4107.179688,4104.615234,4106.153809,4104.102539,4125.641113,4158.974121,4106.153809,4128.717773,836.000000,4.000000,,,,0.000000,4.000000,4.000000,4.000000,4.000000,4.000000,4.000000,4.000000,4.000000,4.000000,4.000000,4.000000,4.000000,4.000000,4.000000,100.000000
1602006151.693123,108.000000,0.000000,4174.358887,4171.794922,4154.871582,4142.051270,4111.282227,4112.307617,4115.897461,4108.717773,4115.384766,4126.153809,4125.128418,4157.436035,4107.179688,4120.000000,763.000000,4.000000,,,,0.000000,4.000000,4.000000,4.000000,4.000000,4.000000,4.000000,4.000000,4.000000,4.000000,4.000000,4.000000,4.000000,4.000000,4.000000,100.000000
1602006151.701005,109.000000,0.000000,4169.743652,4168.205078,4146.666504,4138.461426,4120.000000,4120.000000,4131.794922,4120.512695,4122.051270,4125.128418,4121.025879,4156.410156,4104.102539,4118.461426,746.000000,4.000000,,,,0.000000,4.000000,4.000000,4.000000,4.000000,4.000000,4.000000,4.000000,4.000000,4.000000,4.000000,4.000000,4.000000,4.000000,4.000000,100.000000
1602006151.708886,110.000000,0.000000,4168.205078,4166.666504,4142.051270,4142.051270,4126.666504,4134.871582,4142.563965,4134.358887,4133.846191,4130.256348,4121.538574,4160.000000,4108.717773,4126.153809,872.000000,4.000000,,,,0.000000,4.000000,4.000000,4.000000,4.000000,4.000000,4.000000,4.000000,4.000000,4.000000,4.000000,4.000000,4.000000,4.000000,4.000000,100.000000
1602006151.716768,111.000000,0.000000,4160.512695,4157.436035,4132.820313,4138.461426,4121.538574,4141.025879,4140.512695,4141.025879,4143.077148,4138.974121,4120.000000,4157.436035,4107.692383,4125.128418,836.000000,4.000000,,,,0.000000,4.000000,4.000000,4.000000,4.000000,4.000000,4.000000,4.000000,4.000000,4.000000,4.000000,4.000000,4.000000,4.000000,4.000000,100.000000
1602006151.724649,112.000000,0.000000,4148.717773,4149.743652,4123.077148,4129.230957,4121.025879,4141.025879,4138.461426,4136.922852,4133.846191,4122.051270,4117.948730,4149.230957,4097.436035,4118.974121,763.000000,4.000000,,,,0.000000,4.000000,4.000000,4.000000,4.000000,4.000000,4.000000,4.000000,4.000000,4.000000,4.000000,4.000000,4.000000,4.000000,4.000000,100.000000
1602006151.732431,113.000000,0.000000,4140.512695,4150.769043,4120.512695,4122.563965,4124.615234,4138.974121,4140.512695,4128.205078,4120.000000,4098.974121,4112.820313,4141.538574,4092.307617,4109.743652,746.000000,4.000000,,,,0.000000,4.000000,4.000000,4.000000,4.000000,4.000000,4.000000,4.000000,4.000000,4.000000,4.000000,4.000000,4.000000,4.000000,4.000000,100.000000
1602006151.740313,114.000000,0.000000,4141.538574,4152.820313,4119.487305,4125.641113,4123.077148,4138.461426,4141.538574,4126.153809,4126.153809,4112.307617,4109.743652,4137.948730,4093.846191,4104.102539,872.000000,4.000000,,,,0.000000,4.000000,4.000000,4.000000,4.000000,4.000000,4.000000,4.000000,4.000000,4.000000,4.000000,4.000000,4.000000,4.000000,4.000000,100.000000
1602006151.748195,115.000000,0.000000,4150.256348,4154.358887,4118.974121,4135.384766,4122.563965,4143.077148,4141.025879,4128.717773,4139.487305,4141.025879,4115.897461,4137.436035,4097.948730,4113.333496,836.000000,4.000000,,,,0.000000,4.000000,4.000000,4.000000,4.000000,4.000000,4.000000,4.000000,4.000000,4.000000,4.000000,4.000000,4.000000,4.000000,4.000000,100.000000
1602006151.756077,116.000000,0.000000,4155.384766,4157.948730,4121.025879,4140.000000,4124.615234,4146.666504,4136.922852,4128.205078,4138.974121,4143.077148,4122.563965,4136.922852,4103.077148,4126.153809,763.000000,4.000000,,,,0.000000,4.000000,4.000000,4.000000,4.000000,4.000000,4.000000,4.000000,4.000000,4.000000,4.000000,4.000000,4.000000,4.000000,4.000000,100.000000
1602006151.763959,117.000000,0.000000,4156.410156,4160.000000,4123.077148,4139.487305,4122.563965,4140.512695,4128.717773,4125.128418,4131.282227,4135.384766,4123.589844,4137.948730,4105.128418,4125.641113,746.000000,4.000000,,,,0.000000,4.000000,4.000000,4.000000,4.000000,4.000000,4.000000,4.000000,4.000000,4.000000,4.000000,4.000000,4.000000,4.000000,4.000000,100.000000
1602006151.771841,118.000000,0.000000,4156.410156,4156.410156,4122.051270,4137.948730,4113.846191,4133.846191,4122.051270,4122.051270,4126.153809,4135.384766,4118.974121,4132.307617,4100.000000,4114.358887,872.000000,4.000000,,,,0.000000,4.000000,4.000000,4.000000,4.000000,4.000000,4.000000,4.000000,4.000000,4.000000,4.000000,4.000000,4.000000,4.000000,4.000000,100.000000
1602006151.779723,119.000000,0.000000,4155.897461,4155.897461,4122.051270,4137.436035,4114.358887,4140.512695,4122.563965,4123.077148,4121.538574,4121.025879,4109.230957,4125.128418,4094.358887,4109.743652,836.000000,4.000000,,,,0.000000,4.000000,4.000000,4.000000,4.000000,4.000000,4.000000,4.000000,4.000000,4.000000,4.000000,4.000000,4.000000,4.000000,4.000000,100.000000
1602006151.787605,120.000000,0.000000,4154.871582,4164.102539,4123.077148,4140.512695,4129.743652,4155.384766,4130.769043,4125.128418,4121.025879,4097.436035,4111.794922,4130.769043,4096.922852,4112.307617,763.000000,4.000000,,,,0.000000,4.000000,4.000000,4.000000,4.000000,4.000000,4.000000,4.000000,4.000000,4.000000,4.000000,4.000000,4.000000,4.000000,4.000000,100.000000
1602006151.795587,121.000000,0.000000,4150.769043,4164.615234,4122.051270,4140.512695,4137.948730,4156.922852,4137.948730,4121.538574,4123.589844,4095.897461,4119.487305,4136.922852,4097.436035,4105.128418,746.000000,4.000000,,,,0.000000,4.000000,4.000000,4.000000,4.000000,4.000000,4.000000,4.000000,4.000000,4.000000,4.000000,4.000000,4.000000,4.000000,4.000000,100.000000
1602006151.803469,122.000000,0.000000,4146.666504,4160.000000,4118.974121,4136.922852,4135.384766,4143.077148,4134.358887,4120.512695,4128.717773,4113.846191,4115.384766,4129.230957,4093.333252,4096.410156,872.000000,4.000000,,,,0.000000,4.000000,4.000000,4.000000,4.000000,4.000000,4.000000,4.000000,4.000000,4.000000,4.000000,4.000000,4.000000,4.000000,4.000000,100.000000
1602006151.811351,123.000000,0.000000,4152.820313,4166.153809,4122.051270,4136.922852,4136.922852,4137.436035,4125.128418,4128.717773,4138.974121,4129.743652,4108.205078,4123.589844,4091.281982,4104.102539,836.000000,4.000000,,,,0.000000,4.000000,4.000000,4.000000,4.000000,4.000000,4.000000,4.000000,4.000000,4.000000,4.000000,4.000000,4.000000,4.000000,4.000000,100.000000
1602006151.819233,124.000000,0.000000,4155.384766,4170.256348,4130.769043,4141.538574,4140.512695,4140.512695,4124.615234,4135.384766,4140.000000,4139.487305,4106.153809,4125.641113,4090.769287,4112.820313,763.000000,4.000000,,,,0.000000,4.000000,4.000000,4.000000,4.000000,4.000000,4.000000,4.000000,4.000000,4.000000,4.000000,4.000000,4.000000,4.000000,4.000000,100.000000
1602006151.827115,125.000000,0.000000,4150.769043,4165.128418,4136.410156,4144.615234,4136.922852,4137.436035,4132.820313,4136.410156,4136.922852,4141.538574,4107.692383,4131.282227,4093.846191,4107.692383,746.000000,4.000000,,,,0.000000,4.000000,4.000000,4.000000,4.000000,4.000000,4.000000,4.000000,4.000000,4.000000,4.000000,4.000000,4.000000,4.000000,4.000000,100.000000
1602006151.834997,126.000000,0.000000,4159.487305,4165.641113,4140.000000,4145.128418,4135.384766,4134.871582,4137.436035,4141.538574,4148.717773,4138.461426,4118.974121,4145.128418,4103.077148,4110.769043,872.000000,4.000000,,,,0.000000,4.000000,4.000000,4.000000,4.000000,4.000000,4.000000,4.000000,4.000000,4.000000,4.000000,4.000000,4.000000,4.000000,4.000000,100.000000
1602006151.842879,127.000000,0.000000,4173.846191,4172.307617,4147.692383,4146.153809,4138.461426,4138.461426,4136.922852,4146.153809,4156.922852,4137.948730,4131.282227,4156.410156,4115.897461,4129.230957,836.000000,4.000000,,,,0.000000,4.000000,4.000000,4.000000,4.000000,4.000000,4.000000,4.000000,4.000000,4.000000,4.000000,4.000000,4.000000,4.000000,4.000000,100.000000
1602006151.850761,128.000000,0.000000,4174.358887,4173.846191,4151.282227,4152.820313,4138.461426,4140.000000,4134.871582,4142.051270,4150.256348,4135.384766,4130.256348,4154.358887,4122.051270,4138.974121,763.000000,4.000000,,,,0.000000,4.000000,4.000000,4.000000,4.000000,4.000000,4.000000,4.000000,4.000000,4.000000,4.000000,4.000000,4.000000,4.000000,4.000000,100.000000
1602006151.858644,0.000000,0.000000,4170.256348,4174.358887,4151.282227,4158.974121,4136.922852,4138.461426,4135.897461,4138.974121,4151.282227,4135.384766,4130.256348,4153.846191,4123.077148,4139.487305,797.000000,4.000000,,,,0.000000,4.000000,4.000000,4.000000,4.000000,4.000000,4.000000,4.000000,4.000000,4.000000,4.000000,4.000000,4.000000,4.000000,4.000000,100.000000
1602006151.866626,1.000000,0.000000,4172.820313,4173.333496,4151.794922,4152.820313,4135.384766,4139.487305,4138.461426,4139.487305,4153.846191,4142.051270,4139.487305,4158.461426,4127.692383,4142.563965,788.000000,4.000000,,,,0.000000,4.000000,4.000000,4.000000,4.000000,4.000000,4.000000,4.000000,4.000000,4.000000,4.000000,4.000000,4.000000,4.000000,4.000000,100.000000
1602006151.874508,2.000000,0.000000,4171.794922,4170.256348,4147.179688,4142.051270,4129.743652,4138.974121,4133.333496,4139.487305,4143.077148,4142.563965,4143.589844,4156.922852,4128.717773,4144.615234,849.000000,4.000000,,,,0.000000,4.000000,4.000000,4.000000,4.000000,4.000000,4.000000,4.000000,4.000000,4.000000,4.000000,4.000000,4.000000,4.000000,4.000000,100.000000
1602006151.882390,3.000000,0.000000,4167.179688,4168.717773,4140.000000,4141.538574,4122.563965,4134.358887,4127.692383,4140.512695,4136.922852,4137.948730,4133.333496,4153.846191,4118.461426,4134.358887,868.000000,4.000000,,,,0.000000,4.000000,4.000000,4.000000,4.000000,4.000000,4.000000,4.000000,4.000000,4.000000,4.000000,4.000000,4.000000,4.000000,4.000000,100.000000
1602006151.890272,4.000000,0.000000,4166.666504,4167.179688,4135.897461,4142.051270,4118.461426,4127.179688,4126.666504,4137.436035,4132.307617,4130.256348,4123.589844,4151.282227,4109.743652,4120.000000,818.000000,4.000000,,,,0.000000,4.000000,4.000000,4.000000,4.000000,4.000000,4.000000,4.000000,4.000000,4.000000,4.000000,4.000000,4.000000,4.000000,4.000000,100.000000
1602006151.898154,5.000000,0.000000,4168.205078,4165.641113,4136.410156,4141.025879,4119.487305,4123.589844,4126.666504,4135.384766,4127.692383,4127.179688,4130.769043,4145.128418,4115.897461,4125.128418,824.000000,4.000000,,,,0.000000,4.000000,4.000000,4.000000,4.000000,4.000000,4.000000,4.000000,4.000000,4.000000,4.000000,4.000000,4.000000,4.000000,4.000000,100.000000
1602006151.906036,6.000000,0.000000,4170.769043,4167.692383,4145.128418,4148.205078,4125.641113,4128.205078,4127.692383,4142.051270,4136.922852,4129.230957,4141.538574,4141.538574,4124.102539,4138.461426,759.000000,4.000000,,,,0.000000,4.000000,4.000000,4.000000,4.000000,4.000000,4.000000,4.000000,4.000000,4.000000,4.000000,4.000000,4.000000,4.000000,4.000000,100.000000
1602006151.913918,7.000000,0.000000,4171.794922,4169.743652,4151.282227,4154.358887,4130.256348,4132.820313,4128.717773,4146.153809,4141.025879,4132.307617,4136.922852,4144.615234,4125.641113,4133.333496,668.000000,4.000000,,,,0.000000,4.000000,4.000000,4.000000,4.000000,4.000000,4.000000,4.000000,4.000000,4.000000,4.000000,4.000000,4.000000,4.000000,4.000000,100.000000
1602006151.921800,8.000000,0.000000,4166.666504,4163.589844,4142.051270,4146.666504,4127.692383,4128.205078,4125.641113,4137.948730,4124.615234,4134.871582,4127.179688,4142.563965,4125.641113,4124.615234,785.000000,4.000000,,,,0.000000,4.000000,4.000000,4.000000,4.000000,4.000000,4.000000,4.000000,4.000000,4.000000,4.000000,4.000000,4.000000,4.000000,4.000000,100.000000
1602006151.929683,9.000000,0.000000,4158.461426,4152.820313,4133.846191,4135.897461,4121.025879,4120.000000,4120.512695,4127.692383,4113.333496,4134.871582,4122.563965,4131.794922,4118.974121,4120.512695,839.000000,4.000000,,,,0.000000,4.000000,4.000000,4.000000,4.000000,4.000000,4.000000,4.000000,4.000000,4.000000,4.000000,4.000000,4.000000,4.000000,4.000000,100.000000
1602006151.937664,10.000000,0.000000,4156.410156,4151.282227,4135.897461,4132.820313,4118.461426,4121.025879,4122.563965,4131.282227,4121.538574,4129.230957,4116.922852,4124.615234,4110.256348,4114.358887,872.000000,4.000000,,,,0.000000,4.000000,4.000000,4.000000,4.000000,4.000000,4.000000,4.000000,4.000000,4.000000,4.000000,4.000000,4.000000,4.000000,4.000000,100.000000
1602006151.945545,11.000000,0.000000,4155.897461,4154.871582,4136.410156,4136.922852,4121.025879,4130.769043,4126.153809,4135.897461,4125.641113,4121.538574,4107.179688,4125.641113,4105.128418,4108.717773,836.000000,4.000000,,,,0.000000,4.000000,4.000000,4.000000,4.000000,4.000000,4.000000,4.000000,4.000000,4.000000,4.000000,4.000000,4.000000,4.000000,4.000000,100.000000
1602006151.953427,12.000000,0.000000,4148.205078,4151.794922,4133.333496,4136.922852,4122.051270,4129.743652,4125.128418,4126.666504,4114.871582,4121.538574,4102.051270,4123.589844,4096.410156,4100.512695,763.000000,4.000000,,,,0.000000,4.000000,4.000000,4.000000,4.000000,4.000000,4.000000,4.000000,4.000000,4.000000,4.000000,4.000000,4.000000,4.000000,4.000000,100.000000
1602006151.961308,13.000000,0.000000,4138.461426,4147.692383,4132.307617,4127.692383,4119.487305,4120.512695,4121.538574,4119.487305,4110.256348,4120.000000,4109.230957,4122.051270,4087.692383,4093.846191,746.000000,4.000000,,,,0.000000,4.000000,4.000000,4.000000,4.000000,4.000000,4.000000,4.000000,4.000000,4.000000,4.000000,4.000000,4.000000,4.000000,4.000000,100.000000
1602006151.969189,14.000000,0.000000,4138.461426,4151.282227,4134.871582,4127.692383,4118.461426,4128.717773,4125.128418,4128.717773,4122.051270,4117.948730,4123.589844,4131.282227,4093.333252,4103.589844,872.000000,4.000000,,,,0.000000,4.000000,4.000000,4.000000,4.000000,4.000000,4.000000,4.000000,4.000000,4.000000,4.000000,4.000000,4.000000,4.000000,4.000000,100.000000
1602006151.977171,15.000000,0.000000,4140.000000,4150.769043,4138.974121,4135.384766,4122.563965,4136.922852,4133.333496,4132.307617,4126.153809,4117.436035,4120.512695,4138.974121,4098.974121,4113.333496,836.000000,4.000000,,,,0.000000,4.000000,4.000000,4.000000,4.000000,4.000000,4.000000,4.000000,4.000000,4.000000,4.000000,4.000000,4.000000,4.000000,4.000000,100.000000
1602006151.985054,16.000000,0.000000,4135.897461,4141.538574,4136.410156,4129.743652,4123.589844,4127.692383,4131.282227,4124.102539,4119.487305,4110.769043,4104.615234,4141.538574,4092.820557,4104.615234,0.000000,4.000000,,,,0.000000,4.000000,4.000000,4.000000,4.000000,4.000000,4.000000,4.000000,4.000000,4.000000,4.000000,4.000000,4.000000,4.000000,4.000000,100.000000
1602006151.992936,17.000000,0.000000,4136.922852,4140.512695,4137.948730,4121.538574,4119.487305,4128.717773,4125.128418,4127.179688,4121.538574,4106.666504,4109.743652,4150.256348,4094.871826,4104.102539,0.000000,4.000000,,,,0.000000,4.000000,4.000000,4.000000,4.000000,4.000000,4.000000,4.000000,4.000000,4.000000,4.000000,4.000000,4.000000,4.000000,4.000000,100.000000
1602006152.000818,18.000000,0.000000,4142.051270,4144.102539,4150.769043,4130.256348,4122.051270,4137.436035,4126.666504,4132.820313,4127.179688,4109.743652,4124.615234,4156.922852,4105.641113,4115.897461,0.000000,4.000000,,,,0.000000,4.000000,4.000000,4.000000,4.000000,4.000000,4.000000,4.000000,4.000000,4.000000,4.000000,4.000000,4.000000,4.000000,4.000000,100.000000
1602006152.008700,19.000000,0.000000,4138.974121,4141.025879,4155.897461,4137.436035,4124.615234,4126.666504,4126.153809,4127.692383,4124.102539,4112.820313,4125.641113,4153.333496,4106.153809,4120.000000,0.000000,4.000000,,,,0.000000,4.000000,4.000000,4.000000,4.000000,4.000000,4.000000,4.000000,4.000000,4.000000,4.000000,4.000000,4.000000,4.000000,4.000000,100.000000
1602006152.016582,20.000000,0.000000,4141.025879,4142.563965,4150.769043,4134.358887,4121.538574,4122.051270,4119.487305,4125.128418,4122.563965,4117.948730,4127.692383,4152.307617,4104.102539,4125.128418,0.000000,4.000000,,,,0.000000,4.000000,4.000000,4.000000,4.000000,4.000000,4.000000,4.000000,4.000000,4.000000,4.000000,4.000000,4.000000,4.000000,4.000000,100.000000
1602006152.024464,21.000000,0.000000,4152.307617,4154.358887,4153.333496,4141.538574,4129.743652,4140.512695,4120.000000,4129.230957,4126.153809,4125.128418,4136.410156,4161.025879,4114.871582,4136.922852,0.000000,4.000000,,,,0.000000,4.000000,4.000000,4.000000,4.000000,4.000000,4.000000,4.000000,4.000000,4.000000,4.000000,4.000000,4.000000,4.000000,4.000000,100.000000
1602006152.032346,22.000000,0.000000,4154.871582,4160.512695,4156.922852,4152.307617,4135.897461,4142.051270,4122.051270,4126.666504,4125.641113,4121.025879,4140.000000,4166.153809,4124.102539,4143.589844,0.000000,4.000000,,,,0.000000,4.000000,4.000000,4.000000,4.000000,4.000000,4.000000,4.000000,4.000000,4.000000,4.000000,4.000000,4.000000,4.000000,4.000000,100.000000
1602006152.040228,23.000000,0.000000,4151.794922,4157.948730,4153.846191,4149.230957,4125.641113,4124.102539,4115.897461,4120.000000,4120.512695,4110.256348,4139.487305,4161.538574,4120.000000,4138.461426,0.000000,4.000000,,,,0.000000,4.000000,4.000000,4.000000,4.000000,4.000000,4.000000,4.000000,4.000000,4.000000,4.000000,4.000000,4.000000,4.000000,4.000000,100.000000
1602006152.048111,24.000000,0.000000,4155.384766,4157.436035,4156.410156,4142.051270,4121.538574,4118.974121,4114.871582,4120.512695,4120.000000,4125.128418,4138.461426,4158.461426,4121.025879,4136.922852,0.000000,4.000000,,,,0.000000,4.000000,4.000000,4.000000,4.000000,4.000000,4.000000,4.000000,4.000000,4.000000,4.000000,4.000000,4.000000,4.000000,4.000000,100.000000
1602006152.055893,25.000000,0.000000,4158.974121,4157.436035,4155.897461,4142.051270,4127.692383,4122.563965,4121.025879,4121.538574,4123.589844,4141.025879,4135.384766,4155.897461,4125.641113,4142.051270,0.000000,4.000000,,,,0.000000,4.000000,4.000000,4.000000,4.000000,4.000000,4.000000,4.000000,4.000000,4.000000,4.000000,4.000000,4.000000,4.000000,4.000000,100.000000
1602006152.063774,26.000000,0.000000,4155.384766,4156.922852,4141.538574,4140.512695,4125.128418,4121.025879,4122.051270,4120.000000,4122.563965,4126.153809,4134.871582,4146.153809,4123.589844,4141.025879,0.000000,4.000000,,,,0.000000,4.000000,4.000000,4.000000,4.000000,4.000000,4.000000,4.000000,4.000000,4.000000,4.000000,4.000000,4.000000,4.000000,4.000000,100.000000
1602006152.071656,27.000000,0.000000,4151.282227,4155.384766,4134.358887,4136.922852,4128.205078,4127.179688,4124.615234,4127.692383,4127.692383,4116.922852,4134.871582,4136.922852,4121.025879,4131.794922,0.000000,4.000000,,,,0.000000,4.000000,4.000000,4.000000,4.000000,4.000000,4.000000,4.000000,4.000000,4.000000,4.000000,4.000000,4.000000,4.000000,4.000000,100.000000
1602006152.079538,28.000000,0.000000,4145.128418,4153.333496,4134.871582,4136.922852,4137.436035,4137.436035,4128.717773,4140.512695,4147.692383,4128.717773,4128.717773,4137.436035,4118.974121,4122.051270,0.000000,4.000000,,,,0.000000,4.000000,4.000000,4.000000,4.000000,4.000000,4.000000,4.000000,4.000000,4.000000,4.000000,4.000000,4.000000,4.000000,4.000000,100.000000
1602006152.087420,29.000000,0.000000,4138.974121,4151.794922,4125.641113,4135.384766,4135.384766,4135.384766,4128.717773,4142.051270,4162.051270,4130.256348,4121.025879,4138.461426,4113.846191,4118.974121,0.000000,4.000000,,,,0.000000,4.000000,4.000000,4.000000,4.000000,4.000000,4.000000,4.000000,4.000000,4.000000,4.000000,4.000000,4.000000,4.000000,4.000000,100.000000
1602006152.095302,30.000000,0.000000,4133.333496,4148.717773,4117.948730,4135.897461,4133.333496,4133.846191,4130.769043,4138.461426,4156.410156,4123.077148,4122.051270,4133.333496,4112.307617,4117.436035,0.000000,4.000000,,,,0.000000,4.000000,4.000000,4.000000,4.000000,4.000000,4.000000,4.000000,4.000000,4.000000,4.000000,4.000000,4.000000,4.000000,4.000000,100.000000
1602006152.103184,31.000000,0.000000,4126.666504,4147.179688,4122.563965,4137.948730,4138.974121,4141.538574,4131.794922,4137.436035,4145.128418,4124.615234,4130.769043,4124.615234,4114.871582,4111.794922,0.000000,4.000000,,,,0.000000,4.000000,4.000000,4.000000,4.000000,4.000000,4.000000,4.000000,4.000000,4.000000,4.000000,4.000000,4.000000,4.000000,4.000000,100.000000
1602006152.111066,32.000000,0.000000,4125.128418,4143.077148,4122.563965,4135.384766,4133.846191,4137.948730,4125.128418,4131.794922,4139.487305,4126.666504,4128.205078,4119.487305,4110.256348,4107.692383,0.000000,4.000000,,,,0.000000,4.000000,4.000000,4.000000,4.000000,4.000000,4.000000,4.000000,4.000000,4.000000,4.000000,4.000000,4.000000,4.000000,4.000000,100.000000
1602006152.119048,33.000000,0.000000,4134.358887,4141.538574,4122.563965,4135.384766,4127.179688,4134.358887,4125.128418,4123.077148,4132.820313,4128.717773,4118.974121,4125.128418,4106.153809,4111.282227,0.000000,4.000000,,,,0.000000,4.000000,4.000000,4.000000,4.000000,4.000000,4.000000,4.000000,4.000000,4.000000,4.000000,4.000000,4.000000,4.000000,4.000000,100.000000
1602006152.126930,34.000000,0.000000,4141.538574,4144.615234,4134.871582,4140.512695,4133.333496,4144.615234,4130.256348,4121.538574,4123.077148,4131.794922,4126.153809,4137.948730,4114.358887,4118.974121,0.000000,4.000000,,,,0.000000,4.000000,4.000000,4.000000,4.000000,4.000000,4.000000,4.000000,4.000000,4.000000,4.000000,4.000000,4.000000,4.000000,4.000000,100.000000
1602006152.134812,35.000000,0.000000,4141.025879,4147.692383,4142.563965,4142.051270,4137.436035,4144.102539,4125.641113,4123.589844,4128.205078,4143.077148,4138.461426,4150.256348,4123.077148,4130.769043,0.000000,4.000000,,,,0.000000,4.000000,4.000000,4.000000,4.000000,4.000000,4.000000,4.000000,4.000000,4.000000,4.000000,4.000000,4.000000,4.000000,4.000000,100.000000
1602006152.142694,36.000000,0.000000,4144.615234,4149.230957,4140.512695,4137.948730,4132.307617,4129.743652,4120.512695,4130.769043,4143.589844,4162.563965,4136.922852,4161.538574,4122.051270,4137.436035,0.000000,4.000000,,,,0.000000,4.000000,4.000000,4.000000,4.000000,4.000000,4.000000,4.000000,4.000000,4.000000,4.000000,4.000000,4.000000,4.000000,4.000000,100.000000
1602006152.150576,37.000000,0.000000,4155.384766,4152.820313,4143.077148,4141.025879,4133.846191,4129.230957,4126.153809,4138.974121,4143.077148,4138.461426,4138.461426,4168.717773,4122.051270,4134.871582,0.000000,4.000000,,,,0.000000,4.000000,4.000000,4.000000,4.000000,4.000000,4.000000,4.000000,4.000000,4.000000,4.000000,4.000000,4.000000,4.000000,4.000000,100.000000
1602006152.158458,38.000000,0.000000,4158.974121,4155.384766,4150.769043,4148.205078,4138.461426,4141.025879,4130.769043,4141.025879,4135.897461,4097.948730,4146.666504,4171.794922,4133.333496,4141.025879,0.000000,4.000000,,,,0.000000,4.000000,4.000000,4.000000,4.000000,4.000000,4.000000,4.000000,4.000000,4.000000,4.000000,4.000000,4.000000,4.000000,4.000000,100.000000
1602006152.166340,39.000000,0.000000,4154.871582,4154.871582,4153.846191,4146.666504,4133.846191,4137.948730,4126.666504,4140.000000,4139.487305,4117.436035,4145.128418,4174.358887,4137.436035,4156.922852,0.000000,4.000000,,,,0.000000,4.000000,4.000000,4.000000,4.000000,4.000000,4.000000,4.000000,4.000000,4.000000,4.000000,4.000000,4.000000,4.000000,4.000000,100.000000
1602006152.174223,40.000000,0.000000,4149.743652,4150.256348,4152.820313,4138.461426,4125.641113,4123.077148,4123.589844,4135.897461,4136.922852,4148.717773,4140.000000,4171.282227,4127.692383,4157.948730,0.000000,4.000000,,,,0.000000,4.000000,4.000000,4.000000,4.000000,4.000000,4.000000,4.000000,4.000000,4.000000,4.000000,4.000000,4.000000,4.000000,4.000000,100.000000
1602006152.182105,41.000000,0.000000,4145.641113,4143.077148,4148.717773,4135.897461,4124.615234,4117.948730,4124.102539,4128.717773,4125.128418,4137.436035,4140.512695,4160.000000,4122.563965,4144.102539,0.000000,4.000000,,,,0.000000,4.000000,4.000000,4.000000,4.000000,4.000000,4.000000,4.000000,4.000000,4.000000,4.000000,4.000000,4.000000,4.000000,4.000000,100.000000
1602006152.190086,42.000000,0.000000,4135.897461,4141.025879,4141.538574,4136.922852,4131.282227,4123.589844,4123.077148,4131.794922,4117.948730,4130.256348,4131.794922,4152.820313,4122.563965,4131.794922,0.000000,4.000000,,,,0.000000,4.000000,4.000000,4.000000,4.000000,4.000000,4.000000,4.000000,4.000000,4.000000,4.000000,4.000000,4.000000,4.000000,4.000000,100.000000
1602006152.197968,43.000000,0.000000,4125.641113,4142.563965,4133.333496,4135.384766,4137.948730,4130.769043,4121.025879,4137.436035,4114.358887,4136.410156,4120.000000,4150.769043,4114.358887,4121.538574,0.000000,4.000000,,,,0.000000,4.000000,4.000000,4.000000,4.000000,4.000000,4.000000,4.000000,4.000000,4.000000,4.000000,4.000000,4.000000,4.000000,4.000000,100.000000
1602006152.205850,44.000000,0.000000,4128.717773,4141.538574,4127.179688,4136.922852,4139.487305,4137.436035,4121.025879,4134.871582,4121.538574,4130.769043,4129.743652,4143.589844,4111.282227,4120.000000,0.000000,4.000000,,,,0.000000,4.000000,4.000000,4.000000,4.000000,4.000000,4.000000,4.000000,4.000000,4.000000,4.000000,4.000000,4.000000,4.000000,4.000000,100.000000
1602006152.213732,45.000000,0.000000,4136.410156,4140.000000,4124.102539,4137.436035,4136.922852,4136.922852,4119.487305,4134.871582,4136.922852,4116.410156,4137.948730,4137.948730,4120.512695,4127.179688,0.000000,4.000000,,,,0.000000,4.000000,4.000000,4.000000,4.000000,4.000000,4.000000,4.000000,4.000000,4.000000,4.000000,4.000000,4.000000,4.000000,4.000000,100.000000
1602006152.221614,46.000000,0.000000,4134.358887,4136.410156,4122.051270,4126.666504,4132.307617,4125.128418,4114.358887,4135.384766,4139.487305,4107.692383,4124.102539,4138.974121,4122.051270,4126.153809,0.000000,4.000000,,,,0.000000,4.000000,4.000000,4.000000,4.000000,4.000000,4.000000,4.000000,4.000000,4.000000,4.000000,4.000000,4.000000,4.000000,4.000000,100.000000
1602006152.229496,47.000000,0.000000,4127.692383,4134.871582,4122.563965,4124.615234,4134.358887,4125.641113,4117.948730,4133.846191,4135.897461,4119.487305,4121.025879,4137.436035,4116.922852,4122.051270,0.000000,4.000000,,,,0.000000,4.000000,4.000000,4.000000,4.000000,4.000000,4.000000,4.000000,4.000000,4.000000,4.000000,4.000000,4.000000,4.000000,4.000000,100.000000
1602006152.237378,48.000000,0.000000,4124.615234,4138.461426,4123.077148,4137.436035,4142.051270,4140.512695,4133.846191,4137.436035,4142.051270,4137.436035,4132.307617,4138.974121,4119.487305,4123.589844,0.000000,4.000000,,,,0.000000,4.000000,4.000000,4.000000,4.000000,4.000000,4.000000,4.000000,4.000000,4.000000,4.000000,4.000000,4.000000,4.000000,4.000000,100.000000
1602006152.245260,49.000000,0.000000,4123.077148,4138.461426,4121.025879,4135.384766,4140.512695,4142.563965,4138.461426,4141.025879,4145.128418,4140.512695,4131.794922,4139.487305,4122.563965,4123.077148,0.000000,4.000000,,,,0.000000,4.000000,4.000000,4.000000,4.000000,4.000000,4.000000,4.000000,4.000000,4.000000,4.000000,4.000000,4.000000,4.000000,4.000000,100.000000
1602006152.253240,50.000000,0.000000,4128.205078,4135.384766,4120.512695,4123.589844,4133.333496,4137.948730,4131.282227,4134.871582,4136.410156,4136.922852,4131.282227,4136.922852,4121.538574,4119.487305,0.000000,4.000000,,,,0.000000,4.000000,4.000000,4.000000,4.000000,4.000000,4.000000,4.000000,4.000000,4.000000,4.000000,4.000000,4.000000,4.000000,4.000000,100.000000
1602006152.261222,51.000000,0.000000,4137.436035,4137.948730,4123.589844,4131.794922,4135.384766,4140.000000,4131.282227,4126.666504,4126.153809,4128.717773,4134.358887,4145.641113,4122.051270,4122.563965,0.000000,4.000000,,,,0.000000,4.000000,4.000000,4.000000,4.000000,4.000000,4.000000,4.000000,4.000000,4.000000,4.000000,4.000000,4.000000,4.000000,4.000000,100.000000
1602006152.269103,52.000000,0.000000,4138.974121,4146.666504,4125.128418,4144.615234,4140.000000,4136.410156,4132.307617,4123.077148,4124.615234,4111.282227,4129.230957,4152.820313,4122.563965,4121.025879,0.000000,4.000000,,,,0.000000,4.000000,4.000000,4.000000,4.000000,4.000000,4.000000,4.000000,4.000000,4.000000,4.000000,4.000000,4.000000,4.000000,4.000000,100.000000
1602006152.276985,53.000000,0.000000,4138.461426,4152.307617,4124.102539,4140.512695,4142.051270,4126.666504,4126.153809,4123.077148,4125.641113,4101.538574,4126.153809,4146.153809,4124.102539,4118.461426,0.000000,4.000000,,,,0.000000,4.000000,4.000000,4.000000,4.000000,4.000000,4.000000,4.000000,4.000000,4.000000,4.000000,4.000000,4.000000,4.000000,4.000000,100.000000
1602006152.284866,54.000000,0.000000,4137.436035,4152.307617,4123.589844,4136.410156,4140.000000,4129.230957,4122.563965,4122.051270,4120.512695,4107.179688,4125.128418,4140.000000,4125.641113,4132.307617,0.000000,4.000000,,,,0.000000,4.000000,4.000000,4.000000,4.000000,4.000000,4.000000,4.000000,4.000000,4.000000,4.000000,4.000000,4.000000,4.000000,4.000000,100.000000
1602006152.292747,55.000000,0.000000,4135.384766,4153.333496,4125.128418,4140.512695,4138.974121,4137.436035,4124.615234,4122.563965,4123.077148,4117.436035,4125.128418,4142.051270,4123.077148,4139.487305,0.000000,4.000000,,,,0.000000,4.000000,4.000000,4.000000,4.000000,4.000000,4.000000,4.000000,4.000000,4.000000,4.000000,4.000000,4.000000,4.000000,4.000000,100.000000
1602006152.300529,56.000000,0.000000,4136.410156,4154.871582,4127.692383,4142.051270,4140.512695,4137.948730,4124.102539,4127.692383,4144.102539,4129.743652,4134.871582,4146.666504,4123.589844,4129.230957,0.000000,4.000000,,,,0.000000,4.000000,4.000000,4.000000,4.000000,4.000000,4.000000,4.000000,4.000000,4.000000,4.000000,4.000000,4.000000,4.000000,4.000000,100.000000
1602006152.308411,57.000000,0.000000,4137.436035,4151.794922,4130.256348,4137.948730,4139.487305,4133.846191,4124.102539,4129.743652,4156.922852,4139.487305,4138.974121,4152.307617,4131.794922,4128.205078,0.000000,4.000000,,,,0.000000,4.000000,4.000000,4.000000,4.000000,4.000000,4.000000,4.000000,4.000000,4.000000,4.000000,4.000000,4.000000,4.000000,4.000000,100.000000
1602006152.316293,58.000000,0.000000,4136.410156,4151.794922,4135.384766,4138.974121,4138.974121,4135.384766,4127.692383,4128.205078,4154.871582,4141.538574,4133.846191,4160.000000,4137.948730,4146.666504,0.000000,4.000000,,,,0.000000,4.000000,4.000000,4.000000,4.000000,4.000000,4.000000,4.000000,4.000000,4.000000,4.000000,4.000000,4.000000,4.000000,4.000000,100.000000
1602006152.324175,59.000000,0.000000,4137.948730,4153.846191,4140.512695,4143.589844,4142.563965,4141.025879,4128.717773,4132.820313,4156.410156,4142.051270,4138.974121,4161.025879,4138.461426,4156.410156,0.000000,4.000000,,,,0.000000,4.000000,4.000000,4.000000,4.000000,4.000000,4.000000,4.000000,4.000000,4.000000,4.000000,4.000000,4.000000,4.000000,4.000000,100.000000
1602006152.332057,60.000000,0.000000,4141.538574,4146.666504,4140.512695,4142.051270,4141.538574,4131.794922,4126.666504,4132.820313,4153.846191,4134.871582,4142.563965,4156.922852,4140.512695,4140.512695,0.000000,4.000000,,,,0.000000,4.000000,4.000000,4.000000,4.000000,4.000000,4.000000,4.000000,4.000000,4.000000,4.000000,4.000000,4.000000,4.000000,4.000000,100.000000
1602006152.339939,61.000000,0.000000,4138.974121,4140.512695,4136.922852,4136.410156,4135.897461,4117.948730,4123.589844,4125.641113,4135.897461,4116.410156,4137.436035,4153.333496,4137.436035,4120.512695,0.000000,4.000000,,,,0.000000,4.000000,4.000000,4.000000,4.000000,4.000000,4.000000,4.000000,4.000000,4.000000,4.000000,4.000000,4.000000,4.000000,4.000000,100.000000
1602006152.347821,62.000000,0.000000,4134.358887,4142.051270,4135.384766,4136.922852,4135.384766,4121.025879,4120.000000,4116.922852,4121.538574,4110.256348,4133.846191,4152.820313,4126.666504,4127.179688,0.000000,4.000000,,,,0.000000,4.000000,4.000000,4.000000,4.000000,4.000000,4.000000,4.000000,4.000000,4.000000,4.000000,4.000000,4.000000,4.000000,4.000000,100.000000
1602006152.355702,63.000000,0.000000,4132.307617,4143.589844,4134.358887,4139.487305,4136.410156,4124.615234,4117.436035,4109.230957,4120.000000,4122.051270,4125.128418,4150.256348,4118.974121,4138.974121,0.000000,4.000000,,,,0.000000,4.000000,4.000000,4.000000,4.000000,4.000000,4.000000,4.000000,4.000000,4.000000,4.000000,4.000000,4.000000,4.000000,4.000000,100.000000
1602006152.363684,64.000000,0.000000,4135.897461,4146.666504,4133.333496,4139.487305,4136.410156,4118.461426,4119.487305,4112.307617,4119.487305,4125.641113,4120.512695,4148.717773,4120.512695,4126.153809,797.000000,4.000000,,,,0.000000,4.000000,4.000000,4.000000,4.000000,4.000000,4.000000,4.000000,4.000000,4.000000,4.000000,4.000000,4.000000,4.000000,4.000000,100.000000
1602006152.371565,65.000000,0.000000,4141.538574,4152.307617,4137.948730,4141.025879,4138.461426,4122.051270,4123.589844,4122.563965,4121.025879,4120.512695,4127.692383,4153.333496,4125.128418,4121.025879,788.000000,4.000000,,,,0.000000,4.000000,4.000000,4.000000,4.000000,4.000000,4.000000,4.000000,4.000000,4.000000,4.000000,4.000000,4.000000,4.000000,4.000000,100.000000
1602006152.379447,66.000000,0.000000,4139.487305,4154.358887,4136.922852,4143.077148,4139.487305,4128.717773,4126.666504,4123.077148,4128.205078,4123.077148,4130.256348,4150.769043,4127.692383,4137.948730,849.000000,4.000000,,,,0.000000,4.000000,4.000000,4.000000,4.000000,4.000000,4.000000,4.000000,4.000000,4.000000,4.000000,4.000000,4.000000,4.000000,4.000000,100.000000
1602006152.387328,67.000000,0.000000,4135.384766,4151.794922,4126.666504,4141.538574,4136.922852,4125.128418,4128.205078,4119.487305,4127.692383,4115.897461,4124.615234,4139.487305,4124.102539,4142.563965,868.000000,4.000000,,,,0.000000,4.000000,4.000000,4.000000,4.000000,4.000000,4.000000,4.000000,4.000000,4.000000,4.000000,4.000000,4.000000,4.000000,4.000000,100.000000
1602006152.395209,68.000000,0.000000,4136.922852,4149.230957,4125.641113,4137.948730,4135.384766,4120.512695,4127.179688,4122.051270,4124.615234,4110.256348,4123.077148,4138.461426,4123.077148,4136.922852,818.000000,4.000000,,,,0.000000,4.000000,4.000000,4.000000,4.000000,4.000000,4.000000,4.000000,4.000000,4.000000,4.000000,4.000000,4.000000,4.000000,4.000000,100.000000
1602006152.403091,69.000000,0.000000,4140.000000,4152.307617,4135.897461,4138.974121,4136.410156,4123.589844,4126.153809,4124.102539,4141.025879,4123.077148,4130.769043,4149.230957,4134.358887,4138.974121,824.000000,4.000000,,,,0.000000,4.000000,4.000000,4.000000,4.000000,4.000000,4.000000,4.000000,4.000000,4.000000,4.000000,4.000000,4.000000,4.000000,4.000000,100.000000
1602006152.410872,70.000000,0.000000,4140.512695,4153.333496,4140.000000,4143.077148,4136.922852,4126.153809,4127.179688,4125.128418,4155.384766,4129.230957,4138.974121,4152.820313,4144.102539,4139.487305,762.000000,4.000000,,,,0.000000,4.000000,4.000000,4.000000,4.000000,4.000000,4.000000,4.000000,4.000000,4.000000,4.000000,4.000000,4.000000,4.000000,4.000000,100.000000
1602006152.418754,71.000000,0.000000,4141.538574,4146.153809,4138.461426,4141.025879,4136.922852,4124.615234,4126.666504,4127.692383,4143.589844,4122.051270,4138.974121,4148.205078,4134.871582,4135.384766,668.000000,4.000000,,,,0.000000,4.000000,4.000000,4.000000,4.000000,4.000000,4.000000,4.000000,4.000000,4.000000,4.000000,4.000000,4.000000,4.000000,4.000000,100.000000
1602006152.426635,72.000000,0.000000,4140.000000,4137.436035,4138.461426,4136.922852,4138.461426,4127.692383,4124.615234,4126.153809,4131.282227,4119.487305,4134.358887,4146.666504,4120.000000,4133.846191,785.000000,4.000000,,,,0.000000,4.000000,4.000000,4.000000,4.000000,4.000000,4.000000,4.000000,4.000000,4.000000,4.000000,4.000000,4.000000,4.000000,4.000000,100.000000
1602006152.434516,73.000000,0.000000,4140.000000,4142.051270,4140.000000,4138.974121,4137.436035,4135.897461,4127.692383,4123.589844,4134.871582,4126.666504,4136.410156,4147.692383,4128.205078,4140.000000,839.000000,4.000000,,,,0.000000,4.000000,4.000000,4.000000,4.000000,4.000000,4.000000,4.000000,4.000000,4.000000,4.000000,4.000000,4.000000,4.000000,4.000000,100.000000
1602006152.442498,74.000000,0.000000,4142.563965,4152.820313,4142.051270,4140.512695,4133.846191,4140.512695,4137.436035,4127.692383,4137.948730,4136.922852,4140.512695,4148.205078,4137.436035,4133.846191,872.000000,4.000000,,,,0.000000,4.000000,4.000000,4.000000,4.000000,4.000000,4.000000,4.000000,4.000000,4.000000,4.000000,4.000000,4.000000,4.000000,4.000000,100.000000
1602006152.450379,75.000000,0.000000,4133.846191,4150.256348,4142.051270,4139.487305,4139.487305,4141.538574,4144.102539,4132.307617,4131.282227,4133.333496,4133.333496,4149.230957,4123.589844,4113.333496,836.000000,4.000000,,,,0.000000,4.000000,4.000000,4.000000,4.000000,4.000000,4.000000,4.000000,4.000000,4.000000,4.000000,4.000000,4.000000,4.000000,4.000000,100.000000
1602006152.458260,76.000000,0.000000,4128.717773,4147.179688,4141.538574,4141.025879,4149.743652,4144.615234,4141.538574,4129.743652,4123.589844,4113.333496,4132.307617,4151.282227,4120.000000,4119.487305,763.000000,4.000000,,,,0.000000,4.000000,4.000000,4.000000,4.000000,4.000000,4.000000,4.000000,4.000000,4.000000,4.000000,4.000000,4.000000,4.000000,4.000000,100.000000
1602006152.466041,77.000000,0.000000,4137.948730,4149.743652,4141.538574,4142.051270,4150.256348,4143.077148,4136.410156,4126.666504,4126.666504,4103.077148,4144.102539,4149.230957,4145.128418,4150.769043,746.000000,4.000000,,,,0.000000,4.000000,4.000000,4.000000,4.000000,4.000000,4.000000,4.000000,4.000000,4.000000,4.000000,4.000000,4.000000,4.000000,4.000000,100.000000
1602006152.474022,78.000000,0.000000,4137.436035,4146.153809,4140.512695,4139.487305,4141.025879,4137.436035,4130.256348,4129.743652,4138.461426,4116.410156,4155.384766,4150.256348,4170.256348,4168.205078,872.000000,4.000000,,,,0.000000,4.000000,4.000000,4.000000,4.000000,4.000000,4.000000,4.000000,4.000000,4.000000,4.000000,4.000000,4.000000,4.000000,4.000000,100.000000
1602006152.481903,79.000000,0.000000,4126.666504,4140.000000,4145.641113,4138.974121,4138.974121,4134.358887,4130.256348,4137.948730,4152.820313,4153.333496,4163.077148,4161.538574,4188.717773,4177.436035,836.000000,4.000000,,,,0.000000,4.000000,4.000000,4.000000,4.000000,4.000000,4.000000,4.000000,4.000000,4.000000,4.000000,4.000000,4.000000,4.000000,4.000000,100.000000
1602006152.489784,80.000000,0.000000,4124.102539,4134.871582,4153.846191,4141.538574,4149.743652,4136.922852,4135.897461,4142.563965,4164.102539,4185.641113,4169.230957,4172.820313,4204.615234,4189.230957,763.000000,4.000000,,,,0.000000,4.000000,4.000000,4.000000,4.000000,4.000000,4.000000,4.000000,4.000000,4.000000,4.000000,4.000000,4.000000,4.000000,4.000000,100.000000
1602006152.497566,81.000000,0.000000,4121.025879,4124.102539,4151.794922,4137.948730,4151.282227,4138.461426,4133.846191,4141.025879,4162.051270,4181.538574,4171.282227,4174.871582,4204.102539,4186.153809,746.000000,4.000000,,,,0.000000,4.000000,4.000000,4.000000,4.000000,4.000000,4.000000,4.000000,4.000000,4.000000,4.000000,4.000000,4.000000,4.000000,4.000000,100.000000
1602006152.505447,82.000000,0.000000,4117.948730,4120.000000,4151.282227,4137.436035,4145.128418,4132.307617,4130.256348,4138.974121,4153.333496,4168.205078,4168.717773,4172.307617,4200.000000,4181.538574,872.000000,4.000000,,,,0.000000,4.000000,4.000000,4.000000,4.000000,4.000000,4.000000,4.000000,4.000000,4.000000,4.000000,4.000000,4.000000,4.000000,4.000000,100.000000
1602006152.513329,83.000000,0.000000,4121.538574,4127.179688,4156.922852,4143.077148,4144.102539,4130.256348,4133.846191,4134.358887,4149.230957,4164.615234,4169.230957,4172.307617,4202.051270,4185.128418,836.000000,4.000000,,,,0.000000,4.000000,4.000000,4.000000,4.000000,4.000000,4.000000,4.000000,4.000000,4.000000,4.000000,4.000000,4.000000,4.000000,4.000000,100.000000
1602006152.521210,84.000000,0.000000,4110.256348,4118.461426,4148.205078,4135.384766,4143.077148,4135.897461,4138.461426,4128.717773,4135.897461,4157.436035,4170.769043,4170.769043,4193.846191,4172.820313,763.000000,4.000000,,,,0.000000,4.000000,4.000000,4.000000,4.000000,4.000000,4.000000,4.000000,4.000000,4.000000,4.000000,4.000000,4.000000,4.000000,4.000000,100.000000
1602006152.529192,85.000000,0.000000,4096.410156,4105.128418,4135.384766,4121.025879,4137.948730,4140.000000,4142.051270,4128.717773,4117.436035,4147.692383,4165.641113,4165.128418,4185.641113,4155.897461,746.000000,4.000000,,,,0.000000,4.000000,4.000000,4.000000,4.000000,4.000000,4.000000,4.000000,4.000000,4.000000,4.000000,4.000000,4.000000,4.000000,4.000000,100.000000
1602006152.537074,86.000000,0.000000,4098.461426,4105.128418,4131.282227,4121.025879,4137.436035,4137.948730,4140.512695,4128.205078,4120.000000,4141.025879,4156.922852,4157.948730,4181.538574,4151.282227,872.000000,4.000000,,,,0.000000,4.000000,4.000000,4.000000,4.000000,4.000000,4.000000,4.000000,4.000000,4.000000,4.000000,4.000000,4.000000,4.000000,4.000000,100.000000
1602006152.544956,87.000000,0.000000,4097.948730,4107.692383,4130.256348,4127.179688,4143.589844,4136.922852,4130.769043,4124.102539,4133.846191,4138.974121,4151.282227,4152.307617,4172.820313,4154.871582,836.000000,4.000000,,,,0.000000,4.000000,4.000000,4.000000,4.000000,4.000000,4.000000,4.000000,4.000000,4.000000,4.000000,4.000000,4.000000,4.000000,4.000000,100.000000
1602006152.552838,88.000000,0.000000,4090.256348,4110.256348,4130.769043,4125.641113,4147.179688,4140.512695,4130.769043,4134.871582,4148.717773,4147.179688,4154.871582,4150.769043,4169.230957,4158.461426,763.000000,4.000000,,,,0.000000,4.000000,4.000000,4.000000,4.000000,4.000000,4.000000,4.000000,4.000000,4.000000,4.000000,4.000000,4.000000,4.000000,4.000000,100.000000
1602006152.560720,89.000000,0.000000,4088.205078,4114.358887,4126.153809,4123.077148,4143.589844,4135.897461,4138.461426,4152.820313,4167.692383,4164.102539,4157.436035,4150.769043,4172.307617,4157.948730,746.000000,4.000000,,,,0.000000,4.000000,4.000000,4.000000,4.000000,4.000000,4.000000,4.000000,4.000000,4.000000,4.000000,4.000000,4.000000,4.000000,4.000000,100.000000
1602006152.568603,90.000000,0.000000,4096.410156,4112.307617,4121.025879,4124.102539,4137.436035,4124.102539,4137.948730,4155.897461,4170.769043,4166.666504,4157.436035,4151.282227,4171.794922,4154.871582,872.000000,4.000000,,,,0.000000,4.000000,4.000000,4.000000,4.000000,4.000000,4.000000,4.000000,4.000000,4.000000,4.000000,4.000000,4.000000,4.000000,4.000000,100.000000
1602006152.576485,91.000000,0.000000,4104.102539,4108.205078,4130.769043,4125.641113,4140.512695,4126.666504,4135.384766,4155.897461,4158.461426,4150.769043,4162.051270,4152.307617,4171.282227,4153.333496,836.000000,4.000000,,,,0.000000,4.000000,4.000000,4.000000,4.000000,4.000000,4.000000,4.000000,4.000000,4.000000,4.000000,4.000000,4.000000,4.000000,4.000000,100.000000
1602006152.584367,92.000000,0.000000,4105.641113,4108.717773,4141.025879,4125.641113,4143.589844,4139.487305,4138.974121,4155.897461,4150.256348,4133.846191,4160.512695,4151.282227,4172.820313,4154.358887,763.000000,4.000000,,,,0.000000,4.000000,4.000000,4.000000,4.000000,4.000000,4.000000,4.000000,4.000000,4.000000,4.000000,4.000000,4.000000,4.000000,4.000000,100.000000
1602006152.592249,93.000000,0.000000,4107.179688,4108.717773,4136.922852,4122.563965,4138.461426,4140.512695,4140.512695,4147.692383,4145.128418,4143.589844,4155.384766,4152.820313,4170.256348,4155.384766,746.000000,4.000000,,,,0.000000,4.000000,4.000000,4.000000,4.000000,4.000000,4.000000,4.000000,4.000000,4.000000,4.000000,4.000000,4.000000,4.000000,4.000000,100.000000
1602006152.600030,94.000000,0.000000,4108.717773,4109.230957,4136.410156,4121.025879,4138.974121,4142.563965,4140.000000,4138.974121,4137.436035,4158.974121,4155.897461,4152.307617,4166.666504,4151.282227,872.000000,4.000000,,,,0.000000,4.000000,4.000000,4.000000,4.000000,4.000000,4.000000,4.000000,4.000000,4.000000,4.000000,4.000000,4.000000,4.000000,4.000000,100.000000
1602006152.607911,95.000000,0.000000,4099.487305,4107.692383,4133.846191,4122.051270,4141.538574,4152.820313,4140.512695,4131.282227,4136.410156,4150.769043,4149.230957,4142.563965,4161.538574,4139.487305,836.000000,4.000000,,,,0.000000,4.000000,4.000000,4.000000,4.000000,4.000000,4.000000,4.000000,4.000000,4.000000,4.000000,4.000000,4.000000,4.000000,4.000000,100.000000
1602006152.615793,96.000000,0.000000,4087.692383,4098.974121,4120.512695,4116.410156,4137.948730,4151.282227,4140.000000,4126.153809,4142.051270,4151.794922,4135.384766,4133.846191,4156.922852,4132.307617,763.000000,4.000000,,,,0.000000,4.000000,4.000000,4.000000,4.000000,4.000000,4.000000,4.000000,4.000000,4.000000,4.000000,4.000000,4.000000,4.000000,4.000000,100.000000
1602006152.623674,97.000000,0.000000,4091.794922,4094.871826,4113.333496,4107.692383,4135.384766,4141.538574,4138.461426,4125.128418,4140.000000,4151.282227,4138.461426,4135.897461,4155.897461,4137.436035,746.000000,4.000000,,,,0.000000,4.000000,4.000000,4.000000,4.000000,4.000000,4.000000,4.000000,4.000000,4.000000,4.000000,4.000000,4.000000,4.000000,4.000000,100.000000
1602006152.631456,98.000000,0.000000,4090.769287,4095.384521,4111.282227,4104.615234,4135.897461,4140.000000,4138.461426,4125.641113,4136.922852,4132.820313,4147.692383,4137.948730,4152.820313,4139.487305,872.000000,4.000000,,,,0.000000,4.000000,4.000000,4.000000,4.000000,4.000000,4.000000,4.000000,4.000000,4.000000,4.000000,4.000000,4.000000,4.000000,4.000000,100.000000
1602006152.639338,99.000000,0.000000,4078.461426,4093.846191,4105.641113,4109.230957,4132.820313,4139.487305,4140.512695,4128.205078,4145.128418,4134.358887,4138.461426,4131.794922,4150.769043,4132.820313,836.000000,4.000000,,,,0.000000,4.000000,4.000000,4.000000,4.000000,4.000000,4.000000,4.000000,4.000000,4.000000,4.000000,4.000000,4.000000,4.000000,4.000000,100.000000
1602006152.647219,100.000000,0.000000,4082.564209,4098.461426,4111.794922,4117.948730,4130.769043,4136.922852,4141.025879,4137.436035,4156.410156,4155.384766,4138.974121,4129.743652,4154.358887,4138.461426,763.000000,4.000000,,,,0.000000,4.000000,4.000000,4.000000,4.000000,4.000000,4.000000,4.000000,4.000000,4.000000,4.000000,4.000000,4.000000,4.000000,4.000000,100.000000
1602006152.655101,101.000000,0.000000,4102.563965,4108.717773,4125.641113,4123.077148,4134.871582,4143.077148,4142.563965,4144.615234,4157.948730,4158.461426,4156.410156,4137.436035,4155.384766,4155.897461,746.000000,4.000000,,,,0.000000,4.000000,4.000000,4.000000,4.000000,4.000000,4.000000,4.000000,4.000000,4.000000,4.000000,4.000000,4.000000,4.000000,4.000000,100.000000
1602006152.662983,102.000000,0.000000,4107.692383,4109.743652,4128.717773,4123.589844,4138.974121,4148.717773,4143.589844,4143.589844,4147.692383,4142.051270,4158.974121,4144.102539,4152.307617,4156.922852,872.000000,4.000000,,,,0.000000,4.000000,4.000000,4.000000,4.000000,4.000000,4.000000,4.000000,4.000000,4.000000,4.000000,4.000000,4.000000,4.000000,4.000000,100.000000
1602006152.670865,103.000000,0.000000,4097.436035,4105.641113,4127.692383,4121.538574,4137.436035,4146.666504,4140.512695,4140.000000,4137.436035,4124.615234,4150.256348,4141.025879,4150.769043,4144.615234,836.000000,4.000000,,,,0.000000,4.000000,4.000000,4.000000,4.000000,4.000000,4.000000,4.000000,4.000000,4.000000,4.000000,4.000000,4.000000,4.000000,4.000000,100.000000
1602006152.678747,104.000000,0.000000,4092.820557,4104.615234,4131.282227,4120.000000,4136.922852,4145.128418,4143.589844,4137.948730,4133.333496,4121.538574,4150.256348,4135.897461,4152.820313,4140.000000,763.000000,4.000000,,,,0.000000,4.000000,4.000000,4.000000,4.000000,4.000000,4.000000,4.000000,4.000000,4.000000,4.000000,4.000000,4.000000,4.000000,4.000000,100.000000
1602006152.686629,105.000000,0.000000,4094.871826,4104.615234,4135.897461,4121.025879,4140.000000,4145.641113,4153.333496,4138.461426,4132.820313,4136.922852,4153.846191,4143.077148,4154.358887,4142.051270,746.000000,4.000000,,,,0.000000,4.000000,4.000000,4.000000,4.000000,4.000000,4.000000,4.000000,4.000000,4.000000,4.000000,4.000000,4.000000,4.000000,4.000000,100.000000
1602006152.694611,106.000000,0.000000,4099.487305,4107.179688,4137.948730,4122.563965,4141.538574,4140.000000,4151.794922,4137.948730,4127.179688,4147.179688,4154.358887,4151.794922,4153.333496,4143.077148,872.000000,4.000000,,,,0.000000,4.000000,4.000000,4.000000,4.000000,4.000000,4.000000,4.000000,4.000000,4.000000,4.000000,4.000000,4.000000,4.000000,4.000000,100.000000
1602006152.702493,107.000000,0.000000,4105.641113,4106.666504,4133.846191,4118.974121,4139.487305,4131.794922,4139.487305,4137.436035,4126.153809,4151.794922,4156.922852,4149.230957,4155.384766,4141.025879,836.000000,4.000000,,,,0.000000,4.000000,4.000000,4.000000,4.000000,4.000000,4.000000,4.000000,4.000000,4.000000,4.000000,4.000000,4.000000,4.000000,4.000000,100.000000
1602006152.710375,108.000000,0.000000,4106.153809,4104.615234,4128.717773,4116.410156,4136.922852,4129.743652,4133.846191,4136.410156,4131.282227,4154.871582,4154.871582,4138.461426,4152.307617,4135.384766,763.000000,4.000000,,,,0.000000,4.000000,4.000000,4.000000,4.000000,4.000000,4.000000,4.000000,4.000000,4.000000,4.000000,4.000000,4.000000,4.000000,4.000000,100.000000
1602006152.718257,109.000000,0.000000,4108.205078,4113.333496,4133.333496,4125.641113,4136.410156,4132.307617,4138.461426,4140.512695,4136.922852,4144.102539,4148.205078,4135.897461,4151.282227,4134.871582,746.000000,4.000000,,,,0.000000,4.000000,4.000000,4.000000,4.000000,4.000000,4.000000,4.000000,4.000000,4.000000,4.000000,4.000000,4.000000,4.000000,4.000000,100.000000
1602006152.726139,110.000000,0.000000,4121.538574,4125.128418,4142.563965,4137.436035,4141.538574,4144.615234,4140.000000,4149.230957,4152.307617,4152.820313,4152.820313,4148.717773,4164.102539,4143.077148,872.000000,4.000000,,,,0.000000,4.000000,4.000000,4.000000,4.000000,4.000000,4.000000,4.000000,4.000000,4.000000,4.000000,4.000000,4.000000,4.000000,4.000000,100.000000
1602006152.734021,111.000000,0.000000,4127.179688,4126.666504,4140.000000,4138.461426,4150.769043,4152.307617,4138.461426,4149.230957,4160.000000,4165.641113,4157.948730,4155.384766,4166.666504,4145.128418,836.000000,4.000000,,,,0.000000,4.000000,4.000000,4.000000,4.000000,4.000000,4.000000,4.000000,4.000000,4.000000,4.000000,4.000000,4.000000,4.000000,4.000000,100.000000
1602006152.741904,112.000000,0.000000,4115.384766,4122.051270,4129.230957,4130.256348,4150.769043,4144.615234,4136.410156,4136.410156,4145.128418,4140.000000,4145.128418,4143.589844,4144.102539,4137.436035,763.000000,4.000000,,,,0.000000,4.000000,4.000000,4.000000,4.000000,4.000000,4.000000,4.000000,4.000000,4.000000,4.000000,4.000000,4.000000,4.000000,4.000000,100.000000
1602006152.749786,113.000000,0.000000,4107.179688,4121.025879,4124.102539,4122.051270,4145.641113,4139.487305,4132.307617,4127.692383,4130.769043,4121.538574,4133.846191,4136.922852,4133.333496,4135.897461,746.000000,4.000000,,,,0.000000,4.000000,4.000000,4.000000,4.000000,4.000000,4.000000,4.000000,4.000000,4.000000,4.000000,4.000000,4.000000,4.000000,4.000000,100.000000
1602006152.757668,114.000000,0.000000,4112.307617,4121.538574,4129.743652,4125.641113,4146.153809,4136.922852,4128.717773,4133.333496,4134.358887,4136.410156,4137.948730,4148.717773,4145.641113,4136.410156,872.000000,4.000000,,,,0.000000,4.000000,4.000000,4.000000,4.000000,4.000000,4.000000,4.000000,4.000000,4.000000,4.000000,4.000000,4.000000,4.000000,4.000000,100.000000
1602006152.765550,115.000000,0.000000,4123.589844,4122.051270,4142.051270,4137.436035,4145.128418,4129.743652,4133.333496,4140.512695,4137.436035,4142.563965,4147.692383,4156.410156,4150.769043,4137.436035,836.000000,4.000000,,,,0.000000,4.000000,4.000000,4.000000,4.000000,4.000000,4.000000,4.000000,4.000000,4.000000,4.000000,4.000000,4.000000,4.000000,4.000000,100.000000
1602006152.773332,116.000000,0.000000,4126.666504,4124.102539,4147.179688,4136.410156,4137.436035,4126.666504,4137.948730,4141.538574,4130.769043,4133.333496,4151.794922,4155.897461,4150.769043,4146.153809,763.000000,4.000000,,,,0.000000,4.000000,4.000000,4.000000,4.000000,4.000000,4.000000,4.000000,4.000000,4.000000,4.000000,4.000000,4.000000,4.000000,4.000000,100.000000
1602006152.781213,117.000000,0.000000,4114.358887,4118.974121,4140.512695,4123.589844,4134.358887,4127.179688,4134.358887,4138.974121,4127.179688,4132.820313,4146.153809,4150.769043,4148.717773,4145.641113,746.000000,4.000000,,,,0.000000,4.000000,4.000000,4.000000,4.000000,4.000000,4.000000,4.000000,4.000000,4.000000,4.000000,4.000000,4.000000,4.000000,4.000000,100.000000
1602006152.789095,118.000000,0.000000,4109.743652,4114.871582,4134.358887,4123.589844,4135.897461,4125.641113,4132.820313,4142.563965,4133.846191,4150.256348,4142.051270,4144.102539,4144.615234,4132.820313,872.000000,4.000000,,,,0.000000,4.000000,4.000000,4.000000,4.000000,4.000000,4.000000,4.000000,4.000000,4.000000,4.000000,4.000000,4.000000,4.000000,4.000000,100.000000
1602006152.796977,119.000000,0.000000,4121.025879,4116.922852,4139.487305,4130.769043,4136.922852,4134.871582,4139.487305,4151.794922,4150.256348,4170.769043,4151.282227,4149.230957,4152.307617,4142.051270,836.000000,4.000000,,,,0.000000,4.000000,4.000000,4.000000,4.000000,4.000000,4.000000,4.000000,4.000000,4.000000,4.000000,4.000000,4.000000,4.000000,4.000000,100.000000
1602006152.804858,120.000000,0.000000,4118.974121,4113.333496,4138.974121,4124.102539,4137.436035,4146.153809,4140.512695,4148.717773,4153.333496,4166.666504,4157.436035,4148.717773,4158.461426,4154.358887,763.000000,4.000000,,,,0.000000,4.000000,4.000000,4.000000,4.000000,4.000000,4.000000,4.000000,4.000000,4.000000,4.000000,4.000000,4.000000,4.000000,4.000000,100.000000
1602006152.812740,121.000000,0.000000,4106.666504,4110.256348,4125.641113,4117.436035,4137.436035,4140.000000,4133.846191,4136.410156,4145.641113,4148.205078,4151.282227,4135.384766,4152.820313,4141.025879,746.000000,4.000000,,,,0.000000,4.000000,4.000000,4.000000,4.000000,4.000000,4.000000,4.000000,4.000000,4.000000,4.000000,4.000000,4.000000,4.000000,4.000000,100.000000
1602006152.820522,122.000000,0.000000,4115.897461,4120.512695,4127.179688,4129.743652,4146.666504,4137.436035,4133.846191,4141.025879,4150.769043,4158.461426,4151.794922,4142.563965,4162.051270,4139.487305,872.000000,4.000000,,,,0.000000,4.000000,4.000000,4.000000,4.000000,4.000000,4.000000,4.000000,4.000000,4.000000,4.000000,4.000000,4.000000,4.000000,4.000000,100.000000
1602006152.828404,123.000000,0.000000,4129.743652,4129.230957,4140.000000,4140.000000,4153.333496,4145.128418,4135.384766,4152.307617,4161.538574,4178.461426,4154.871582,4156.410156,4171.794922,4156.410156,836.000000,4.000000,,,,0.000000,4.000000,4.000000,4.000000,4.000000,4.000000,4.000000,4.000000,4.000000,4.000000,4.000000,4.000000,4.000000,4.000000,4.000000,100.000000
1602006152.836286,124.000000,0.000000,4122.563965,4123.589844,4141.538574,4132.820313,4143.077148,4136.922852,4130.769043,4146.153809,4157.948730,4172.307617,4153.846191,4147.692383,4158.461426,4156.410156,763.000000,4.000000,,,,0.000000,4.000000,4.000000,4.000000,4.000000,4.000000,4.000000,4.000000,4.000000,4.000000,4.000000,4.000000,4.000000,4.000000,4.000000,100.000000
1602006152.844168,125.000000,0.000000,4122.563965,4120.512695,4139.487305,4125.128418,4136.410156,4127.179688,4133.333496,4142.051270,4145.128418,4151.282227,4160.000000,4140.512695,4153.333496,4149.230957,746.000000,4.000000,,,,0.000000,4.000000,4.000000,4.000000,4.000000,4.000000,4.000000,4.000000,4.000000,4.000000,4.000000,4.000000,4.000000,4.000000,4.000000,100.000000
1602006152.852051,126.000000,0.000000,4129.230957,4117.436035,4143.589844,4125.641113,4137.948730,4135.384766,4141.025879,4146.153809,4137.436035,4146.666504,4155.384766,4147.179688,4156.922852,4148.205078,872.000000,4.000000,,,,0.000000,4.000000,4.000000,4.000000,4.000000,4.000000,4.000000,4.000000,4.000000,4.000000,4.000000,4.000000,4.000000,4.000000,4.000000,100.000000
1602006152.859933,127.000000,0.000000,4111.794922,4105.128418,4137.948730,4119.487305,4130.769043,4134.871582,4140.000000,4139.487305,4130.256348,4152.307617,4139.487305,4143.077148,4146.153809,4138.461426,836.000000,4.000000,,,,0.000000,4.000000,4.000000,4.000000,4.000000,4.000000,4.000000,4.000000,4.000000,4.000000,4.000000,4.000000,4.000000,4.000000,4.000000,100.000000
1602006152.867815,128.000000,0.000000,4093.846191,4091.794922,4126.153809,4106.666504,4121.538574,4124.615234,4138.461426,4131.794922,4120.000000,4134.871582,4135.897461,4131.282227,4135.384766,4126.666504,763.000000,4.000000,,,,0.000000,4.000000,4.000000,4.000000,4.000000,4.000000,4.000000,4.000000,4.000000,4.000000,4.000000,4.000000,4.000000,4.000000,4.000000,100.000000
1602006152.875697,0.000000,0.000000,4100.000000,4087.179443,4118.974121,4102.051270,4122.051270,4133.846191,4141.025879,4135.384766,4121.025879,4116.922852,4133.846191,4123.589844,4129.743652,4122.051270,797.000000,4.000000,,,,0.000000,4.000000,4.000000,4.000000,4.000000,4.000000,4.000000,4.000000,4.000000,4.000000,4.000000,4.000000,4.000000,4.000000,4.000000,100.000000
1602006152.883579,1.000000,0.000000,4105.641113,4094.358887,4117.436035,4105.641113,4123.077148,4146.153809,4138.974121,4137.436035,4131.794922,4138.461426,4124.102539,4117.948730,4123.077148,4117.948730,788.000000,4.000000,,,,0.000000,4.000000,4.000000,4.000000,4.000000,4.000000,4.000000,4.000000,4.000000,4.000000,4.000000,4.000000,4.000000,4.000000,4.000000,100.000000
1602006152.891561,2.000000,0.000000,4108.717773,4110.256348,4127.692383,4116.922852,4128.205078,4138.974121,4137.436035,4137.948730,4136.922852,4169.743652,4128.717773,4123.077148,4134.871582,4124.615234,849.000000,4.000000,,,,0.000000,4.000000,4.000000,4.000000,4.000000,4.000000,4.000000,4.000000,4.000000,4.000000,4.000000,4.000000,4.000000,4.000000,4.000000,100.000000
1602006152.899443,3.000000,0.000000,4129.743652,4129.230957,4140.000000,4132.820313,4139.487305,4135.897461,4139.487305,4149.230957,4145.641113,4177.436035,4151.794922,4137.436035,4161.538574,4143.589844,868.000000,4.000000,,,,0.000000,4.000000,4.000000,4.000000,4.000000,4.000000,4.000000,4.000000,4.000000,4.000000,4.000000,4.000000,4.000000,4.000000,4.000000,100.000000
1602006152.907325,4.000000,0.000000,4144.615234,4140.512695,4142.563965,4141.025879,4143.589844,4133.846191,4135.384766,4157.948730,4155.897461,4166.666504,4167.692383,4145.128418,4172.820313,4158.461426,816.000000,4.000000,,,,0.000000,4.000000,4.000000,4.000000,4.000000,4.000000,4.000000,4.000000,4.000000,4.000000,4.000000,4.000000,4.000000,4.000000,4.000000,100.000000
1602006152.915207,5.000000,0.000000,4133.846191,4136.410156,4138.974121,4138.974121,4140.512695,4120.512695,4125.128418,4151.794922,4150.769043,4163.077148,4168.205078,4149.230957,4166.666504,4152.820313,824.000000,4.000000,,,,0.000000,4.000000,4.000000,4.000000,4.000000,4.000000,4.000000,4.000000,4.000000,4.000000,4.000000,4.000000,4.000000,4.000000,4.000000,100.000000
1602006152.923090,6.000000,0.000000,4125.128418,4128.717773,4140.000000,4139.487305,4139.487305,4118.974121,4122.563965,4141.538574,4134.871582,4160.512695,4160.000000,4151.794922,4156.410156,4137.948730,762.000000,4.000000,,,,0.000000,4.000000,4.000000,4.000000,4.000000,4.000000,4.000000,4.000000,4.000000,4.000000,4.000000,4.000000,4.000000,4.000000,4.000000,100.000000
1602006152.930972,7.000000,0.000000,4126.153809,4123.077148,4139.487305,4138.461426,4138.974121,4124.102539,4125.641113,4133.846191,4125.641113,4144.102539,4147.179688,4145.128418,4143.589844,4135.897461,668.000000,4.000000,,,,0.000000,4.000000,4.000000,4.000000,4.000000,4.000000,4.000000,4.000000,4.000000,4.000000,4.000000,4.000000,4.000000,4.000000,4.000000,100.000000
1602006152.938854,8.000000,0.000000,4123.077148,4114.358887,4129.743652,4127.179688,4137.948730,4119.487305,4124.102539,4127.692383,4118.974121,4132.820313,4138.974121,4135.897461,4136.410156,4140.000000,785.000000,4.000000,,,,0.000000,4.000000,4.000000,4.000000,4.000000,4.000000,4.000000,4.000000,4.000000,4.000000,4.000000,4.000000,4.000000,4.000000,4.000000,100.000000
1602006152.946736,9.000000,0.000000,4121.538574,4107.179688,4128.717773,4121.025879,4138.461426,4122.563965,4129.230957,4130.256348,4117.948730,4142.563965,4136.410156,4138.974121,4138.974121,4137.948730,839.000000,4.000000,,,,0.000000,4.000000,4.000000,4.000000,4.000000,4.000000,4.000000,4.000000,4.000000,4.000000,4.000000,4.000000,4.000000,4.000000,4.000000,100.000000
1602006152.954618,10.000000,0.000000,4120.512695,4108.205078,4137.436035,4125.128418,4138.461426,4138.974121,4141.538574,4138.974121,4129.743652,4145.128418,4139.487305,4143.077148,4140.000000,4134.871582,872.000000,4.000000,,,,0.000000,4.000000,4.000000,4.000000,4.000000,4.000000,4.000000,4.000000,4.000000,4.000000,4.000000,4.000000,4.000000,4.000000,4.000000,100.000000
1602006152.962400,11.000000,0.000000,4118.974121,4108.717773,4136.922852,4124.102539,4139.487305,4142.563965,4142.563965,4141.538574,4136.922852,4137.948730,4140.000000,4133.333496,4133.846191,4135.897461,836.000000,4.000000,,,,0.000000,4.000000,4.000000,4.000000,4.000000,4.000000,4.000000,4.000000,4.000000,4.000000,4.000000,4.000000,4.000000,4.000000,4.000000,100.000000
1602006152.970282,12.000000,0.000000,4120.000000,4108.205078,4129.743652,4120.512695,4141.025879,4130.256348,4134.871582,4140.512695,4137.436035,4140.000000,4136.922852,4126.153809,4134.871582,4135.897461,763.000000,4.000000,,,,0.000000,4.000000,4.000000,4.000000,4.000000,4.000000,4.000000,4.000000,4.000000,4.000000,4.000000,4.000000,4.000000,4.000000,4.000000,100.000000
1602006152.978164,13.000000,0.000000,4113.333496,4111.282227,4122.051270,4121.538574,4139.487305,4127.692383,4128.717773,4142.051270,4137.436035,4138.461426,4137.948730,4121.538574,4141.025879,4136.410156,746.000000,4.000000,,,,0.000000,4.000000,4.000000,4.000000,4.000000,4.000000,4.000000,4.000000,4.000000,4.000000,4.000000,4.000000,4.000000,4.000000,4.000000,100.000000
1602006152.986046,14.000000,0.000000,4098.974121,4109.743652,4108.205078,4123.589844,4137.436035,4133.846191,4126.666504,4142.563965,4140.000000,4143.077148,4137.436035,4108.205078,4141.025879,4133.846191,872.000000,4.000000,,,,0.000000,4.000000,4.000000,4.000000,4.000000,4.000000,4.000000,4.000000,4.000000,4.000000,4.000000,4.000000,4.000000,4.000000,4.000000,100.000000
1602006152.993928,15.000000,0.000000,4095.384521,4107.692383,4105.128418,4122.563965,4138.974121,4140.512695,4131.282227,4147.179688,4138.974121,4157.948730,4138.974121,4109.230957,4142.563965,4128.717773,836.000000,4.000000,,,,0.000000,4.000000,4.000000,4.000000,4.000000,4.000000,4.000000,4.000000,4.000000,4.000000,4.000000,4.000000,4.000000,4.000000,4.000000,100.000000
1602006153.001809,16.000000,0.000000,4108.717773,4113.846191,4122.051270,4123.077148,4141.538574,4147.179688,4134.871582,4154.871582,4138.974121,4154.871582,4150.769043,4142.051270,4153.846191,4136.922852,0.000000,4.000000,,,,0.000000,4.000000,4.000000,4.000000,4.000000,4.000000,4.000000,4.000000,4.000000,4.000000,4.000000,4.000000,4.000000,4.000000,4.000000,100.000000
1602006153.009691,17.000000,0.000000,4117.948730,4118.461426,4136.410156,4125.128418,4140.512695,4147.179688,4128.205078,4153.846191,4138.461426,4154.358887,4157.948730,4164.615234,4162.051270,4156.922852,0.000000,4.000000,,,,0.000000,4.000000,4.000000,4.000000,4.000000,4.000000,4.000000,4.000000,4.000000,4.000000,4.000000,4.000000,4.000000,4.000000,4.000000,100.000000
1602006153.017573,18.000000,0.000000,4110.769043,4106.153809,4137.436035,4117.948730,4132.307617,4138.461426,4122.051270,4140.512695,4124.615234,4160.000000,4146.153809,4154.871582,4149.743652,4158.974121,0.000000,4.000000,,,,0.000000,4.000000,4.000000,4.000000,4.000000,4.000000,4.000000,4.000000,4.000000,4.000000,4.000000,4.000000,4.000000,4.000000,4.000000,100.000000
1602006153.025355,19.000000,0.000000,4104.102539,4089.230713,4135.897461,4105.641113,4123.077148,4133.333496,4123.589844,4124.615234,4110.256348,4126.666504,4132.307617,4150.256348,4132.820313,4141.025879,0.000000,4.000000,,,,0.000000,4.000000,4.000000,4.000000,4.000000,4.000000,4.000000,4.000000,4.000000,4.000000,4.000000,4.000000,4.000000,4.000000,4.000000,100.000000
1602006153.033237,20.000000,0.000000,4110.256348,4089.743652,4133.333496,4104.615234,4122.051270,4135.897461,4130.769043,4125.641113,4114.871582,4104.102539,4133.846191,4154.871582,4135.897461,4137.436035,0.000000,4.000000,,,,0.000000,4.000000,4.000000,4.000000,4.000000,4.000000,4.000000,4.000000,4.000000,4.000000,4.000000,4.000000,4.000000,4.000000,4.000000,100.000000
1602006153.041118,21.000000,0.000000,4112.307617,4092.820557,4127.179688,4108.717773,4123.589844,4135.897461,4138.974121,4135.897461,4130.256348,4142.051270,4138.461426,4146.666504,4137.948730,4142.563965,0.000000,4.000000,,,,0.000000,4.000000,4.000000,4.000000,4.000000,4.000000,4.000000,4.000000,4.000000,4.000000,4.000000,4.000000,4.000000,4.000000,4.000000,100.000000
1602006153.049000,22.000000,0.000000,4105.641113,4086.153809,4120.000000,4105.128418,4121.025879,4133.333496,4142.051270,4138.974121,4137.436035,4168.205078,4134.358887,4140.512695,4123.589844,4131.282227,0.000000,4.000000,,,,0.000000,4.000000,4.000000,4.000000,4.000000,4.000000,4.000000,4.000000,4.000000,4.000000,4.000000,4.000000,4.000000,4.000000,4.000000,100.000000
1602006153.056881,23.000000,0.000000,4105.128418,4090.256348,4119.487305,4106.153809,4125.128418,4137.948730,4139.487305,4144.615234,4138.461426,4149.230957,4134.871582,4150.256348,4127.692383,4126.153809,0.000000,4.000000,,,,0.000000,4.000000,4.000000,4.000000,4.000000,4.000000,4.000000,4.000000,4.000000,4.000000,4.000000,4.000000,4.000000,4.000000,4.000000,100.000000
1602006153.064763,24.000000,0.000000,4109.230957,4107.692383,4127.179688,4117.948730,4135.897461,4144.102539,4136.922852,4153.333496,4142.051270,4145.641113,4150.256348,4157.436035,4150.769043,4145.641113,0.000000,4.000000,,,,0.000000,4.000000,4.000000,4.000000,4.000000,4.000000,4.000000,4.000000,4.000000,4.000000,4.000000,4.000000,4.000000,4.000000,4.000000,100.000000
1602006153.072545,25.000000,0.000000,4109.230957,4112.820313,4126.666504,4124.615234,4140.512695,4142.563965,4128.205078,4147.692383,4139.487305,4166.153809,4155.897461,4149.230957,4150.769043,4148.205078,0.000000,4.000000,,,,0.000000,4.000000,4.000000,4.000000,4.000000,4.000000,4.000000,4.000000,4.000000,4.000000,4.000000,4.000000,4.000000,4.000000,4.000000,100.000000
1602006153.080427,26.000000,0.000000,4107.179688,4106.153809,4114.358887,4123.077148,4141.538574,4135.897461,4111.794922,4130.769043,4125.128418,4146.153809,4135.897461,4134.871582,4134.871582,4125.641113,0.000000,4.000000,,,,0.000000,4.000000,4.000000,4.000000,4.000000,4.000000,4.000000,4.000000,4.000000,4.000000,4.000000,4.000000,4.000000,4.000000,4.000000,100.000000
1602006153.088310,27.000000,0.000000,4105.128418,4105.641113,4106.666504,4122.051270,4142.051270,4134.871582,4105.641113,4122.563965,4115.897461,4107.692383,4122.051270,4127.692383,4134.871582,4120.512695,0.000000,4.000000,,,,0.000000,4.000000,4.000000,4.000000,4.000000,4.000000,4.000000,4.000000,4.000000,4.000000,4.000000,4.000000,4.000000,4.000000,4.000000,100.000000
1602006153.096192,28.000000,0.000000,4107.179688,4109.230957,4106.153809,4121.538574,4139.487305,4136.922852,4113.333496,4121.538574,4120.000000,4121.025879,4131.794922,4128.205078,4136.922852,4128.205078,0.000000,4.000000,,,,0.000000,4.000000,4.000000,4.000000,4.000000,4.000000,4.000000,4.000000,4.000000,4.000000,4.000000,4.000000,4.000000,4.000000,4.000000,100.000000
1602006153.104074,29.000000,0.000000,4109.743652,4114.358887,4106.153809,4122.051270,4136.410156,4133.846191,4125.641113,4124.102539,4123.077148,4157.948730,4135.897461,4133.846191,4134.358887,4122.563965,0.000000,4.000000,,,,0.000000,4.000000,4.000000,4.000000,4.000000,4.000000,4.000000,4.000000,4.000000,4.000000,4.000000,4.000000,4.000000,4.000000,4.000000,100.000000
1602006153.111956,30.000000,0.000000,4109.230957,4118.461426,4109.743652,4126.666504,4138.461426,4130.769043,4134.871582,4132.820313,4129.743652,4162.051270,4126.666504,4141.538574,4135.897461,4116.922852,0.000000,4.000000,,,,0.000000,4.000000,4.000000,4.000000,4.000000,4.000000,4.000000,4.000000,4.000000,4.000000,4.000000,4.000000,4.000000,4.000000,4.000000,100.000000
1602006153.119838,31.000000,0.000000,4111.794922,4112.820313,4120.512695,4126.666504,4138.974121,4134.871582,4141.538574,4138.974121,4142.051270,4150.256348,4128.205078,4151.794922,4139.487305,4125.128418,0.000000,4.000000,,,,0.000000,4.000000,4.000000,4.000000,4.000000,4.000000,4.000000,4.000000,4.000000,4.000000,4.000000,4.000000,4.000000,4.000000,4.000000,100.000000
1602006153.127720,32.000000,0.000000,4114.871582,4106.666504,4125.641113,4122.051270,4138.461426,4142.051270,4149.743652,4137.436035,4142.563965,4140.512695,4139.487305,4157.436035,4140.000000,4131.794922,0.000000,4.000000,,,,0.000000,4.000000,4.000000,4.000000,4.000000,4.000000,4.000000,4.000000,4.000000,4.000000,4.000000,4.000000,4.000000,4.000000,4.000000,100.000000
1602006153.135602,33.000000,0.000000,4108.205078,4108.205078,4122.051270,4121.025879,4137.948730,4139.487305,4150.769043,4135.897461,4136.410156,4127.692383,4141.538574,4154.358887,4139.487305,4124.615234,0.000000,4.000000,,,,0.000000,4.000000,4.000000,4.000000,4.000000,4.000000,4.000000,4.000000,4.000000,4.000000,4.000000,4.000000,4.000000,4.000000,4.000000,100.000000
1602006153.143385,34.000000,0.000000,4103.077148,4107.692383,4123.077148,4123.077148,4135.897461,4134.358887,4141.538574,4139.487305,4139.487305,4130.256348,4138.461426,4151.282227,4139.487305,4115.897461,0.000000,4.000000,,,,0.000000,4.000000,4.000000,4.000000,4.000000,4.000000,4.000000,4.000000,4.000000,4.000000,4.000000,4.000000,4.000000,4.000000,4.000000,100.000000
1602006153.151267,35.000000,0.000000,4107.692383,4106.666504,4125.128418,4123.589844,4137.436035,4136.922852,4129.230957,4140.000000,4143.077148,4142.051270,4138.461426,4154.358887,4144.615234,4121.538574,0.000000,4.000000,,,,0.000000,4.000000,4.000000,4.000000,4.000000,4.000000,4.000000,4.000000,4.000000,4.000000,4.000000,4.000000,4.000000,4.000000,4.000000,100.000000
1602006153.159149,36.000000,0.000000,4107.692383,4115.384766,4117.948730,4122.563965,4136.410156,4136.410156,4124.615234,4136.410156,4141.538574,4142.051270,4136.922852,4156.410156,4149.743652,4137.436035,0.000000,4.000000,,,,0.000000,4.000000,4.000000,4.000000,4.000000,4.000000,4.000000,4.000000,4.000000,4.000000,4.000000,4.000000,4.000000,4.000000,4.000000,100.000000
1602006153.167031,37.000000,0.000000,4104.102539,4125.641113,4115.384766,4129.230957,4138.461426,4132.307617,4127.179688,4138.461426,4143.589844,4148.717773,4137.948730,4154.871582,4151.282227,4138.461426,0.000000,4.000000,,,,0.000000,4.000000,4.000000,4.000000,4.000000,4.000000,4.000000,4.000000,4.000000,4.000000,4.000000,4.000000,4.000000,4.000000,4.000000,100.000000
1602006153.174913,38.000000,0.000000,4109.743652,4127.179688,4120.512695,4137.436035,4150.256348,4134.871582,4128.205078,4141.538574,4143.589844,4157.948730,4141.538574,4153.333496,4150.769043,4125.641113,0.000000,4.000000,,,,0.000000,4.000000,4.000000,4.000000,4.000000,4.000000,4.000000,4.000000,4.000000,4.000000,4.000000,4.000000,4.000000,4.000000,4.000000,100.000000
1602006153.182795,39.000000,0.000000,4120.000000,4125.641113,4126.153809,4137.436035,4154.358887,4138.974121,4128.717773,4136.922852,4137.948730,4143.077148,4141.538574,4161.538574,4150.256348,4128.205078,0.000000,4.000000,,,,0.000000,4.000000,4.000000,4.000000,4.000000,4.000000,4.000000,4.000000,4.000000,4.000000,4.000000,4.000000,4.000000,4.000000,4.000000,100.000000
1602006153.190677,40.000000,0.000000,4128.717773,4125.128418,4133.846191,4135.384766,4142.051270,4134.358887,4131.794922,4133.333496,4140.000000,4129.743652,4146.666504,4176.922852,4155.897461,4144.615234,0.000000,4.000000,,,,0.000000,4.000000,4.000000,4.000000,4.000000,4.000000,4.000000,4.000000,4.000000,4.000000,4.000000,4.000000,4.000000,4.000000,4.000000,100.000000
1602006153.198559,41.000000,0.000000,4136.922852,4123.589844,4147.179688,4137.436035,4134.358887,4125.641113,4136.922852,4137.436035,4144.615234,4145.128418,4156.922852,4186.153809,4166.153809,4152.307617,0.000000,4.000000,,,,0.000000,4.000000,4.000000,4.000000,4.000000,4.000000,4.000000,4.000000,4.000000,4.000000,4.000000,4.000000,4.000000,4.000000,4.000000,100.000000
1602006153.206441,42.000000,0.000000,4142.051270,4121.025879,4156.922852,4136.410156,4135.897461,4121.025879,4136.410156,4139.487305,4145.128418,4157.948730,4157.436035,4185.641113,4168.717773,4156.410156,0.000000,4.000000,,,,0.000000,4.000000,4.000000,4.000000,4.000000,4.000000,4.000000,4.000000,4.000000,4.000000,4.000000,4.000000,4.000000,4.000000,4.000000,100.000000
1602006153.214222,43.000000,0.000000,4144.102539,4122.051270,4156.922852,4133.333496,4135.897461,4121.538574,4129.743652,4137.436035,4148.717773,4158.974121,4155.384766,4187.179688,4166.666504,4160.512695,0.000000,4.000000,,,,0.000000,4.000000,4.000000,4.000000,4.000000,4.000000,4.000000,4.000000,4.000000,4.000000,4.000000,4.000000,4.000000,4.000000,4.000000,100.000000
1602006153.222103,44.000000,0.000000,4140.000000,4122.563965,4142.563965,4134.871582,4136.922852,4125.641113,4127.692383,4137.436035,4156.922852,4171.282227,4155.897461,4184.102539,4166.666504,4151.794922,0.000000,4.000000,,,,0.000000,4.000000,4.000000,4.000000,4.000000,4.000000,4.000000,4.000000,4.000000,4.000000,4.000000,4.000000,4.000000,4.000000,4.000000,100.000000
1602006153.229885,45.000000,0.000000,4130.256348,4122.051270,4122.563965,4135.384766,4137.436035,4127.692383,4130.256348,4137.948730,4157.948730,4174.358887,4146.666504,4168.205078,4161.538574,4139.487305,0.000000,4.000000,,,,0.000000,4.000000,4.000000,4.000000,4.000000,4.000000,4.000000,4.000000,4.000000,4.000000,4.000000,4.000000,4.000000,4.000000,4.000000,100.000000
1602006153.237767,46.000000,0.000000,4128.205078,4130.256348,4123.589844,4135.897461,4138.974121,4125.128418,4129.743652,4135.384766,4154.871582,4152.307617,4136.922852,4155.897461,4153.846191,4139.487305,0.000000,4.000000,,,,0.000000,4.000000,4.000000,4.000000,4.000000,4.000000,4.000000,4.000000,4.000000,4.000000,4.000000,4.000000,4.000000,4.000000,4.000000,100.000000
1602006153.245649,47.000000,0.000000,4134.871582,4141.025879,4136.922852,4139.487305,4145.641113,4121.538574,4122.051270,4134.358887,4147.692383,4136.410156,4140.000000,4160.512695,4152.307617,4139.487305,0.000000,4.000000,,,,0.000000,4.000000,4.000000,4.000000,4.000000,4.000000,4.000000,4.000000,4.000000,4.000000,4.000000,4.000000,4.000000,4.000000,4.000000,100.000000
1602006153.253531,48.000000,0.000000,4135.897461,4142.051270,4140.512695,4140.512695,4150.769043,4127.179688,4122.563965,4135.897461,4137.436035,4133.846191,4147.692383,4169.230957,4153.846191,4137.948730,0.000000,4.000000,,,,0.000000,4.000000,4.000000,4.000000,4.000000,4.000000,4.000000,4.000000,4.000000,4.000000,4.000000,4.000000,4.000000,4.000000,4.000000,100.000000
1602006153.261413,49.000000,0.000000,4134.871582,4139.487305,4137.948730,4138.461426,4153.333496,4136.922852,4133.333496,4136.922852,4136.922852,4133.846191,4151.794922,4171.282227,4156.922852,4139.487305,0.000000,4.000000,,,,0.000000,4.000000,4.000000,4.000000,4.000000,4.000000,4.000000,4.000000,4.000000,4.000000,4.000000,4.000000,4.000000,4.000000,4.000000,100.000000
1602006153.269295,50.000000,0.000000,4133.846191,4140.000000,4141.025879,4136.410156,4155.384766,4137.948730,4138.974121,4135.897461,4140.512695,4148.205078,4149.743652,4168.205078,4157.948730,4137.436035,0.000000,4.000000,,,,0.000000,4.000000,4.000000,4.000000,4.000000,4.000000,4.000000,4.000000,4.000000,4.000000,4.000000,4.000000,4.000000,4.000000,4.000000,100.000000
1602006153.277177,51.000000,0.000000,4126.153809,4137.948730,4143.077148,4136.922852,4151.794922,4136.410156,4138.974121,4135.384766,4138.461426,4161.538574,4142.563965,4167.692383,4149.230957,4134.358887,0.000000,4.000000,,,,0.000000,4.000000,4.000000,4.000000,4.000000,4.000000,4.000000,4.000000,4.000000,4.000000,4.000000,4.000000,4.000000,4.000000,4.000000,100.000000
1602006153.285059,52.000000,0.000000,4121.538574,4131.282227,4143.077148,4134.871582,4141.025879,4135.897461,4138.974121,4132.307617,4144.615234,4155.384766,4138.461426,4167.179688,4144.615234,4135.384766,0.000000,4.000000,,,,0.000000,4.000000,4.000000,4.000000,4.000000,4.000000,4.000000,4.000000,4.000000,4.000000,4.000000,4.000000,4.000000,4.000000,4.000000,100.000000
1602006153.293040,53.000000,0.000000,4130.256348,4126.666504,4147.179688,4131.282227,4132.307617,4127.692383,4137.948730,4128.717773,4155.897461,4149.230957,4141.538574,4166.666504,4150.256348,4135.897461,0.000000,4.000000,,,,0.000000,4.000000,4.000000,4.000000,4.000000,4.000000,4.000000,4.000000,4.000000,4.000000,4.000000,4.000000,4.000000,4.000000,4.000000,100.000000
1602006153.300922,54.000000,0.000000,4140.512695,4131.794922,4152.820313,4133.333496,4131.794922,4117.948730,4136.922852,4134.871582,4158.974121,4165.128418,4148.205078,4175.897461,4155.384766,4145.128418,0.000000,4.000000,,,,0.000000,4.000000,4.000000,4.000000,4.000000,4.000000,4.000000,4.000000,4.000000,4.000000,4.000000,4.000000,4.000000,4.000000,4.000000,100.000000
1602006153.308804,55.000000,0.000000,4144.102539,4140.512695,4156.410156,4138.461426,4136.410156,4120.000000,4132.820313,4146.153809,4160.512695,4173.333496,4155.384766,4184.102539,4158.461426,4155.897461,0.000000,4.000000,,,,0.000000,4.000000,4.000000,4.000000,4.000000,4.000000,4.000000,4.000000,4.000000,4.000000,4.000000,4.000000,4.000000,4.000000,4.000000,100.000000
1602006153.316686,56.000000,0.000000,4142.051270,4140.000000,4153.846191,4138.974121,4137.436035,4118.974121,4123.077148,4145.128418,4160.000000,4147.692383,4156.922852,4177.436035,4157.436035,4147.692383,0.000000,4.000000,,,,0.000000,4.000000,4.000000,4.000000,4.000000,4.000000,4.000000,4.000000,4.000000,4.000000,4.000000,4.000000,4.000000,4.000000,4.000000,100.000000
1602006153.324568,57.000000,0.000000,4138.974121,4135.897461,4153.846191,4138.461426,4138.461426,4117.948730,4123.077148,4142.563965,4147.179688,4133.333496,4152.307617,4171.282227,4152.820313,4140.000000,0.000000,4.000000,,,,0.000000,4.000000,4.000000,4.000000,4.000000,4.000000,4.000000,4.000000,4.000000,4.000000,4.000000,4.000000,4.000000,4.000000,4.000000,100.000000
1602006153.332450,58.000000,0.000000,4140.000000,4139.487305,4153.333496,4141.025879,4150.769043,4132.307617,4137.436035,4148.717773,4139.487305,4150.769043,4145.641113,4173.333496,4148.717773,4143.589844,0.000000,4.000000,,,,0.000000,4.000000,4.000000,4.000000,4.000000,4.000000,4.000000,4.000000,4.000000,4.000000,4.000000,4.000000,4.000000,4.000000,4.000000,100.000000
1602006153.340332,59.000000,0.000000,4134.871582,4139.487305,4144.615234,4140.000000,4157.948730,4143.589844,4142.563965,4146.666504,4137.948730,4154.358887,4133.333496,4166.666504,4139.487305,4135.384766,0.000000,4.000000,,,,0.000000,4.000000,4.000000,4.000000,4.000000,4.000000,4.000000,4.000000,4.000000,4.000000,4.000000,4.000000,4.000000,4.000000,4.000000,100.000000
1602006153.348213,60.000000,0.000000,4122.563965,4128.717773,4133.333496,4131.794922,4144.102539,4139.487305,4138.974121,4132.307617,4130.256348,4135.897461,4120.512695,4152.307617,4127.179688,4121.538574,0.000000,4.000000,,,,0.000000,4.000000,4.000000,4.000000,4.000000,4.000000,4.000000,4.000000,4.000000,4.000000,4.000000,4.000000,4.000000,4.000000,4.000000,100.000000
1602006153.356195,61.000000,0.000000,4120.000000,4120.000000,4126.153809,4125.641113,4134.358887,4134.871582,4138.974121,4123.077148,4122.051270,4131.282227,4122.563965,4148.205078,4127.692383,4119.487305,0.000000,4.000000,,,,0.000000,4.000000,4.000000,4.000000,4.000000,4.000000,4.000000,4.000000,4.000000,4.000000,4.000000,4.000000,4.000000,4.000000,4.000000,100.000000
1602006153.364076,62.000000,0.000000,4124.615234,4126.666504,4128.205078,4129.230957,4141.025879,4140.000000,4136.922852,4121.538574,4125.641113,4130.256348,4134.358887,4151.282227,4134.871582,4123.077148,0.000000,4.000000,,,,0.000000,4.000000,4.000000,4.000000,4.000000,4.000000,4.000000,4.000000,4.000000,4.000000,4.000000,4.000000,4.000000,4.000000,4.000000,100.000000
1602006153.371958,63.000000,0.000000,4126.153809,4136.410156,4136.410156,4136.410156,4142.051270,4141.538574,4134.871582,4123.589844,4136.922852,4138.461426,4140.512695,4152.307617,4141.025879,4132.820313,0.000000,4.000000,,,,0.000000,4.000000,4.000000,4.000000,4.000000,4.000000,4.000000,4.000000,4.000000,4.000000,4.000000,4.000000,4.000000,4.000000,4.000000,100.000000
1602006153.379839,64.000000,0.000000,4131.282227,4137.948730,4142.563965,4138.461426,4136.410156,4132.820313,4134.871582,4130.769043,4140.000000,4152.820313,4144.102539,4157.948730,4150.769043,4145.641113,824.000000,4.000000,,,,0.000000,4.000000,4.000000,4.000000,4.000000,4.000000,4.000000,4.000000,4.000000,4.000000,4.000000,4.000000,4.000000,4.000000,4.000000,100.000000
1602006153.387720,65.000000,0.000000,4137.436035,4137.436035,4146.666504,4140.512695,4137.436035,4127.179688,4130.769043,4136.922852,4134.871582,4137.436035,4146.666504,4167.692383,4156.410156,4153.333496,790.000000,4.000000,,,,0.000000,4.000000,4.000000,4.000000,4.000000,4.000000,4.000000,4.000000,4.000000,4.000000,4.000000,4.000000,4.000000,4.000000,4.000000,100.000000
1602006153.395602,66.000000,0.000000,4137.436035,4135.384766,4152.820313,4136.922852,4141.538574,4127.692383,4126.153809,4138.461426,4142.563965,4127.179688,4144.615234,4171.794922,4156.410156,4158.974121,849.000000,4.000000,,,,0.000000,4.000000,4.000000,4.000000,4.000000,4.000000,4.000000,4.000000,4.000000,4.000000,4.000000,4.000000,4.000000,4.000000,4.000000,100.000000
1602006153.403384,67.000000,0.000000,4136.922852,4126.666504,4154.358887,4126.153809,4138.974121,4125.641113,4127.692383,4140.000000,4154.871582,4155.897461,4144.615234,4170.256348,4154.871582,4153.846191,868.000000,4.000000,,,,0.000000,4.000000,4.000000,4.000000,4.000000,4.000000,4.000000,4.000000,4.000000,4.000000,4.000000,4.000000,4.000000,4.000000,4.000000,100.000000
1602006153.411266,68.000000,0.000000,4133.333496,4121.538574,4147.692383,4121.538574,4134.871582,4116.410156,4127.179688,4141.538574,4147.692383,4162.563965,4142.563965,4165.641113,4148.205078,4138.461426,815.000000,4.000000,,,,0.000000,4.000000,4.000000,4.000000,4.000000,4.000000,4.000000,4.000000,4.000000,4.000000,4.000000,4.000000,4.000000,4.000000,4.000000,100.000000
1602006153.419148,69.000000,0.000000,4125.641113,4127.179688,4140.000000,4124.615234,4145.641113,4116.410156,4122.051270,4134.871582,4134.871582,4131.282227,4130.769043,4160.512695,4136.922852,4137.948730,824.000000,4.000000,,,,0.000000,4.000000,4.000000,4.000000,4.000000,4.000000,4.000000,4.000000,4.000000,4.000000,4.000000,4.000000,4.000000,4.000000,4.000000,100.000000
1602006153.427029,70.000000,0.000000,4114.871582,4128.205078,4128.717773,4124.615234,4155.897461,4129.230957,4117.436035,4122.051270,4131.794922,4121.025879,4121.538574,4149.743652,4129.230957,4140.512695,762.000000,4.000000,,,,0.000000,4.000000,4.000000,4.000000,4.000000,4.000000,4.000000,4.000000,4.000000,4.000000,4.000000,4.000000,4.000000,4.000000,4.000000,100.000000
1602006153.434911,71.000000,0.000000,4103.077148,4122.563965,4113.846191,4122.563965,4146.666504,4140.512695,4119.487305,4117.948730,4124.102539,4124.615234,4115.897461,4132.307617,4123.077148,4121.025879,674.000000,4.000000,,,,0.000000,4.000000,4.000000,4.000000,4.000000,4.000000,4.000000,4.000000,4.000000,4.000000,4.000000,4.000000,4.000000,4.000000,4.000000,100.000000
1602006153.442793,72.000000,0.000000,4097.948730,4118.974121,4106.153809,4121.538574,4140.512695,4146.153809,4122.563965,4119.487305,4114.871582,4114.358887,4109.743652,4125.128418,4117.948730,4102.051270,785.000000,4.000000,,,,0.000000,4.000000,4.000000,4.000000,4.000000,4.000000,4.000000,4.000000,4.000000,4.000000,4.000000,4.000000,4.000000,4.000000,4.000000,100.000000
1602006153.450675,73.000000,0.000000,4105.128418,4122.051270,4111.282227,4121.538574,4150.769043,4150.769043,4122.051270,4119.487305,4117.948730,4115.384766,4115.384766,4132.307617,4122.051270,4117.948730,839.000000,4.000000,,,,0.000000,4.000000,4.000000,4.000000,4.000000,4.000000,4.000000,4.000000,4.000000,4.000000,4.000000,4.000000,4.000000,4.000000,4.000000,100.000000
1602006153.458657,74.000000,0.000000,4113.846191,4131.794922,4120.000000,4126.153809,4150.769043,4157.948730,4128.205078,4127.692383,4126.666504,4133.846191,4134.358887,4142.051270,4134.871582,4142.563965,872.000000,4.000000,,,,0.000000,4.000000,4.000000,4.000000,4.000000,4.000000,4.000000,4.000000,4.000000,4.000000,4.000000,4.000000,4.000000,4.000000,4.000000,100.000000
1602006153.466539,75.000000,0.000000,4121.538574,4137.436035,4127.692383,4127.692383,4138.974121,4155.897461,4135.384766,4137.948730,4135.897461,4148.205078,4144.102539,4151.794922,4144.615234,4144.615234,836.000000,4.000000,,,,0.000000,4.000000,4.000000,4.000000,4.000000,4.000000,4.000000,4.000000,4.000000,4.000000,4.000000,4.000000,4.000000,4.000000,4.000000,100.000000
1602006153.474421,76.000000,0.000000,4131.794922,4135.384766,4134.871582,4126.153809,4135.897461,4141.538574,4128.205078,4138.974121,4147.692383,4152.307617,4139.487305,4160.000000,4143.077148,4142.563965,763.000000,4.000000,,,,0.000000,4.000000,4.000000,4.000000,4.000000,4.000000,4.000000,4.000000,4.000000,4.000000,4.000000,4.000000,4.000000,4.000000,4.000000,100.000000
1602006153.482303,77.000000,0.000000,4139.487305,4136.922852,4138.461426,4133.333496,4138.461426,4130.769043,4116.922852,4140.512695,4155.384766,4157.948730,4137.436035,4158.461426,4141.025879,4153.333496,744.000000,4.000000,,,,0.000000,4.000000,4.000000,4.000000,4.000000,4.000000,4.000000,4.000000,4.000000,4.000000,4.000000,4.000000,4.000000,4.000000,4.000000,100.000000
1602006153.490186,78.000000,0.000000,4138.974121,4141.538574,4137.436035,4139.487305,4139.487305,4123.077148,4114.358887,4143.589844,4156.410156,4157.948730,4141.538574,4154.358887,4142.563965,4155.897461,872.000000,4.000000,,,,0.000000,4.000000,4.000000,4.000000,4.000000,4.000000,4.000000,4.000000,4.000000,4.000000,4.000000,4.000000,4.000000,4.000000,4.000000,100.000000
1602006153.498068,79.000000,0.000000,4129.230957,4137.948730,4136.410156,4136.410156,4132.820313,4113.846191,4112.307617,4142.051270,4153.333496,4144.615234,4145.128418,4153.846191,4140.512695,4141.538574,836.000000,4.000000,,,,0.000000,4.000000,4.000000,4.000000,4.000000,4.000000,4.000000,4.000000,4.000000,4.000000,4.000000,4.000000,4.000000,4.000000,4.000000,100.000000
1602006153.505950,80.000000,0.000000,4123.589844,4133.333496,4135.897461,4133.333496,4122.051270,4107.179688,4108.717773,4141.025879,4152.820313,4142.051270,4144.102539,4151.794922,4143.589844,4138.974121,763.000000,4.000000,,,,0.000000,4.000000,4.000000,4.000000,4.000000,4.000000,4.000000,4.000000,4.000000,4.000000,4.000000,4.000000,4.000000,4.000000,4.000000,100.000000
1602006153.513832,81.000000,0.000000,4132.820313,4136.410156,4135.384766,4136.922852,4126.153809,4106.666504,4107.179688,4136.410156,4148.205078,4160.000000,4142.563965,4153.333496,4150.769043,4148.717773,744.000000,4.000000,,,,0.000000,4.000000,4.000000,4.000000,4.000000,4.000000,4.000000,4.000000,4.000000,4.000000,4.000000,4.000000,4.000000,4.000000,4.000000,100.000000
1602006153.521714,82.000000,0.000000,4138.974121,4138.974121,4139.487305,4138.974121,4137.436035,4109.230957,4107.179688,4122.051270,4128.717773,4163.077148,4140.000000,4160.000000,4145.641113,4145.128418,872.000000,4.000000,,,,0.000000,4.000000,4.000000,4.000000,4.000000,4.000000,4.000000,4.000000,4.000000,4.000000,4.000000,4.000000,4.000000,4.000000,4.000000,100.000000
1602006153.529496,83.000000,0.000000,4135.897461,4136.922852,4145.128418,4136.410156,4133.846191,4116.410156,4113.846191,4116.410156,4105.641113,4140.512695,4138.461426,4167.179688,4135.897461,4141.538574,836.000000,4.000000,,,,0.000000,4.000000,4.000000,4.000000,4.000000,4.000000,4.000000,4.000000,4.000000,4.000000,4.000000,4.000000,4.000000,4.000000,4.000000,100.000000
1602006153.537377,84.000000,0.000000,4136.410156,4136.922852,4149.743652,4136.922852,4134.358887,4131.282227,4128.205078,4126.153809,4103.589844,4130.769043,4146.153809,4170.256348,4142.563965,4155.384766,763.000000,4.000000,,,,0.000000,4.000000,4.000000,4.000000,4.000000,4.000000,4.000000,4.000000,4.000000,4.000000,4.000000,4.000000,4.000000,4.000000,4.000000,100.000000
1602006153.545258,85.000000,0.000000,4141.025879,4141.025879,4151.794922,4138.974121,4148.205078,4138.974121,4138.461426,4135.897461,4117.948730,4139.487305,4152.820313,4171.794922,4153.333496,4162.563965,744.000000,4.000000,,,,0.000000,4.000000,4.000000,4.000000,4.000000,4.000000,4.000000,4.000000,4.000000,4.000000,4.000000,4.000000,4.000000,4.000000,4.000000,100.000000
1602006153.553140,86.000000,0.000000,4137.948730,4140.512695,4146.153809,4137.436035,4147.179688,4134.871582,4136.922852,4138.461426,4121.538574,4139.487305,4147.179688,4169.230957,4146.153809,4152.820313,872.000000,4.000000,,,,0.000000,4.000000,4.000000,4.000000,4.000000,4.000000,4.000000,4.000000,4.000000,4.000000,4.000000,4.000000,4.000000,4.000000,4.000000,100.000000
1602006153.561021,87.000000,0.000000,4133.333496,4134.871582,4138.461426,4134.871582,4135.384766,4133.333496,4127.179688,4139.487305,4122.051270,4136.410156,4140.000000,4161.538574,4136.410156,4150.769043,836.000000,4.000000,,,,0.000000,4.000000,4.000000,4.000000,4.000000,4.000000,4.000000,4.000000,4.000000,4.000000,4.000000,4.000000,4.000000,4.000000,4.000000,100.000000
1602006153.569002,88.000000,0.000000,4138.461426,4135.384766,4137.436035,4137.948730,4134.358887,4135.384766,4123.589844,4141.538574,4134.871582,4141.025879,4144.102539,4162.051270,4139.487305,4156.410156,763.000000,4.000000,,,,0.000000,4.000000,4.000000,4.000000,4.000000,4.000000,4.000000,4.000000,4.000000,4.000000,4.000000,4.000000,4.000000,4.000000,4.000000,100.000000
1602006153.576884,89.000000,0.000000,4141.538574,4137.436035,4142.563965,4137.436035,4136.922852,4131.282227,4125.641113,4147.692383,4141.538574,4144.615234,4143.589844,4169.230957,4142.563965,4152.820313,744.000000,4.000000,,,,0.000000,4.000000,4.000000,4.000000,4.000000,4.000000,4.000000,4.000000,4.000000,4.000000,4.000000,4.000000,4.000000,4.000000,4.000000,100.000000
1602006153.584765,90.000000,0.000000,4138.974121,4138.974121,4152.307617,4135.384766,4134.871582,4124.615234,4123.589844,4152.307617,4136.922852,4151.282227,4140.512695,4169.230957,4138.461426,4151.794922,872.000000,4.000000,,,,0.000000,4.000000,4.000000,4.000000,4.000000,4.000000,4.000000,4.000000,4.000000,4.000000,4.000000,4.000000,4.000000,4.000000,4.000000,100.000000
1602006153.592647,91.000000,0.000000,4146.666504,4146.153809,4167.692383,4144.615234,4134.871582,4124.615234,4124.102539,4152.307617,4136.922852,4160.000000,4152.307617,4172.820313,4148.205078,4164.615234,836.000000,4.000000,,,,0.000000,4.000000,4.000000,4.000000,4.000000,4.000000,4.000000,4.000000,4.000000,4.000000,4.000000,4.000000,4.000000,4.000000,4.000000,100.000000
1602006153.600528,92.000000,0.000000,4152.820313,4145.641113,4170.769043,4148.717773,4131.794922,4123.589844,4125.641113,4143.589844,4130.769043,4145.128418,4154.358887,4176.922852,4155.384766,4168.205078,763.000000,4.000000,,,,0.000000,4.000000,4.000000,4.000000,4.000000,4.000000,4.000000,4.000000,4.000000,4.000000,4.000000,4.000000,4.000000,4.000000,4.000000,100.000000
1602006153.608409,93.000000,0.000000,4138.461426,4128.717773,4149.743652,4133.333496,4122.563965,4121.025879,4123.589844,4127.179688,4112.307617,4124.615234,4137.948730,4160.000000,4137.436035,4146.153809,744.000000,4.000000,,,,0.000000,4.000000,4.000000,4.000000,4.000000,4.000000,4.000000,4.000000,4.000000,4.000000,4.000000,4.000000,4.000000,4.000000,4.000000,100.000000
1602006153.616190,94.000000,0.000000,4114.871582,4115.384766,4128.717773,4118.974121,4120.512695,4121.538574,4124.615234,4118.461426,4103.589844,4128.717773,4132.820313,4137.948730,4120.512695,4125.128418,872.000000,4.000000,,,,0.000000,4.000000,4.000000,4.000000,4.000000,4.000000,4.000000,4.000000,4.000000,4.000000,4.000000,4.000000,4.000000,4.000000,4.000000,100.000000
1602006153.624071,95.000000,0.000000,4102.051270,4112.820313,4117.948730,4120.000000,4124.102539,4124.102539,4127.692383,4114.358887,4107.179688,4139.487305,4135.897461,4132.307617,4122.051270,4122.563965,836.000000,4.000000,,,,0.000000,4.000000,4.000000,4.000000,4.000000,4.000000,4.000000,4.000000,4.000000,4.000000,4.000000,4.000000,4.000000,4.000000,4.000000,100.000000
1602006153.632052,96.000000,0.000000,4101.538574,4110.256348,4107.179688,4121.025879,4129.230957,4130.769043,4125.128418,4109.230957,4109.230957,4136.922852,4125.128418,4125.641113,4122.563965,4121.538574,763.000000,4.000000,,,,0.000000,4.000000,4.000000,4.000000,4.000000,4.000000,4.000000,4.000000,4.000000,4.000000,4.000000,4.000000,4.000000,4.000000,4.000000,100.000000
1602006153.639933,97.000000,0.000000,4101.025879,4105.128418,4102.563965,4112.820313,4133.846191,4136.410156,4121.538574,4113.333496,4109.230957,4129.230957,4118.461426,4115.384766,4116.922852,4113.333496,744.000000,4.000000,,,,0.000000,4.000000,4.000000,4.000000,4.000000,4.000000,4.000000,4.000000,4.000000,4.000000,4.000000,4.000000,4.000000,4.000000,4.000000,100.000000
1602006153.647814,98.000000,0.000000,4101.025879,4107.692383,4108.717773,4108.717773,4138.461426,4137.948730,4123.077148,4129.743652,4114.358887,4128.205078,4131.794922,4123.589844,4116.922852,4111.282227,872.000000,4.000000,,,,0.000000,4.000000,4.000000,4.000000,4.000000,4.000000,4.000000,4.000000,4.000000,4.000000,4.000000,4.000000,4.000000,4.000000,4.000000,100.000000
1602006153.655595,99.000000,0.000000,4102.051270,4116.922852,4110.256348,4115.384766,4142.051270,4138.461426,4122.051270,4145.128418,4124.615234,4135.384766,4139.487305,4137.436035,4122.563965,4121.538574,836.000000,4.000000,,,,0.000000,4.000000,4.000000,4.000000,4.000000,4.000000,4.000000,4.000000,4.000000,4.000000,4.000000,4.000000,4.000000,4.000000,4.000000,100.000000
1602006153.663476,100.000000,0.000000,4107.692383,4123.589844,4113.333496,4122.563965,4145.128418,4142.563965,4126.153809,4152.820313,4138.974121,4146.666504,4136.410156,4139.487305,4133.333496,4136.922852,763.000000,4.000000,,,,0.000000,4.000000,4.000000,4.000000,4.000000,4.000000,4.000000,4.000000,4.000000,4.000000,4.000000,4.000000,4.000000,4.000000,4.000000,100.000000
1602006153.671258,101.000000,0.000000,4110.769043,4121.538574,4121.025879,4124.102539,4143.077148,4145.641113,4138.461426,4154.358887,4147.692383,4138.974121,4137.436035,4140.000000,4136.922852,4141.538574,744.000000,4.000000,,,,0.000000,4.000000,4.000000,4.000000,4.000000,4.000000,4.000000,4.000000,4.000000,4.000000,4.000000,4.000000,4.000000,4.000000,4.000000,100.000000
1602006153.679140,102.000000,0.000000,4108.205078,4116.410156,4115.897461,4121.025879,4134.871582,4139.487305,4135.897461,4140.512695,4135.384766,4122.051270,4135.897461,4141.025879,4126.666504,4129.230957,872.000000,4.000000,,,,0.000000,4.000000,4.000000,4.000000,4.000000,4.000000,4.000000,4.000000,4.000000,4.000000,4.000000,4.000000,4.000000,4.000000,4.000000,100.000000
1602006153.687022,103.000000,0.000000,4112.820313,4120.000000,4114.871582,4120.000000,4133.846191,4137.436035,4127.692383,4125.641113,4118.974121,4133.846191,4126.666504,4141.025879,4122.563965,4125.128418,836.000000,4.000000,,,,0.000000,4.000000,4.000000,4.000000,4.000000,4.000000,4.000000,4.000000,4.000000,4.000000,4.000000,4.000000,4.000000,4.000000,4.000000,100.000000
1602006153.694905,104.000000,0.000000,4127.179688,4126.666504,4132.820313,4130.256348,4142.051270,4142.563965,4134.358887,4122.051270,4116.922852,4151.282227,4123.589844,4142.563965,4129.743652,4137.436035,763.000000,4.000000,,,,0.000000,4.000000,4.000000,4.000000,4.000000,4.000000,4.000000,4.000000,4.000000,4.000000,4.000000,4.000000,4.000000,4.000000,4.000000,100.000000
1602006153.702787,105.000000,0.000000,4131.794922,4125.641113,4141.538574,4133.846191,4143.589844,4142.051270,4135.897461,4116.410156,4111.282227,4136.922852,4131.282227,4142.563965,4126.153809,4135.897461,744.000000,4.000000,,,,0.000000,4.000000,4.000000,4.000000,4.000000,4.000000,4.000000,4.000000,4.000000,4.000000,4.000000,4.000000,4.000000,4.000000,4.000000,100.000000
1602006153.710669,106.000000,0.000000,4124.102539,4124.615234,4135.897461,4125.641113,4137.948730,4133.846191,4123.077148,4108.717773,4096.922852,4125.128418,4135.384766,4143.589844,4118.461426,4123.077148,872.000000,4.000000,,,,0.000000,4.000000,4.000000,4.000000,4.000000,4.000000,4.000000,4.000000,4.000000,4.000000,4.000000,4.000000,4.000000,4.000000,4.000000,100.000000
1602006153.718551,107.000000,0.000000,4132.307617,4136.922852,4141.025879,4132.307617,4137.948730,4130.256348,4120.000000,4111.282227,4094.358887,4144.615234,4138.461426,4153.846191,4131.282227,4136.410156,836.000000,4.000000,,,,0.000000,4.000000,4.000000,4.000000,4.000000,4.000000,4.000000,4.000000,4.000000,4.000000,4.000000,4.000000,4.000000,4.000000,4.000000,100.000000
1602006153.726433,108.000000,0.000000,4142.051270,4144.615234,4147.179688,4143.077148,4141.025879,4126.153809,4123.077148,4119.487305,4098.461426,4138.974121,4140.512695,4154.871582,4138.461426,4148.205078,763.000000,4.000000,,,,0.000000,4.000000,4.000000,4.000000,4.000000,4.000000,4.000000,4.000000,4.000000,4.000000,4.000000,4.000000,4.000000,4.000000,4.000000,100.000000
1602006153.734315,109.000000,0.000000,4130.256348,4133.333496,4140.512695,4136.410156,4138.974121,4124.615234,4114.871582,4119.487305,4097.948730,4111.282227,4132.820313,4142.051270,4124.102539,4129.743652,744.000000,4.000000,,,,0.000000,4.000000,4.000000,4.000000,4.000000,4.000000,4.000000,4.000000,4.000000,4.000000,4.000000,4.000000,4.000000,4.000000,4.000000,100.000000
1602006153.742097,110.000000,0.000000,4120.000000,4126.153809,4137.436035,4133.846191,4136.922852,4134.358887,4110.769043,4124.615234,4108.205078,4120.512695,4122.563965,4136.410156,4117.948730,4125.128418,872.000000,4.000000,,,,0.000000,4.000000,4.000000,4.000000,4.000000,4.000000,4.000000,4.000000,4.000000,4.000000,4.000000,4.000000,4.000000,4.000000,4.000000,100.000000
1602006153.749978,111.000000,0.000000,4125.128418,4128.717773,4140.512695,4137.436035,4138.974121,4140.512695,4120.512695,4136.922852,4125.128418,4139.487305,4120.512695,4140.000000,4123.077148,4138.461426,836.000000,4.000000,,,,0.000000,4.000000,4.000000,4.000000,4.000000,4.000000,4.000000,4.000000,4.000000,4.000000,4.000000,4.000000,4.000000,4.000000,4.000000,100.000000
1602006153.757860,112.000000,0.000000,4126.153809,4123.589844,4139.487305,4128.205078,4139.487305,4138.974121,4134.871582,4141.025879,4125.641113,4125.641113,4126.153809,4143.589844,4116.922852,4133.846191,763.000000,4.000000,,,,0.000000,4.000000,4.000000,4.000000,4.000000,4.000000,4.000000,4.000000,4.000000,4.000000,4.000000,4.000000,4.000000,4.000000,4.000000,100.000000
1602006153.765741,113.000000,0.000000,4121.538574,4119.487305,4136.410156,4122.563965,4131.282227,4134.358887,4140.000000,4138.974121,4118.461426,4117.436035,4122.563965,4138.974121,4107.692383,4120.512695,744.000000,4.000000,,,,0.000000,4.000000,4.000000,4.000000,4.000000,4.000000,4.000000,4.000000,4.000000,4.000000,4.000000,4.000000,4.000000,4.000000,4.000000,100.000000
1602006153.773622,114.000000,0.000000,4123.077148,4120.512695,4135.384766,4124.102539,4123.589844,4128.205078,4136.922852,4132.820313,4114.358887,4135.384766,4108.205078,4126.666504,4106.666504,4116.922852,872.000000,4.000000,,,,0.000000,4.000000,4.000000,4.000000,4.000000,4.000000,4.000000,4.000000,4.000000,4.000000,4.000000,4.000000,4.000000,4.000000,4.000000,100.000000
1602006153.781604,115.000000,0.000000,4115.897461,4116.410156,4136.410156,4122.051270,4123.077148,4124.102539,4133.846191,4124.102539,4110.769043,4139.487305,4108.205078,4118.461426,4097.948730,4110.256348,836.000000,4.000000,,,,0.000000,4.000000,4.000000,4.000000,4.000000,4.000000,4.000000,4.000000,4.000000,4.000000,4.000000,4.000000,4.000000,4.000000,4.000000,100.000000
1602006153.789486,116.000000,0.000000,4105.128418,4111.282227,4136.410156,4119.487305,4119.487305,4121.538574,4129.230957,4121.025879,4106.153809,4121.025879,4119.487305,4117.948730,4086.666748,4102.563965,763.000000,4.000000,,,,0.000000,4.000000,4.000000,4.000000,4.000000,4.000000,4.000000,4.000000,4.000000,4.000000,4.000000,4.000000,4.000000,4.000000,4.000000,100.000000
1602006153.797368,117.000000,0.000000,4113.333496,4117.436035,4136.410156,4124.102539,4120.000000,4117.436035,4125.128418,4122.051270,4105.128418,4107.692383,4122.051270,4123.077148,4096.922852,4112.820313,744.000000,4.000000,,,,0.000000,4.000000,4.000000,4.000000,4.000000,4.000000,4.000000,4.000000,4.000000,4.000000,4.000000,4.000000,4.000000,4.000000,4.000000,100.000000
1602006153.805250,118.000000,0.000000,4131.794922,4130.256348,4142.051270,4134.358887,4133.333496,4120.512695,4126.153809,4120.000000,4113.846191,4118.974121,4129.743652,4136.410156,4120.000000,4128.717773,872.000000,4.000000,,,,0.000000,4.000000,4.000000,4.000000,4.000000,4.000000,4.000000,4.000000,4.000000,4.000000,4.000000,4.000000,4.000000,4.000000,4.000000,100.000000
1602006153.813132,119.000000,0.000000,4137.948730,4137.436035,4145.641113,4139.487305,4142.051270,4127.179688,4132.307617,4126.153809,4122.563965,4138.974121,4138.974121,4146.666504,4127.179688,4127.179688,836.000000,4.000000,,,,0.000000,4.000000,4.000000,4.000000,4.000000,4.000000,4.000000,4.000000,4.000000,4.000000,4.000000,4.000000,4.000000,4.000000,4.000000,100.000000
1602006153.821013,120.000000,0.000000,4136.922852,4137.948730,4138.461426,4137.948730,4141.538574,4124.102539,4133.333496,4136.922852,4118.974121,4133.846191,4128.717773,4140.512695,4119.487305,4120.512695,763.000000,4.000000,,,,0.000000,4.000000,4.000000,4.000000,4.000000,4.000000,4.000000,4.000000,4.000000,4.000000,4.000000,4.000000,4.000000,4.000000,4.000000,100.000000
1602006153.828895,121.000000,0.000000,4136.410156,4135.897461,4136.922852,4138.461426,4143.589844,4126.153809,4128.205078,4137.948730,4114.358887,4121.025879,4126.666504,4133.333496,4116.922852,4132.307617,744.000000,4.000000,,,,0.000000,4.000000,4.000000,4.000000,4.000000,4.000000,4.000000,4.000000,4.000000,4.000000,4.000000,4.000000,4.000000,4.000000,4.000000,100.000000
1602006153.836777,122.000000,0.000000,4128.205078,4136.410156,4148.205078,4141.025879,4145.128418,4136.922852,4121.538574,4134.871582,4125.128418,4135.384766,4137.436035,4137.948730,4123.077148,4137.436035,872.000000,4.000000,,,,0.000000,4.000000,4.000000,4.000000,4.000000,4.000000,4.000000,4.000000,4.000000,4.000000,4.000000,4.000000,4.000000,4.000000,4.000000,100.000000
1602006153.844559,123.000000,0.000000,4122.563965,4136.922852,4155.384766,4138.461426,4147.692383,4147.179688,4126.666504,4138.461426,4131.794922,4147.692383,4126.666504,4141.025879,4122.563965,4124.102539,836.000000,4.000000,,,,0.000000,4.000000,4.000000,4.000000,4.000000,4.000000,4.000000,4.000000,4.000000,4.000000,4.000000,4.000000,4.000000,4.000000,4.000000,100.000000
1602006153.852441,124.000000,0.000000,4125.128418,4135.897461,4148.717773,4134.358887,4150.256348,4153.333496,4137.436035,4142.051270,4126.153809,4134.358887,4117.948730,4137.436035,4116.922852,4126.666504,763.000000,4.000000,,,,0.000000,4.000000,4.000000,4.000000,4.000000,4.000000,4.000000,4.000000,4.000000,4.000000,4.000000,4.000000,4.000000,4.000000,4.000000,100.000000
1602006153.860322,125.000000,0.000000,4126.666504,4137.436035,4142.563965,4137.436035,4151.282227,4154.358887,4136.922852,4137.948730,4130.256348,4137.948730,4134.871582,4135.897461,4125.641113,4142.051270,744.000000,4.000000,,,,0.000000,4.000000,4.000000,4.000000,4.000000,4.000000,4.000000,4.000000,4.000000,4.000000,4.000000,4.000000,4.000000,4.000000,4.000000,100.000000
1602006153.868204,126.000000,0.000000,4124.102539,4138.974121,4140.512695,4139.487305,4149.230957,4148.205078,4134.871582,4134.358887,4138.974121,4153.333496,4144.615234,4136.922852,4136.922852,4142.563965,872.000000,4.000000,,,,0.000000,4.000000,4.000000,4.000000,4.000000,4.000000,4.000000,4.000000,4.000000,4.000000,4.000000,4.000000,4.000000,4.000000,4.000000,100.000000
1602006153.876086,127.000000,0.000000,4123.589844,4136.410156,4135.897461,4136.922852,4143.077148,4133.333496,4136.922852,4136.410156,4127.179688,4146.666504,4136.410156,4133.846191,4132.307617,4133.333496,836.000000,4.000000,,,,0.000000,4.000000,4.000000,4.000000,4.000000,4.000000,4.000000,4.000000,4.000000,4.000000,4.000000,4.000000,4.000000,4.000000,4.000000,100.000000
1602006153.883967,128.000000,0.000000,4134.358887,4138.461426,4137.948730,4142.563965,4142.563965,4121.025879,4141.538574,4131.282227,4112.820313,4141.025879,4140.512695,4131.282227,4130.769043,4139.487305,763.000000,4.000000,,,,0.000000,4.000000,4.000000,4.000000,4.000000,4.000000,4.000000,4.000000,4.000000,4.000000,4.000000,4.000000,4.000000,4.000000,4.000000,100.000000
1602006153.891949,0.000000,0.000000,4155.897461,4156.410156,4151.282227,4157.948730,4152.820313,4122.051270,4142.051270,4123.589844,4115.384766,4152.307617,4152.820313,4134.871582,4146.666504,4151.282227,814.000000,4.000000,,,,0.000000,4.000000,4.000000,4.000000,4.000000,4.000000,4.000000,4.000000,4.000000,4.000000,4.000000,4.000000,4.000000,4.000000,4.000000,100.000000
1602006153.899830,1.000000,0.000000,4165.128418,4169.230957,4161.025879,4162.563965,4156.922852,4123.589844,4132.307617,4127.692383,4119.487305,4158.974121,4154.358887,4144.102539,4154.871582,4155.384766,790.000000,4.000000,,,,0.000000,4.000000,4.000000,4.000000,4.000000,4.000000,4.000000,4.000000,4.000000,4.000000,4.000000,4.000000,4.000000,4.000000,4.000000,100.000000
1602006153.907712,2.000000,0.000000,4158.461426,4162.051270,4162.051270,4156.410156,4151.794922,4116.922852,4119.487305,4136.922852,4126.153809,4153.333496,4162.563965,4154.871582,4160.512695,4160.512695,849.000000,4.000000,,,,0.000000,4.000000,4.000000,4.000000,4.000000,4.000000,4.000000,4.000000,4.000000,4.000000,4.000000,4.000000,4.000000,4.000000,4.000000,100.000000
1602006153.915594,3.000000,0.000000,4156.922852,4155.384766,4160.512695,4156.410156,4153.333496,4124.615234,4120.000000,4144.615234,4140.000000,4154.871582,4175.897461,4162.563965,4172.820313,4167.179688,868.000000,4.000000,,,,0.000000,4.000000,4.000000,4.000000,4.000000,4.000000,4.000000,4.000000,4.000000,4.000000,4.000000,4.000000,4.000000,4.000000,4.000000,100.000000
1602006153.923475,4.000000,0.000000,4157.436035,4154.871582,4157.948730,4153.846191,4154.358887,4138.974121,4125.641113,4153.333496,4143.077148,4157.948730,4163.077148,4157.436035,4165.128418,4162.051270,815.000000,4.000000,,,,0.000000,4.000000,4.000000,4.000000,4.000000,4.000000,4.000000,4.000000,4.000000,4.000000,4.000000,4.000000,4.000000,4.000000,4.000000,100.000000
1602006153.931357,5.000000,0.000000,4140.000000,4144.615234,4144.615234,4142.563965,4144.615234,4140.000000,4121.025879,4152.820313,4137.948730,4150.256348,4135.384766,4139.487305,4141.538574,4147.179688,824.000000,4.000000,,,,0.000000,4.000000,4.000000,4.000000,4.000000,4.000000,4.000000,4.000000,4.000000,4.000000,4.000000,4.000000,4.000000,4.000000,4.000000,100.000000
1602006153.939239,6.000000,0.000000,4118.461426,4128.205078,4125.128418,4131.282227,4135.897461,4145.128418,4122.563965,4145.128418,4134.358887,4146.153809,4131.794922,4124.102539,4129.230957,4136.410156,766.000000,4.000000,,,,0.000000,4.000000,4.000000,4.000000,4.000000,4.000000,4.000000,4.000000,4.000000,4.000000,4.000000,4.000000,4.000000,4.000000,4.000000,100.000000
