Timestamp,EEG.Counter,EEG.Interpolated,EEG.AF3,EEG.F7,EEG.F3,EEG.FC5,EEG.T7,EEG.P7,EEG.O1,EEG.O2,EEG.P8,EEG.T8,EEG.FC6,EEG.F4,EEG.F8,EEG.AF4,EEG.RawCq,EEG.Battery,MarkerIndex,MarkerType,MarkerValueInt,EEG.MarkerHardware,CQ.AF3,CQ.F7,CQ.F3,CQ.FC5,CQ.T7,CQ.P7,CQ.O1,CQ.O2,CQ.P8,CQ.T8,CQ.FC6,CQ.F4,CQ.F8,CQ.AF4,CQ.Overall
1602006116.806571,67.000000,0.000000,4100.000000,4121.025879,4108.205078,4124.615234,4121.538574,4116.922852,4121.025879,4124.102539,4152.307617,4141.538574,4135.897461,4134.871582,4131.794922,4106.666504,863.000000,4.000000,,,,0.000000,4.000000,4.000000,4.000000,4.000000,4.000000,4.000000,4.000000,4.000000,4.000000,4.000000,4.000000,4.000000,4.000000,4.000000,100.000000
1602006116.814554,68.000000,0.000000,4106.666504,4122.563965,4108.205078,4126.153809,4122.051270,4122.563965,4122.051270,4124.102539,4150.769043,4128.205078,4122.051270,4135.897461,4124.615234,4112.820313,814.000000,4.000000,,,,0.000000,4.000000,4.000000,4.000000,4.000000,4.000000,4.000000,4.000000,4.000000,4.000000,4.000000,4.000000,4.000000,4.000000,4.000000,100.000000
1602006116.822436,69.000000,0.000000,4095.384521,4124.102539,4110.769043,4127.179688,4122.051270,4125.128418,4116.922852,4122.051270,4142.051270,4121.538574,4127.179688,4137.948730,4126.666504,4117.436035,825.000000,4.000000,,,,0.000000,4.000000,4.000000,4.000000,4.000000,4.000000,4.000000,4.000000,4.000000,4.000000,4.000000,4.000000,4.000000,4.000000,4.000000,100.000000
1602006116.830318,70.000000,0.000000,4091.794922,4121.538574,4115.384766,4121.538574,4126.153809,4120.512695,4114.358887,4120.000000,4133.846191,4120.512695,4140.512695,4141.025879,4132.307617,4121.025879,774.000000,4.000000,,,,0.000000,4.000000,4.000000,4.000000,4.000000,4.000000,4.000000,4.000000,4.000000,4.000000,4.000000,4.000000,4.000000,4.000000,4.000000,100.000000
1602006116.838201,71.000000,0.000000,4105.641113,4125.128418,4121.538574,4125.128418,4137.436035,4120.512695,4118.974121,4122.563965,4136.410156,4114.358887,4141.538574,4148.717773,4136.410156,4124.102539,681.000000,4.000000,,,,0.000000,4.000000,4.000000,4.000000,4.000000,4.000000,4.000000,4.000000,4.000000,4.000000,4.000000,4.000000,4.000000,4.000000,4.000000,100.000000
1602006116.846083,72.000000,0.000000,4111.794922,4133.846191,4128.717773,4137.436035,4138.461426,4124.615234,4123.589844,4124.615234,4139.487305,4108.205078,4142.051270,4156.410156,4139.487305,4128.205078,785.000000,4.000000,,,,0.000000,4.000000,4.000000,4.000000,4.000000,4.000000,4.000000,4.000000,4.000000,4.000000,4.000000,4.000000,4.000000,4.000000,4.000000,100.000000
1602006116.853965,73.000000,0.000000,4106.153809,4128.205078,4129.230957,4133.333496,4125.641113,4115.384766,4115.384766,4120.512695,4133.333496,4106.666504,4142.051270,4151.282227,4138.974121,4125.641113,843.000000,4.000000,,,,0.000000,4.000000,4.000000,4.000000,4.000000,4.000000,4.000000,4.000000,4.000000,4.000000,4.000000,4.000000,4.000000,4.000000,4.000000,100.000000
1602006116.861848,74.000000,0.000000,4108.717773,4120.000000,4126.153809,4123.589844,4118.974121,4101.538574,4109.230957,4116.410156,4125.128418,4109.230957,4133.846191,4142.563965,4135.897461,4118.461426,871.000000,4.000000,,,,0.000000,4.000000,4.000000,4.000000,4.000000,4.000000,4.000000,4.000000,4.000000,4.000000,4.000000,4.000000,4.000000,4.000000,4.000000,100.000000
1602006116.869730,75.000000,0.000000,4113.846191,4122.051270,4124.102539,4125.641113,4121.025879,4106.666504,4115.897461,4119.487305,4126.666504,4115.897461,4129.743652,4142.563965,4133.333496,4120.512695,839.000000,4.000000,,,,0.000000,4.000000,4.000000,4.000000,4.000000,4.000000,4.000000,4.000000,4.000000,4.000000,4.000000,4.000000,4.000000,4.000000,4.000000,100.000000
1602006116.877612,76.000000,0.000000,4116.410156,4124.615234,4123.077148,4127.179688,4122.051270,4121.025879,4124.102539,4131.282227,4145.641113,4122.051270,4136.922852,4146.666504,4136.410156,4125.128418,767.000000,4.000000,,,,0.000000,4.000000,4.000000,4.000000,4.000000,4.000000,4.000000,4.000000,4.000000,4.000000,4.000000,4.000000,4.000000,4.000000,4.000000,100.000000
1602006116.885495,77.000000,0.000000,4123.077148,4125.128418,4129.743652,4123.077148,4122.563965,4124.102539,4132.820313,4140.000000,4165.641113,4132.307617,4147.179688,4150.256348,4143.589844,4122.563965,746.000000,4.000000,,,,0.000000,4.000000,4.000000,4.000000,4.000000,4.000000,4.000000,4.000000,4.000000,4.000000,4.000000,4.000000,4.000000,4.000000,4.000000,100.000000
1602006116.893277,78.000000,0.000000,4124.102539,4125.128418,4132.820313,4122.563965,4125.128418,4124.102539,4134.358887,4133.333496,4164.615234,4147.692383,4147.692383,4151.282227,4141.538574,4120.512695,871.000000,4.000000,,,,0.000000,4.000000,4.000000,4.000000,4.000000,4.000000,4.000000,4.000000,4.000000,4.000000,4.000000,4.000000,4.000000,4.000000,4.000000,100.000000
1602006116.901160,79.000000,0.000000,4118.461426,4122.563965,4124.102539,4123.589844,4125.128418,4134.358887,4129.230957,4124.615234,4155.897461,4155.897461,4145.641113,4151.794922,4138.974121,4129.230957,839.000000,4.000000,,,,0.000000,4.000000,4.000000,4.000000,4.000000,4.000000,4.000000,4.000000,4.000000,4.000000,4.000000,4.000000,4.000000,4.000000,4.000000,100.000000
1602006116.909042,80.000000,0.000000,4125.128418,4122.051270,4122.563965,4123.077148,4123.077148,4143.077148,4131.282227,4126.666504,4156.410156,4157.436035,4146.666504,4155.384766,4148.717773,4139.487305,767.000000,4.000000,,,,0.000000,4.000000,4.000000,4.000000,4.000000,4.000000,4.000000,4.000000,4.000000,4.000000,4.000000,4.000000,4.000000,4.000000,4.000000,100.000000
1602006116.916924,81.000000,0.000000,4134.871582,4125.641113,4134.358887,4125.641113,4125.128418,4143.589844,4141.025879,4126.666504,4152.820313,4148.717773,4146.666504,4161.538574,4151.282227,4138.974121,746.000000,4.000000,,,,0.000000,4.000000,4.000000,4.000000,4.000000,4.000000,4.000000,4.000000,4.000000,4.000000,4.000000,4.000000,4.000000,4.000000,4.000000,100.000000
1602006116.924807,82.000000,0.000000,4127.179688,4125.641113,4140.000000,4127.692383,4126.666504,4141.538574,4138.461426,4120.512695,4135.384766,4114.871582,4141.025879,4158.461426,4140.000000,4134.358887,871.000000,4.000000,,,,0.000000,4.000000,4.000000,4.000000,4.000000,4.000000,4.000000,4.000000,4.000000,4.000000,4.000000,4.000000,4.000000,4.000000,4.000000,100.000000
1602006116.932689,83.000000,0.000000,4118.974121,4123.589844,4136.410156,4127.692383,4122.563965,4134.358887,4129.743652,4126.153809,4128.205078,4089.230713,4141.538574,4150.769043,4134.871582,4135.897461,839.000000,4.000000,,,,0.000000,4.000000,4.000000,4.000000,4.000000,4.000000,4.000000,4.000000,4.000000,4.000000,4.000000,4.000000,4.000000,4.000000,4.000000,100.000000
1602006116.940571,84.000000,0.000000,4127.179688,4122.051270,4135.384766,4125.641113,4119.487305,4127.179688,4128.205078,4138.461426,4135.384766,4111.282227,4152.307617,4157.948730,4139.487305,4137.948730,767.000000,4.000000,,,,0.000000,4.000000,4.000000,4.000000,4.000000,4.000000,4.000000,4.000000,4.000000,4.000000,4.000000,4.000000,4.000000,4.000000,4.000000,100.000000
1602006116.948454,85.000000,0.000000,4135.897461,4126.666504,4141.025879,4128.717773,4121.025879,4126.153809,4128.205078,4141.025879,4138.974121,4146.666504,4157.948730,4169.230957,4144.615234,4142.563965,746.000000,4.000000,,,,0.000000,4.000000,4.000000,4.000000,4.000000,4.000000,4.000000,4.000000,4.000000,4.000000,4.000000,4.000000,4.000000,4.000000,4.000000,100.000000
1602006116.956336,86.000000,0.000000,4138.461426,4137.948730,4153.846191,4138.461426,4124.615234,4125.128418,4130.769043,4138.461426,4142.563965,4156.410156,4157.948730,4173.333496,4153.333496,4155.897461,871.000000,4.000000,,,,0.000000,4.000000,4.000000,4.000000,4.000000,4.000000,4.000000,4.000000,4.000000,4.000000,4.000000,4.000000,4.000000,4.000000,4.000000,100.000000
1602006116.964317,87.000000,0.000000,4140.000000,4139.487305,4160.512695,4141.538574,4127.692383,4123.077148,4130.769043,4136.922852,4146.666504,4154.871582,4156.410156,4173.333496,4157.948730,4160.000000,839.000000,4.000000,,,,0.000000,4.000000,4.000000,4.000000,4.000000,4.000000,4.000000,4.000000,4.000000,4.000000,4.000000,4.000000,4.000000,4.000000,4.000000,100.000000
1602006116.972199,88.000000,0.000000,4129.743652,4126.153809,4146.666504,4131.794922,4122.563965,4122.051270,4123.589844,4130.256348,4142.051270,4149.743652,4154.358887,4167.692383,4148.205078,4140.512695,767.000000,4.000000,,,,0.000000,4.000000,4.000000,4.000000,4.000000,4.000000,4.000000,4.000000,4.000000,4.000000,4.000000,4.000000,4.000000,4.000000,4.000000,100.000000
1602006116.980080,89.000000,0.000000,4112.820313,4116.922852,4129.743652,4122.563965,4115.897461,4121.538574,4119.487305,4122.563965,4133.333496,4141.025879,4147.179688,4158.461426,4138.974121,4125.641113,746.000000,4.000000,,,,0.000000,4.000000,4.000000,4.000000,4.000000,4.000000,4.000000,4.000000,4.000000,4.000000,4.000000,4.000000,4.000000,4.000000,4.000000,100.000000
1602006116.987962,90.000000,0.000000,4111.794922,4119.487305,4129.743652,4120.000000,4119.487305,4130.256348,4129.743652,4125.641113,4133.846191,4134.871582,4140.512695,4157.436035,4140.000000,4131.282227,871.000000,4.000000,,,,0.000000,4.000000,4.000000,4.000000,4.000000,4.000000,4.000000,4.000000,4.000000,4.000000,4.000000,4.000000,4.000000,4.000000,4.000000,100.000000
1602006116.995843,91.000000,0.000000,4118.974121,4122.051270,4131.282227,4118.974121,4124.102539,4140.000000,4141.025879,4133.846191,4136.922852,4125.641113,4141.538574,4158.461426,4141.538574,4130.769043,839.000000,4.000000,,,,0.000000,4.000000,4.000000,4.000000,4.000000,4.000000,4.000000,4.000000,4.000000,4.000000,4.000000,4.000000,4.000000,4.000000,4.000000,100.000000
1602006117.003625,92.000000,0.000000,4117.436035,4120.000000,4125.641113,4120.000000,4123.077148,4137.948730,4135.897461,4136.410156,4134.871582,4119.487305,4141.025879,4153.333496,4136.410156,4120.512695,767.000000,4.000000,,,,0.000000,4.000000,4.000000,4.000000,4.000000,4.000000,4.000000,4.000000,4.000000,4.000000,4.000000,4.000000,4.000000,4.000000,4.000000,100.000000
1602006117.011507,93.000000,0.000000,4117.948730,4121.025879,4128.717773,4122.563965,4124.102539,4135.384766,4126.666504,4137.436035,4140.512695,4133.846191,4138.974121,4152.307617,4134.871582,4121.538574,746.000000,4.000000,,,,0.000000,4.000000,4.000000,4.000000,4.000000,4.000000,4.000000,4.000000,4.000000,4.000000,4.000000,4.000000,4.000000,4.000000,4.000000,100.000000
1602006117.019389,94.000000,0.000000,4122.051270,4123.077148,4134.871582,4124.102539,4125.128418,4134.358887,4123.589844,4137.948730,4153.846191,4152.307617,4141.538574,4150.769043,4138.461426,4124.102539,871.000000,4.000000,,,,0.000000,4.000000,4.000000,4.000000,4.000000,4.000000,4.000000,4.000000,4.000000,4.000000,4.000000,4.000000,4.000000,4.000000,4.000000,100.000000
1602006117.027271,95.000000,0.000000,4122.051270,4124.615234,4131.794922,4123.077148,4123.077148,4127.692383,4122.051270,4136.922852,4158.974121,4152.820313,4144.102539,4145.641113,4138.974121,4122.051270,839.000000,4.000000,,,,0.000000,4.000000,4.000000,4.000000,4.000000,4.000000,4.000000,4.000000,4.000000,4.000000,4.000000,4.000000,4.000000,4.000000,4.000000,100.000000
1602006117.035152,96.000000,0.000000,4129.230957,4128.205078,4134.358887,4123.589844,4125.128418,4122.563965,4121.025879,4134.358887,4156.410156,4151.794922,4140.000000,4151.794922,4140.000000,4129.230957,767.000000,4.000000,,,,0.000000,4.000000,4.000000,4.000000,4.000000,4.000000,4.000000,4.000000,4.000000,4.000000,4.000000,4.000000,4.000000,4.000000,4.000000,100.000000
1602006117.043034,97.000000,0.000000,4136.410156,4130.256348,4143.077148,4125.641113,4127.692383,4124.615234,4123.589844,4130.769043,4145.128418,4151.282227,4137.948730,4159.487305,4141.538574,4131.794922,746.000000,4.000000,,,,0.000000,4.000000,4.000000,4.000000,4.000000,4.000000,4.000000,4.000000,4.000000,4.000000,4.000000,4.000000,4.000000,4.000000,4.000000,100.000000
1602006117.050916,98.000000,0.000000,4126.153809,4125.641113,4139.487305,4122.563965,4122.051270,4122.051270,4123.589844,4123.077148,4127.179688,4129.230957,4137.436035,4149.743652,4138.974121,4118.974121,871.000000,4.000000,,,,0.000000,4.000000,4.000000,4.000000,4.000000,4.000000,4.000000,4.000000,4.000000,4.000000,4.000000,4.000000,4.000000,4.000000,4.000000,100.000000
1602006117.058798,99.000000,0.000000,4117.436035,4122.563965,4132.820313,4118.974121,4118.461426,4116.922852,4120.512695,4118.974121,4116.410156,4116.410156,4135.384766,4141.025879,4137.436035,4118.461426,839.000000,4.000000,,,,0.000000,4.000000,4.000000,4.000000,4.000000,4.000000,4.000000,4.000000,4.000000,4.000000,4.000000,4.000000,4.000000,4.000000,4.000000,100.000000
1602006117.066580,100.000000,0.000000,4123.589844,4132.307617,4136.922852,4128.717773,4122.051270,4125.641113,4123.077148,4124.615234,4118.974121,4127.692383,4144.615234,4151.282227,4139.487305,4136.410156,767.000000,4.000000,,,,0.000000,4.000000,4.000000,4.000000,4.000000,4.000000,4.000000,4.000000,4.000000,4.000000,4.000000,4.000000,4.000000,4.000000,4.000000,100.000000
1602006117.074462,101.000000,0.000000,4129.743652,4136.922852,4142.051270,4134.871582,4126.666504,4138.974121,4125.641113,4128.205078,4122.051270,4128.717773,4153.333496,4161.025879,4142.051270,4142.051270,746.000000,4.000000,,,,0.000000,4.000000,4.000000,4.000000,4.000000,4.000000,4.000000,4.000000,4.000000,4.000000,4.000000,4.000000,4.000000,4.000000,4.000000,100.000000
1602006117.082345,102.000000,0.000000,4123.589844,4126.153809,4137.436035,4126.153809,4125.128418,4136.410156,4124.615234,4124.102539,4122.563965,4123.077148,4146.666504,4149.743652,4143.077148,4128.717773,871.000000,4.000000,,,,0.000000,4.000000,4.000000,4.000000,4.000000,4.000000,4.000000,4.000000,4.000000,4.000000,4.000000,4.000000,4.000000,4.000000,4.000000,100.000000
1602006117.090227,103.000000,0.000000,4111.282227,4118.461426,4125.128418,4118.974121,4120.512695,4126.666504,4129.743652,4124.615234,4129.743652,4137.948730,4137.948730,4138.974121,4138.974121,4121.025879,839.000000,4.000000,,,,0.000000,4.000000,4.000000,4.000000,4.000000,4.000000,4.000000,4.000000,4.000000,4.000000,4.000000,4.000000,4.000000,4.000000,4.000000,100.000000
1602006117.098109,104.000000,0.000000,4103.589844,4122.563965,4118.974121,4121.025879,4121.025879,4128.205078,4135.384766,4133.846191,4143.077148,4156.410156,4137.436035,4143.077148,4134.358887,4123.589844,767.000000,4.000000,,,,0.000000,4.000000,4.000000,4.000000,4.000000,4.000000,4.000000,4.000000,4.000000,4.000000,4.000000,4.000000,4.000000,4.000000,4.000000,100.000000
1602006117.105991,105.000000,0.000000,4106.153809,4123.589844,4120.000000,4122.563965,4122.563965,4126.153809,4129.230957,4135.897461,4155.384766,4157.436035,4137.436035,4144.615234,4137.436035,4124.102539,746.000000,4.000000,,,,0.000000,4.000000,4.000000,4.000000,4.000000,4.000000,4.000000,4.000000,4.000000,4.000000,4.000000,4.000000,4.000000,4.000000,4.000000,100.000000
1602006117.113873,106.000000,0.000000,4115.384766,4127.179688,4127.179688,4124.102539,4121.538574,4116.410156,4124.615234,4131.282227,4152.307617,4143.589844,4144.615234,4141.025879,4145.641113,4124.615234,871.000000,4.000000,,,,0.000000,4.000000,4.000000,4.000000,4.000000,4.000000,4.000000,4.000000,4.000000,4.000000,4.000000,4.000000,4.000000,4.000000,4.000000,100.000000
1602006117.121755,107.000000,0.000000,4127.179688,4137.436035,4136.410156,4128.205078,4122.051270,4116.410156,4126.153809,4129.743652,4132.307617,4117.948730,4152.307617,4144.102539,4143.589844,4129.230957,839.000000,4.000000,,,,0.000000,4.000000,4.000000,4.000000,4.000000,4.000000,4.000000,4.000000,4.000000,4.000000,4.000000,4.000000,4.000000,4.000000,4.000000,100.000000
1602006117.129537,108.000000,0.000000,4125.128418,4133.846191,4133.846191,4125.128418,4121.538574,4120.000000,4124.615234,4124.615234,4109.743652,4102.051270,4142.051270,4147.179688,4129.230957,4126.153809,767.000000,4.000000,,,,0.000000,4.000000,4.000000,4.000000,4.000000,4.000000,4.000000,4.000000,4.000000,4.000000,4.000000,4.000000,4.000000,4.000000,4.000000,100.000000
1602006117.137420,109.000000,0.000000,4109.230957,4124.102539,4124.615234,4123.077148,4119.487305,4120.000000,4121.025879,4118.461426,4102.051270,4114.871582,4132.820313,4140.000000,4125.641113,4121.025879,746.000000,4.000000,,,,0.000000,4.000000,4.000000,4.000000,4.000000,4.000000,4.000000,4.000000,4.000000,4.000000,4.000000,4.000000,4.000000,4.000000,4.000000,100.000000
1602006117.145302,110.000000,0.000000,4112.307617,4128.205078,4128.205078,4127.179688,4123.077148,4122.563965,4127.179688,4122.051270,4111.794922,4133.846191,4140.000000,4138.974121,4138.461426,4127.179688,871.000000,4.000000,,,,0.000000,4.000000,4.000000,4.000000,4.000000,4.000000,4.000000,4.000000,4.000000,4.000000,4.000000,4.000000,4.000000,4.000000,4.000000,100.000000
1602006117.153184,111.000000,0.000000,4123.589844,4128.205078,4131.794922,4125.128418,4125.128418,4128.205078,4135.897461,4126.153809,4122.563965,4136.410156,4138.461426,4147.692383,4141.538574,4130.769043,839.000000,4.000000,,,,0.000000,4.000000,4.000000,4.000000,4.000000,4.000000,4.000000,4.000000,4.000000,4.000000,4.000000,4.000000,4.000000,4.000000,4.000000,100.000000
1602006117.161066,112.000000,0.000000,4117.948730,4124.615234,4127.692383,4124.102539,4121.538574,4128.717773,4135.384766,4124.615234,4127.692383,4140.000000,4122.051270,4148.205078,4131.794922,4122.563965,767.000000,4.000000,,,,0.000000,4.000000,4.000000,4.000000,4.000000,4.000000,4.000000,4.000000,4.000000,4.000000,4.000000,4.000000,4.000000,4.000000,4.000000,100.000000
1602006117.168948,113.000000,0.000000,4115.384766,4133.333496,4131.794922,4133.333496,4129.743652,4125.128418,4130.769043,4133.333496,4135.897461,4152.307617,4131.794922,4144.615234,4141.025879,4125.641113,746.000000,4.000000,,,,0.000000,4.000000,4.000000,4.000000,4.000000,4.000000,4.000000,4.000000,4.000000,4.000000,4.000000,4.000000,4.000000,4.000000,4.000000,100.000000
1602006117.176830,114.000000,0.000000,4112.307617,4127.692383,4136.922852,4129.743652,4137.948730,4130.256348,4130.769043,4150.256348,4151.794922,4145.128418,4161.538574,4152.820313,4156.922852,4141.538574,871.000000,4.000000,,,,0.000000,4.000000,4.000000,4.000000,4.000000,4.000000,4.000000,4.000000,4.000000,4.000000,4.000000,4.000000,4.000000,4.000000,4.000000,100.000000
1602006117.184712,115.000000,0.000000,4108.205078,4116.922852,4132.820313,4121.025879,4132.820313,4138.461426,4129.743652,4153.333496,4161.538574,4137.436035,4164.615234,4166.153809,4154.871582,4142.563965,839.000000,4.000000,,,,0.000000,4.000000,4.000000,4.000000,4.000000,4.000000,4.000000,4.000000,4.000000,4.000000,4.000000,4.000000,4.000000,4.000000,4.000000,100.000000
1602006117.192495,116.000000,0.000000,4133.846191,4146.153809,4134.871582,4138.461426,4132.307617,4133.333496,4122.563965,4145.128418,4162.051270,4169.230957,4154.871582,4168.717773,4155.384766,4140.512695,767.000000,4.000000,,,,0.000000,4.000000,4.000000,4.000000,4.000000,4.000000,4.000000,4.000000,4.000000,4.000000,4.000000,4.000000,4.000000,4.000000,4.000000,100.000000
1602006117.200377,117.000000,0.000000,4164.102539,4177.436035,4143.077148,4156.922852,4142.051270,4125.641113,4119.487305,4138.974121,4154.871582,4183.589844,4153.333496,4157.948730,4152.820313,4146.153809,746.000000,4.000000,,,,0.000000,4.000000,4.000000,4.000000,4.000000,4.000000,4.000000,4.000000,4.000000,4.000000,4.000000,4.000000,4.000000,4.000000,4.000000,100.000000
1602006117.208259,118.000000,0.000000,4154.358887,4169.743652,4138.974121,4145.641113,4134.358887,4120.000000,4117.948730,4128.717773,4129.743652,4131.794922,4135.897461,4138.974121,4117.436035,4126.153809,871.000000,4.000000,,,,0.000000,4.000000,4.000000,4.000000,4.000000,4.000000,4.000000,4.000000,4.000000,4.000000,4.000000,4.000000,4.000000,4.000000,4.000000,100.000000
1602006117.216142,119.000000,0.000000,4146.666504,4161.538574,4132.820313,4134.358887,4124.102539,4112.307617,4117.948730,4117.948730,4104.615234,4101.538574,4112.820313,4131.794922,4085.641113,4104.615234,839.000000,4.000000,,,,0.000000,4.000000,4.000000,4.000000,4.000000,4.000000,4.000000,4.000000,4.000000,4.000000,4.000000,4.000000,4.000000,4.000000,4.000000,100.000000
1602006117.224024,120.000000,0.000000,4169.230957,4174.871582,4138.974121,4148.205078,4134.358887,4122.051270,4128.205078,4121.025879,4103.589844,4123.589844,4113.846191,4142.051270,4097.948730,4120.512695,767.000000,4.000000,,,,0.000000,4.000000,4.000000,4.000000,4.000000,4.000000,4.000000,4.000000,4.000000,4.000000,4.000000,4.000000,4.000000,4.000000,4.000000,100.000000
1602006117.231906,121.000000,0.000000,4170.769043,4176.410156,4141.538574,4154.358887,4141.538574,4136.410156,4134.358887,4125.128418,4111.282227,4118.461426,4119.487305,4142.051270,4105.128418,4126.153809,746.000000,4.000000,,,,0.000000,4.000000,4.000000,4.000000,4.000000,4.000000,4.000000,4.000000,4.000000,4.000000,4.000000,4.000000,4.000000,4.000000,4.000000,100.000000
1602006117.239789,122.000000,0.000000,4153.333496,4167.692383,4135.897461,4144.102539,4134.871582,4133.846191,4131.794922,4124.102539,4111.794922,4093.333252,4119.487305,4136.410156,4090.256348,4106.153809,871.000000,4.000000,,,,0.000000,4.000000,4.000000,4.000000,4.000000,4.000000,4.000000,4.000000,4.000000,4.000000,4.000000,4.000000,4.000000,4.000000,4.000000,100.000000
1602006117.247671,123.000000,0.000000,4151.794922,4168.205078,4134.358887,4140.000000,4134.871582,4130.769043,4137.436035,4131.794922,4117.436035,4108.205078,4122.051270,4135.384766,4093.846191,4104.102539,839.000000,4.000000,,,,0.000000,4.000000,4.000000,4.000000,4.000000,4.000000,4.000000,4.000000,4.000000,4.000000,4.000000,4.000000,4.000000,4.000000,4.000000,100.000000
1602006117.255554,124.000000,0.000000,4158.974121,4170.769043,4138.461426,4143.589844,4138.461426,4136.922852,4142.051270,4138.974121,4123.589844,4138.461426,4119.487305,4128.717773,4106.666504,4111.282227,767.000000,4.000000,,,,0.000000,4.000000,4.000000,4.000000,4.000000,4.000000,4.000000,4.000000,4.000000,4.000000,4.000000,4.000000,4.000000,4.000000,4.000000,100.000000
1602006117.263535,125.000000,0.000000,4160.512695,4168.205078,4140.000000,4143.077148,4133.846191,4137.948730,4136.922852,4137.948730,4128.205078,4144.615234,4120.512695,4125.128418,4106.153809,4105.128418,746.000000,4.000000,,,,0.000000,4.000000,4.000000,4.000000,4.000000,4.000000,4.000000,4.000000,4.000000,4.000000,4.000000,4.000000,4.000000,4.000000,4.000000,100.000000
1602006117.271416,126.000000,0.000000,4157.948730,4167.179688,4140.512695,4141.025879,4126.666504,4133.846191,4134.358887,4138.974121,4138.461426,4145.641113,4128.717773,4136.410156,4106.666504,4110.769043,871.000000,4.000000,,,,0.000000,4.000000,4.000000,4.000000,4.000000,4.000000,4.000000,4.000000,4.000000,4.000000,4.000000,4.000000,4.000000,4.000000,4.000000,100.000000
1602006117.279297,127.000000,0.000000,4156.922852,4168.205078,4141.025879,4141.538574,4124.102539,4128.717773,4131.794922,4140.512695,4138.461426,4140.000000,4126.666504,4142.563965,4109.743652,4125.128418,839.000000,4.000000,,,,0.000000,4.000000,4.000000,4.000000,4.000000,4.000000,4.000000,4.000000,4.000000,4.000000,4.000000,4.000000,4.000000,4.000000,4.000000,100.000000
1602006117.287178,128.000000,0.000000,4152.820313,4160.512695,4135.897461,4137.948730,4129.743652,4122.051270,4128.205078,4137.436035,4129.230957,4128.717773,4120.512695,4135.384766,4106.666504,4121.025879,767.000000,4.000000,,,,0.000000,4.000000,4.000000,4.000000,4.000000,4.000000,4.000000,4.000000,4.000000,4.000000,4.000000,4.000000,4.000000,4.000000,4.000000,100.000000
1602006117.294959,0.000000,0.000000,4145.641113,4155.384766,4130.256348,4137.436035,4133.846191,4122.563965,4133.846191,4136.922852,4127.179688,4126.153809,4125.128418,4129.743652,4103.589844,4107.179688,802.000000,4.000000,,,,0.000000,4.000000,4.000000,4.000000,4.000000,4.000000,4.000000,4.000000,4.000000,4.000000,4.000000,4.000000,4.000000,4.000000,4.000000,100.000000
1602006117.302741,1.000000,0.000000,4141.025879,4153.846191,4126.666504,4136.922852,4125.641113,4122.051270,4135.897461,4133.333496,4120.000000,4117.436035,4121.538574,4127.692383,4096.922852,4104.615234,790.000000,4.000000,,,,0.000000,4.000000,4.000000,4.000000,4.000000,4.000000,4.000000,4.000000,4.000000,4.000000,4.000000,4.000000,4.000000,4.000000,4.000000,100.000000
1602006117.310623,2.000000,0.000000,4140.512695,4149.230957,4125.128418,4133.846191,4119.487305,4118.974121,4129.743652,4127.692383,4106.153809,4109.743652,4107.179688,4130.256348,4087.692383,4107.692383,848.000000,4.000000,,,,0.000000,4.000000,4.000000,4.000000,4.000000,4.000000,4.000000,4.000000,4.000000,4.000000,4.000000,4.000000,4.000000,4.000000,4.000000,100.000000
1602006117.318505,3.000000,0.000000,4141.025879,4149.230957,4130.256348,4136.922852,4124.102539,4122.051270,4126.153809,4133.846191,4112.307617,4116.410156,4104.102539,4136.410156,4088.718018,4104.615234,866.000000,4.000000,,,,0.000000,4.000000,4.000000,4.000000,4.000000,4.000000,4.000000,4.000000,4.000000,4.000000,4.000000,4.000000,4.000000,4.000000,4.000000,100.000000
1602006117.326387,4.000000,0.000000,4137.436035,4153.333496,4136.922852,4140.000000,4124.615234,4124.102539,4128.205078,4142.563965,4129.230957,4120.000000,4112.820313,4135.897461,4093.846191,4103.077148,814.000000,4.000000,,,,0.000000,4.000000,4.000000,4.000000,4.000000,4.000000,4.000000,4.000000,4.000000,4.000000,4.000000,4.000000,4.000000,4.000000,4.000000,100.000000
1602006117.334268,5.000000,0.000000,4140.000000,4154.358887,4139.487305,4138.974121,4125.128418,4122.563965,4130.769043,4143.589844,4134.871582,4125.128418,4116.922852,4135.384766,4095.384521,4113.333496,825.000000,4.000000,,,,0.000000,4.000000,4.000000,4.000000,4.000000,4.000000,4.000000,4.000000,4.000000,4.000000,4.000000,4.000000,4.000000,4.000000,4.000000,100.000000
1602006117.342150,6.000000,0.000000,4150.256348,4154.871582,4140.512695,4138.461426,4130.256348,4123.589844,4131.794922,4141.025879,4136.922852,4148.717773,4120.512695,4137.948730,4100.512695,4125.128418,774.000000,4.000000,,,,0.000000,4.000000,4.000000,4.000000,4.000000,4.000000,4.000000,4.000000,4.000000,4.000000,4.000000,4.000000,4.000000,4.000000,4.000000,100.000000
1602006117.350032,7.000000,0.000000,4155.897461,4153.846191,4139.487305,4138.461426,4125.128418,4124.615234,4125.641113,4138.974121,4134.871582,4146.153809,4127.692383,4137.948730,4105.128418,4117.948730,681.000000,4.000000,,,,0.000000,4.000000,4.000000,4.000000,4.000000,4.000000,4.000000,4.000000,4.000000,4.000000,4.000000,4.000000,4.000000,4.000000,4.000000,100.000000
1602006117.357814,8.000000,0.000000,4151.794922,4152.307617,4134.871582,4136.922852,4123.589844,4126.153809,4122.563965,4136.922852,4125.128418,4113.333496,4127.179688,4133.846191,4104.615234,4104.102539,785.000000,4.000000,,,,0.000000,4.000000,4.000000,4.000000,4.000000,4.000000,4.000000,4.000000,4.000000,4.000000,4.000000,4.000000,4.000000,4.000000,4.000000,100.000000
1602006117.365696,9.000000,0.000000,4150.769043,4154.358887,4136.410156,4138.974121,4133.333496,4135.897461,4132.820313,4137.948730,4124.102539,4115.384766,4124.102539,4137.948730,4104.615234,4106.666504,842.000000,4.000000,,,,0.000000,4.000000,4.000000,4.000000,4.000000,4.000000,4.000000,4.000000,4.000000,4.000000,4.000000,4.000000,4.000000,4.000000,4.000000,100.000000
1602006117.373577,10.000000,0.000000,4156.922852,4154.871582,4140.000000,4142.051270,4141.025879,4138.974121,4135.897461,4139.487305,4131.794922,4138.974121,4126.153809,4142.051270,4109.230957,4110.769043,837.000000,4.000000,,,,0.000000,4.000000,4.000000,4.000000,4.000000,4.000000,4.000000,4.000000,4.000000,4.000000,4.000000,4.000000,4.000000,4.000000,4.000000,100.000000
1602006117.381459,11.000000,0.000000,4152.307617,4153.333496,4132.307617,4140.512695,4136.410156,4126.666504,4124.615234,4137.436035,4129.230957,4136.410156,4128.717773,4131.794922,4109.743652,4102.051270,839.000000,4.000000,,,,0.000000,4.000000,4.000000,4.000000,4.000000,4.000000,4.000000,4.000000,4.000000,4.000000,4.000000,4.000000,4.000000,4.000000,4.000000,100.000000
1602006117.389340,12.000000,0.000000,4142.051270,4154.871582,4126.666504,4138.461426,4128.205078,4119.487305,4117.948730,4134.358887,4116.922852,4130.256348,4123.589844,4126.666504,4102.563965,4102.051270,767.000000,4.000000,,,,0.000000,4.000000,4.000000,4.000000,4.000000,4.000000,4.000000,4.000000,4.000000,4.000000,4.000000,4.000000,4.000000,4.000000,4.000000,100.000000
1602006117.397222,13.000000,0.000000,4149.230957,4157.436035,4134.871582,4138.461426,4130.256348,4124.102539,4122.563965,4135.384766,4123.589844,4151.282227,4118.974121,4138.974121,4103.589844,4120.000000,746.000000,4.000000,,,,0.000000,4.000000,4.000000,4.000000,4.000000,4.000000,4.000000,4.000000,4.000000,4.000000,4.000000,4.000000,4.000000,4.000000,4.000000,100.000000
1602006117.405204,14.000000,0.000000,4157.948730,4154.358887,4143.589844,4138.461426,4132.820313,4127.692383,4125.128418,4138.461426,4138.974121,4162.051270,4121.538574,4147.692383,4109.230957,4127.179688,837.000000,4.000000,,,,0.000000,4.000000,4.000000,4.000000,4.000000,4.000000,4.000000,4.000000,4.000000,4.000000,4.000000,4.000000,4.000000,4.000000,4.000000,100.000000
1602006117.413086,15.000000,0.000000,4149.230957,4151.794922,4138.974121,4138.974121,4129.230957,4129.743652,4125.641113,4133.846191,4125.641113,4140.512695,4120.512695,4142.563965,4106.666504,4114.871582,839.000000,4.000000,,,,0.000000,4.000000,4.000000,4.000000,4.000000,4.000000,4.000000,4.000000,4.000000,4.000000,4.000000,4.000000,4.000000,4.000000,4.000000,100.000000
1602006117.420968,16.000000,0.000000,4143.589844,4154.871582,4128.717773,4140.512695,4125.128418,4127.179688,4127.179688,4123.589844,4103.077148,4115.897461,4111.794922,4133.846191,4095.384521,4099.487305,0.000000,4.000000,,,,0.000000,4.000000,4.000000,4.000000,4.000000,4.000000,4.000000,4.000000,4.000000,4.000000,4.000000,4.000000,4.000000,4.000000,4.000000,100.000000
1602006117.428850,17.000000,0.000000,4145.641113,4152.307617,4121.025879,4137.948730,4125.641113,4123.589844,4125.641113,4120.000000,4104.102539,4099.487305,4106.153809,4124.102539,4084.615479,4096.922852,0.000000,4.000000,,,,0.000000,4.000000,4.000000,4.000000,4.000000,4.000000,4.000000,4.000000,4.000000,4.000000,4.000000,4.000000,4.000000,4.000000,4.000000,100.000000
1602006117.436731,18.000000,0.000000,4130.256348,4140.512695,4116.922852,4129.230957,4120.512695,4124.102539,4125.128418,4122.051270,4100.512695,4085.641113,4108.717773,4113.846191,4080.000000,4098.461426,0.000000,4.000000,,,,0.000000,4.000000,4.000000,4.000000,4.000000,4.000000,4.000000,4.000000,4.000000,4.000000,4.000000,4.000000,4.000000,4.000000,4.000000,100.000000
1602006117.444613,19.000000,0.000000,4117.436035,4136.410156,4116.922852,4124.102539,4111.282227,4120.512695,4126.153809,4120.000000,4082.051270,4081.538574,4107.179688,4113.846191,4083.076904,4092.820557,0.000000,4.000000,,,,0.000000,4.000000,4.000000,4.000000,4.000000,4.000000,4.000000,4.000000,4.000000,4.000000,4.000000,4.000000,4.000000,4.000000,4.000000,100.000000
1602006117.452495,20.000000,0.000000,4129.230957,4141.538574,4118.461426,4128.205078,4112.307617,4113.846191,4121.025879,4118.974121,4087.179443,4098.974121,4105.641113,4118.974121,4088.718018,4092.820557,0.000000,4.000000,,,,0.000000,4.000000,4.000000,4.000000,4.000000,4.000000,4.000000,4.000000,4.000000,4.000000,4.000000,4.000000,4.000000,4.000000,4.000000,100.000000
1602006117.460277,21.000000,0.000000,4140.512695,4143.589844,4122.051270,4128.717773,4121.025879,4116.410156,4113.333496,4121.538574,4108.205078,4111.794922,4112.820313,4122.563965,4092.820557,4098.974121,0.000000,4.000000,,,,0.000000,4.000000,4.000000,4.000000,4.000000,4.000000,4.000000,4.000000,4.000000,4.000000,4.000000,4.000000,4.000000,4.000000,4.000000,100.000000
1602006117.468159,22.000000,0.000000,4135.897461,4142.563965,4122.563965,4125.641113,4124.615234,4114.871582,4110.256348,4122.563965,4109.743652,4107.692383,4111.282227,4120.512695,4093.333252,4104.102539,0.000000,4.000000,,,,0.000000,4.000000,4.000000,4.000000,4.000000,4.000000,4.000000,4.000000,4.000000,4.000000,4.000000,4.000000,4.000000,4.000000,4.000000,100.000000
1602006117.476040,23.000000,0.000000,4132.820313,4142.051270,4120.000000,4130.256348,4120.000000,4104.615234,4113.846191,4120.512695,4101.025879,4114.871582,4102.051270,4118.461426,4090.256348,4102.051270,0.000000,4.000000,,,,0.000000,4.000000,4.000000,4.000000,4.000000,4.000000,4.000000,4.000000,4.000000,4.000000,4.000000,4.000000,4.000000,4.000000,4.000000,100.000000
1602006117.483922,24.000000,0.000000,4140.512695,4147.179688,4124.102539,4138.974121,4126.153809,4113.333496,4120.512695,4122.563965,4107.692383,4123.589844,4109.230957,4126.153809,4095.384521,4104.102539,0.000000,4.000000,,,,0.000000,4.000000,4.000000,4.000000,4.000000,4.000000,4.000000,4.000000,4.000000,4.000000,4.000000,4.000000,4.000000,4.000000,4.000000,100.000000
1602006117.491803,25.000000,0.000000,4145.128418,4156.410156,4132.307617,4141.025879,4137.948730,4125.641113,4123.077148,4126.666504,4121.538574,4109.230957,4125.641113,4136.922852,4106.666504,4118.461426,0.000000,4.000000,,,,0.000000,4.000000,4.000000,4.000000,4.000000,4.000000,4.000000,4.000000,4.000000,4.000000,4.000000,4.000000,4.000000,4.000000,4.000000,100.000000
1602006117.499685,26.000000,0.000000,4140.512695,4155.897461,4130.769043,4139.487305,4134.358887,4114.358887,4121.538574,4128.205078,4126.666504,4104.615234,4125.128418,4140.000000,4109.230957,4125.641113,0.000000,4.000000,,,,0.000000,4.000000,4.000000,4.000000,4.000000,4.000000,4.000000,4.000000,4.000000,4.000000,4.000000,4.000000,4.000000,4.000000,4.000000,100.000000
1602006117.507666,27.000000,0.000000,4136.922852,4153.333496,4126.666504,4141.538574,4126.666504,4110.256348,4127.179688,4132.307617,4126.153809,4129.743652,4118.461426,4140.512695,4106.153809,4113.846191,0.000000,4.000000,,,,0.000000,4.000000,4.000000,4.000000,4.000000,4.000000,4.000000,4.000000,4.000000,4.000000,4.000000,4.000000,4.000000,4.000000,4.000000,100.000000
1602006117.515547,28.000000,0.000000,4137.948730,4155.384766,4132.307617,4142.563965,4124.615234,4120.000000,4135.897461,4137.436035,4126.666504,4136.410156,4120.000000,4148.205078,4106.153809,4102.563965,0.000000,4.000000,,,,0.000000,4.000000,4.000000,4.000000,4.000000,4.000000,4.000000,4.000000,4.000000,4.000000,4.000000,4.000000,4.000000,4.000000,4.000000,100.000000
1602006117.523529,29.000000,0.000000,4134.358887,4146.153809,4137.436035,4135.384766,4120.000000,4114.871582,4138.461426,4135.897461,4124.615234,4116.410156,4114.871582,4152.307617,4106.153809,4104.102539,0.000000,4.000000,,,,0.000000,4.000000,4.000000,4.000000,4.000000,4.000000,4.000000,4.000000,4.000000,4.000000,4.000000,4.000000,4.000000,4.000000,4.000000,100.000000
1602006117.531411,30.000000,0.000000,4128.717773,4137.948730,4137.948730,4132.820313,4114.871582,4107.179688,4131.794922,4132.307617,4121.025879,4104.615234,4109.230957,4151.794922,4105.641113,4104.615234,0.000000,4.000000,,,,0.000000,4.000000,4.000000,4.000000,4.000000,4.000000,4.000000,4.000000,4.000000,4.000000,4.000000,4.000000,4.000000,4.000000,4.000000,100.000000
1602006117.539293,31.000000,0.000000,4134.358887,4149.230957,4140.000000,4140.512695,4122.051270,4115.897461,4125.128418,4134.358887,4120.512695,4107.692383,4116.922852,4155.384766,4107.692383,4105.128418,0.000000,4.000000,,,,0.000000,4.000000,4.000000,4.000000,4.000000,4.000000,4.000000,4.000000,4.000000,4.000000,4.000000,4.000000,4.000000,4.000000,4.000000,100.000000
1602006117.547175,32.000000,0.000000,4142.563965,4158.461426,4141.025879,4144.102539,4127.179688,4114.358887,4123.077148,4133.333496,4122.051270,4112.307617,4124.102539,4155.897461,4107.692383,4107.692383,0.000000,4.000000,,,,0.000000,4.000000,4.000000,4.000000,4.000000,4.000000,4.000000,4.000000,4.000000,4.000000,4.000000,4.000000,4.000000,4.000000,4.000000,100.000000
1602006117.555057,33.000000,0.000000,4141.025879,4153.333496,4137.948730,4141.538574,4129.230957,4110.769043,4121.538574,4127.179688,4122.563965,4106.153809,4121.538574,4152.820313,4107.692383,4113.846191,0.000000,4.000000,,,,0.000000,4.000000,4.000000,4.000000,4.000000,4.000000,4.000000,4.000000,4.000000,4.000000,4.000000,4.000000,4.000000,4.000000,4.000000,100.000000
1602006117.562939,34.000000,0.000000,4136.922852,4151.282227,4137.948730,4142.563965,4135.384766,4120.512695,4121.025879,4123.077148,4123.077148,4102.051270,4118.974121,4150.769043,4114.358887,4120.000000,0.000000,4.000000,,,,0.000000,4.000000,4.000000,4.000000,4.000000,4.000000,4.000000,4.000000,4.000000,4.000000,4.000000,4.000000,4.000000,4.000000,4.000000,100.000000
1602006117.570822,35.000000,0.000000,4142.051270,4156.922852,4143.077148,4147.692383,4140.000000,4124.615234,4123.077148,4123.589844,4126.666504,4113.333496,4123.077148,4152.307617,4121.538574,4118.461426,0.000000,4.000000,,,,0.000000,4.000000,4.000000,4.000000,4.000000,4.000000,4.000000,4.000000,4.000000,4.000000,4.000000,4.000000,4.000000,4.000000,4.000000,100.000000
1602006117.578704,36.000000,0.000000,4147.692383,4158.974121,4147.692383,4151.282227,4139.487305,4128.717773,4124.615234,4120.000000,4126.666504,4124.615234,4123.589844,4155.897461,4118.974121,4115.384766,0.000000,4.000000,,,,0.000000,4.000000,4.000000,4.000000,4.000000,4.000000,4.000000,4.000000,4.000000,4.000000,4.000000,4.000000,4.000000,4.000000,4.000000,100.000000
1602006117.586586,37.000000,0.000000,4142.051270,4157.436035,4141.025879,4147.179688,4139.487305,4134.871582,4124.615234,4112.307617,4118.974121,4118.974121,4114.358887,4148.205078,4107.179688,4107.179688,0.000000,4.000000,,,,0.000000,4.000000,4.000000,4.000000,4.000000,4.000000,4.000000,4.000000,4.000000,4.000000,4.000000,4.000000,4.000000,4.000000,4.000000,100.000000
1602006117.594368,38.000000,0.000000,4136.410156,4152.307617,4125.128418,4135.384766,4137.948730,4126.153809,4122.051270,4111.794922,4118.461426,4107.179688,4112.307617,4137.436035,4101.538574,4096.922852,0.000000,4.000000,,,,0.000000,4.000000,4.000000,4.000000,4.000000,4.000000,4.000000,4.000000,4.000000,4.000000,4.000000,4.000000,4.000000,4.000000,4.000000,100.000000
1602006117.602250,39.000000,0.000000,4137.948730,4150.256348,4126.153809,4135.897461,4134.871582,4116.922852,4118.461426,4120.000000,4128.717773,4113.846191,4122.563965,4145.641113,4110.769043,4101.538574,0.000000,4.000000,,,,0.000000,4.000000,4.000000,4.000000,4.000000,4.000000,4.000000,4.000000,4.000000,4.000000,4.000000,4.000000,4.000000,4.000000,4.000000,100.000000
1602006117.610132,40.000000,0.000000,4139.487305,4155.384766,4134.358887,4149.743652,4136.410156,4123.589844,4124.615234,4126.666504,4134.871582,4126.153809,4121.538574,4155.897461,4120.512695,4109.230957,0.000000,4.000000,,,,0.000000,4.000000,4.000000,4.000000,4.000000,4.000000,4.000000,4.000000,4.000000,4.000000,4.000000,4.000000,4.000000,4.000000,4.000000,100.000000
1602006117.618014,41.000000,0.000000,4144.615234,4160.512695,4127.179688,4151.282227,4138.974121,4131.794922,4135.384766,4126.666504,4135.384766,4127.692383,4114.871582,4152.820313,4122.051270,4107.179688,0.000000,4.000000,,,,0.000000,4.000000,4.000000,4.000000,4.000000,4.000000,4.000000,4.000000,4.000000,4.000000,4.000000,4.000000,4.000000,4.000000,4.000000,100.000000
1602006117.625897,42.000000,0.000000,4152.307617,4160.000000,4123.589844,4144.615234,4136.922852,4132.820313,4136.410156,4125.128418,4132.307617,4120.000000,4119.487305,4149.230957,4121.538574,4115.384766,0.000000,4.000000,,,,0.000000,4.000000,4.000000,4.000000,4.000000,4.000000,4.000000,4.000000,4.000000,4.000000,4.000000,4.000000,4.000000,4.000000,4.000000,100.000000
1602006117.633779,43.000000,0.000000,4155.897461,4156.922852,4136.922852,4149.230957,4136.922852,4136.410156,4135.897461,4126.666504,4127.179688,4109.743652,4131.794922,4154.358887,4124.615234,4133.846191,0.000000,4.000000,,,,0.000000,4.000000,4.000000,4.000000,4.000000,4.000000,4.000000,4.000000,4.000000,4.000000,4.000000,4.000000,4.000000,4.000000,4.000000,100.000000
1602006117.641661,44.000000,0.000000,4162.563965,4161.538574,4146.153809,4157.436035,4148.205078,4140.000000,4137.948730,4129.230957,4133.333496,4120.512695,4138.461426,4164.615234,4131.282227,4141.538574,0.000000,4.000000,,,,0.000000,4.000000,4.000000,4.000000,4.000000,4.000000,4.000000,4.000000,4.000000,4.000000,4.000000,4.000000,4.000000,4.000000,4.000000,100.000000
1602006117.649543,45.000000,0.000000,4168.205078,4168.205078,4143.589844,4156.922852,4152.820313,4141.538574,4137.436035,4126.153809,4149.743652,4144.615234,4132.820313,4166.666504,4137.436035,4138.974121,0.000000,4.000000,,,,0.000000,4.000000,4.000000,4.000000,4.000000,4.000000,4.000000,4.000000,4.000000,4.000000,4.000000,4.000000,4.000000,4.000000,4.000000,100.000000
1602006117.657525,46.000000,0.000000,4160.512695,4163.077148,4142.051270,4152.307617,4143.077148,4142.051270,4134.871582,4127.179688,4160.000000,4157.436035,4128.717773,4155.897461,4137.948730,4137.436035,0.000000,4.000000,,,,0.000000,4.000000,4.000000,4.000000,4.000000,4.000000,4.000000,4.000000,4.000000,4.000000,4.000000,4.000000,4.000000,4.000000,4.000000,100.000000
1602006117.665407,47.000000,0.000000,4154.358887,4155.897461,4139.487305,4150.769043,4140.512695,4143.077148,4134.871582,4135.384766,4161.538574,4157.948730,4138.461426,4149.743652,4130.256348,4134.358887,0.000000,4.000000,,,,0.000000,4.000000,4.000000,4.000000,4.000000,4.000000,4.000000,4.000000,4.000000,4.000000,4.000000,4.000000,4.000000,4.000000,4.000000,100.000000
1602006117.673290,48.000000,0.000000,4157.436035,4157.948730,4140.000000,4154.358887,4145.128418,4144.615234,4135.897461,4135.897461,4160.512695,4163.589844,4138.974121,4152.820313,4125.128418,4125.128418,0.000000,4.000000,,,,0.000000,4.000000,4.000000,4.000000,4.000000,4.000000,4.000000,4.000000,4.000000,4.000000,4.000000,4.000000,4.000000,4.000000,4.000000,100.000000
1602006117.681172,49.000000,0.000000,4155.897461,4160.000000,4141.538574,4151.794922,4142.051270,4144.102539,4130.769043,4127.179688,4151.794922,4148.205078,4125.641113,4147.179688,4120.512695,4118.974121,0.000000,4.000000,,,,0.000000,4.000000,4.000000,4.000000,4.000000,4.000000,4.000000,4.000000,4.000000,4.000000,4.000000,4.000000,4.000000,4.000000,4.000000,100.000000
1602006117.689055,50.000000,0.000000,4148.205078,4149.743652,4132.307617,4140.512695,4135.897461,4133.333496,4121.025879,4124.102539,4138.974121,4102.051270,4120.000000,4134.358887,4111.794922,4121.025879,0.000000,4.000000,,,,0.000000,4.000000,4.000000,4.000000,4.000000,4.000000,4.000000,4.000000,4.000000,4.000000,4.000000,4.000000,4.000000,4.000000,4.000000,100.000000
1602006117.696937,51.000000,0.000000,4140.000000,4141.538574,4123.589844,4137.436035,4135.384766,4116.410156,4118.461426,4126.153809,4128.205078,4091.794922,4113.846191,4128.205078,4103.077148,4109.230957,0.000000,4.000000,,,,0.000000,4.000000,4.000000,4.000000,4.000000,4.000000,4.000000,4.000000,4.000000,4.000000,4.000000,4.000000,4.000000,4.000000,4.000000,100.000000
1602006117.704819,52.000000,0.000000,4135.384766,4146.666504,4130.769043,4139.487305,4136.410156,4112.307617,4125.641113,4127.179688,4123.077148,4118.461426,4104.615234,4131.794922,4102.051270,4094.358887,0.000000,4.000000,,,,0.000000,4.000000,4.000000,4.000000,4.000000,4.000000,4.000000,4.000000,4.000000,4.000000,4.000000,4.000000,4.000000,4.000000,4.000000,100.000000
1602006117.712702,53.000000,0.000000,4144.102539,4152.307617,4141.025879,4137.948730,4137.436035,4124.102539,4131.794922,4128.717773,4131.282227,4129.230957,4114.871582,4138.974121,4113.333496,4107.692383,0.000000,4.000000,,,,0.000000,4.000000,4.000000,4.000000,4.000000,4.000000,4.000000,4.000000,4.000000,4.000000,4.000000,4.000000,4.000000,4.000000,4.000000,100.000000
1602006117.720584,54.000000,0.000000,4154.358887,4152.820313,4142.563965,4139.487305,4137.436035,4136.922852,4134.871582,4126.666504,4137.948730,4123.077148,4131.794922,4141.538574,4124.615234,4128.205078,0.000000,4.000000,,,,0.000000,4.000000,4.000000,4.000000,4.000000,4.000000,4.000000,4.000000,4.000000,4.000000,4.000000,4.000000,4.000000,4.000000,4.000000,100.000000
1602006117.728466,55.000000,0.000000,4153.846191,4148.717773,4140.000000,4141.538574,4138.461426,4139.487305,4138.461426,4124.102539,4136.922852,4131.794922,4134.871582,4142.051270,4122.563965,4127.692383,0.000000,4.000000,,,,0.000000,4.000000,4.000000,4.000000,4.000000,4.000000,4.000000,4.000000,4.000000,4.000000,4.000000,4.000000,4.000000,4.000000,4.000000,100.000000
1602006117.736249,56.000000,0.000000,4148.205078,4144.615234,4135.384766,4140.000000,4140.000000,4132.307617,4135.897461,4131.282227,4145.641113,4154.871582,4137.436035,4144.102539,4121.025879,4123.589844,0.000000,4.000000,,,,0.000000,4.000000,4.000000,4.000000,4.000000,4.000000,4.000000,4.000000,4.000000,4.000000,4.000000,4.000000,4.000000,4.000000,4.000000,100.000000
1602006117.744131,57.000000,0.000000,4149.230957,4140.512695,4128.205078,4140.512695,4136.410156,4126.666504,4127.692383,4138.461426,4152.307617,4149.743652,4136.922852,4142.051270,4127.179688,4123.077148,0.000000,4.000000,,,,0.000000,4.000000,4.000000,4.000000,4.000000,4.000000,4.000000,4.000000,4.000000,4.000000,4.000000,4.000000,4.000000,4.000000,4.000000,100.000000
1602006117.752013,58.000000,0.000000,4154.871582,4141.538574,4124.615234,4139.487305,4134.871582,4124.615234,4123.077148,4134.358887,4140.512695,4113.333496,4126.666504,4135.897461,4125.128418,4123.077148,0.000000,4.000000,,,,0.000000,4.000000,4.000000,4.000000,4.000000,4.000000,4.000000,4.000000,4.000000,4.000000,4.000000,4.000000,4.000000,4.000000,4.000000,100.000000
1602006117.759895,59.000000,0.000000,4170.256348,4147.179688,4130.256348,4142.051270,4134.358887,4120.000000,4122.051270,4130.256348,4133.333496,4103.077148,4121.538574,4133.846191,4118.461426,4133.846191,0.000000,4.000000,,,,0.000000,4.000000,4.000000,4.000000,4.000000,4.000000,4.000000,4.000000,4.000000,4.000000,4.000000,4.000000,4.000000,4.000000,4.000000,100.000000
1602006117.767777,60.000000,0.000000,4193.333496,4155.384766,4137.436035,4150.769043,4135.897461,4118.461426,4113.846191,4131.282227,4144.102539,4131.282227,4127.179688,4139.487305,4128.717773,4155.384766,0.000000,4.000000,,,,0.000000,4.000000,4.000000,4.000000,4.000000,4.000000,4.000000,4.000000,4.000000,4.000000,4.000000,4.000000,4.000000,4.000000,4.000000,100.000000
1602006117.775659,61.000000,0.000000,4210.769043,4158.461426,4140.000000,4148.205078,4137.436035,4124.102539,4108.205078,4127.179688,4143.589844,4133.333496,4130.769043,4142.563965,4142.563965,4175.384766,0.000000,4.000000,,,,0.000000,4.000000,4.000000,4.000000,4.000000,4.000000,4.000000,4.000000,4.000000,4.000000,4.000000,4.000000,4.000000,4.000000,4.000000,100.000000
1602006117.783541,62.000000,0.000000,4223.589844,4153.846191,4138.974121,4140.512695,4131.282227,4114.871582,4115.384766,4121.025879,4129.230957,4113.846191,4121.538574,4137.436035,4134.358887,4185.128418,0.000000,4.000000,,,,0.000000,4.000000,4.000000,4.000000,4.000000,4.000000,4.000000,4.000000,4.000000,4.000000,4.000000,4.000000,4.000000,4.000000,4.000000,100.000000
1602006117.791423,63.000000,0.000000,4235.897461,4153.333496,4140.512695,4146.153809,4127.179688,4103.077148,4122.563965,4120.512695,4125.641113,4125.128418,4112.820313,4137.948730,4120.512695,4186.666504,0.000000,4.000000,,,,0.000000,4.000000,4.000000,4.000000,4.000000,4.000000,4.000000,4.000000,4.000000,4.000000,4.000000,4.000000,4.000000,4.000000,4.000000,100.000000
1602006117.799305,64.000000,0.000000,4239.487305,4157.436035,4140.512695,4152.820313,4136.410156,4112.820313,4127.179688,4121.538574,4127.692383,4136.922852,4114.358887,4147.179688,4126.666504,4187.692383,802.000000,4.000000,,,,0.000000,4.000000,4.000000,4.000000,4.000000,4.000000,4.000000,4.000000,4.000000,4.000000,4.000000,4.000000,4.000000,4.000000,4.000000,100.000000
1602006117.807287,65.000000,0.000000,4230.256348,4160.512695,4142.051270,4151.794922,4141.025879,4125.641113,4134.871582,4123.077148,4132.307617,4140.512695,4122.051270,4153.846191,4139.487305,4183.589844,790.000000,4.000000,,,,0.000000,4.000000,4.000000,4.000000,4.000000,4.000000,4.000000,4.000000,4.000000,4.000000,4.000000,4.000000,4.000000,4.000000,4.000000,100.000000
1602006117.815168,66.000000,0.000000,4221.025879,4161.025879,4149.743652,4154.358887,4133.333496,4126.153809,4138.461426,4128.717773,4131.794922,4140.512695,4133.333496,4155.384766,4136.410156,4173.846191,848.000000,4.000000,,,,0.000000,4.000000,4.000000,4.000000,4.000000,4.000000,4.000000,4.000000,4.000000,4.000000,4.000000,4.000000,4.000000,4.000000,4.000000,100.000000
1602006117.823049,67.000000,0.000000,4215.384766,4158.974121,4150.256348,4157.436035,4134.358887,4128.717773,4136.922852,4137.436035,4124.102539,4111.794922,4135.897461,4155.897461,4127.179688,4175.897461,866.000000,4.000000,,,,0.000000,4.000000,4.000000,4.000000,4.000000,4.000000,4.000000,4.000000,4.000000,4.000000,4.000000,4.000000,4.000000,4.000000,4.000000,100.000000
1602006117.831030,68.000000,0.000000,4202.051270,4153.333496,4143.077148,4151.794922,4141.025879,4130.769043,4133.333496,4138.974121,4122.051270,4089.230713,4127.692383,4156.410156,4122.051270,4176.410156,814.000000,4.000000,,,,0.000000,4.000000,4.000000,4.000000,4.000000,4.000000,4.000000,4.000000,4.000000,4.000000,4.000000,4.000000,4.000000,4.000000,4.000000,100.000000
1602006117.838911,69.000000,0.000000,4181.025879,4143.077148,4137.948730,4142.051270,4133.333496,4125.128418,4126.153809,4129.743652,4123.589844,4103.077148,4121.538574,4153.333496,4117.436035,4159.487305,825.000000,4.000000,,,,0.000000,4.000000,4.000000,4.000000,4.000000,4.000000,4.000000,4.000000,4.000000,4.000000,4.000000,4.000000,4.000000,4.000000,4.000000,100.000000
1602006117.846792,70.000000,0.000000,4169.743652,4137.436035,4138.974121,4138.461426,4122.051270,4122.051270,4120.000000,4124.615234,4122.051270,4116.922852,4117.436035,4151.282227,4114.871582,4149.743652,774.000000,4.000000,,,,0.000000,4.000000,4.000000,4.000000,4.000000,4.000000,4.000000,4.000000,4.000000,4.000000,4.000000,4.000000,4.000000,4.000000,4.000000,100.000000
1602006117.854574,71.000000,0.000000,4166.153809,4139.487305,4138.461426,4139.487305,4124.102539,4121.538574,4121.538574,4129.230957,4127.179688,4122.051270,4112.307617,4154.358887,4118.461426,4150.256348,681.000000,4.000000,,,,0.000000,4.000000,4.000000,4.000000,4.000000,4.000000,4.000000,4.000000,4.000000,4.000000,4.000000,4.000000,4.000000,4.000000,4.000000,100.000000
1602006117.862456,72.000000,0.000000,4157.436035,4140.512695,4137.948730,4140.512695,4134.871582,4125.128418,4122.051270,4129.230957,4140.000000,4141.538574,4120.512695,4154.871582,4128.717773,4143.589844,785.000000,4.000000,,,,0.000000,4.000000,4.000000,4.000000,4.000000,4.000000,4.000000,4.000000,4.000000,4.000000,4.000000,4.000000,4.000000,4.000000,4.000000,100.000000
1602006117.870338,73.000000,0.000000,4152.820313,4139.487305,4137.948730,4141.025879,4138.974121,4131.794922,4121.025879,4123.589844,4140.000000,4147.179688,4127.692383,4150.769043,4137.436035,4142.563965,842.000000,4.000000,,,,0.000000,4.000000,4.000000,4.000000,4.000000,4.000000,4.000000,4.000000,4.000000,4.000000,4.000000,4.000000,4.000000,4.000000,4.000000,100.000000
1602006117.878220,74.000000,0.000000,4150.769043,4137.436035,4136.410156,4141.025879,4138.974121,4128.717773,4120.000000,4120.512695,4133.333496,4131.794922,4124.615234,4148.717773,4136.922852,4151.794922,854.000000,4.000000,,,,0.000000,4.000000,4.000000,4.000000,4.000000,4.000000,4.000000,4.000000,4.000000,4.000000,4.000000,4.000000,4.000000,4.000000,4.000000,100.000000
1602006117.886102,75.000000,0.000000,4149.743652,4136.922852,4135.384766,4137.948730,4138.974121,4125.641113,4121.025879,4120.512695,4135.897461,4138.974121,4134.358887,4150.769043,4135.384766,4155.897461,839.000000,4.000000,,,,0.000000,4.000000,4.000000,4.000000,4.000000,4.000000,4.000000,4.000000,4.000000,4.000000,4.000000,4.000000,4.000000,4.000000,4.000000,100.000000
1602006117.893984,76.000000,0.000000,4154.358887,4140.000000,4135.897461,4138.974121,4138.974121,4133.333496,4129.743652,4122.051270,4138.461426,4158.461426,4137.436035,4152.820313,4140.512695,4150.256348,767.000000,4.000000,,,,0.000000,4.000000,4.000000,4.000000,4.000000,4.000000,4.000000,4.000000,4.000000,4.000000,4.000000,4.000000,4.000000,4.000000,4.000000,100.000000
1602006117.901866,77.000000,0.000000,4150.256348,4140.000000,4137.436035,4137.436035,4139.487305,4141.538574,4138.974121,4125.641113,4136.410156,4152.820313,4122.051270,4154.358887,4144.102539,4149.230957,746.000000,4.000000,,,,0.000000,4.000000,4.000000,4.000000,4.000000,4.000000,4.000000,4.000000,4.000000,4.000000,4.000000,4.000000,4.000000,4.000000,4.000000,100.000000
1602006117.909647,78.000000,0.000000,4137.436035,4128.205078,4133.333496,4127.692383,4137.948730,4134.358887,4138.461426,4131.794922,4133.846191,4135.897461,4122.051270,4156.922852,4132.820313,4149.230957,854.000000,4.000000,,,,0.000000,4.000000,4.000000,4.000000,4.000000,4.000000,4.000000,4.000000,4.000000,4.000000,4.000000,4.000000,4.000000,4.000000,4.000000,100.000000
1602006117.917528,79.000000,0.000000,4137.436035,4121.025879,4125.128418,4130.769043,4132.307617,4124.615234,4135.384766,4138.461426,4137.948730,4141.538574,4130.256348,4152.820313,4121.538574,4147.179688,839.000000,4.000000,,,,0.000000,4.000000,4.000000,4.000000,4.000000,4.000000,4.000000,4.000000,4.000000,4.000000,4.000000,4.000000,4.000000,4.000000,4.000000,100.000000
1602006117.925409,80.000000,0.000000,4135.897461,4122.563965,4121.538574,4135.384766,4126.666504,4127.692383,4134.871582,4140.512695,4140.512695,4139.487305,4127.692383,4143.077148,4121.538574,4139.487305,767.000000,4.000000,,,,0.000000,4.000000,4.000000,4.000000,4.000000,4.000000,4.000000,4.000000,4.000000,4.000000,4.000000,4.000000,4.000000,4.000000,4.000000,100.000000
1602006117.933190,81.000000,0.000000,4123.077148,4122.563965,4123.589844,4125.641113,4129.230957,4136.410156,4129.743652,4137.948730,4132.820313,4114.358887,4126.666504,4141.025879,4124.615234,4136.922852,746.000000,4.000000,,,,0.000000,4.000000,4.000000,4.000000,4.000000,4.000000,4.000000,4.000000,4.000000,4.000000,4.000000,4.000000,4.000000,4.000000,4.000000,100.000000
1602006117.941172,82.000000,0.000000,4122.563965,4122.563965,4126.153809,4126.153809,4135.384766,4140.000000,4122.051270,4131.282227,4125.128418,4119.487305,4125.641113,4148.205078,4125.128418,4142.563965,854.000000,4.000000,,,,0.000000,4.000000,4.000000,4.000000,4.000000,4.000000,4.000000,4.000000,4.000000,4.000000,4.000000,4.000000,4.000000,4.000000,4.000000,100.000000
1602006117.949053,83.000000,0.000000,4125.641113,4123.077148,4124.102539,4133.333496,4135.897461,4139.487305,4121.538574,4123.077148,4123.589844,4145.128418,4120.000000,4148.205078,4124.102539,4144.102539,839.000000,4.000000,,,,0.000000,4.000000,4.000000,4.000000,4.000000,4.000000,4.000000,4.000000,4.000000,4.000000,4.000000,4.000000,4.000000,4.000000,4.000000,100.000000
1602006117.956935,84.000000,0.000000,4115.897461,4123.589844,4122.563965,4128.717773,4133.333496,4138.461426,4127.692383,4121.538574,4120.512695,4136.922852,4120.000000,4141.025879,4122.051270,4139.487305,767.000000,4.000000,,,,0.000000,4.000000,4.000000,4.000000,4.000000,4.000000,4.000000,4.000000,4.000000,4.000000,4.000000,4.000000,4.000000,4.000000,4.000000,100.000000
1602006117.964817,85.000000,0.000000,4113.846191,4127.692383,4122.563965,4128.205078,4136.922852,4136.922852,4135.897461,4123.589844,4110.256348,4117.948730,4123.589844,4136.922852,4120.000000,4128.205078,746.000000,4.000000,,,,0.000000,4.000000,4.000000,4.000000,4.000000,4.000000,4.000000,4.000000,4.000000,4.000000,4.000000,4.000000,4.000000,4.000000,4.000000,100.000000
1602006117.972698,86.000000,0.000000,4123.077148,4131.794922,4125.641113,4136.410156,4138.461426,4138.974121,4139.487305,4123.077148,4107.179688,4118.974121,4121.025879,4135.384766,4120.512695,4126.666504,854.000000,4.000000,,,,0.000000,4.000000,4.000000,4.000000,4.000000,4.000000,4.000000,4.000000,4.000000,4.000000,4.000000,4.000000,4.000000,4.000000,4.000000,100.000000
1602006117.980580,87.000000,0.000000,4124.615234,4128.205078,4133.333496,4137.436035,4129.230957,4140.000000,4139.487305,4121.025879,4115.897461,4126.666504,4120.000000,4135.897461,4126.153809,4144.615234,839.000000,4.000000,,,,0.000000,4.000000,4.000000,4.000000,4.000000,4.000000,4.000000,4.000000,4.000000,4.000000,4.000000,4.000000,4.000000,4.000000,4.000000,100.000000
1602006117.988362,88.000000,0.000000,4123.077148,4128.717773,4135.384766,4134.871582,4127.692383,4137.948730,4138.974121,4124.102539,4122.563965,4140.512695,4132.307617,4140.512695,4137.436035,4152.307617,767.000000,4.000000,,,,0.000000,4.000000,4.000000,4.000000,4.000000,4.000000,4.000000,4.000000,4.000000,4.000000,4.000000,4.000000,4.000000,4.000000,4.000000,100.000000
1602006117.996243,89.000000,0.000000,4123.589844,4135.384766,4128.717773,4131.794922,4137.948730,4141.025879,4137.948730,4129.230957,4125.128418,4153.846191,4143.589844,4146.666504,4142.563965,4142.051270,746.000000,4.000000,,,,0.000000,4.000000,4.000000,4.000000,4.000000,4.000000,4.000000,4.000000,4.000000,4.000000,4.000000,4.000000,4.000000,4.000000,4.000000,100.000000
1602006118.004125,90.000000,0.000000,4123.589844,4136.410156,4128.205078,4130.256348,4142.051270,4141.025879,4136.922852,4129.230957,4127.692383,4147.179688,4137.948730,4151.794922,4138.974121,4145.641113,854.000000,4.000000,,,,0.000000,4.000000,4.000000,4.000000,4.000000,4.000000,4.000000,4.000000,4.000000,4.000000,4.000000,4.000000,4.000000,4.000000,4.000000,100.000000
1602006118.012007,91.000000,0.000000,4123.077148,4134.358887,4136.922852,4135.897461,4137.948730,4138.974121,4137.436035,4126.666504,4129.743652,4140.512695,4134.871582,4152.820313,4141.538574,4159.487305,839.000000,4.000000,,,,0.000000,4.000000,4.000000,4.000000,4.000000,4.000000,4.000000,4.000000,4.000000,4.000000,4.000000,4.000000,4.000000,4.000000,4.000000,100.000000
1602006118.019888,92.000000,0.000000,4120.512695,4136.410156,4136.922852,4137.436035,4138.461426,4140.000000,4136.410156,4124.615234,4130.256348,4148.717773,4146.153809,4150.769043,4146.153809,4155.384766,767.000000,4.000000,,,,0.000000,4.000000,4.000000,4.000000,4.000000,4.000000,4.000000,4.000000,4.000000,4.000000,4.000000,4.000000,4.000000,4.000000,4.000000,100.000000
1602006118.027770,93.000000,0.000000,4126.153809,4138.461426,4135.897461,4135.897461,4140.512695,4141.025879,4133.846191,4126.153809,4127.179688,4141.025879,4143.077148,4150.256348,4142.051270,4152.307617,746.000000,4.000000,,,,0.000000,4.000000,4.000000,4.000000,4.000000,4.000000,4.000000,4.000000,4.000000,4.000000,4.000000,4.000000,4.000000,4.000000,4.000000,100.000000
1602006118.035752,94.000000,0.000000,4138.461426,4135.384766,4141.025879,4138.974121,4138.461426,4137.436035,4128.205078,4121.538574,4111.282227,4122.051270,4123.077148,4150.769043,4134.358887,4152.307617,854.000000,4.000000,,,,0.000000,4.000000,4.000000,4.000000,4.000000,4.000000,4.000000,4.000000,4.000000,4.000000,4.000000,4.000000,4.000000,4.000000,4.000000,100.000000
1602006118.043634,95.000000,0.000000,4134.358887,4131.794922,4138.974121,4134.358887,4136.410156,4128.205078,4118.461426,4108.717773,4091.281982,4118.974121,4116.410156,4146.153809,4129.743652,4140.000000,839.000000,4.000000,,,,0.000000,4.000000,4.000000,4.000000,4.000000,4.000000,4.000000,4.000000,4.000000,4.000000,4.000000,4.000000,4.000000,4.000000,4.000000,100.000000
1602006118.051515,96.000000,0.000000,4109.743652,4124.102539,4125.641113,4123.589844,4135.384766,4123.077148,4114.358887,4103.077148,4089.743652,4116.922852,4120.512695,4140.000000,4116.922852,4117.948730,767.000000,4.000000,,,,0.000000,4.000000,4.000000,4.000000,4.000000,4.000000,4.000000,4.000000,4.000000,4.000000,4.000000,4.000000,4.000000,4.000000,4.000000,100.000000
1602006118.059397,97.000000,0.000000,4103.589844,4120.000000,4121.025879,4124.615234,4132.307617,4127.692383,4120.512695,4113.846191,4104.615234,4107.179688,4125.128418,4145.128418,4113.333496,4113.846191,746.000000,4.000000,,,,0.000000,4.000000,4.000000,4.000000,4.000000,4.000000,4.000000,4.000000,4.000000,4.000000,4.000000,4.000000,4.000000,4.000000,4.000000,100.000000
1602006118.067279,98.000000,0.000000,4122.563965,4126.153809,4130.769043,4131.282227,4132.307617,4136.922852,4133.333496,4126.153809,4120.512695,4124.102539,4133.333496,4154.871582,4136.410156,4146.153809,854.000000,4.000000,,,,0.000000,4.000000,4.000000,4.000000,4.000000,4.000000,4.000000,4.000000,4.000000,4.000000,4.000000,4.000000,4.000000,4.000000,4.000000,100.000000
1602006118.075161,99.000000,0.000000,4124.102539,4124.102539,4135.897461,4127.179688,4134.358887,4138.974121,4134.358887,4127.179688,4126.153809,4149.743652,4140.000000,4153.333496,4154.871582,4171.794922,839.000000,4.000000,,,,0.000000,4.000000,4.000000,4.000000,4.000000,4.000000,4.000000,4.000000,4.000000,4.000000,4.000000,4.000000,4.000000,4.000000,4.000000,100.000000
1602006118.083043,100.000000,0.000000,4111.282227,4113.333496,4134.358887,4123.077148,4137.948730,4136.922852,4130.256348,4129.743652,4127.179688,4143.077148,4146.153809,4154.358887,4162.563965,4167.179688,767.000000,4.000000,,,,0.000000,4.000000,4.000000,4.000000,4.000000,4.000000,4.000000,4.000000,4.000000,4.000000,4.000000,4.000000,4.000000,4.000000,4.000000,100.000000
1602006118.090925,101.000000,0.000000,4110.256348,4105.128418,4138.974121,4124.102539,4137.948730,4132.820313,4134.358887,4133.846191,4134.871582,4136.922852,4156.922852,4167.692383,4182.051270,4171.794922,746.000000,4.000000,,,,0.000000,4.000000,4.000000,4.000000,4.000000,4.000000,4.000000,4.000000,4.000000,4.000000,4.000000,4.000000,4.000000,4.000000,4.000000,100.000000
1602006118.098707,102.000000,0.000000,4105.128418,4093.333252,4136.410156,4115.384766,4127.692383,4126.666504,4133.333496,4128.205078,4141.538574,4153.333496,4155.897461,4168.717773,4192.307617,4179.487305,854.000000,4.000000,,,,0.000000,4.000000,4.000000,4.000000,4.000000,4.000000,4.000000,4.000000,4.000000,4.000000,4.000000,4.000000,4.000000,4.000000,4.000000,100.000000
1602006118.106589,103.000000,0.000000,4091.281982,4081.538574,4129.230957,4105.641113,4118.461426,4121.025879,4122.563965,4124.102539,4138.461426,4162.563965,4151.282227,4162.051270,4182.563965,4171.794922,839.000000,4.000000,,,,0.000000,4.000000,4.000000,4.000000,4.000000,4.000000,4.000000,4.000000,4.000000,4.000000,4.000000,4.000000,4.000000,4.000000,4.000000,100.000000
1602006118.114471,104.000000,0.000000,4095.384521,4086.153809,4135.897461,4110.769043,4122.563965,4117.436035,4118.974121,4134.358887,4136.410156,4167.179688,4162.051270,4165.128418,4185.641113,4176.922852,767.000000,4.000000,,,,0.000000,4.000000,4.000000,4.000000,4.000000,4.000000,4.000000,4.000000,4.000000,4.000000,4.000000,4.000000,4.000000,4.000000,4.000000,100.000000
1602006118.122353,105.000000,0.000000,4097.436035,4092.820557,4137.436035,4113.846191,4127.179688,4119.487305,4120.512695,4140.512695,4137.436035,4172.307617,4164.615234,4163.589844,4193.333496,4183.077148,746.000000,4.000000,,,,0.000000,4.000000,4.000000,4.000000,4.000000,4.000000,4.000000,4.000000,4.000000,4.000000,4.000000,4.000000,4.000000,4.000000,4.000000,100.000000
1602006118.130235,106.000000,0.000000,4085.641113,4089.230713,4125.128418,4111.794922,4121.538574,4120.512695,4117.436035,4135.384766,4128.717773,4154.358887,4151.794922,4153.333496,4182.563965,4169.743652,854.000000,4.000000,,,,0.000000,4.000000,4.000000,4.000000,4.000000,4.000000,4.000000,4.000000,4.000000,4.000000,4.000000,4.000000,4.000000,4.000000,4.000000,100.000000
1602006118.138118,107.000000,0.000000,4096.922852,4092.820557,4128.717773,4119.487305,4126.153809,4119.487305,4124.615234,4134.871582,4120.512695,4131.282227,4152.307617,4152.820313,4180.512695,4165.641113,839.000000,4.000000,,,,0.000000,4.000000,4.000000,4.000000,4.000000,4.000000,4.000000,4.000000,4.000000,4.000000,4.000000,4.000000,4.000000,4.000000,4.000000,100.000000
1602006118.146000,108.000000,0.000000,4111.282227,4097.436035,4137.948730,4124.615234,4137.436035,4128.205078,4137.436035,4137.436035,4123.077148,4136.922852,4161.538574,4157.436035,4190.769043,4172.820313,767.000000,4.000000,,,,0.000000,4.000000,4.000000,4.000000,4.000000,4.000000,4.000000,4.000000,4.000000,4.000000,4.000000,4.000000,4.000000,4.000000,4.000000,100.000000
1602006118.153882,109.000000,0.000000,4100.512695,4095.384521,4128.717773,4122.563965,4136.410156,4136.410156,4142.563965,4136.410156,4122.051270,4146.153809,4156.922852,4156.922852,4191.282227,4172.820313,746.000000,4.000000,,,,0.000000,4.000000,4.000000,4.000000,4.000000,4.000000,4.000000,4.000000,4.000000,4.000000,4.000000,4.000000,4.000000,4.000000,4.000000,100.000000
1602006118.161764,110.000000,0.000000,4092.820557,4095.384521,4120.000000,4124.102539,4133.333496,4129.743652,4144.615234,4136.922852,4112.307617,4137.436035,4148.717773,4155.384766,4185.128418,4164.102539,854.000000,4.000000,,,,0.000000,4.000000,4.000000,4.000000,4.000000,4.000000,4.000000,4.000000,4.000000,4.000000,4.000000,4.000000,4.000000,4.000000,4.000000,100.000000
1602006118.169646,111.000000,0.000000,4101.025879,4098.461426,4123.589844,4126.153809,4135.384766,4124.102539,4145.128418,4136.922852,4105.641113,4138.461426,4151.794922,4151.282227,4182.563965,4155.384766,839.000000,4.000000,,,,0.000000,4.000000,4.000000,4.000000,4.000000,4.000000,4.000000,4.000000,4.000000,4.000000,4.000000,4.000000,4.000000,4.000000,4.000000,100.000000
1602006118.177528,112.000000,0.000000,4098.974121,4102.051270,4126.153809,4124.615234,4136.922852,4127.179688,4144.615234,4135.897461,4114.871582,4160.000000,4154.358887,4152.820313,4177.436035,4158.974121,767.000000,4.000000,,,,0.000000,4.000000,4.000000,4.000000,4.000000,4.000000,4.000000,4.000000,4.000000,4.000000,4.000000,4.000000,4.000000,4.000000,4.000000,100.000000
1602006118.185410,113.000000,0.000000,4088.205078,4104.615234,4124.615234,4123.077148,4137.436035,4124.615234,4142.563965,4143.077148,4130.769043,4163.589844,4156.410156,4153.846191,4172.307617,4171.282227,746.000000,4.000000,,,,0.000000,4.000000,4.000000,4.000000,4.000000,4.000000,4.000000,4.000000,4.000000,4.000000,4.000000,4.000000,4.000000,4.000000,4.000000,100.000000
1602006118.193292,114.000000,0.000000,4093.333252,4105.128418,4122.051270,4122.563965,4139.487305,4126.153809,4136.922852,4150.769043,4141.538574,4147.692383,4159.487305,4144.102539,4178.974121,4167.692383,854.000000,4.000000,,,,0.000000,4.000000,4.000000,4.000000,4.000000,4.000000,4.000000,4.000000,4.000000,4.000000,4.000000,4.000000,4.000000,4.000000,4.000000,100.000000
1602006118.201175,115.000000,0.000000,4104.102539,4104.102539,4123.589844,4123.077148,4138.974121,4137.436035,4133.846191,4145.641113,4149.743652,4150.769043,4157.948730,4137.948730,4183.589844,4156.922852,839.000000,4.000000,,,,0.000000,4.000000,4.000000,4.000000,4.000000,4.000000,4.000000,4.000000,4.000000,4.000000,4.000000,4.000000,4.000000,4.000000,4.000000,100.000000
1602006118.209057,116.000000,0.000000,4102.563965,4099.487305,4122.563965,4121.025879,4134.358887,4142.051270,4136.410156,4138.461426,4158.461426,4161.538574,4156.410156,4136.922852,4173.333496,4155.384766,767.000000,4.000000,,,,0.000000,4.000000,4.000000,4.000000,4.000000,4.000000,4.000000,4.000000,4.000000,4.000000,4.000000,4.000000,4.000000,4.000000,4.000000,100.000000
1602006118.216939,117.000000,0.000000,4091.794922,4092.307617,4110.769043,4113.846191,4127.692383,4137.948730,4135.897461,4141.538574,4151.282227,4149.230957,4149.230957,4127.692383,4158.461426,4154.358887,746.000000,4.000000,,,,0.000000,4.000000,4.000000,4.000000,4.000000,4.000000,4.000000,4.000000,4.000000,4.000000,4.000000,4.000000,4.000000,4.000000,4.000000,100.000000
1602006118.224821,118.000000,0.000000,4088.718018,4087.692383,4105.128418,4108.717773,4125.128418,4136.410156,4135.384766,4144.615234,4138.974121,4139.487305,4141.025879,4123.589844,4154.871582,4145.128418,854.000000,4.000000,,,,0.000000,4.000000,4.000000,4.000000,4.000000,4.000000,4.000000,4.000000,4.000000,4.000000,4.000000,4.000000,4.000000,4.000000,4.000000,100.000000
1602006118.232602,119.000000,0.000000,4097.436035,4090.256348,4112.820313,4112.820313,4123.589844,4137.436035,4137.436035,4140.512695,4145.641113,4151.794922,4141.025879,4136.922852,4162.563965,4136.922852,839.000000,4.000000,,,,0.000000,4.000000,4.000000,4.000000,4.000000,4.000000,4.000000,4.000000,4.000000,4.000000,4.000000,4.000000,4.000000,4.000000,4.000000,100.000000
1602006118.240483,120.000000,0.000000,4105.641113,4098.974121,4122.563965,4121.025879,4126.666504,4141.538574,4139.487305,4144.102539,4154.871582,4162.563965,4146.153809,4148.205078,4168.205078,4144.102539,767.000000,4.000000,,,,0.000000,4.000000,4.000000,4.000000,4.000000,4.000000,4.000000,4.000000,4.000000,4.000000,4.000000,4.000000,4.000000,4.000000,4.000000,100.000000
1602006118.248264,121.000000,0.000000,4107.692383,4106.153809,4128.205078,4121.025879,4135.384766,4148.205078,4143.589844,4152.820313,4153.333496,4157.436035,4150.769043,4146.666504,4171.282227,4155.897461,746.000000,4.000000,,,,0.000000,4.000000,4.000000,4.000000,4.000000,4.000000,4.000000,4.000000,4.000000,4.000000,4.000000,4.000000,4.000000,4.000000,4.000000,100.000000
1602006118.256145,122.000000,0.000000,4103.589844,4104.615234,4127.179688,4117.948730,4138.461426,4148.205078,4145.128418,4155.384766,4151.794922,4152.307617,4151.794922,4144.102539,4170.769043,4156.922852,854.000000,4.000000,,,,0.000000,4.000000,4.000000,4.000000,4.000000,4.000000,4.000000,4.000000,4.000000,4.000000,4.000000,4.000000,4.000000,4.000000,4.000000,100.000000
1602006118.264026,123.000000,0.000000,4095.384521,4101.025879,4115.384766,4117.948730,4134.358887,4141.538574,4140.000000,4152.307617,4155.384766,4154.358887,4142.051270,4135.897461,4163.077148,4151.282227,839.000000,4.000000,,,,0.000000,4.000000,4.000000,4.000000,4.000000,4.000000,4.000000,4.000000,4.000000,4.000000,4.000000,4.000000,4.000000,4.000000,4.000000,100.000000
1602006118.271808,124.000000,0.000000,4086.666748,4098.461426,4104.615234,4113.846191,4134.358887,4136.410156,4132.307617,4148.205078,4151.282227,4154.871582,4133.333496,4123.589844,4154.871582,4148.205078,767.000000,4.000000,,,,0.000000,4.000000,4.000000,4.000000,4.000000,4.000000,4.000000,4.000000,4.000000,4.000000,4.000000,4.000000,4.000000,4.000000,4.000000,100.000000
1602006118.279690,125.000000,0.000000,4092.307617,4098.461426,4111.282227,4111.794922,4133.333496,4138.974121,4127.692383,4144.615234,4154.358887,4157.436035,4143.589844,4129.230957,4160.000000,4152.820313,746.000000,4.000000,,,,0.000000,4.000000,4.000000,4.000000,4.000000,4.000000,4.000000,4.000000,4.000000,4.000000,4.000000,4.000000,4.000000,4.000000,4.000000,100.000000
1602006118.287572,126.000000,0.000000,4105.641113,4096.922852,4117.948730,4113.846191,4127.692383,4141.025879,4122.563965,4140.000000,4157.436035,4163.077148,4149.230957,4136.410156,4165.641113,4153.333496,854.000000,4.000000,,,,0.000000,4.000000,4.000000,4.000000,4.000000,4.000000,4.000000,4.000000,4.000000,4.000000,4.000000,4.000000,4.000000,4.000000,4.000000,100.000000
1602006118.295454,127.000000,0.000000,4105.641113,4094.871826,4113.333496,4109.230957,4129.743652,4134.871582,4120.000000,4136.410156,4141.025879,4155.897461,4137.436035,4128.717773,4155.384766,4139.487305,839.000000,4.000000,,,,0.000000,4.000000,4.000000,4.000000,4.000000,4.000000,4.000000,4.000000,4.000000,4.000000,4.000000,4.000000,4.000000,4.000000,4.000000,100.000000
1602006118.303336,128.000000,0.000000,4103.077148,4098.974121,4115.384766,4111.794922,4136.922852,4131.794922,4122.051270,4134.871582,4137.436035,4140.512695,4136.922852,4127.692383,4151.794922,4131.282227,767.000000,4.000000,,,,0.000000,4.000000,4.000000,4.000000,4.000000,4.000000,4.000000,4.000000,4.000000,4.000000,4.000000,4.000000,4.000000,4.000000,4.000000,100.000000
1602006118.311218,0.000000,0.000000,4105.128418,4108.205078,4125.128418,4120.512695,4138.974121,4140.000000,4125.641113,4138.461426,4150.256348,4139.487305,4149.230957,4137.436035,4164.102539,4146.153809,802.000000,4.000000,,,,0.000000,4.000000,4.000000,4.000000,4.000000,4.000000,4.000000,4.000000,4.000000,4.000000,4.000000,4.000000,4.000000,4.000000,4.000000,100.000000
1602006118.319100,1.000000,0.000000,4104.102539,4108.205078,4123.589844,4114.358887,4135.897461,4135.897461,4129.743652,4141.025879,4145.128418,4144.102539,4154.358887,4140.512695,4173.333496,4156.410156,790.000000,4.000000,,,,0.000000,4.000000,4.000000,4.000000,4.000000,4.000000,4.000000,4.000000,4.000000,4.000000,4.000000,4.000000,4.000000,4.000000,4.000000,100.000000
1602006118.326882,2.000000,0.000000,4108.205078,4103.589844,4125.128418,4109.743652,4135.384766,4121.025879,4135.384766,4144.615234,4137.436035,4146.666504,4155.384766,4143.589844,4170.256348,4157.948730,848.000000,4.000000,,,,0.000000,4.000000,4.000000,4.000000,4.000000,4.000000,4.000000,4.000000,4.000000,4.000000,4.000000,4.000000,4.000000,4.000000,4.000000,100.000000
1602006118.334764,3.000000,0.000000,4127.179688,4114.358887,4146.666504,4122.563965,4137.948730,4127.692383,4142.051270,4150.256348,4153.333496,4153.333496,4163.589844,4157.436035,4172.820313,4180.000000,866.000000,4.000000,,,,0.000000,4.000000,4.000000,4.000000,4.000000,4.000000,4.000000,4.000000,4.000000,4.000000,4.000000,4.000000,4.000000,4.000000,4.000000,100.000000
1602006118.342645,4.000000,0.000000,4135.384766,4126.666504,4155.897461,4128.717773,4131.794922,4134.871582,4142.563965,4146.153809,4156.922852,4158.974121,4165.128418,4165.641113,4175.384766,4192.307617,814.000000,4.000000,,,,0.000000,4.000000,4.000000,4.000000,4.000000,4.000000,4.000000,4.000000,4.000000,4.000000,4.000000,4.000000,4.000000,4.000000,4.000000,100.000000
1602006118.350527,5.000000,0.000000,4125.641113,4119.487305,4145.128418,4123.077148,4122.563965,4117.948730,4136.410156,4136.410156,4137.436035,4154.871582,4150.769043,4161.025879,4165.128418,4171.794922,825.000000,4.000000,,,,0.000000,4.000000,4.000000,4.000000,4.000000,4.000000,4.000000,4.000000,4.000000,4.000000,4.000000,4.000000,4.000000,4.000000,4.000000,100.000000
1602006118.358409,6.000000,0.000000,4120.000000,4107.692383,4141.025879,4123.077148,4122.563965,4110.769043,4135.897461,4135.384766,4127.692383,4140.000000,4140.000000,4155.897461,4154.871582,4154.358887,772.000000,4.000000,,,,0.000000,4.000000,4.000000,4.000000,4.000000,4.000000,4.000000,4.000000,4.000000,4.000000,4.000000,4.000000,4.000000,4.000000,4.000000,100.000000
1602006118.366291,7.000000,0.000000,4114.871582,4106.666504,4136.922852,4123.589844,4124.615234,4120.000000,4136.410156,4137.436035,4134.358887,4133.846191,4140.000000,4151.282227,4154.358887,4149.230957,681.000000,4.000000,,,,0.000000,4.000000,4.000000,4.000000,4.000000,4.000000,4.000000,4.000000,4.000000,4.000000,4.000000,4.000000,4.000000,4.000000,4.000000,100.000000
1602006118.374173,8.000000,0.000000,4106.153809,4106.153809,4123.077148,4121.538574,4123.077148,4120.512695,4129.230957,4134.358887,4148.205078,4148.205078,4137.436035,4143.077148,4153.846191,4136.410156,785.000000,4.000000,,,,0.000000,4.000000,4.000000,4.000000,4.000000,4.000000,4.000000,4.000000,4.000000,4.000000,4.000000,4.000000,4.000000,4.000000,4.000000,100.000000
1602006118.382155,9.000000,0.000000,4104.615234,4104.102539,4114.871582,4121.025879,4129.743652,4123.589844,4122.051270,4129.743652,4149.230957,4155.384766,4135.384766,4136.922852,4151.282227,4131.794922,842.000000,4.000000,,,,0.000000,4.000000,4.000000,4.000000,4.000000,4.000000,4.000000,4.000000,4.000000,4.000000,4.000000,4.000000,4.000000,4.000000,4.000000,100.000000
1602006118.390036,10.000000,0.000000,4109.743652,4107.692383,4120.000000,4121.025879,4140.512695,4136.922852,4118.974121,4122.563965,4138.461426,4131.282227,4137.436035,4138.974121,4152.307617,4138.974121,867.000000,4.000000,,,,0.000000,4.000000,4.000000,4.000000,4.000000,4.000000,4.000000,4.000000,4.000000,4.000000,4.000000,4.000000,4.000000,4.000000,4.000000,100.000000
1602006118.397918,11.000000,0.000000,4105.128418,4107.692383,4119.487305,4119.487305,4140.512695,4138.461426,4117.948730,4119.487305,4138.974121,4115.384766,4136.410156,4142.563965,4156.410156,4136.410156,839.000000,4.000000,,,,0.000000,4.000000,4.000000,4.000000,4.000000,4.000000,4.000000,4.000000,4.000000,4.000000,4.000000,4.000000,4.000000,4.000000,4.000000,100.000000
1602006118.405799,12.000000,0.000000,4103.589844,4110.769043,4116.922852,4122.051270,4137.948730,4128.205078,4118.461426,4130.256348,4150.769043,4130.256348,4142.051270,4148.205078,4164.615234,4141.025879,767.000000,4.000000,,,,0.000000,4.000000,4.000000,4.000000,4.000000,4.000000,4.000000,4.000000,4.000000,4.000000,4.000000,4.000000,4.000000,4.000000,4.000000,100.000000
1602006118.413681,13.000000,0.000000,4126.666504,4124.102539,4132.820313,4135.897461,4140.512695,4123.077148,4122.051270,4143.077148,4163.077148,4152.307617,4157.948730,4166.153809,4174.871582,4165.641113,746.000000,4.000000,,,,0.000000,4.000000,4.000000,4.000000,4.000000,4.000000,4.000000,4.000000,4.000000,4.000000,4.000000,4.000000,4.000000,4.000000,4.000000,100.000000
1602006118.421563,14.000000,0.000000,4143.077148,4129.230957,4154.871582,4143.589844,4141.538574,4126.666504,4129.230957,4145.128418,4172.820313,4168.717773,4162.051270,4178.461426,4180.000000,4175.384766,867.000000,4.000000,,,,0.000000,4.000000,4.000000,4.000000,4.000000,4.000000,4.000000,4.000000,4.000000,4.000000,4.000000,4.000000,4.000000,4.000000,4.000000,100.000000
1602006118.429344,15.000000,0.000000,4132.307617,4120.000000,4159.487305,4134.871582,4135.897461,4129.230957,4135.897461,4140.512695,4169.230957,4170.769043,4151.282227,4170.769043,4174.358887,4163.077148,839.000000,4.000000,,,,0.000000,4.000000,4.000000,4.000000,4.000000,4.000000,4.000000,4.000000,4.000000,4.000000,4.000000,4.000000,4.000000,4.000000,4.000000,100.000000
1602006118.437226,16.000000,0.000000,4118.461426,4108.717773,4149.743652,4124.102539,4131.794922,4127.179688,4135.897461,4135.897461,4154.358887,4155.384766,4144.615234,4157.436035,4161.538574,4153.846191,0.000000,4.000000,,,,0.000000,4.000000,4.000000,4.000000,4.000000,4.000000,4.000000,4.000000,4.000000,4.000000,4.000000,4.000000,4.000000,4.000000,4.000000,100.000000
1602006118.445108,17.000000,0.000000,4113.333496,4096.922852,4144.102539,4121.025879,4134.358887,4130.256348,4136.410156,4134.871582,4148.717773,4136.922852,4139.487305,4157.436035,4143.589844,4147.692383,0.000000,4.000000,,,,0.000000,4.000000,4.000000,4.000000,4.000000,4.000000,4.000000,4.000000,4.000000,4.000000,4.000000,4.000000,4.000000,4.000000,4.000000,100.000000
1602006118.452989,18.000000,0.000000,4108.717773,4093.846191,4138.461426,4117.436035,4134.871582,4136.922852,4141.538574,4136.922852,4149.743652,4126.153809,4133.333496,4161.538574,4138.974121,4137.948730,0.000000,4.000000,,,,0.000000,4.000000,4.000000,4.000000,4.000000,4.000000,4.000000,4.000000,4.000000,4.000000,4.000000,4.000000,4.000000,4.000000,4.000000,100.000000
1602006118.460871,19.000000,0.000000,4104.102539,4101.538574,4125.641113,4115.384766,4133.333496,4136.410156,4139.487305,4138.461426,4147.692383,4117.948730,4140.000000,4154.871582,4154.871582,4135.897461,0.000000,4.000000,,,,0.000000,4.000000,4.000000,4.000000,4.000000,4.000000,4.000000,4.000000,4.000000,4.000000,4.000000,4.000000,4.000000,4.000000,4.000000,100.000000
1602006118.468753,20.000000,0.000000,4095.384521,4107.692383,4117.436035,4118.974121,4135.897461,4137.436035,4135.384766,4137.436035,4154.358887,4123.077148,4151.282227,4147.179688,4169.230957,4136.410156,0.000000,4.000000,,,,0.000000,4.000000,4.000000,4.000000,4.000000,4.000000,4.000000,4.000000,4.000000,4.000000,4.000000,4.000000,4.000000,4.000000,4.000000,100.000000
1602006118.476734,21.000000,0.000000,4084.102539,4111.282227,4116.922852,4120.512695,4138.974121,4144.615234,4142.051270,4145.128418,4171.282227,4154.358887,4158.461426,4149.743652,4173.333496,4136.410156,0.000000,4.000000,,,,0.000000,4.000000,4.000000,4.000000,4.000000,4.000000,4.000000,4.000000,4.000000,4.000000,4.000000,4.000000,4.000000,4.000000,4.000000,100.000000
1602006118.484616,22.000000,0.000000,4095.897461,4118.974121,4127.179688,4125.641113,4136.922852,4145.641113,4148.205078,4155.897461,4186.666504,4187.179688,4168.205078,4162.051270,4185.128418,4147.179688,0.000000,4.000000,,,,0.000000,4.000000,4.000000,4.000000,4.000000,4.000000,4.000000,4.000000,4.000000,4.000000,4.000000,4.000000,4.000000,4.000000,4.000000,100.000000
1602006118.492497,23.000000,0.000000,4118.974121,4133.333496,4146.666504,4135.384766,4135.897461,4138.461426,4144.102539,4157.948730,4191.282227,4193.846191,4175.384766,4176.410156,4202.051270,4157.948730,0.000000,4.000000,,,,0.000000,4.000000,4.000000,4.000000,4.000000,4.000000,4.000000,4.000000,4.000000,4.000000,4.000000,4.000000,4.000000,4.000000,4.000000,100.000000
1602006118.500379,24.000000,0.000000,4120.512695,4136.410156,4158.461426,4139.487305,4140.512695,4134.358887,4137.436035,4151.282227,4185.128418,4185.128418,4171.282227,4180.000000,4203.077148,4159.487305,0.000000,4.000000,,,,0.000000,4.000000,4.000000,4.000000,4.000000,4.000000,4.000000,4.000000,4.000000,4.000000,4.000000,4.000000,4.000000,4.000000,4.000000,100.000000
1602006118.508261,25.000000,0.000000,4109.743652,4129.743652,4152.820313,4138.461426,4143.077148,4133.333496,4134.871582,4141.538574,4171.794922,4167.179688,4165.128418,4169.743652,4194.358887,4160.000000,0.000000,4.000000,,,,0.000000,4.000000,4.000000,4.000000,4.000000,4.000000,4.000000,4.000000,4.000000,4.000000,4.000000,4.000000,4.000000,4.000000,4.000000,100.000000
1602006118.516142,26.000000,0.000000,4098.974121,4122.563965,4137.436035,4133.846191,4140.000000,4125.641113,4130.769043,4130.256348,4153.846191,4131.282227,4158.974121,4156.410156,4180.512695,4145.128418,0.000000,4.000000,,,,0.000000,4.000000,4.000000,4.000000,4.000000,4.000000,4.000000,4.000000,4.000000,4.000000,4.000000,4.000000,4.000000,4.000000,4.000000,100.000000
1602006118.524124,27.000000,0.000000,4089.230713,4113.333496,4124.102539,4123.077148,4136.410156,4112.307617,4123.077148,4121.025879,4136.410156,4111.282227,4146.153809,4149.743652,4161.538574,4125.641113,0.000000,4.000000,,,,0.000000,4.000000,4.000000,4.000000,4.000000,4.000000,4.000000,4.000000,4.000000,4.000000,4.000000,4.000000,4.000000,4.000000,4.000000,100.000000
1602006118.532006,28.000000,0.000000,4092.307617,4112.820313,4125.641113,4122.563965,4138.974121,4112.307617,4127.179688,4124.102539,4134.871582,4135.384766,4144.102539,4154.358887,4154.871582,4130.769043,0.000000,4.000000,,,,0.000000,4.000000,4.000000,4.000000,4.000000,4.000000,4.000000,4.000000,4.000000,4.000000,4.000000,4.000000,4.000000,4.000000,4.000000,100.000000
1602006118.539888,29.000000,0.000000,4106.666504,4124.615234,4139.487305,4135.384766,4143.589844,4128.717773,4140.000000,4132.820313,4149.743652,4162.563965,4156.410156,4161.538574,4165.641113,4144.102539,0.000000,4.000000,,,,0.000000,4.000000,4.000000,4.000000,4.000000,4.000000,4.000000,4.000000,4.000000,4.000000,4.000000,4.000000,4.000000,4.000000,4.000000,100.000000
1602006118.547770,30.000000,0.000000,4109.743652,4129.743652,4144.102539,4138.974121,4143.589844,4137.948730,4141.538574,4135.897461,4156.410156,4160.000000,4155.897461,4159.487305,4173.846191,4143.589844,0.000000,4.000000,,,,0.000000,4.000000,4.000000,4.000000,4.000000,4.000000,4.000000,4.000000,4.000000,4.000000,4.000000,4.000000,4.000000,4.000000,4.000000,100.000000
1602006118.555652,31.000000,0.000000,4104.615234,4127.179688,4135.897461,4137.436035,4140.512695,4142.051270,4138.461426,4133.846191,4152.307617,4152.820313,4147.692383,4153.333496,4164.615234,4136.922852,0.000000,4.000000,,,,0.000000,4.000000,4.000000,4.000000,4.000000,4.000000,4.000000,4.000000,4.000000,4.000000,4.000000,4.000000,4.000000,4.000000,4.000000,100.000000
1602006118.563534,32.000000,0.000000,4104.615234,4134.358887,4125.128418,4138.974121,4140.000000,4151.794922,4149.230957,4138.974121,4161.025879,4152.820313,4150.256348,4151.794922,4160.000000,4130.769043,0.000000,4.000000,,,,0.000000,4.000000,4.000000,4.000000,4.000000,4.000000,4.000000,4.000000,4.000000,4.000000,4.000000,4.000000,4.000000,4.000000,4.000000,100.000000
1602006118.571415,33.000000,0.000000,4104.102539,4137.948730,4120.000000,4140.512695,4145.641113,4154.871582,4153.333496,4147.692383,4176.410156,4154.358887,4153.846191,4152.307617,4168.205078,4130.769043,0.000000,4.000000,,,,0.000000,4.000000,4.000000,4.000000,4.000000,4.000000,4.000000,4.000000,4.000000,4.000000,4.000000,4.000000,4.000000,4.000000,4.000000,100.000000
1602006118.579197,34.000000,0.000000,4104.615234,4136.922852,4129.743652,4141.025879,4152.307617,4142.051270,4135.384766,4147.692383,4177.948730,4162.051270,4154.871582,4152.307617,4173.846191,4137.436035,0.000000,4.000000,,,,0.000000,4.000000,4.000000,4.000000,4.000000,4.000000,4.000000,4.000000,4.000000,4.000000,4.000000,4.000000,4.000000,4.000000,4.000000,100.000000
1602006118.587079,35.000000,0.000000,4106.153809,4139.487305,4136.410156,4142.051270,4153.333496,4133.846191,4122.051270,4141.538574,4170.769043,4158.461426,4156.410156,4149.230957,4168.205078,4135.384766,0.000000,4.000000,,,,0.000000,4.000000,4.000000,4.000000,4.000000,4.000000,4.000000,4.000000,4.000000,4.000000,4.000000,4.000000,4.000000,4.000000,4.000000,100.000000
1602006118.594960,36.000000,0.000000,4099.487305,4130.769043,4126.153809,4138.974121,4151.282227,4134.871582,4123.077148,4138.461426,4161.538574,4145.641113,4148.717773,4144.615234,4157.948730,4124.102539,0.000000,4.000000,,,,0.000000,4.000000,4.000000,4.000000,4.000000,4.000000,4.000000,4.000000,4.000000,4.000000,4.000000,4.000000,4.000000,4.000000,4.000000,100.000000
1602006118.602842,37.000000,0.000000,4091.794922,4120.000000,4120.000000,4133.846191,4150.769043,4135.897461,4126.666504,4137.948730,4151.794922,4148.717773,4144.102539,4141.538574,4153.846191,4123.589844,0.000000,4.000000,,,,0.000000,4.000000,4.000000,4.000000,4.000000,4.000000,4.000000,4.000000,4.000000,4.000000,4.000000,4.000000,4.000000,4.000000,4.000000,100.000000
1602006118.610724,38.000000,0.000000,4095.384521,4122.051270,4125.128418,4128.205078,4152.820313,4134.871582,4130.769043,4136.922852,4149.743652,4158.461426,4152.307617,4141.538574,4154.871582,4132.820313,0.000000,4.000000,,,,0.000000,4.000000,4.000000,4.000000,4.000000,4.000000,4.000000,4.000000,4.000000,4.000000,4.000000,4.000000,4.000000,4.000000,4.000000,100.000000
1602006118.618605,39.000000,0.000000,4106.666504,4124.102539,4126.666504,4124.102539,4155.897461,4136.410156,4135.897461,4138.974121,4155.384766,4152.820313,4155.384766,4147.179688,4158.974121,4138.461426,0.000000,4.000000,,,,0.000000,4.000000,4.000000,4.000000,4.000000,4.000000,4.000000,4.000000,4.000000,4.000000,4.000000,4.000000,4.000000,4.000000,4.000000,100.000000
1602006118.626587,40.000000,0.000000,4110.769043,4120.512695,4125.641113,4124.615234,4152.307617,4141.538574,4135.897461,4135.897461,4150.769043,4131.794922,4150.769043,4152.307617,4159.487305,4136.410156,0.000000,4.000000,,,,0.000000,4.000000,4.000000,4.000000,4.000000,4.000000,4.000000,4.000000,4.000000,4.000000,4.000000,4.000000,4.000000,4.000000,4.000000,100.000000
1602006118.634469,41.000000,0.000000,4098.974121,4114.871582,4122.563965,4123.589844,4139.487305,4134.358887,4128.717773,4124.615234,4131.794922,4119.487305,4138.974121,4142.051270,4148.717773,4124.615234,0.000000,4.000000,,,,0.000000,4.000000,4.000000,4.000000,4.000000,4.000000,4.000000,4.000000,4.000000,4.000000,4.000000,4.000000,4.000000,4.000000,4.000000,100.000000
1602006118.642351,42.000000,0.000000,4087.179443,4109.743652,4117.436035,4121.025879,4132.307617,4125.128418,4123.077148,4117.436035,4123.077148,4122.563965,4123.077148,4128.717773,4134.871582,4109.230957,0.000000,4.000000,,,,0.000000,4.000000,4.000000,4.000000,4.000000,4.000000,4.000000,4.000000,4.000000,4.000000,4.000000,4.000000,4.000000,4.000000,4.000000,100.000000
1602006118.650233,43.000000,0.000000,4087.179443,4104.615234,4120.000000,4120.512695,4134.871582,4134.871582,4126.666504,4118.461426,4132.820313,4124.102539,4123.589844,4125.641113,4132.307617,4104.102539,0.000000,4.000000,,,,0.000000,4.000000,4.000000,4.000000,4.000000,4.000000,4.000000,4.000000,4.000000,4.000000,4.000000,4.000000,4.000000,4.000000,4.000000,100.000000
1602006118.658115,44.000000,0.000000,4089.743652,4107.179688,4121.538574,4122.051270,4135.384766,4143.589844,4128.717773,4118.974121,4136.922852,4120.000000,4133.333496,4125.128418,4135.897461,4105.128418,0.000000,4.000000,,,,0.000000,4.000000,4.000000,4.000000,4.000000,4.000000,4.000000,4.000000,4.000000,4.000000,4.000000,4.000000,4.000000,4.000000,4.000000,100.000000
1602006118.665997,45.000000,0.000000,4098.461426,4123.077148,4122.051270,4130.769043,4136.410156,4136.410156,4123.589844,4117.948730,4132.307617,4133.333496,4132.307617,4127.179688,4134.871582,4106.153809,0.000000,4.000000,,,,0.000000,4.000000,4.000000,4.000000,4.000000,4.000000,4.000000,4.000000,4.000000,4.000000,4.000000,4.000000,4.000000,4.000000,4.000000,100.000000
1602006118.673878,46.000000,0.000000,4113.846191,4138.461426,4132.820313,4139.487305,4138.974121,4132.820313,4126.153809,4125.641113,4140.512695,4147.692383,4135.384766,4136.410156,4141.538574,4115.897461,0.000000,4.000000,,,,0.000000,4.000000,4.000000,4.000000,4.000000,4.000000,4.000000,4.000000,4.000000,4.000000,4.000000,4.000000,4.000000,4.000000,4.000000,100.000000
1602006118.681660,47.000000,0.000000,4122.051270,4142.563965,4141.538574,4141.025879,4138.461426,4138.461426,4136.922852,4136.410156,4154.871582,4137.948730,4145.128418,4147.692383,4155.384766,4127.692383,0.000000,4.000000,,,,0.000000,4.000000,4.000000,4.000000,4.000000,4.000000,4.000000,4.000000,4.000000,4.000000,4.000000,4.000000,4.000000,4.000000,4.000000,100.000000
1602006118.689542,48.000000,0.000000,4123.077148,4135.897461,4138.461426,4137.436035,4135.897461,4138.974121,4142.563965,4143.077148,4157.436035,4140.512695,4144.615234,4152.307617,4152.307617,4126.153809,0.000000,4.000000,,,,0.000000,4.000000,4.000000,4.000000,4.000000,4.000000,4.000000,4.000000,4.000000,4.000000,4.000000,4.000000,4.000000,4.000000,4.000000,100.000000
1602006118.697424,49.000000,0.000000,4122.051270,4126.666504,4135.897461,4129.230957,4129.743652,4135.384766,4146.666504,4148.205078,4157.948730,4165.641113,4142.051270,4152.307617,4140.512695,4123.589844,0.000000,4.000000,,,,0.000000,4.000000,4.000000,4.000000,4.000000,4.000000,4.000000,4.000000,4.000000,4.000000,4.000000,4.000000,4.000000,4.000000,4.000000,100.000000
1602006118.705305,50.000000,0.000000,4111.794922,4120.512695,4136.922852,4121.538574,4122.051270,4128.717773,4147.179688,4146.153809,4154.871582,4164.102539,4143.077148,4152.820313,4140.512695,4116.922852,0.000000,4.000000,,,,0.000000,4.000000,4.000000,4.000000,4.000000,4.000000,4.000000,4.000000,4.000000,4.000000,4.000000,4.000000,4.000000,4.000000,4.000000,100.000000
1602006118.713187,51.000000,0.000000,4099.487305,4120.512695,4128.717773,4121.538574,4121.538574,4125.641113,4136.922852,4134.358887,4141.025879,4133.846191,4138.461426,4151.794922,4141.538574,4106.153809,0.000000,4.000000,,,,0.000000,4.000000,4.000000,4.000000,4.000000,4.000000,4.000000,4.000000,4.000000,4.000000,4.000000,4.000000,4.000000,4.000000,4.000000,100.000000
1602006118.721068,52.000000,0.000000,4093.333252,4121.025879,4120.000000,4123.589844,4126.666504,4129.230957,4126.153809,4122.563965,4132.820313,4117.436035,4130.256348,4146.153809,4131.282227,4106.153809,0.000000,4.000000,,,,0.000000,4.000000,4.000000,4.000000,4.000000,4.000000,4.000000,4.000000,4.000000,4.000000,4.000000,4.000000,4.000000,4.000000,4.000000,100.000000
1602006118.728850,53.000000,0.000000,4093.333252,4117.948730,4117.948730,4121.538574,4127.179688,4128.205078,4123.589844,4121.538574,4130.256348,4114.871582,4121.025879,4138.461426,4121.025879,4099.487305,0.000000,4.000000,,,,0.000000,4.000000,4.000000,4.000000,4.000000,4.000000,4.000000,4.000000,4.000000,4.000000,4.000000,4.000000,4.000000,4.000000,4.000000,100.000000
1602006118.736732,54.000000,0.000000,4100.512695,4119.487305,4118.461426,4121.025879,4129.230957,4121.538574,4119.487305,4122.563965,4120.000000,4111.282227,4121.025879,4138.974121,4123.589844,4089.743652,0.000000,4.000000,,,,0.000000,4.000000,4.000000,4.000000,4.000000,4.000000,4.000000,4.000000,4.000000,4.000000,4.000000,4.000000,4.000000,4.000000,4.000000,100.000000
1602006118.744613,55.000000,0.000000,4106.153809,4124.615234,4123.589844,4123.589844,4135.897461,4126.666504,4117.436035,4119.487305,4120.000000,4127.692383,4133.846191,4149.743652,4134.871582,4108.205078,0.000000,4.000000,,,,0.000000,4.000000,4.000000,4.000000,4.000000,4.000000,4.000000,4.000000,4.000000,4.000000,4.000000,4.000000,4.000000,4.000000,4.000000,100.000000
1602006118.752495,56.000000,0.000000,4108.205078,4127.692383,4134.871582,4127.179688,4137.948730,4140.000000,4125.641113,4124.102539,4136.410156,4157.436035,4142.563965,4152.820313,4144.615234,4128.717773,0.000000,4.000000,,,,0.000000,4.000000,4.000000,4.000000,4.000000,4.000000,4.000000,4.000000,4.000000,4.000000,4.000000,4.000000,4.000000,4.000000,4.000000,100.000000
1602006118.760377,57.000000,0.000000,4112.820313,4129.743652,4138.461426,4129.743652,4137.948730,4142.051270,4136.410156,4135.384766,4140.512695,4157.436035,4137.948730,4143.589844,4141.538574,4123.589844,0.000000,4.000000,,,,0.000000,4.000000,4.000000,4.000000,4.000000,4.000000,4.000000,4.000000,4.000000,4.000000,4.000000,4.000000,4.000000,4.000000,4.000000,100.000000
1602006118.768258,58.000000,0.000000,4114.871582,4128.205078,4135.897461,4126.666504,4135.384766,4137.436035,4143.589844,4139.487305,4133.846191,4139.487305,4134.871582,4141.025879,4134.871582,4118.461426,0.000000,4.000000,,,,0.000000,4.000000,4.000000,4.000000,4.000000,4.000000,4.000000,4.000000,4.000000,4.000000,4.000000,4.000000,4.000000,4.000000,4.000000,100.000000
1602006118.776241,59.000000,0.000000,4113.846191,4125.641113,4141.538574,4126.666504,4129.230957,4137.948730,4147.692383,4136.410156,4133.846191,4133.333496,4143.589844,4153.333496,4141.538574,4125.128418,0.000000,4.000000,,,,0.000000,4.000000,4.000000,4.000000,4.000000,4.000000,4.000000,4.000000,4.000000,4.000000,4.000000,4.000000,4.000000,4.000000,4.000000,100.000000
1602006118.784123,60.000000,0.000000,4119.487305,4125.641113,4153.333496,4133.333496,4128.717773,4143.077148,4151.282227,4143.077148,4140.512695,4135.897461,4153.846191,4168.205078,4154.871582,4127.179688,0.000000,4.000000,,,,0.000000,4.000000,4.000000,4.000000,4.000000,4.000000,4.000000,4.000000,4.000000,4.000000,4.000000,4.000000,4.000000,4.000000,4.000000,100.000000
1602006118.792005,61.000000,0.000000,4126.666504,4126.153809,4160.000000,4134.871582,4135.897461,4142.563965,4153.846191,4152.820313,4150.769043,4149.743652,4156.410156,4170.256348,4157.436035,4126.153809,0.000000,4.000000,,,,0.000000,4.000000,4.000000,4.000000,4.000000,4.000000,4.000000,4.000000,4.000000,4.000000,4.000000,4.000000,4.000000,4.000000,4.000000,100.000000
1602006118.799888,62.000000,0.000000,4126.153809,4124.102539,4155.897461,4128.205078,4136.410156,4137.948730,4153.846191,4154.358887,4155.384766,4165.128418,4150.256348,4158.461426,4152.820313,4126.666504,0.000000,4.000000,,,,0.000000,4.000000,4.000000,4.000000,4.000000,4.000000,4.000000,4.000000,4.000000,4.000000,4.000000,4.000000,4.000000,4.000000,4.000000,100.000000
1602006118.807770,63.000000,0.000000,4118.461426,4123.077148,4144.615234,4124.102539,4134.358887,4136.410156,4151.282227,4152.820313,4149.230957,4164.102539,4142.051270,4152.307617,4149.743652,4126.666504,0.000000,4.000000,,,,0.000000,4.000000,4.000000,4.000000,4.000000,4.000000,4.000000,4.000000,4.000000,4.000000,4.000000,4.000000,4.000000,4.000000,4.000000,100.000000
1602006118.815652,64.000000,0.000000,4106.666504,4121.025879,4131.282227,4122.563965,4136.410156,4137.948730,4147.692383,4146.666504,4141.025879,4157.948730,4141.538574,4152.307617,4143.589844,4124.615234,802.000000,4.000000,,,,0.000000,4.000000,4.000000,4.000000,4.000000,4.000000,4.000000,4.000000,4.000000,4.000000,4.000000,4.000000,4.000000,4.000000,4.000000,100.000000
1602006118.823535,65.000000,0.000000,4103.077148,4118.461426,4122.051270,4120.512695,4135.384766,4134.871582,4140.512695,4135.897461,4133.333496,4146.153809,4136.410156,4142.051270,4136.922852,4124.102539,790.000000,4.000000,,,,0.000000,4.000000,4.000000,4.000000,4.000000,4.000000,4.000000,4.000000,4.000000,4.000000,4.000000,4.000000,4.000000,4.000000,4.000000,100.000000
1602006118.831417,66.000000,0.000000,4106.153809,4123.589844,4122.051270,4123.077148,4135.384766,4129.743652,4129.743652,4128.205078,4127.692383,4126.666504,4130.256348,4129.230957,4133.846191,4117.948730,848.000000,4.000000,,,,0.000000,4.000000,4.000000,4.000000,4.000000,4.000000,4.000000,4.000000,4.000000,4.000000,4.000000,4.000000,4.000000,4.000000,4.000000,100.000000
1602006118.839299,67.000000,0.000000,4093.846191,4122.563965,4120.512695,4126.153809,4134.871582,4126.153809,4124.102539,4126.666504,4124.615234,4121.025879,4129.743652,4125.128418,4127.179688,4103.589844,866.000000,4.000000,,,,0.000000,4.000000,4.000000,4.000000,4.000000,4.000000,4.000000,4.000000,4.000000,4.000000,4.000000,4.000000,4.000000,4.000000,4.000000,100.000000
1602006118.847282,68.000000,0.000000,4080.000000,4107.692383,4111.794922,4118.461426,4126.666504,4121.025879,4123.589844,4124.102539,4117.436035,4123.589844,4127.692383,4123.589844,4121.025879,4099.487305,814.000000,4.000000,,,,0.000000,4.000000,4.000000,4.000000,4.000000,4.000000,4.000000,4.000000,4.000000,4.000000,4.000000,4.000000,4.000000,4.000000,4.000000,100.000000
1602006118.855164,69.000000,0.000000,4091.794922,4107.179688,4113.333496,4116.410156,4119.487305,4120.000000,4123.589844,4122.563965,4115.384766,4126.666504,4127.179688,4129.743652,4123.077148,4106.153809,825.000000,4.000000,,,,0.000000,4.000000,4.000000,4.000000,4.000000,4.000000,4.000000,4.000000,4.000000,4.000000,4.000000,4.000000,4.000000,4.000000,4.000000,100.000000
1602006118.863046,70.000000,0.000000,4108.717773,4121.025879,4128.205078,4128.717773,4122.051270,4123.589844,4127.179688,4124.102539,4124.102539,4143.589844,4134.871582,4136.922852,4124.102539,4108.205078,772.000000,4.000000,,,,0.000000,4.000000,4.000000,4.000000,4.000000,4.000000,4.000000,4.000000,4.000000,4.000000,4.000000,4.000000,4.000000,4.000000,4.000000,100.000000
1602006118.870928,71.000000,0.000000,4112.820313,4129.743652,4136.410156,4135.897461,4132.307617,4124.102539,4135.384766,4126.666504,4124.615234,4158.461426,4140.512695,4135.384766,4127.179688,4114.358887,681.000000,4.000000,,,,0.000000,4.000000,4.000000,4.000000,4.000000,4.000000,4.000000,4.000000,4.000000,4.000000,4.000000,4.000000,4.000000,4.000000,4.000000,100.000000
1602006118.878810,72.000000,0.000000,4122.051270,4134.871582,4137.436035,4134.871582,4140.000000,4125.641113,4138.461426,4130.769043,4120.000000,4149.230957,4137.948730,4140.512695,4139.487305,4129.743652,785.000000,4.000000,,,,0.000000,4.000000,4.000000,4.000000,4.000000,4.000000,4.000000,4.000000,4.000000,4.000000,4.000000,4.000000,4.000000,4.000000,4.000000,100.000000
1602006118.886692,73.000000,0.000000,4129.743652,4139.487305,4140.512695,4139.487305,4140.000000,4125.641113,4138.974121,4137.436035,4124.615234,4130.769043,4138.974121,4148.717773,4142.563965,4126.666504,842.000000,4.000000,,,,0.000000,4.000000,4.000000,4.000000,4.000000,4.000000,4.000000,4.000000,4.000000,4.000000,4.000000,4.000000,4.000000,4.000000,4.000000,100.000000
1602006118.894574,74.000000,0.000000,4123.589844,4138.461426,4142.051270,4143.077148,4136.922852,4120.512695,4139.487305,4135.384766,4124.615234,4125.641113,4138.974121,4145.128418,4129.230957,4106.666504,867.000000,4.000000,,,,0.000000,4.000000,4.000000,4.000000,4.000000,4.000000,4.000000,4.000000,4.000000,4.000000,4.000000,4.000000,4.000000,4.000000,4.000000,100.000000
1602006118.902456,75.000000,0.000000,4119.487305,4135.897461,4138.461426,4138.461426,4137.948730,4117.436035,4134.871582,4124.615234,4118.461426,4130.769043,4131.282227,4135.384766,4122.563965,4108.205078,839.000000,4.000000,,,,0.000000,4.000000,4.000000,4.000000,4.000000,4.000000,4.000000,4.000000,4.000000,4.000000,4.000000,4.000000,4.000000,4.000000,4.000000,100.000000
1602006118.910437,76.000000,0.000000,4124.615234,4136.410156,4143.589844,4137.948730,4139.487305,4122.051270,4132.820313,4127.692383,4121.025879,4139.487305,4128.717773,4136.922852,4132.820313,4125.128418,767.000000,4.000000,,,,0.000000,4.000000,4.000000,4.000000,4.000000,4.000000,4.000000,4.000000,4.000000,4.000000,4.000000,4.000000,4.000000,4.000000,4.000000,100.000000
1602006118.918319,77.000000,0.000000,4128.205078,4139.487305,4152.307617,4144.102539,4139.487305,4126.153809,4133.846191,4139.487305,4127.692383,4150.256348,4135.897461,4140.512695,4143.077148,4128.205078,746.000000,4.000000,,,,0.000000,4.000000,4.000000,4.000000,4.000000,4.000000,4.000000,4.000000,4.000000,4.000000,4.000000,4.000000,4.000000,4.000000,4.000000,100.000000
1602006118.926200,78.000000,0.000000,4121.538574,4137.436035,4143.077148,4143.589844,4138.974121,4124.615234,4126.666504,4134.871582,4126.153809,4158.974121,4141.538574,4138.461426,4140.000000,4121.025879,867.000000,4.000000,,,,0.000000,4.000000,4.000000,4.000000,4.000000,4.000000,4.000000,4.000000,4.000000,4.000000,4.000000,4.000000,4.000000,4.000000,4.000000,100.000000
1602006118.934081,79.000000,0.000000,4106.153809,4127.692383,4123.589844,4133.846191,4133.333496,4123.077148,4122.563965,4124.102539,4120.512695,4147.179688,4135.384766,4134.358887,4127.692383,4113.846191,839.000000,4.000000,,,,0.000000,4.000000,4.000000,4.000000,4.000000,4.000000,4.000000,4.000000,4.000000,4.000000,4.000000,4.000000,4.000000,4.000000,4.000000,100.000000
1602006118.941862,80.000000,0.000000,4093.333252,4116.922852,4114.871582,4123.077148,4126.666504,4126.153809,4130.769043,4128.717773,4123.589844,4121.538574,4124.615234,4127.692383,4116.410156,4096.922852,767.000000,4.000000,,,,0.000000,4.000000,4.000000,4.000000,4.000000,4.000000,4.000000,4.000000,4.000000,4.000000,4.000000,4.000000,4.000000,4.000000,4.000000,100.000000
1602006118.949643,81.000000,0.000000,4088.718018,4110.256348,4116.410156,4120.000000,4123.077148,4132.820313,4140.512695,4135.897461,4124.102539,4114.871582,4116.410156,4130.256348,4108.717773,4090.769287,746.000000,4.000000,,,,0.000000,4.000000,4.000000,4.000000,4.000000,4.000000,4.000000,4.000000,4.000000,4.000000,4.000000,4.000000,4.000000,4.000000,4.000000,100.000000
1602006118.957525,82.000000,0.000000,4088.205078,4106.153809,4119.487305,4122.563965,4115.897461,4135.384766,4147.179688,4135.384766,4118.974121,4129.230957,4122.051270,4145.641113,4107.179688,4103.589844,867.000000,4.000000,,,,0.000000,4.000000,4.000000,4.000000,4.000000,4.000000,4.000000,4.000000,4.000000,4.000000,4.000000,4.000000,4.000000,4.000000,4.000000,100.000000
1602006118.965407,83.000000,0.000000,4089.230713,4107.179688,4124.615234,4121.538574,4109.743652,4137.436035,4155.897461,4146.153809,4125.641113,4141.025879,4137.436035,4156.922852,4108.205078,4106.666504,839.000000,4.000000,,,,0.000000,4.000000,4.000000,4.000000,4.000000,4.000000,4.000000,4.000000,4.000000,4.000000,4.000000,4.000000,4.000000,4.000000,4.000000,100.000000
1602006118.973288,84.000000,0.000000,4091.281982,4106.666504,4127.179688,4115.384766,4115.897461,4141.538574,4158.974121,4159.487305,4137.948730,4138.461426,4136.922852,4153.333496,4111.794922,4103.077148,767.000000,4.000000,,,,0.000000,4.000000,4.000000,4.000000,4.000000,4.000000,4.000000,4.000000,4.000000,4.000000,4.000000,4.000000,4.000000,4.000000,4.000000,100.000000
1602006118.981170,85.000000,0.000000,4088.718018,4103.077148,4129.230957,4114.358887,4120.000000,4138.461426,4155.384766,4160.000000,4141.025879,4137.436035,4124.102539,4148.205078,4116.410156,4107.692383,746.000000,4.000000,,,,0.000000,4.000000,4.000000,4.000000,4.000000,4.000000,4.000000,4.000000,4.000000,4.000000,4.000000,4.000000,4.000000,4.000000,4.000000,100.000000
1602006118.989152,86.000000,0.000000,4093.846191,4106.153809,4137.436035,4123.077148,4114.358887,4134.358887,4153.846191,4162.051270,4148.205078,4147.179688,4129.230957,4154.358887,4122.051270,4109.230957,867.000000,4.000000,,,,0.000000,4.000000,4.000000,4.000000,4.000000,4.000000,4.000000,4.000000,4.000000,4.000000,4.000000,4.000000,4.000000,4.000000,4.000000,100.000000
1602006118.997035,87.000000,0.000000,4103.589844,4107.179688,4140.000000,4123.589844,4114.871582,4137.436035,4151.794922,4168.205078,4159.487305,4160.000000,4147.179688,4160.000000,4131.794922,4110.769043,839.000000,4.000000,,,,0.000000,4.000000,4.000000,4.000000,4.000000,4.000000,4.000000,4.000000,4.000000,4.000000,4.000000,4.000000,4.000000,4.000000,4.000000,100.000000
1602006119.004917,88.000000,0.000000,4112.307617,4107.692383,4137.436035,4118.461426,4120.512695,4137.948730,4143.589844,4162.563965,4153.333496,4168.205078,4145.128418,4160.000000,4136.922852,4121.025879,767.000000,4.000000,,,,0.000000,4.000000,4.000000,4.000000,4.000000,4.000000,4.000000,4.000000,4.000000,4.000000,4.000000,4.000000,4.000000,4.000000,4.000000,100.000000
1602006119.012799,89.000000,0.000000,4119.487305,4118.461426,4136.922852,4128.205078,4123.077148,4137.948730,4138.461426,4147.692383,4140.512695,4159.487305,4137.436035,4158.461426,4133.333496,4128.205078,746.000000,4.000000,,,,0.000000,4.000000,4.000000,4.000000,4.000000,4.000000,4.000000,4.000000,4.000000,4.000000,4.000000,4.000000,4.000000,4.000000,4.000000,100.000000
1602006119.020682,90.000000,0.000000,4114.871582,4121.025879,4136.922852,4133.846191,4122.563965,4138.974121,4138.974121,4138.461426,4137.948730,4143.077148,4141.025879,4155.384766,4125.641113,4122.051270,867.000000,4.000000,,,,0.000000,4.000000,4.000000,4.000000,4.000000,4.000000,4.000000,4.000000,4.000000,4.000000,4.000000,4.000000,4.000000,4.000000,4.000000,100.000000
1602006119.028564,91.000000,0.000000,4109.230957,4109.743652,4135.384766,4125.128418,4120.512695,4132.820313,4137.436035,4135.384766,4131.794922,4133.846191,4135.384766,4151.794922,4113.846191,4109.230957,839.000000,4.000000,,,,0.000000,4.000000,4.000000,4.000000,4.000000,4.000000,4.000000,4.000000,4.000000,4.000000,4.000000,4.000000,4.000000,4.000000,4.000000,100.000000
1602006119.036446,92.000000,0.000000,4116.922852,4106.666504,4137.948730,4123.077148,4123.077148,4125.128418,4135.897461,4135.384766,4125.641113,4124.102539,4120.000000,4146.666504,4103.589844,4094.871826,767.000000,4.000000,,,,0.000000,4.000000,4.000000,4.000000,4.000000,4.000000,4.000000,4.000000,4.000000,4.000000,4.000000,4.000000,4.000000,4.000000,4.000000,100.000000
1602006119.044329,93.000000,0.000000,4118.461426,4110.256348,4140.512695,4127.692383,4119.487305,4126.153809,4141.025879,4140.512695,4132.307617,4119.487305,4122.563965,4145.641113,4105.641113,4092.820557,746.000000,4.000000,,,,0.000000,4.000000,4.000000,4.000000,4.000000,4.000000,4.000000,4.000000,4.000000,4.000000,4.000000,4.000000,4.000000,4.000000,4.000000,100.000000
1602006119.052211,94.000000,0.000000,4109.230957,4107.692383,4138.974121,4125.641113,4108.717773,4123.077148,4138.461426,4143.589844,4137.948730,4131.282227,4131.794922,4149.743652,4108.205078,4103.589844,867.000000,4.000000,,,,0.000000,4.000000,4.000000,4.000000,4.000000,4.000000,4.000000,4.000000,4.000000,4.000000,4.000000,4.000000,4.000000,4.000000,4.000000,100.000000
1602006119.060093,95.000000,0.000000,4112.820313,4112.820313,4138.461426,4124.615234,4112.307617,4121.025879,4129.743652,4141.538574,4135.897461,4145.128418,4125.641113,4152.307617,4103.589844,4108.717773,839.000000,4.000000,,,,0.000000,4.000000,4.000000,4.000000,4.000000,4.000000,4.000000,4.000000,4.000000,4.000000,4.000000,4.000000,4.000000,4.000000,4.000000,100.000000
1602006119.067875,96.000000,0.000000,4126.153809,4124.102539,4140.512695,4128.205078,4125.641113,4129.230957,4126.666504,4138.974121,4137.436035,4150.256348,4121.025879,4151.794922,4112.820313,4105.641113,767.000000,4.000000,,,,0.000000,4.000000,4.000000,4.000000,4.000000,4.000000,4.000000,4.000000,4.000000,4.000000,4.000000,4.000000,4.000000,4.000000,4.000000,100.000000
1602006119.075757,97.000000,0.000000,4123.589844,4117.436035,4137.436035,4126.153809,4125.641113,4130.769043,4129.743652,4140.512695,4141.538574,4161.025879,4130.769043,4151.794922,4125.641113,4105.641113,746.000000,4.000000,,,,0.000000,4.000000,4.000000,4.000000,4.000000,4.000000,4.000000,4.000000,4.000000,4.000000,4.000000,4.000000,4.000000,4.000000,4.000000,100.000000
1602006119.083638,98.000000,0.000000,4115.897461,4106.666504,4132.307617,4120.512695,4120.512695,4127.179688,4135.384766,4141.025879,4141.025879,4171.282227,4139.487305,4153.333496,4127.692383,4114.358887,867.000000,4.000000,,,,0.000000,4.000000,4.000000,4.000000,4.000000,4.000000,4.000000,4.000000,4.000000,4.000000,4.000000,4.000000,4.000000,4.000000,4.000000,100.000000
1602006119.091520,99.000000,0.000000,4116.922852,4113.333496,4135.384766,4124.102539,4122.051270,4134.358887,4140.512695,4138.461426,4137.436035,4160.000000,4140.512695,4152.307617,4130.769043,4122.051270,839.000000,4.000000,,,,0.000000,4.000000,4.000000,4.000000,4.000000,4.000000,4.000000,4.000000,4.000000,4.000000,4.000000,4.000000,4.000000,4.000000,4.000000,100.000000
1602006119.099402,100.000000,0.000000,4126.153809,4124.615234,4143.589844,4136.410156,4121.025879,4143.077148,4143.077148,4137.948730,4132.820313,4127.179688,4141.025879,4154.358887,4139.487305,4125.641113,767.000000,4.000000,,,,0.000000,4.000000,4.000000,4.000000,4.000000,4.000000,4.000000,4.000000,4.000000,4.000000,4.000000,4.000000,4.000000,4.000000,4.000000,100.000000
1602006119.107283,101.000000,0.000000,4131.282227,4125.641113,4143.077148,4138.461426,4120.000000,4141.025879,4141.538574,4139.487305,4132.307617,4120.000000,4145.128418,4156.922852,4141.025879,4129.230957,746.000000,4.000000,,,,0.000000,4.000000,4.000000,4.000000,4.000000,4.000000,4.000000,4.000000,4.000000,4.000000,4.000000,4.000000,4.000000,4.000000,4.000000,100.000000
1602006119.115066,102.000000,0.000000,4121.025879,4118.974121,4133.333496,4126.666504,4117.948730,4129.230957,4134.871582,4140.512695,4131.282227,4144.615234,4140.000000,4150.769043,4131.282227,4126.666504,867.000000,4.000000,,,,0.000000,4.000000,4.000000,4.000000,4.000000,4.000000,4.000000,4.000000,4.000000,4.000000,4.000000,4.000000,4.000000,4.000000,4.000000,100.000000
1602006119.122948,103.000000,0.000000,4107.692383,4108.205078,4122.563965,4120.000000,4110.769043,4119.487305,4125.128418,4137.948730,4124.102539,4146.666504,4123.077148,4138.974121,4121.025879,4114.871582,839.000000,4.000000,,,,0.000000,4.000000,4.000000,4.000000,4.000000,4.000000,4.000000,4.000000,4.000000,4.000000,4.000000,4.000000,4.000000,4.000000,4.000000,100.000000
1602006119.130830,104.000000,0.000000,4101.025879,4105.641113,4119.487305,4121.538574,4112.820313,4118.974121,4120.000000,4134.358887,4116.410156,4128.717773,4111.794922,4133.333496,4116.922852,4111.282227,767.000000,4.000000,,,,0.000000,4.000000,4.000000,4.000000,4.000000,4.000000,4.000000,4.000000,4.000000,4.000000,4.000000,4.000000,4.000000,4.000000,4.000000,100.000000
1602006119.138712,105.000000,0.000000,4105.641113,4116.922852,4122.051270,4125.128418,4124.102539,4123.589844,4126.153809,4134.871582,4118.974121,4131.794922,4118.461426,4143.589844,4119.487305,4120.512695,746.000000,4.000000,,,,0.000000,4.000000,4.000000,4.000000,4.000000,4.000000,4.000000,4.000000,4.000000,4.000000,4.000000,4.000000,4.000000,4.000000,4.000000,100.000000
1602006119.146594,106.000000,0.000000,4118.461426,4122.563965,4124.102539,4125.128418,4126.666504,4126.153809,4134.358887,4135.897461,4129.230957,4148.205078,4132.820313,4153.846191,4123.077148,4124.102539,867.000000,4.000000,,,,0.000000,4.000000,4.000000,4.000000,4.000000,4.000000,4.000000,4.000000,4.000000,4.000000,4.000000,4.000000,4.000000,4.000000,4.000000,100.000000
1602006119.154476,107.000000,0.000000,4122.051270,4117.436035,4122.051270,4125.641113,4121.538574,4132.307617,4137.948730,4130.769043,4133.846191,4142.051270,4139.487305,4148.717773,4128.717773,4121.538574,839.000000,4.000000,,,,0.000000,4.000000,4.000000,4.000000,4.000000,4.000000,4.000000,4.000000,4.000000,4.000000,4.000000,4.000000,4.000000,4.000000,4.000000,100.000000
1602006119.162358,108.000000,0.000000,4119.487305,4121.538574,4121.025879,4132.307617,4121.025879,4135.897461,4136.922852,4125.641113,4128.717773,4121.538574,4134.358887,4140.512695,4135.384766,4124.102539,767.000000,4.000000,,,,0.000000,4.000000,4.000000,4.000000,4.000000,4.000000,4.000000,4.000000,4.000000,4.000000,4.000000,4.000000,4.000000,4.000000,4.000000,100.000000
1602006119.170240,109.000000,0.000000,4132.307617,4134.358887,4128.205078,4142.051270,4125.641113,4128.205078,4131.282227,4127.692383,4129.743652,4122.563965,4134.871582,4150.256348,4142.563965,4133.333496,746.000000,4.000000,,,,0.000000,4.000000,4.000000,4.000000,4.000000,4.000000,4.000000,4.000000,4.000000,4.000000,4.000000,4.000000,4.000000,4.000000,4.000000,100.000000
1602006119.178222,110.000000,0.000000,4150.769043,4144.615234,4138.461426,4148.205078,4132.820313,4124.102539,4123.589844,4134.358887,4149.743652,4149.743652,4149.743652,4168.205078,4153.846191,4148.717773,867.000000,4.000000,,,,0.000000,4.000000,4.000000,4.000000,4.000000,4.000000,4.000000,4.000000,4.000000,4.000000,4.000000,4.000000,4.000000,4.000000,4.000000,100.000000
1602006119.186104,111.000000,0.000000,4149.230957,4153.333496,4142.563965,4153.333496,4139.487305,4126.153809,4122.051270,4146.153809,4171.794922,4173.846191,4160.000000,4174.871582,4162.051270,4156.410156,839.000000,4.000000,,,,0.000000,4.000000,4.000000,4.000000,4.000000,4.000000,4.000000,4.000000,4.000000,4.000000,4.000000,4.000000,4.000000,4.000000,4.000000,100.000000
1602006119.193986,112.000000,0.000000,4142.051270,4154.358887,4142.051270,4151.794922,4142.051270,4127.692383,4126.153809,4153.333496,4174.358887,4179.487305,4149.230957,4170.769043,4160.000000,4146.666504,767.000000,4.000000,,,,0.000000,4.000000,4.000000,4.000000,4.000000,4.000000,4.000000,4.000000,4.000000,4.000000,4.000000,4.000000,4.000000,4.000000,4.000000,100.000000
1602006119.201868,113.000000,0.000000,4142.051270,4142.563965,4137.436035,4144.615234,4142.563965,4128.205078,4130.256348,4145.641113,4161.025879,4171.794922,4132.307617,4161.538574,4150.769043,4134.871582,746.000000,4.000000,,,,0.000000,4.000000,4.000000,4.000000,4.000000,4.000000,4.000000,4.000000,4.000000,4.000000,4.000000,4.000000,4.000000,4.000000,4.000000,100.000000
1602006119.209750,114.000000,0.000000,4132.307617,4130.769043,4124.615234,4137.436035,4136.410156,4126.153809,4134.871582,4138.974121,4150.256348,4147.179688,4125.641113,4153.333496,4136.922852,4127.179688,867.000000,4.000000,,,,0.000000,4.000000,4.000000,4.000000,4.000000,4.000000,4.000000,4.000000,4.000000,4.000000,4.000000,4.000000,4.000000,4.000000,4.000000,100.000000
1602006119.217632,115.000000,0.000000,4109.743652,4122.051270,4108.205078,4124.615234,4122.051270,4118.461426,4136.922852,4133.333496,4140.000000,4124.102539,4124.102539,4144.102539,4120.512695,4111.794922,839.000000,4.000000,,,,0.000000,4.000000,4.000000,4.000000,4.000000,4.000000,4.000000,4.000000,4.000000,4.000000,4.000000,4.000000,4.000000,4.000000,4.000000,100.000000
1602006119.225514,116.000000,0.000000,4105.128418,4115.897461,4106.153809,4121.025879,4119.487305,4123.589844,4137.436035,4124.615234,4127.692383,4117.948730,4124.615234,4135.897461,4121.025879,4100.512695,767.000000,4.000000,,,,0.000000,4.000000,4.000000,4.000000,4.000000,4.000000,4.000000,4.000000,4.000000,4.000000,4.000000,4.000000,4.000000,4.000000,4.000000,100.000000
1602006119.233295,117.000000,0.000000,4124.615234,4124.615234,4115.897461,4134.358887,4131.282227,4136.922852,4137.436035,4121.025879,4131.282227,4113.333496,4131.794922,4142.563965,4133.846191,4111.794922,746.000000,4.000000,,,,0.000000,4.000000,4.000000,4.000000,4.000000,4.000000,4.000000,4.000000,4.000000,4.000000,4.000000,4.000000,4.000000,4.000000,4.000000,100.000000
1602006119.241175,118.000000,0.000000,4140.512695,4139.487305,4125.128418,4141.025879,4134.358887,4139.487305,4126.153809,4118.461426,4140.512695,4122.051270,4139.487305,4156.922852,4139.487305,4131.794922,867.000000,4.000000,,,,0.000000,4.000000,4.000000,4.000000,4.000000,4.000000,4.000000,4.000000,4.000000,4.000000,4.000000,4.000000,4.000000,4.000000,4.000000,100.000000
1602006119.249157,119.000000,0.000000,4145.128418,4142.563965,4132.307617,4140.512695,4130.256348,4134.871582,4113.333496,4109.743652,4137.948730,4146.666504,4142.563965,4156.922852,4146.153809,4143.077148,839.000000,4.000000,,,,0.000000,4.000000,4.000000,4.000000,4.000000,4.000000,4.000000,4.000000,4.000000,4.000000,4.000000,4.000000,4.000000,4.000000,4.000000,100.000000
1602006119.257039,120.000000,0.000000,4152.307617,4142.563965,4141.538574,4147.692383,4134.358887,4135.384766,4116.410156,4107.692383,4140.000000,4158.974121,4142.051270,4154.358887,4156.410156,4145.128418,767.000000,4.000000,,,,0.000000,4.000000,4.000000,4.000000,4.000000,4.000000,4.000000,4.000000,4.000000,4.000000,4.000000,4.000000,4.000000,4.000000,4.000000,100.000000
1602006119.264921,121.000000,0.000000,4158.974121,4147.179688,4147.692383,4154.871582,4143.077148,4137.436035,4123.077148,4117.948730,4152.307617,4156.410156,4140.000000,4165.128418,4156.922852,4142.563965,746.000000,4.000000,,,,0.000000,4.000000,4.000000,4.000000,4.000000,4.000000,4.000000,4.000000,4.000000,4.000000,4.000000,4.000000,4.000000,4.000000,4.000000,100.000000
1602006119.272803,122.000000,0.000000,4154.871582,4146.153809,4145.641113,4153.333496,4142.563965,4135.897461,4125.641113,4127.179688,4163.589844,4154.871582,4143.077148,4169.743652,4151.794922,4138.974121,867.000000,4.000000,,,,0.000000,4.000000,4.000000,4.000000,4.000000,4.000000,4.000000,4.000000,4.000000,4.000000,4.000000,4.000000,4.000000,4.000000,4.000000,100.000000
1602006119.280685,123.000000,0.000000,4153.333496,4140.000000,4138.974121,4150.769043,4140.000000,4136.410156,4134.358887,4136.410156,4169.230957,4158.974121,4155.384766,4166.666504,4157.436035,4143.077148,839.000000,4.000000,,,,0.000000,4.000000,4.000000,4.000000,4.000000,4.000000,4.000000,4.000000,4.000000,4.000000,4.000000,4.000000,4.000000,4.000000,4.000000,100.000000
1602006119.288567,124.000000,0.000000,4153.333496,4140.512695,4135.897461,4145.128418,4142.051270,4143.077148,4141.025879,4143.077148,4171.794922,4160.000000,4158.461426,4165.128418,4161.025879,4149.743652,767.000000,4.000000,,,,0.000000,4.000000,4.000000,4.000000,4.000000,4.000000,4.000000,4.000000,4.000000,4.000000,4.000000,4.000000,4.000000,4.000000,4.000000,100.000000
1602006119.296449,125.000000,0.000000,4146.666504,4140.000000,4136.922852,4140.000000,4138.461426,4144.615234,4138.974121,4138.974121,4161.025879,4150.769043,4143.077148,4155.897461,4151.282227,4147.692383,746.000000,4.000000,,,,0.000000,4.000000,4.000000,4.000000,4.000000,4.000000,4.000000,4.000000,4.000000,4.000000,4.000000,4.000000,4.000000,4.000000,4.000000,100.000000
1602006119.304330,126.000000,0.000000,4137.436035,4128.205078,4130.769043,4134.871582,4127.692383,4131.794922,4137.948730,4126.666504,4136.410156,4130.256348,4122.563965,4138.974121,4136.922852,4133.846191,867.000000,4.000000,,,,0.000000,4.000000,4.000000,4.000000,4.000000,4.000000,4.000000,4.000000,4.000000,4.000000,4.000000,4.000000,4.000000,4.000000,4.000000,100.000000
1602006119.312113,127.000000,0.000000,4129.743652,4118.974121,4120.512695,4126.666504,4122.563965,4121.538574,4136.922852,4118.974121,4122.563965,4119.487305,4120.512695,4132.820313,4127.692383,4120.512695,839.000000,4.000000,,,,0.000000,4.000000,4.000000,4.000000,4.000000,4.000000,4.000000,4.000000,4.000000,4.000000,4.000000,4.000000,4.000000,4.000000,4.000000,100.000000
1602006119.319995,128.000000,0.000000,4124.102539,4121.025879,4127.692383,4126.666504,4127.179688,4123.589844,4131.794922,4118.974121,4132.307617,4130.769043,4132.307617,4142.051270,4130.769043,4118.461426,767.000000,4.000000,,,,0.000000,4.000000,4.000000,4.000000,4.000000,4.000000,4.000000,4.000000,4.000000,4.000000,4.000000,4.000000,4.000000,4.000000,4.000000,100.000000
