Timestamp,EEG.Counter,EEG.Interpolated,EEG.AF3,EEG.F7,EEG.F3,EEG.FC5,EEG.T7,EEG.P7,EEG.O1,EEG.O2,EEG.P8,EEG.T8,EEG.FC6,EEG.F4,EEG.F8,EEG.AF4,EEG.RawCq,EEG.Battery,MarkerIndex,MarkerType,MarkerValueInt,EEG.MarkerHardware,CQ.AF3,CQ.F7,CQ.F3,CQ.FC5,CQ.T7,CQ.P7,CQ.O1,CQ.O2,CQ.P8,CQ.T8,CQ.FC6,CQ.F4,CQ.F8,CQ.AF4,CQ.Overall
1602006167.045272,121.000000,0.000000,4133.333496,4124.102539,4122.051270,4134.358887,4122.563965,4123.077148,4135.384766,4134.871582,4141.025879,4126.153809,4109.743652,4133.846191,4123.589844,4112.307617,745.000000,4.000000,,,,0.000000,4.000000,4.000000,4.000000,4.000000,4.000000,4.000000,4.000000,4.000000,4.000000,4.000000,4.000000,4.000000,4.000000,4.000000,100.000000
1602006167.053054,122.000000,0.000000,4143.077148,4120.512695,4128.717773,4136.410156,4122.563965,4120.512695,4129.230957,4127.692383,4129.230957,4143.589844,4112.820313,4141.538574,4123.077148,4130.256348,865.000000,4.000000,,,,0.000000,4.000000,4.000000,4.000000,4.000000,4.000000,4.000000,4.000000,4.000000,4.000000,4.000000,4.000000,4.000000,4.000000,4.000000,100.000000
1602006167.060936,123.000000,0.000000,4150.256348,4126.666504,4135.897461,4138.461426,4123.589844,4123.589844,4127.692383,4120.512695,4112.307617,4126.153809,4107.179688,4141.025879,4122.051270,4140.512695,838.000000,4.000000,,,,0.000000,4.000000,4.000000,4.000000,4.000000,4.000000,4.000000,4.000000,4.000000,4.000000,4.000000,4.000000,4.000000,4.000000,4.000000,100.000000
1602006167.068818,124.000000,0.000000,4142.051270,4125.128418,4128.717773,4132.307617,4122.563965,4122.051270,4132.307617,4118.974121,4102.563965,4111.794922,4105.128418,4136.410156,4118.461426,4134.871582,767.000000,4.000000,,,,0.000000,4.000000,4.000000,4.000000,4.000000,4.000000,4.000000,4.000000,4.000000,4.000000,4.000000,4.000000,4.000000,4.000000,4.000000,100.000000
1602006167.076700,125.000000,0.000000,4135.897461,4126.666504,4125.641113,4131.282227,4122.563965,4125.641113,4135.384766,4123.589844,4102.051270,4124.102539,4105.641113,4141.025879,4114.871582,4134.871582,745.000000,4.000000,,,,0.000000,4.000000,4.000000,4.000000,4.000000,4.000000,4.000000,4.000000,4.000000,4.000000,4.000000,4.000000,4.000000,4.000000,4.000000,100.000000
1602006167.084581,126.000000,0.000000,4142.563965,4138.974121,4135.897461,4142.051270,4123.077148,4135.384766,4135.897461,4130.256348,4111.282227,4123.589844,4106.153809,4153.333496,4120.000000,4135.897461,865.000000,4.000000,,,,0.000000,4.000000,4.000000,4.000000,4.000000,4.000000,4.000000,4.000000,4.000000,4.000000,4.000000,4.000000,4.000000,4.000000,4.000000,100.000000
1602006167.092463,127.000000,0.000000,4145.641113,4143.589844,4137.948730,4144.615234,4125.641113,4140.000000,4137.436035,4131.794922,4125.641113,4112.307617,4114.358887,4157.436035,4126.666504,4127.692383,838.000000,4.000000,,,,0.000000,4.000000,4.000000,4.000000,4.000000,4.000000,4.000000,4.000000,4.000000,4.000000,4.000000,4.000000,4.000000,4.000000,4.000000,100.000000
1602006167.100345,128.000000,0.000000,4141.025879,4142.563965,4131.282227,4140.512695,4129.230957,4139.487305,4137.948730,4126.153809,4128.717773,4124.615234,4121.538574,4147.179688,4125.128418,4130.256348,767.000000,4.000000,,,,0.000000,4.000000,4.000000,4.000000,4.000000,4.000000,4.000000,4.000000,4.000000,4.000000,4.000000,4.000000,4.000000,4.000000,4.000000,100.000000
1602006167.108227,0.000000,0.000000,4137.948730,4141.538574,4133.333496,4142.563965,4126.153809,4136.922852,4134.871582,4124.102539,4128.717773,4138.974121,4120.512695,4137.436035,4123.589844,4134.871582,796.000000,4.000000,,,,0.000000,4.000000,4.000000,4.000000,4.000000,4.000000,4.000000,4.000000,4.000000,4.000000,4.000000,4.000000,4.000000,4.000000,4.000000,100.000000
1602006167.116109,1.000000,0.000000,4146.666504,4140.512695,4136.922852,4142.563965,4125.641113,4136.410156,4134.871582,4132.820313,4145.128418,4136.410156,4122.051270,4145.641113,4123.589844,4127.179688,793.000000,4.000000,,,,0.000000,4.000000,4.000000,4.000000,4.000000,4.000000,4.000000,4.000000,4.000000,4.000000,4.000000,4.000000,4.000000,4.000000,4.000000,100.000000
1602006167.123890,2.000000,0.000000,4155.384766,4140.000000,4138.461426,4138.461426,4129.743652,4135.897461,4139.487305,4139.487305,4156.410156,4136.922852,4121.025879,4156.410156,4124.615234,4125.641113,849.000000,4.000000,,,,0.000000,4.000000,4.000000,4.000000,4.000000,4.000000,4.000000,4.000000,4.000000,4.000000,4.000000,4.000000,4.000000,4.000000,4.000000,100.000000
1602006167.131771,3.000000,0.000000,4144.615234,4135.384766,4140.000000,4138.974121,4127.179688,4130.256348,4138.461426,4138.974121,4146.153809,4140.512695,4108.717773,4150.769043,4125.641113,4130.256348,875.000000,4.000000,,,,0.000000,4.000000,4.000000,4.000000,4.000000,4.000000,4.000000,4.000000,4.000000,4.000000,4.000000,4.000000,4.000000,4.000000,4.000000,100.000000
1602006167.139652,4.000000,0.000000,4130.769043,4124.102539,4134.358887,4139.487305,4122.051270,4116.410156,4128.717773,4135.384766,4131.794922,4121.025879,4103.589844,4141.538574,4117.436035,4125.641113,813.000000,4.000000,,,,0.000000,4.000000,4.000000,4.000000,4.000000,4.000000,4.000000,4.000000,4.000000,4.000000,4.000000,4.000000,4.000000,4.000000,4.000000,100.000000
1602006167.147433,5.000000,0.000000,4132.307617,4120.000000,4128.717773,4134.871582,4123.077148,4106.153809,4122.563965,4127.179688,4123.589844,4106.666504,4107.179688,4142.051270,4104.102539,4121.538574,822.000000,4.000000,,,,0.000000,4.000000,4.000000,4.000000,4.000000,4.000000,4.000000,4.000000,4.000000,4.000000,4.000000,4.000000,4.000000,4.000000,4.000000,100.000000
1602006167.155214,6.000000,0.000000,4139.487305,4128.717773,4135.384766,4133.846191,4123.589844,4110.256348,4122.051270,4122.563965,4121.025879,4125.128418,4105.641113,4144.615234,4106.153809,4123.589844,762.000000,4.000000,,,,0.000000,4.000000,4.000000,4.000000,4.000000,4.000000,4.000000,4.000000,4.000000,4.000000,4.000000,4.000000,4.000000,4.000000,4.000000,100.000000
1602006167.163096,7.000000,0.000000,4144.102539,4136.922852,4142.563965,4140.512695,4124.615234,4123.077148,4124.615234,4128.205078,4121.025879,4136.410156,4111.794922,4145.128418,4119.487305,4129.230957,675.000000,4.000000,,,,0.000000,4.000000,4.000000,4.000000,4.000000,4.000000,4.000000,4.000000,4.000000,4.000000,4.000000,4.000000,4.000000,4.000000,4.000000,100.000000
1602006167.170978,8.000000,0.000000,4141.538574,4139.487305,4141.538574,4144.102539,4129.230957,4130.769043,4132.307617,4136.410156,4122.051270,4126.153809,4123.589844,4152.307617,4123.077148,4137.436035,785.000000,4.000000,,,,0.000000,4.000000,4.000000,4.000000,4.000000,4.000000,4.000000,4.000000,4.000000,4.000000,4.000000,4.000000,4.000000,4.000000,4.000000,100.000000
1602006167.178859,9.000000,0.000000,4138.461426,4137.948730,4137.948730,4139.487305,4124.102539,4128.717773,4136.410156,4136.922852,4121.025879,4119.487305,4116.922852,4152.307617,4118.461426,4137.948730,841.000000,4.000000,,,,0.000000,4.000000,4.000000,4.000000,4.000000,4.000000,4.000000,4.000000,4.000000,4.000000,4.000000,4.000000,4.000000,4.000000,4.000000,100.000000
1602006167.186741,10.000000,0.000000,4148.717773,4136.410156,4136.922852,4135.897461,4117.436035,4125.128418,4135.384766,4135.897461,4124.102539,4118.461426,4107.179688,4140.512695,4120.512695,4133.333496,865.000000,4.000000,,,,0.000000,4.000000,4.000000,4.000000,4.000000,4.000000,4.000000,4.000000,4.000000,4.000000,4.000000,4.000000,4.000000,4.000000,4.000000,100.000000
1602006167.194623,11.000000,0.000000,4157.436035,4141.025879,4138.461426,4138.974121,4127.692383,4127.179688,4137.948730,4134.871582,4129.230957,4121.025879,4112.307617,4136.410156,4126.153809,4138.461426,838.000000,4.000000,,,,0.000000,4.000000,4.000000,4.000000,4.000000,4.000000,4.000000,4.000000,4.000000,4.000000,4.000000,4.000000,4.000000,4.000000,4.000000,100.000000
1602006167.202504,12.000000,0.000000,4145.641113,4144.615234,4140.000000,4138.974121,4135.384766,4124.615234,4134.871582,4127.179688,4126.666504,4133.333496,4109.230957,4140.512695,4125.128418,4142.051270,767.000000,4.000000,,,,0.000000,4.000000,4.000000,4.000000,4.000000,4.000000,4.000000,4.000000,4.000000,4.000000,4.000000,4.000000,4.000000,4.000000,4.000000,100.000000
1602006167.210485,13.000000,0.000000,4137.948730,4143.589844,4138.461426,4137.948730,4127.179688,4110.256348,4123.589844,4121.025879,4116.410156,4141.025879,4108.717773,4140.512695,4122.563965,4138.974121,744.000000,4.000000,,,,0.000000,4.000000,4.000000,4.000000,4.000000,4.000000,4.000000,4.000000,4.000000,4.000000,4.000000,4.000000,4.000000,4.000000,4.000000,100.000000
1602006167.218366,14.000000,0.000000,4142.051270,4140.000000,4135.384766,4136.922852,4120.000000,4100.000000,4120.000000,4121.025879,4106.153809,4140.000000,4121.538574,4138.974121,4123.077148,4139.487305,865.000000,4.000000,,,,0.000000,4.000000,4.000000,4.000000,4.000000,4.000000,4.000000,4.000000,4.000000,4.000000,4.000000,4.000000,4.000000,4.000000,4.000000,100.000000
1602006167.226348,15.000000,0.000000,4135.897461,4135.897461,4133.333496,4130.256348,4121.025879,4103.077148,4124.102539,4121.538574,4102.563965,4137.948730,4122.051270,4138.974121,4121.538574,4137.948730,838.000000,4.000000,,,,0.000000,4.000000,4.000000,4.000000,4.000000,4.000000,4.000000,4.000000,4.000000,4.000000,4.000000,4.000000,4.000000,4.000000,4.000000,100.000000
1602006167.234230,16.000000,0.000000,4134.871582,4135.384766,4135.384766,4127.179688,4121.538574,4109.743652,4129.743652,4128.205078,4113.333496,4135.384766,4115.897461,4137.948730,4121.538574,4136.922852,0.000000,4.000000,,,,0.000000,4.000000,4.000000,4.000000,4.000000,4.000000,4.000000,4.000000,4.000000,4.000000,4.000000,4.000000,4.000000,4.000000,4.000000,100.000000
1602006167.242111,17.000000,0.000000,4148.205078,4137.436035,4139.487305,4134.358887,4123.077148,4112.820313,4136.410156,4138.974121,4132.820313,4148.205078,4121.025879,4138.974121,4123.589844,4142.563965,0.000000,4.000000,,,,0.000000,4.000000,4.000000,4.000000,4.000000,4.000000,4.000000,4.000000,4.000000,4.000000,4.000000,4.000000,4.000000,4.000000,4.000000,100.000000
1602006167.249993,18.000000,0.000000,4148.717773,4136.922852,4138.461426,4138.974121,4123.077148,4118.461426,4138.461426,4140.512695,4137.436035,4156.922852,4116.922852,4140.512695,4118.974121,4141.025879,0.000000,4.000000,,,,0.000000,4.000000,4.000000,4.000000,4.000000,4.000000,4.000000,4.000000,4.000000,4.000000,4.000000,4.000000,4.000000,4.000000,4.000000,100.000000
1602006167.257875,19.000000,0.000000,4138.974121,4133.846191,4135.897461,4135.384766,4123.077148,4134.358887,4137.436035,4139.487305,4127.692383,4127.179688,4096.922852,4132.820313,4110.256348,4126.666504,0.000000,4.000000,,,,0.000000,4.000000,4.000000,4.000000,4.000000,4.000000,4.000000,4.000000,4.000000,4.000000,4.000000,4.000000,4.000000,4.000000,4.000000,100.000000
1602006167.265757,20.000000,0.000000,4139.487305,4127.692383,4134.871582,4134.871582,4131.282227,4143.077148,4138.974121,4135.897461,4117.948730,4090.769287,4089.230713,4124.102539,4100.000000,4117.948730,0.000000,4.000000,,,,0.000000,4.000000,4.000000,4.000000,4.000000,4.000000,4.000000,4.000000,4.000000,4.000000,4.000000,4.000000,4.000000,4.000000,4.000000,100.000000
1602006167.273639,21.000000,0.000000,4140.000000,4122.563965,4134.358887,4135.897461,4136.922852,4133.333496,4138.974121,4124.615234,4110.769043,4094.358887,4093.333252,4129.230957,4092.820557,4122.563965,0.000000,4.000000,,,,0.000000,4.000000,4.000000,4.000000,4.000000,4.000000,4.000000,4.000000,4.000000,4.000000,4.000000,4.000000,4.000000,4.000000,4.000000,100.000000
1602006167.281521,22.000000,0.000000,4138.974121,4131.282227,4138.461426,4137.436035,4136.410156,4131.794922,4136.410156,4121.538574,4113.846191,4124.615234,4102.051270,4143.589844,4103.589844,4131.282227,0.000000,4.000000,,,,0.000000,4.000000,4.000000,4.000000,4.000000,4.000000,4.000000,4.000000,4.000000,4.000000,4.000000,4.000000,4.000000,4.000000,4.000000,100.000000
1602006167.289403,23.000000,0.000000,4143.589844,4142.563965,4138.974121,4140.000000,4140.000000,4142.563965,4135.384766,4128.205078,4124.615234,4141.538574,4121.025879,4146.153809,4126.666504,4144.102539,0.000000,4.000000,,,,0.000000,4.000000,4.000000,4.000000,4.000000,4.000000,4.000000,4.000000,4.000000,4.000000,4.000000,4.000000,4.000000,4.000000,4.000000,100.000000
1602006167.297185,24.000000,0.000000,4137.948730,4138.461426,4131.794922,4139.487305,4142.051270,4131.794922,4129.743652,4123.589844,4121.538574,4141.025879,4126.666504,4137.436035,4129.230957,4146.153809,0.000000,4.000000,,,,0.000000,4.000000,4.000000,4.000000,4.000000,4.000000,4.000000,4.000000,4.000000,4.000000,4.000000,4.000000,4.000000,4.000000,4.000000,100.000000
1602006167.305067,25.000000,0.000000,4132.820313,4133.846191,4130.256348,4141.538574,4130.769043,4108.205078,4120.000000,4120.000000,4116.922852,4134.871582,4110.769043,4139.487305,4118.974121,4131.282227,0.000000,4.000000,,,,0.000000,4.000000,4.000000,4.000000,4.000000,4.000000,4.000000,4.000000,4.000000,4.000000,4.000000,4.000000,4.000000,4.000000,4.000000,100.000000
1602006167.312949,26.000000,0.000000,4148.717773,4138.974121,4139.487305,4141.538574,4123.077148,4108.205078,4120.512695,4133.846191,4130.256348,4125.641113,4109.230957,4152.307617,4127.179688,4126.153809,0.000000,4.000000,,,,0.000000,4.000000,4.000000,4.000000,4.000000,4.000000,4.000000,4.000000,4.000000,4.000000,4.000000,4.000000,4.000000,4.000000,4.000000,100.000000
1602006167.320830,27.000000,0.000000,4151.794922,4141.025879,4145.641113,4142.051270,4130.769043,4117.436035,4131.282227,4146.666504,4144.102539,4120.512695,4132.307617,4162.563965,4142.051270,4137.436035,0.000000,4.000000,,,,0.000000,4.000000,4.000000,4.000000,4.000000,4.000000,4.000000,4.000000,4.000000,4.000000,4.000000,4.000000,4.000000,4.000000,4.000000,100.000000
1602006167.328712,28.000000,0.000000,4143.589844,4141.538574,4144.102539,4148.717773,4138.461426,4121.025879,4137.948730,4153.333496,4151.794922,4139.487305,4139.487305,4169.230957,4143.077148,4145.128418,0.000000,4.000000,,,,0.000000,4.000000,4.000000,4.000000,4.000000,4.000000,4.000000,4.000000,4.000000,4.000000,4.000000,4.000000,4.000000,4.000000,4.000000,100.000000
1602006167.336594,29.000000,0.000000,4148.717773,4143.077148,4142.051270,4147.179688,4135.384766,4126.153809,4138.461426,4154.358887,4160.512695,4163.077148,4125.641113,4173.846191,4142.051270,4145.128418,0.000000,4.000000,,,,0.000000,4.000000,4.000000,4.000000,4.000000,4.000000,4.000000,4.000000,4.000000,4.000000,4.000000,4.000000,4.000000,4.000000,4.000000,100.000000
1602006167.344476,30.000000,0.000000,4151.282227,4138.461426,4141.025879,4135.897461,4133.333496,4129.743652,4138.461426,4144.102539,4157.436035,4154.871582,4119.487305,4168.205078,4139.487305,4139.487305,0.000000,4.000000,,,,0.000000,4.000000,4.000000,4.000000,4.000000,4.000000,4.000000,4.000000,4.000000,4.000000,4.000000,4.000000,4.000000,4.000000,4.000000,100.000000
1602006167.352358,31.000000,0.000000,4137.436035,4132.820313,4137.948730,4134.358887,4135.384766,4133.333496,4138.974121,4132.820313,4141.025879,4136.922852,4121.538574,4157.948730,4129.743652,4131.282227,0.000000,4.000000,,,,0.000000,4.000000,4.000000,4.000000,4.000000,4.000000,4.000000,4.000000,4.000000,4.000000,4.000000,4.000000,4.000000,4.000000,4.000000,100.000000
1602006167.360340,32.000000,0.000000,4134.871582,4134.871582,4135.897461,4141.538574,4135.897461,4140.512695,4139.487305,4135.384766,4134.871582,4142.051270,4122.051270,4160.000000,4129.743652,4133.333496,0.000000,4.000000,,,,0.000000,4.000000,4.000000,4.000000,4.000000,4.000000,4.000000,4.000000,4.000000,4.000000,4.000000,4.000000,4.000000,4.000000,4.000000,100.000000
1602006167.368222,33.000000,0.000000,4151.794922,4140.512695,4138.461426,4141.538574,4138.974121,4146.666504,4135.897461,4137.436035,4141.025879,4149.743652,4123.077148,4166.153809,4142.051270,4143.077148,0.000000,4.000000,,,,0.000000,4.000000,4.000000,4.000000,4.000000,4.000000,4.000000,4.000000,4.000000,4.000000,4.000000,4.000000,4.000000,4.000000,4.000000,100.000000
1602006167.376104,34.000000,0.000000,4149.743652,4138.974121,4135.384766,4137.948730,4137.436035,4140.000000,4127.179688,4125.641113,4131.794922,4130.256348,4119.487305,4160.000000,4135.897461,4136.410156,0.000000,4.000000,,,,0.000000,4.000000,4.000000,4.000000,4.000000,4.000000,4.000000,4.000000,4.000000,4.000000,4.000000,4.000000,4.000000,4.000000,4.000000,100.000000
1602006167.383986,35.000000,0.000000,4137.436035,4134.358887,4125.128418,4136.922852,4131.794922,4127.692383,4124.615234,4120.512695,4121.025879,4108.205078,4110.769043,4151.282227,4123.077148,4124.102539,0.000000,4.000000,,,,0.000000,4.000000,4.000000,4.000000,4.000000,4.000000,4.000000,4.000000,4.000000,4.000000,4.000000,4.000000,4.000000,4.000000,4.000000,100.000000
1602006167.391868,36.000000,0.000000,4136.410156,4130.769043,4121.538574,4134.358887,4128.717773,4125.128418,4127.179688,4131.282227,4131.282227,4122.051270,4106.153809,4149.230957,4125.641113,4125.128418,0.000000,4.000000,,,,0.000000,4.000000,4.000000,4.000000,4.000000,4.000000,4.000000,4.000000,4.000000,4.000000,4.000000,4.000000,4.000000,4.000000,4.000000,100.000000
1602006167.399751,37.000000,0.000000,4134.358887,4126.153809,4121.538574,4134.358887,4125.128418,4126.666504,4124.615234,4136.922852,4142.051270,4138.461426,4106.666504,4142.563965,4124.615234,4126.666504,0.000000,4.000000,,,,0.000000,4.000000,4.000000,4.000000,4.000000,4.000000,4.000000,4.000000,4.000000,4.000000,4.000000,4.000000,4.000000,4.000000,4.000000,100.000000
1602006167.407633,38.000000,0.000000,4134.358887,4128.205078,4123.589844,4137.436035,4125.128418,4127.179688,4126.153809,4133.846191,4141.538574,4126.153809,4108.205078,4137.948730,4119.487305,4123.589844,0.000000,4.000000,,,,0.000000,4.000000,4.000000,4.000000,4.000000,4.000000,4.000000,4.000000,4.000000,4.000000,4.000000,4.000000,4.000000,4.000000,4.000000,100.000000
1602006167.415515,39.000000,0.000000,4137.948730,4128.717773,4126.666504,4138.461426,4128.205078,4125.641113,4130.769043,4128.717773,4132.307617,4110.256348,4100.000000,4140.000000,4120.512695,4121.025879,0.000000,4.000000,,,,0.000000,4.000000,4.000000,4.000000,4.000000,4.000000,4.000000,4.000000,4.000000,4.000000,4.000000,4.000000,4.000000,4.000000,4.000000,100.000000
1602006167.423397,40.000000,0.000000,4135.897461,4122.051270,4122.051270,4135.384766,4123.589844,4121.538574,4126.153809,4122.051270,4115.897461,4101.538574,4094.358887,4136.922852,4119.487305,4116.922852,0.000000,4.000000,,,,0.000000,4.000000,4.000000,4.000000,4.000000,4.000000,4.000000,4.000000,4.000000,4.000000,4.000000,4.000000,4.000000,4.000000,4.000000,100.000000
1602006167.431279,41.000000,0.000000,4133.333496,4126.666504,4122.563965,4134.358887,4125.128418,4122.051270,4124.615234,4124.102539,4111.794922,4098.974121,4109.743652,4144.615234,4124.615234,4125.128418,0.000000,4.000000,,,,0.000000,4.000000,4.000000,4.000000,4.000000,4.000000,4.000000,4.000000,4.000000,4.000000,4.000000,4.000000,4.000000,4.000000,4.000000,100.000000
1602006167.439061,42.000000,0.000000,4138.461426,4142.051270,4137.436035,4138.974121,4137.436035,4130.256348,4130.256348,4135.897461,4127.179688,4112.307617,4126.153809,4159.487305,4136.922852,4144.102539,0.000000,4.000000,,,,0.000000,4.000000,4.000000,4.000000,4.000000,4.000000,4.000000,4.000000,4.000000,4.000000,4.000000,4.000000,4.000000,4.000000,4.000000,100.000000
1602006167.446943,43.000000,0.000000,4145.128418,4142.563965,4142.051270,4141.025879,4138.974121,4129.743652,4131.794922,4138.461426,4135.384766,4135.384766,4124.615234,4164.102539,4143.077148,4146.666504,0.000000,4.000000,,,,0.000000,4.000000,4.000000,4.000000,4.000000,4.000000,4.000000,4.000000,4.000000,4.000000,4.000000,4.000000,4.000000,4.000000,4.000000,100.000000
1602006167.454825,44.000000,0.000000,4151.282227,4135.897461,4135.384766,4139.487305,4134.358887,4121.025879,4133.333496,4134.358887,4138.461426,4153.333496,4122.563965,4165.128418,4148.717773,4140.512695,0.000000,4.000000,,,,0.000000,4.000000,4.000000,4.000000,4.000000,4.000000,4.000000,4.000000,4.000000,4.000000,4.000000,4.000000,4.000000,4.000000,4.000000,100.000000
1602006167.462708,45.000000,0.000000,4155.897461,4146.666504,4138.461426,4144.102539,4140.000000,4127.692383,4136.922852,4138.974121,4153.333496,4175.384766,4130.769043,4171.794922,4161.538574,4153.846191,0.000000,4.000000,,,,0.000000,4.000000,4.000000,4.000000,4.000000,4.000000,4.000000,4.000000,4.000000,4.000000,4.000000,4.000000,4.000000,4.000000,4.000000,100.000000
1602006167.470590,46.000000,0.000000,4152.307617,4152.307617,4143.077148,4150.769043,4144.615234,4138.974121,4135.384766,4141.538574,4154.871582,4183.589844,4127.179688,4175.384766,4157.436035,4162.051270,0.000000,4.000000,,,,0.000000,4.000000,4.000000,4.000000,4.000000,4.000000,4.000000,4.000000,4.000000,4.000000,4.000000,4.000000,4.000000,4.000000,4.000000,100.000000
1602006167.478472,47.000000,0.000000,4145.641113,4142.051270,4138.974121,4145.128418,4141.538574,4136.410156,4134.358887,4135.897461,4143.077148,4155.897461,4114.871582,4171.282227,4140.000000,4144.615234,0.000000,4.000000,,,,0.000000,4.000000,4.000000,4.000000,4.000000,4.000000,4.000000,4.000000,4.000000,4.000000,4.000000,4.000000,4.000000,4.000000,4.000000,100.000000
1602006167.486354,48.000000,0.000000,4140.512695,4136.410156,4128.717773,4133.333496,4134.358887,4128.205078,4136.410156,4134.358887,4143.589844,4136.922852,4115.384766,4161.025879,4137.436035,4123.589844,0.000000,4.000000,,,,0.000000,4.000000,4.000000,4.000000,4.000000,4.000000,4.000000,4.000000,4.000000,4.000000,4.000000,4.000000,4.000000,4.000000,4.000000,100.000000
1602006167.494236,49.000000,0.000000,4135.384766,4139.487305,4123.589844,4131.794922,4126.666504,4124.102539,4134.358887,4136.922852,4145.128418,4136.410156,4122.563965,4150.769043,4141.538574,4118.974121,0.000000,4.000000,,,,0.000000,4.000000,4.000000,4.000000,4.000000,4.000000,4.000000,4.000000,4.000000,4.000000,4.000000,4.000000,4.000000,4.000000,4.000000,100.000000
1602006167.502118,50.000000,0.000000,4135.384766,4141.025879,4131.794922,4140.000000,4127.692383,4123.589844,4134.358887,4137.436035,4136.922852,4129.743652,4122.051270,4150.256348,4138.461426,4129.743652,0.000000,4.000000,,,,0.000000,4.000000,4.000000,4.000000,4.000000,4.000000,4.000000,4.000000,4.000000,4.000000,4.000000,4.000000,4.000000,4.000000,4.000000,100.000000
1602006167.510100,51.000000,0.000000,4145.128418,4145.641113,4142.563965,4147.692383,4135.384766,4127.179688,4138.461426,4136.922852,4136.922852,4126.666504,4119.487305,4154.871582,4136.922852,4140.512695,0.000000,4.000000,,,,0.000000,4.000000,4.000000,4.000000,4.000000,4.000000,4.000000,4.000000,4.000000,4.000000,4.000000,4.000000,4.000000,4.000000,4.000000,100.000000
1602006167.517982,52.000000,0.000000,4157.436035,4153.333496,4143.077148,4153.846191,4137.948730,4133.333496,4140.512695,4136.410156,4146.666504,4137.948730,4119.487305,4154.871582,4141.025879,4140.512695,0.000000,4.000000,,,,0.000000,4.000000,4.000000,4.000000,4.000000,4.000000,4.000000,4.000000,4.000000,4.000000,4.000000,4.000000,4.000000,4.000000,4.000000,100.000000
1602006167.525864,53.000000,0.000000,4147.692383,4145.641113,4133.333496,4149.743652,4134.871582,4136.410156,4133.846191,4136.922852,4150.256348,4140.000000,4114.871582,4151.794922,4138.974121,4137.948730,0.000000,4.000000,,,,0.000000,4.000000,4.000000,4.000000,4.000000,4.000000,4.000000,4.000000,4.000000,4.000000,4.000000,4.000000,4.000000,4.000000,4.000000,100.000000
1602006167.533746,54.000000,0.000000,4135.897461,4138.461426,4130.256348,4140.512695,4135.897461,4136.410156,4129.230957,4140.512695,4149.743652,4141.538574,4112.820313,4152.820313,4140.512695,4138.974121,0.000000,4.000000,,,,0.000000,4.000000,4.000000,4.000000,4.000000,4.000000,4.000000,4.000000,4.000000,4.000000,4.000000,4.000000,4.000000,4.000000,4.000000,100.000000
1602006167.541627,55.000000,0.000000,4152.307617,4145.641113,4138.974121,4140.512695,4140.000000,4135.384766,4135.384766,4142.051270,4154.358887,4161.538574,4121.538574,4162.563965,4153.846191,4141.538574,0.000000,4.000000,,,,0.000000,4.000000,4.000000,4.000000,4.000000,4.000000,4.000000,4.000000,4.000000,4.000000,4.000000,4.000000,4.000000,4.000000,4.000000,100.000000
1602006167.549509,56.000000,0.000000,4154.871582,4144.615234,4139.487305,4141.538574,4140.512695,4138.461426,4142.051270,4145.128418,4159.487305,4163.589844,4123.077148,4169.230957,4150.256348,4133.846191,0.000000,4.000000,,,,0.000000,4.000000,4.000000,4.000000,4.000000,4.000000,4.000000,4.000000,4.000000,4.000000,4.000000,4.000000,4.000000,4.000000,4.000000,100.000000
1602006167.557391,57.000000,0.000000,4132.307617,4133.333496,4128.205078,4138.461426,4135.897461,4138.974121,4141.025879,4148.717773,4155.384766,4150.769043,4123.589844,4166.153809,4139.487305,4136.410156,0.000000,4.000000,,,,0.000000,4.000000,4.000000,4.000000,4.000000,4.000000,4.000000,4.000000,4.000000,4.000000,4.000000,4.000000,4.000000,4.000000,4.000000,100.000000
1602006167.565273,58.000000,0.000000,4136.410156,4131.794922,4121.538574,4136.410156,4132.820313,4132.307617,4140.000000,4144.615234,4145.128418,4158.974121,4135.384766,4162.563965,4149.230957,4163.077148,0.000000,4.000000,,,,0.000000,4.000000,4.000000,4.000000,4.000000,4.000000,4.000000,4.000000,4.000000,4.000000,4.000000,4.000000,4.000000,4.000000,4.000000,100.000000
1602006167.573055,59.000000,0.000000,4153.846191,4133.333496,4121.538574,4135.384766,4132.307617,4129.743652,4134.871582,4136.922852,4140.000000,4163.077148,4136.410156,4162.563965,4159.487305,4178.461426,0.000000,4.000000,,,,0.000000,4.000000,4.000000,4.000000,4.000000,4.000000,4.000000,4.000000,4.000000,4.000000,4.000000,4.000000,4.000000,4.000000,4.000000,100.000000
1602006167.580937,60.000000,0.000000,4153.846191,4130.769043,4124.615234,4135.384766,4128.205078,4130.256348,4126.666504,4134.871582,4137.948730,4141.025879,4124.615234,4165.128418,4152.820313,4172.307617,0.000000,4.000000,,,,0.000000,4.000000,4.000000,4.000000,4.000000,4.000000,4.000000,4.000000,4.000000,4.000000,4.000000,4.000000,4.000000,4.000000,4.000000,100.000000
1602006167.588819,61.000000,0.000000,4163.589844,4136.410156,4136.410156,4140.512695,4130.256348,4128.717773,4130.256348,4136.410156,4142.563965,4130.256348,4120.512695,4168.717773,4149.743652,4173.846191,0.000000,4.000000,,,,0.000000,4.000000,4.000000,4.000000,4.000000,4.000000,4.000000,4.000000,4.000000,4.000000,4.000000,4.000000,4.000000,4.000000,4.000000,100.000000
1602006167.596701,62.000000,0.000000,4173.846191,4135.384766,4140.000000,4139.487305,4135.897461,4126.153809,4136.922852,4135.897461,4144.615234,4133.846191,4117.436035,4168.205078,4145.641113,4173.846191,0.000000,4.000000,,,,0.000000,4.000000,4.000000,4.000000,4.000000,4.000000,4.000000,4.000000,4.000000,4.000000,4.000000,4.000000,4.000000,4.000000,4.000000,100.000000
1602006167.604583,63.000000,0.000000,4154.358887,4121.538574,4128.205078,4127.179688,4128.205078,4123.077148,4128.205078,4129.743652,4132.820313,4123.077148,4107.179688,4164.102539,4127.179688,4152.820313,0.000000,4.000000,,,,0.000000,4.000000,4.000000,4.000000,4.000000,4.000000,4.000000,4.000000,4.000000,4.000000,4.000000,4.000000,4.000000,4.000000,4.000000,100.000000
1602006167.612464,64.000000,0.000000,4137.948730,4117.948730,4129.230957,4125.641113,4124.615234,4121.025879,4118.974121,4126.153809,4128.717773,4122.051270,4105.128418,4163.589844,4122.563965,4143.077148,796.000000,4.000000,,,,0.000000,4.000000,4.000000,4.000000,4.000000,4.000000,4.000000,4.000000,4.000000,4.000000,4.000000,4.000000,4.000000,4.000000,4.000000,100.000000
1602006167.620346,65.000000,0.000000,4150.769043,4128.717773,4142.051270,4137.436035,4137.436035,4126.153809,4129.743652,4134.871582,4140.000000,4141.538574,4115.384766,4166.666504,4136.922852,4159.487305,793.000000,4.000000,,,,0.000000,4.000000,4.000000,4.000000,4.000000,4.000000,4.000000,4.000000,4.000000,4.000000,4.000000,4.000000,4.000000,4.000000,4.000000,100.000000
1602006167.628228,66.000000,0.000000,4166.666504,4129.743652,4142.051270,4141.025879,4135.897461,4126.666504,4139.487305,4141.538574,4140.512695,4146.666504,4121.025879,4167.179688,4140.512695,4166.666504,849.000000,4.000000,,,,0.000000,4.000000,4.000000,4.000000,4.000000,4.000000,4.000000,4.000000,4.000000,4.000000,4.000000,4.000000,4.000000,4.000000,4.000000,100.000000
1602006167.636210,67.000000,0.000000,4167.692383,4123.589844,4140.000000,4132.820313,4121.025879,4120.512695,4130.769043,4135.897461,4131.282227,4136.410156,4122.563965,4166.153809,4135.384766,4165.641113,875.000000,4.000000,,,,0.000000,4.000000,4.000000,4.000000,4.000000,4.000000,4.000000,4.000000,4.000000,4.000000,4.000000,4.000000,4.000000,4.000000,4.000000,100.000000
1602006167.644092,68.000000,0.000000,4166.153809,4130.769043,4152.820313,4135.384766,4130.256348,4128.717773,4127.692383,4134.358887,4131.794922,4135.384766,4126.153809,4169.230957,4146.666504,4174.358887,813.000000,4.000000,,,,0.000000,4.000000,4.000000,4.000000,4.000000,4.000000,4.000000,4.000000,4.000000,4.000000,4.000000,4.000000,4.000000,4.000000,4.000000,100.000000
1602006167.651974,69.000000,0.000000,4172.307617,4142.563965,4157.948730,4147.179688,4138.974121,4135.384766,4137.436035,4136.410156,4130.769043,4138.461426,4128.717773,4173.333496,4156.922852,4181.025879,822.000000,4.000000,,,,0.000000,4.000000,4.000000,4.000000,4.000000,4.000000,4.000000,4.000000,4.000000,4.000000,4.000000,4.000000,4.000000,4.000000,4.000000,100.000000
1602006167.659857,70.000000,0.000000,4171.282227,4141.538574,4143.589844,4146.666504,4129.743652,4126.153809,4138.461426,4135.897461,4120.512695,4136.922852,4127.692383,4168.205078,4144.615234,4167.179688,767.000000,4.000000,,,,0.000000,4.000000,4.000000,4.000000,4.000000,4.000000,4.000000,4.000000,4.000000,4.000000,4.000000,4.000000,4.000000,4.000000,4.000000,100.000000
1602006167.667739,71.000000,0.000000,4156.922852,4131.794922,4132.820313,4136.922852,4130.256348,4118.461426,4126.153809,4135.384766,4117.948730,4137.436035,4124.615234,4158.461426,4134.358887,4155.384766,675.000000,4.000000,,,,0.000000,4.000000,4.000000,4.000000,4.000000,4.000000,4.000000,4.000000,4.000000,4.000000,4.000000,4.000000,4.000000,4.000000,4.000000,100.000000
1602006167.675621,72.000000,0.000000,4150.256348,4129.743652,4133.333496,4135.384766,4136.922852,4121.538574,4124.615234,4135.384766,4129.743652,4144.102539,4124.615234,4152.307617,4141.025879,4154.871582,785.000000,4.000000,,,,0.000000,4.000000,4.000000,4.000000,4.000000,4.000000,4.000000,4.000000,4.000000,4.000000,4.000000,4.000000,4.000000,4.000000,4.000000,100.000000
1602006167.683503,73.000000,0.000000,4157.436035,4136.410156,4136.410156,4140.512695,4136.410156,4130.256348,4133.333496,4137.948730,4141.538574,4154.871582,4130.256348,4154.871582,4151.282227,4151.794922,841.000000,4.000000,,,,0.000000,4.000000,4.000000,4.000000,4.000000,4.000000,4.000000,4.000000,4.000000,4.000000,4.000000,4.000000,4.000000,4.000000,4.000000,100.000000
1602006167.691385,74.000000,0.000000,4158.974121,4140.000000,4138.974121,4141.538574,4136.922852,4140.000000,4138.461426,4141.025879,4148.717773,4156.922852,4136.922852,4166.153809,4157.948730,4160.512695,865.000000,4.000000,,,,0.000000,4.000000,4.000000,4.000000,4.000000,4.000000,4.000000,4.000000,4.000000,4.000000,4.000000,4.000000,4.000000,4.000000,4.000000,100.000000
1602006167.699267,75.000000,0.000000,4153.333496,4134.358887,4136.410156,4138.974121,4133.846191,4134.358887,4133.333496,4140.000000,4154.871582,4144.102539,4134.358887,4168.205078,4151.282227,4173.333496,838.000000,4.000000,,,,0.000000,4.000000,4.000000,4.000000,4.000000,4.000000,4.000000,4.000000,4.000000,4.000000,4.000000,4.000000,4.000000,4.000000,4.000000,100.000000
1602006167.707249,76.000000,0.000000,4151.282227,4131.282227,4133.333496,4137.948730,4127.692383,4118.461426,4129.743652,4138.461426,4150.769043,4140.000000,4124.615234,4157.436035,4142.563965,4163.077148,767.000000,4.000000,,,,0.000000,4.000000,4.000000,4.000000,4.000000,4.000000,4.000000,4.000000,4.000000,4.000000,4.000000,4.000000,4.000000,4.000000,4.000000,100.000000
1602006167.715130,77.000000,0.000000,4154.871582,4136.410156,4136.410156,4142.051270,4133.333496,4124.102539,4134.871582,4142.563965,4144.102539,4153.333496,4121.538574,4152.820313,4150.769043,4147.692383,744.000000,4.000000,,,,0.000000,4.000000,4.000000,4.000000,4.000000,4.000000,4.000000,4.000000,4.000000,4.000000,4.000000,4.000000,4.000000,4.000000,4.000000,100.000000
1602006167.723012,78.000000,0.000000,4156.410156,4137.436035,4135.384766,4144.102539,4138.974121,4134.871582,4137.948730,4138.974121,4141.538574,4154.871582,4126.153809,4155.897461,4154.358887,4150.769043,865.000000,4.000000,,,,0.000000,4.000000,4.000000,4.000000,4.000000,4.000000,4.000000,4.000000,4.000000,4.000000,4.000000,4.000000,4.000000,4.000000,4.000000,100.000000
1602006167.730894,79.000000,0.000000,4153.846191,4134.871582,4126.153809,4139.487305,4135.384766,4127.179688,4129.743652,4125.128418,4129.743652,4141.025879,4130.256348,4151.794922,4142.051270,4155.384766,838.000000,4.000000,,,,0.000000,4.000000,4.000000,4.000000,4.000000,4.000000,4.000000,4.000000,4.000000,4.000000,4.000000,4.000000,4.000000,4.000000,4.000000,100.000000
1602006167.738775,80.000000,0.000000,4151.794922,4136.922852,4123.589844,4145.641113,4142.051270,4121.025879,4119.487305,4118.461426,4116.922852,4125.641113,4125.641113,4149.230957,4136.410156,4152.307617,767.000000,4.000000,,,,0.000000,4.000000,4.000000,4.000000,4.000000,4.000000,4.000000,4.000000,4.000000,4.000000,4.000000,4.000000,4.000000,4.000000,4.000000,100.000000
1602006167.746657,81.000000,0.000000,4155.384766,4141.538574,4130.256348,4154.871582,4149.743652,4129.230957,4118.461426,4122.051270,4120.512695,4121.538574,4118.461426,4151.282227,4141.025879,4153.846191,744.000000,4.000000,,,,0.000000,4.000000,4.000000,4.000000,4.000000,4.000000,4.000000,4.000000,4.000000,4.000000,4.000000,4.000000,4.000000,4.000000,4.000000,100.000000
1602006167.754639,82.000000,0.000000,4151.794922,4139.487305,4127.692383,4146.153809,4144.102539,4139.487305,4121.538574,4122.563965,4125.128418,4131.282227,4124.102539,4143.077148,4141.538574,4151.282227,865.000000,4.000000,,,,0.000000,4.000000,4.000000,4.000000,4.000000,4.000000,4.000000,4.000000,4.000000,4.000000,4.000000,4.000000,4.000000,4.000000,4.000000,100.000000
1602006167.762521,83.000000,0.000000,4140.000000,4130.256348,4113.846191,4133.846191,4137.948730,4134.358887,4122.563965,4121.025879,4122.051270,4133.333496,4122.051270,4133.333496,4136.410156,4143.589844,838.000000,4.000000,,,,0.000000,4.000000,4.000000,4.000000,4.000000,4.000000,4.000000,4.000000,4.000000,4.000000,4.000000,4.000000,4.000000,4.000000,4.000000,100.000000
1602006167.770403,84.000000,0.000000,4140.512695,4119.487305,4110.769043,4133.846191,4134.358887,4123.589844,4124.102539,4121.538574,4119.487305,4124.615234,4104.615234,4135.384766,4129.230957,4137.436035,767.000000,4.000000,,,,0.000000,4.000000,4.000000,4.000000,4.000000,4.000000,4.000000,4.000000,4.000000,4.000000,4.000000,4.000000,4.000000,4.000000,4.000000,100.000000
1602006167.778285,85.000000,0.000000,4152.820313,4123.077148,4121.538574,4137.948730,4130.256348,4127.179688,4127.692383,4123.589844,4120.000000,4128.717773,4107.179688,4140.000000,4130.769043,4136.410156,744.000000,4.000000,,,,0.000000,4.000000,4.000000,4.000000,4.000000,4.000000,4.000000,4.000000,4.000000,4.000000,4.000000,4.000000,4.000000,4.000000,4.000000,100.000000
1602006167.786167,86.000000,0.000000,4158.974121,4140.000000,4126.666504,4143.589844,4133.333496,4137.948730,4128.717773,4130.769043,4128.717773,4144.615234,4130.769043,4140.000000,4148.717773,4146.153809,865.000000,4.000000,,,,0.000000,4.000000,4.000000,4.000000,4.000000,4.000000,4.000000,4.000000,4.000000,4.000000,4.000000,4.000000,4.000000,4.000000,4.000000,100.000000
1602006167.794050,87.000000,0.000000,4155.384766,4135.897461,4125.128418,4145.128418,4141.025879,4139.487305,4127.179688,4135.897461,4142.051270,4141.538574,4135.384766,4143.077148,4155.897461,4154.358887,838.000000,4.000000,,,,0.000000,4.000000,4.000000,4.000000,4.000000,4.000000,4.000000,4.000000,4.000000,4.000000,4.000000,4.000000,4.000000,4.000000,4.000000,100.000000
1602006167.801932,88.000000,0.000000,4150.256348,4118.974121,4126.153809,4137.948730,4138.974121,4132.820313,4126.153809,4129.230957,4140.000000,4125.641113,4124.615234,4145.641113,4144.102539,4154.358887,767.000000,4.000000,,,,0.000000,4.000000,4.000000,4.000000,4.000000,4.000000,4.000000,4.000000,4.000000,4.000000,4.000000,4.000000,4.000000,4.000000,4.000000,100.000000
1602006167.809814,89.000000,0.000000,4150.256348,4127.692383,4127.179688,4140.512695,4132.820313,4125.641113,4118.461426,4118.974121,4134.871582,4126.666504,4125.128418,4142.563965,4136.922852,4148.717773,744.000000,4.000000,,,,0.000000,4.000000,4.000000,4.000000,4.000000,4.000000,4.000000,4.000000,4.000000,4.000000,4.000000,4.000000,4.000000,4.000000,4.000000,100.000000
1602006167.817696,90.000000,0.000000,4156.410156,4148.205078,4128.717773,4148.205078,4131.794922,4118.461426,4109.743652,4118.974121,4140.512695,4139.487305,4124.615234,4141.538574,4137.436035,4141.025879,865.000000,4.000000,,,,0.000000,4.000000,4.000000,4.000000,4.000000,4.000000,4.000000,4.000000,4.000000,4.000000,4.000000,4.000000,4.000000,4.000000,4.000000,100.000000
1602006167.825677,91.000000,0.000000,4151.794922,4145.641113,4122.563965,4142.563965,4129.743652,4116.410156,4112.820313,4118.461426,4130.769043,4136.922852,4113.333496,4137.948730,4123.077148,4125.128418,838.000000,4.000000,,,,0.000000,4.000000,4.000000,4.000000,4.000000,4.000000,4.000000,4.000000,4.000000,4.000000,4.000000,4.000000,4.000000,4.000000,4.000000,100.000000
1602006167.833559,92.000000,0.000000,4137.948730,4135.897461,4107.179688,4134.871582,4127.692383,4117.948730,4119.487305,4112.820313,4105.641113,4115.384766,4105.641113,4126.666504,4104.102539,4112.307617,767.000000,4.000000,,,,0.000000,4.000000,4.000000,4.000000,4.000000,4.000000,4.000000,4.000000,4.000000,4.000000,4.000000,4.000000,4.000000,4.000000,4.000000,100.000000
1602006167.841440,93.000000,0.000000,4142.051270,4143.589844,4108.205078,4141.538574,4125.641113,4119.487305,4120.000000,4114.871582,4102.563965,4115.897461,4103.589844,4126.153809,4110.256348,4117.948730,744.000000,4.000000,,,,0.000000,4.000000,4.000000,4.000000,4.000000,4.000000,4.000000,4.000000,4.000000,4.000000,4.000000,4.000000,4.000000,4.000000,4.000000,100.000000
1602006167.849321,94.000000,0.000000,4155.897461,4154.871582,4132.820313,4152.820313,4128.205078,4123.077148,4123.077148,4122.563965,4125.641113,4140.512695,4110.256348,4141.538574,4125.128418,4126.153809,865.000000,4.000000,,,,0.000000,4.000000,4.000000,4.000000,4.000000,4.000000,4.000000,4.000000,4.000000,4.000000,4.000000,4.000000,4.000000,4.000000,4.000000,100.000000
1602006167.857203,95.000000,0.000000,4156.922852,4157.436035,4142.051270,4154.871582,4134.871582,4124.102539,4125.641113,4126.666504,4141.025879,4142.563965,4115.897461,4147.179688,4124.102539,4124.615234,838.000000,4.000000,,,,0.000000,4.000000,4.000000,4.000000,4.000000,4.000000,4.000000,4.000000,4.000000,4.000000,4.000000,4.000000,4.000000,4.000000,4.000000,100.000000
1602006167.864985,96.000000,0.000000,4153.846191,4155.897461,4134.358887,4154.358887,4140.000000,4129.743652,4125.128418,4128.205078,4131.794922,4125.128418,4114.871582,4142.051270,4120.512695,4122.563965,767.000000,4.000000,,,,0.000000,4.000000,4.000000,4.000000,4.000000,4.000000,4.000000,4.000000,4.000000,4.000000,4.000000,4.000000,4.000000,4.000000,4.000000,100.000000
1602006167.872866,97.000000,0.000000,4157.948730,4155.897461,4138.461426,4153.333496,4141.025879,4136.410156,4124.102539,4132.820313,4121.025879,4120.512695,4117.436035,4142.051270,4124.102539,4125.641113,744.000000,4.000000,,,,0.000000,4.000000,4.000000,4.000000,4.000000,4.000000,4.000000,4.000000,4.000000,4.000000,4.000000,4.000000,4.000000,4.000000,4.000000,100.000000
1602006167.880748,98.000000,0.000000,4154.871582,4152.820313,4142.563965,4147.692383,4136.410156,4131.794922,4123.077148,4132.820313,4126.153809,4124.615234,4122.051270,4143.077148,4118.974121,4128.205078,865.000000,4.000000,,,,0.000000,4.000000,4.000000,4.000000,4.000000,4.000000,4.000000,4.000000,4.000000,4.000000,4.000000,4.000000,4.000000,4.000000,4.000000,100.000000
1602006167.888629,99.000000,0.000000,4138.974121,4141.538574,4131.282227,4137.436035,4126.666504,4124.615234,4123.589844,4127.692383,4129.743652,4115.897461,4111.282227,4137.436035,4100.512695,4120.000000,838.000000,4.000000,,,,0.000000,4.000000,4.000000,4.000000,4.000000,4.000000,4.000000,4.000000,4.000000,4.000000,4.000000,4.000000,4.000000,4.000000,4.000000,100.000000
1602006167.896511,100.000000,0.000000,4126.666504,4134.358887,4122.051270,4129.230957,4121.025879,4124.615234,4123.589844,4123.589844,4118.974121,4102.563965,4093.846191,4126.666504,4089.743652,4107.692383,767.000000,4.000000,,,,0.000000,4.000000,4.000000,4.000000,4.000000,4.000000,4.000000,4.000000,4.000000,4.000000,4.000000,4.000000,4.000000,4.000000,4.000000,100.000000
1602006167.904393,101.000000,0.000000,4132.307617,4136.922852,4123.077148,4130.256348,4124.615234,4129.743652,4124.615234,4128.205078,4117.948730,4108.205078,4094.871826,4120.512695,4095.897461,4104.102539,744.000000,4.000000,,,,0.000000,4.000000,4.000000,4.000000,4.000000,4.000000,4.000000,4.000000,4.000000,4.000000,4.000000,4.000000,4.000000,4.000000,4.000000,100.000000
1602006167.912175,102.000000,0.000000,4137.948730,4138.974121,4122.051270,4134.358887,4123.077148,4132.307617,4130.769043,4135.897461,4127.692383,4125.128418,4108.205078,4126.153809,4105.641113,4107.692383,865.000000,4.000000,,,,0.000000,4.000000,4.000000,4.000000,4.000000,4.000000,4.000000,4.000000,4.000000,4.000000,4.000000,4.000000,4.000000,4.000000,4.000000,100.000000
1602006167.920057,103.000000,0.000000,4128.717773,4136.922852,4117.948730,4137.436035,4125.128418,4129.230957,4139.487305,4138.461426,4127.179688,4138.461426,4113.333496,4134.358887,4106.153809,4107.692383,838.000000,4.000000,,,,0.000000,4.000000,4.000000,4.000000,4.000000,4.000000,4.000000,4.000000,4.000000,4.000000,4.000000,4.000000,4.000000,4.000000,4.000000,100.000000
1602006167.927939,104.000000,0.000000,4128.717773,4144.102539,4120.000000,4141.025879,4135.384766,4124.102539,4144.102539,4140.000000,4129.230957,4141.025879,4109.230957,4136.410156,4108.717773,4114.871582,767.000000,4.000000,,,,0.000000,4.000000,4.000000,4.000000,4.000000,4.000000,4.000000,4.000000,4.000000,4.000000,4.000000,4.000000,4.000000,4.000000,4.000000,100.000000
1602006167.935820,105.000000,0.000000,4138.974121,4153.333496,4120.000000,4144.102539,4133.846191,4122.563965,4144.102539,4141.025879,4138.974121,4132.307617,4114.871582,4135.384766,4118.974121,4127.692383,744.000000,4.000000,,,,0.000000,4.000000,4.000000,4.000000,4.000000,4.000000,4.000000,4.000000,4.000000,4.000000,4.000000,4.000000,4.000000,4.000000,4.000000,100.000000
1602006167.943702,106.000000,0.000000,4139.487305,4147.179688,4118.461426,4139.487305,4127.179688,4126.153809,4142.563965,4140.512695,4137.948730,4126.153809,4122.563965,4137.436035,4119.487305,4126.153809,865.000000,4.000000,,,,0.000000,4.000000,4.000000,4.000000,4.000000,4.000000,4.000000,4.000000,4.000000,4.000000,4.000000,4.000000,4.000000,4.000000,4.000000,100.000000
1602006167.951584,107.000000,0.000000,4134.358887,4141.538574,4122.563965,4136.410156,4132.820313,4134.358887,4139.487305,4142.051270,4132.307617,4135.897461,4115.384766,4138.974121,4109.743652,4122.563965,838.000000,4.000000,,,,0.000000,4.000000,4.000000,4.000000,4.000000,4.000000,4.000000,4.000000,4.000000,4.000000,4.000000,4.000000,4.000000,4.000000,4.000000,100.000000
1602006167.959466,108.000000,0.000000,4133.846191,4146.666504,4126.666504,4143.077148,4140.512695,4144.102539,4138.974121,4143.077148,4134.358887,4146.153809,4112.820313,4137.436035,4105.128418,4125.641113,767.000000,4.000000,,,,0.000000,4.000000,4.000000,4.000000,4.000000,4.000000,4.000000,4.000000,4.000000,4.000000,4.000000,4.000000,4.000000,4.000000,4.000000,100.000000
1602006167.967348,109.000000,0.000000,4135.384766,4145.641113,4124.102539,4142.563965,4139.487305,4146.153809,4134.358887,4141.538574,4137.436035,4131.794922,4119.487305,4133.333496,4109.230957,4122.051270,744.000000,4.000000,,,,0.000000,4.000000,4.000000,4.000000,4.000000,4.000000,4.000000,4.000000,4.000000,4.000000,4.000000,4.000000,4.000000,4.000000,4.000000,100.000000
1602006167.975129,110.000000,0.000000,4135.897461,4139.487305,4120.512695,4138.974121,4137.436035,4140.000000,4124.615234,4136.922852,4134.871582,4120.512695,4121.538574,4135.384766,4114.358887,4117.436035,865.000000,4.000000,,,,0.000000,4.000000,4.000000,4.000000,4.000000,4.000000,4.000000,4.000000,4.000000,4.000000,4.000000,4.000000,4.000000,4.000000,4.000000,100.000000
1602006167.983011,111.000000,0.000000,4129.743652,4138.974121,4120.512695,4138.974121,4137.436035,4136.410156,4118.461426,4129.230957,4127.179688,4126.153809,4118.461426,4141.025879,4112.307617,4121.025879,838.000000,4.000000,,,,0.000000,4.000000,4.000000,4.000000,4.000000,4.000000,4.000000,4.000000,4.000000,4.000000,4.000000,4.000000,4.000000,4.000000,4.000000,100.000000
1602006167.990892,112.000000,0.000000,4122.051270,4137.948730,4121.025879,4138.461426,4137.948730,4136.410156,4120.000000,4125.128418,4114.358887,4121.538574,4111.282227,4141.025879,4107.179688,4122.051270,767.000000,4.000000,,,,0.000000,4.000000,4.000000,4.000000,4.000000,4.000000,4.000000,4.000000,4.000000,4.000000,4.000000,4.000000,4.000000,4.000000,4.000000,100.000000
1602006167.998774,113.000000,0.000000,4129.230957,4143.077148,4122.051270,4143.077148,4139.487305,4136.410156,4123.077148,4127.692383,4113.333496,4122.563965,4103.589844,4140.000000,4112.307617,4117.948730,744.000000,4.000000,,,,0.000000,4.000000,4.000000,4.000000,4.000000,4.000000,4.000000,4.000000,4.000000,4.000000,4.000000,4.000000,4.000000,4.000000,4.000000,100.000000
1602006168.006655,114.000000,0.000000,4137.948730,4150.256348,4121.025879,4151.282227,4138.461426,4135.384766,4119.487305,4126.153809,4125.641113,4143.589844,4110.256348,4138.461426,4119.487305,4117.948730,865.000000,4.000000,,,,0.000000,4.000000,4.000000,4.000000,4.000000,4.000000,4.000000,4.000000,4.000000,4.000000,4.000000,4.000000,4.000000,4.000000,4.000000,100.000000
1602006168.014437,115.000000,0.000000,4139.487305,4153.333496,4120.512695,4154.358887,4141.025879,4137.436035,4118.461426,4128.205078,4138.461426,4157.436035,4122.563965,4133.846191,4121.025879,4124.615234,838.000000,4.000000,,,,0.000000,4.000000,4.000000,4.000000,4.000000,4.000000,4.000000,4.000000,4.000000,4.000000,4.000000,4.000000,4.000000,4.000000,4.000000,100.000000
1602006168.022319,116.000000,0.000000,4143.589844,4156.410156,4124.102539,4147.692383,4144.102539,4140.512695,4128.205078,4138.974121,4151.282227,4154.871582,4121.538574,4141.025879,4125.128418,4129.743652,767.000000,4.000000,,,,0.000000,4.000000,4.000000,4.000000,4.000000,4.000000,4.000000,4.000000,4.000000,4.000000,4.000000,4.000000,4.000000,4.000000,4.000000,100.000000
1602006168.030201,117.000000,0.000000,4144.102539,4151.794922,4128.717773,4140.512695,4139.487305,4138.974121,4138.974121,4142.563965,4149.743652,4151.282227,4122.563965,4154.358887,4127.179688,4126.666504,744.000000,4.000000,,,,0.000000,4.000000,4.000000,4.000000,4.000000,4.000000,4.000000,4.000000,4.000000,4.000000,4.000000,4.000000,4.000000,4.000000,4.000000,100.000000
1602006168.038083,118.000000,0.000000,4139.487305,4140.000000,4131.794922,4139.487305,4134.871582,4136.410156,4138.461426,4138.974121,4133.333496,4149.743652,4123.589844,4152.307617,4125.128418,4123.077148,865.000000,4.000000,,,,0.000000,4.000000,4.000000,4.000000,4.000000,4.000000,4.000000,4.000000,4.000000,4.000000,4.000000,4.000000,4.000000,4.000000,4.000000,100.000000
1602006168.045965,119.000000,0.000000,4138.974121,4140.512695,4134.871582,4141.538574,4137.948730,4136.922852,4136.922852,4138.461426,4129.743652,4133.846191,4116.410156,4142.563965,4122.051270,4123.589844,838.000000,4.000000,,,,0.000000,4.000000,4.000000,4.000000,4.000000,4.000000,4.000000,4.000000,4.000000,4.000000,4.000000,4.000000,4.000000,4.000000,4.000000,100.000000
1602006168.053846,120.000000,0.000000,4139.487305,4144.102539,4136.922852,4140.512695,4140.000000,4136.410156,4136.922852,4138.461426,4132.820313,4115.384766,4110.256348,4140.000000,4112.820313,4121.538574,767.000000,4.000000,,,,0.000000,4.000000,4.000000,4.000000,4.000000,4.000000,4.000000,4.000000,4.000000,4.000000,4.000000,4.000000,4.000000,4.000000,4.000000,100.000000
1602006168.061728,121.000000,0.000000,4138.974121,4140.000000,4135.897461,4137.948730,4135.897461,4134.358887,4128.717773,4135.897461,4126.153809,4121.538574,4108.717773,4142.563965,4104.615234,4118.974121,744.000000,4.000000,,,,0.000000,4.000000,4.000000,4.000000,4.000000,4.000000,4.000000,4.000000,4.000000,4.000000,4.000000,4.000000,4.000000,4.000000,4.000000,100.000000
1602006168.069610,122.000000,0.000000,4142.563965,4146.153809,4138.974121,4142.051270,4136.922852,4135.897461,4122.563965,4136.922852,4132.307617,4153.333496,4105.641113,4150.256348,4116.922852,4124.102539,865.000000,4.000000,,,,0.000000,4.000000,4.000000,4.000000,4.000000,4.000000,4.000000,4.000000,4.000000,4.000000,4.000000,4.000000,4.000000,4.000000,4.000000,100.000000
1602006168.077392,123.000000,0.000000,4142.563965,4153.333496,4143.077148,4143.077148,4140.000000,4136.410156,4123.589844,4138.461426,4147.179688,4163.077148,4107.692383,4157.948730,4131.282227,4130.256348,838.000000,4.000000,,,,0.000000,4.000000,4.000000,4.000000,4.000000,4.000000,4.000000,4.000000,4.000000,4.000000,4.000000,4.000000,4.000000,4.000000,4.000000,100.000000
1602006168.085273,124.000000,0.000000,4135.384766,4145.128418,4136.922852,4138.974121,4136.922852,4136.922852,4121.025879,4133.846191,4141.538574,4138.461426,4118.461426,4150.256348,4123.589844,4126.666504,767.000000,4.000000,,,,0.000000,4.000000,4.000000,4.000000,4.000000,4.000000,4.000000,4.000000,4.000000,4.000000,4.000000,4.000000,4.000000,4.000000,4.000000,100.000000
1602006168.093154,125.000000,0.000000,4134.871582,4138.974121,4127.179688,4136.922852,4137.948730,4143.077148,4125.128418,4134.871582,4134.871582,4140.000000,4122.563965,4140.512695,4124.615234,4124.102539,744.000000,4.000000,,,,0.000000,4.000000,4.000000,4.000000,4.000000,4.000000,4.000000,4.000000,4.000000,4.000000,4.000000,4.000000,4.000000,4.000000,4.000000,100.000000
1602006168.101036,126.000000,0.000000,4141.025879,4143.589844,4125.641113,4141.025879,4142.051270,4147.179688,4140.000000,4140.512695,4140.000000,4164.102539,4122.563965,4144.102539,4136.410156,4130.256348,865.000000,4.000000,,,,0.000000,4.000000,4.000000,4.000000,4.000000,4.000000,4.000000,4.000000,4.000000,4.000000,4.000000,4.000000,4.000000,4.000000,4.000000,100.000000
1602006168.108917,127.000000,0.000000,4136.410156,4143.077148,4127.179688,4139.487305,4137.948730,4141.025879,4144.102539,4138.461426,4140.512695,4164.102539,4127.179688,4143.077148,4131.282227,4133.333496,838.000000,4.000000,,,,0.000000,4.000000,4.000000,4.000000,4.000000,4.000000,4.000000,4.000000,4.000000,4.000000,4.000000,4.000000,4.000000,4.000000,4.000000,100.000000
1602006168.116799,128.000000,0.000000,4120.512695,4133.333496,4118.974121,4127.179688,4132.820313,4136.922852,4135.897461,4135.897461,4138.461426,4149.230957,4118.974121,4128.205078,4118.461426,4121.025879,767.000000,4.000000,,,,0.000000,4.000000,4.000000,4.000000,4.000000,4.000000,4.000000,4.000000,4.000000,4.000000,4.000000,4.000000,4.000000,4.000000,4.000000,100.000000
1602006168.124580,0.000000,0.000000,4111.282227,4127.692383,4108.717773,4122.563965,4136.922852,4137.948730,4134.871582,4140.000000,4138.461426,4148.205078,4107.692383,4121.025879,4114.358887,4106.666504,797.000000,4.000000,,,,0.000000,4.000000,4.000000,4.000000,4.000000,4.000000,4.000000,4.000000,4.000000,4.000000,4.000000,4.000000,4.000000,4.000000,4.000000,100.000000
1602006168.132462,1.000000,0.000000,4111.794922,4124.615234,4104.615234,4125.128418,4135.897461,4132.307617,4132.307617,4138.461426,4131.282227,4135.384766,4104.102539,4127.179688,4108.205078,4105.128418,793.000000,4.000000,,,,0.000000,4.000000,4.000000,4.000000,4.000000,4.000000,4.000000,4.000000,4.000000,4.000000,4.000000,4.000000,4.000000,4.000000,4.000000,100.000000
1602006168.140343,2.000000,0.000000,4109.743652,4123.589844,4104.102539,4122.563965,4130.256348,4123.077148,4123.077148,4134.358887,4124.102539,4105.641113,4094.358887,4129.230957,4101.538574,4104.102539,849.000000,4.000000,,,,0.000000,4.000000,4.000000,4.000000,4.000000,4.000000,4.000000,4.000000,4.000000,4.000000,4.000000,4.000000,4.000000,4.000000,4.000000,100.000000
1602006168.148224,3.000000,0.000000,4109.230957,4127.692383,4110.256348,4124.615234,4132.307617,4125.128418,4122.051270,4135.897461,4131.282227,4109.743652,4091.281982,4133.333496,4109.743652,4104.615234,874.000000,4.000000,,,,0.000000,4.000000,4.000000,4.000000,4.000000,4.000000,4.000000,4.000000,4.000000,4.000000,4.000000,4.000000,4.000000,4.000000,4.000000,100.000000
1602006168.156106,4.000000,0.000000,4116.410156,4135.384766,4120.512695,4134.871582,4140.000000,4134.871582,4126.666504,4134.358887,4140.000000,4137.436035,4109.743652,4145.641113,4119.487305,4117.948730,813.000000,4.000000,,,,0.000000,4.000000,4.000000,4.000000,4.000000,4.000000,4.000000,4.000000,4.000000,4.000000,4.000000,4.000000,4.000000,4.000000,4.000000,100.000000
1602006168.164087,5.000000,0.000000,4121.025879,4138.461426,4125.128418,4137.948730,4140.512695,4137.436035,4124.615234,4125.641113,4135.897461,4140.512695,4124.615234,4154.871582,4122.563965,4127.692383,822.000000,4.000000,,,,0.000000,4.000000,4.000000,4.000000,4.000000,4.000000,4.000000,4.000000,4.000000,4.000000,4.000000,4.000000,4.000000,4.000000,4.000000,100.000000
1602006168.171969,6.000000,0.000000,4122.051270,4137.948730,4124.102539,4136.410156,4140.512695,4136.922852,4123.077148,4123.077148,4132.307617,4131.794922,4123.589844,4163.589844,4131.794922,4126.153809,767.000000,4.000000,,,,0.000000,4.000000,4.000000,4.000000,4.000000,4.000000,4.000000,4.000000,4.000000,4.000000,4.000000,4.000000,4.000000,4.000000,4.000000,100.000000
1602006168.179851,7.000000,0.000000,4123.589844,4141.538574,4126.666504,4141.538574,4149.230957,4138.974121,4120.512695,4122.051270,4140.512695,4140.512695,4122.051270,4169.230957,4141.538574,4127.692383,675.000000,4.000000,,,,0.000000,4.000000,4.000000,4.000000,4.000000,4.000000,4.000000,4.000000,4.000000,4.000000,4.000000,4.000000,4.000000,4.000000,4.000000,100.000000
1602006168.187732,8.000000,0.000000,4115.897461,4139.487305,4123.589844,4138.461426,4154.358887,4139.487305,4119.487305,4121.538574,4151.794922,4152.820313,4121.538574,4161.025879,4135.384766,4127.179688,785.000000,4.000000,,,,0.000000,4.000000,4.000000,4.000000,4.000000,4.000000,4.000000,4.000000,4.000000,4.000000,4.000000,4.000000,4.000000,4.000000,4.000000,100.000000
1602006168.195614,9.000000,0.000000,4105.641113,4130.256348,4111.282227,4128.717773,4146.153809,4146.153809,4131.282227,4130.769043,4163.077148,4143.589844,4121.025879,4148.717773,4124.102539,4115.384766,841.000000,4.000000,,,,0.000000,4.000000,4.000000,4.000000,4.000000,4.000000,4.000000,4.000000,4.000000,4.000000,4.000000,4.000000,4.000000,4.000000,4.000000,100.000000
1602006168.203496,10.000000,0.000000,4106.666504,4126.666504,4101.538574,4127.692383,4137.948730,4154.358887,4144.102539,4141.025879,4174.358887,4135.897461,4118.974121,4146.153809,4124.102539,4105.128418,865.000000,4.000000,,,,0.000000,4.000000,4.000000,4.000000,4.000000,4.000000,4.000000,4.000000,4.000000,4.000000,4.000000,4.000000,4.000000,4.000000,4.000000,100.000000
1602006168.211377,11.000000,0.000000,4106.666504,4126.666504,4093.333252,4127.179688,4137.948730,4147.179688,4138.461426,4139.487305,4170.256348,4147.179688,4102.051270,4146.153809,4119.487305,4099.487305,838.000000,4.000000,,,,0.000000,4.000000,4.000000,4.000000,4.000000,4.000000,4.000000,4.000000,4.000000,4.000000,4.000000,4.000000,4.000000,4.000000,4.000000,100.000000
1602006168.219358,12.000000,0.000000,4095.384521,4124.615234,4085.641113,4121.538574,4133.846191,4127.692383,4125.641113,4129.230957,4152.307617,4146.153809,4085.641113,4138.974121,4109.230957,4090.256348,767.000000,4.000000,,,,0.000000,4.000000,4.000000,4.000000,4.000000,4.000000,4.000000,4.000000,4.000000,4.000000,4.000000,4.000000,4.000000,4.000000,4.000000,100.000000
1602006168.227239,13.000000,0.000000,4094.358887,4123.077148,4089.230713,4119.487305,4127.692383,4118.974121,4123.589844,4116.410156,4134.871582,4130.256348,4086.666748,4127.692383,4099.487305,4084.615479,744.000000,4.000000,,,,0.000000,4.000000,4.000000,4.000000,4.000000,4.000000,4.000000,4.000000,4.000000,4.000000,4.000000,4.000000,4.000000,4.000000,4.000000,100.000000
1602006168.235220,14.000000,0.000000,4111.794922,4126.153809,4101.025879,4127.692383,4134.358887,4123.077148,4117.948730,4107.179688,4117.948730,4120.000000,4089.743652,4123.589844,4090.256348,4096.410156,865.000000,4.000000,,,,0.000000,4.000000,4.000000,4.000000,4.000000,4.000000,4.000000,4.000000,4.000000,4.000000,4.000000,4.000000,4.000000,4.000000,4.000000,100.000000
1602006168.243102,15.000000,0.000000,4123.589844,4131.794922,4106.153809,4136.410156,4142.563965,4123.589844,4109.743652,4103.077148,4101.538574,4100.512695,4088.205078,4130.769043,4093.333252,4109.230957,838.000000,4.000000,,,,0.000000,4.000000,4.000000,4.000000,4.000000,4.000000,4.000000,4.000000,4.000000,4.000000,4.000000,4.000000,4.000000,4.000000,4.000000,100.000000
1602006168.250983,16.000000,0.000000,4116.922852,4133.333496,4110.256348,4139.487305,4144.102539,4128.205078,4114.871582,4107.179688,4102.563965,4083.589844,4094.358887,4144.615234,4099.487305,4103.589844,0.000000,4.000000,,,,0.000000,4.000000,4.000000,4.000000,4.000000,4.000000,4.000000,4.000000,4.000000,4.000000,4.000000,4.000000,4.000000,4.000000,4.000000,100.000000
1602006168.258864,17.000000,0.000000,4124.615234,4136.922852,4127.179688,4143.077148,4149.230957,4145.128418,4127.692383,4118.974121,4121.538574,4117.436035,4113.333496,4162.051270,4110.256348,4112.820313,0.000000,4.000000,,,,0.000000,4.000000,4.000000,4.000000,4.000000,4.000000,4.000000,4.000000,4.000000,4.000000,4.000000,4.000000,4.000000,4.000000,4.000000,100.000000
1602006168.266746,18.000000,0.000000,4159.487305,4151.282227,4142.051270,4152.307617,4157.436035,4154.358887,4129.743652,4131.794922,4137.436035,4155.897461,4135.384766,4176.922852,4139.487305,4149.230957,0.000000,4.000000,,,,0.000000,4.000000,4.000000,4.000000,4.000000,4.000000,4.000000,4.000000,4.000000,4.000000,4.000000,4.000000,4.000000,4.000000,4.000000,100.000000
1602006168.274728,19.000000,0.000000,4182.563965,4161.538574,4137.436035,4156.922852,4152.820313,4141.538574,4122.051270,4137.436035,4145.641113,4142.051270,4139.487305,4177.436035,4160.000000,4171.794922,0.000000,4.000000,,,,0.000000,4.000000,4.000000,4.000000,4.000000,4.000000,4.000000,4.000000,4.000000,4.000000,4.000000,4.000000,4.000000,4.000000,4.000000,100.000000
1602006168.282610,20.000000,0.000000,4176.410156,4151.794922,4126.153809,4147.692383,4141.538574,4133.846191,4127.179688,4140.000000,4154.358887,4140.512695,4126.666504,4165.641113,4148.717773,4167.179688,0.000000,4.000000,,,,0.000000,4.000000,4.000000,4.000000,4.000000,4.000000,4.000000,4.000000,4.000000,4.000000,4.000000,4.000000,4.000000,4.000000,4.000000,100.000000
1602006168.290492,21.000000,0.000000,4168.717773,4140.000000,4121.538574,4140.000000,4137.948730,4142.563965,4141.025879,4142.051270,4158.974121,4163.077148,4120.512695,4155.384766,4138.461426,4150.769043,0.000000,4.000000,,,,0.000000,4.000000,4.000000,4.000000,4.000000,4.000000,4.000000,4.000000,4.000000,4.000000,4.000000,4.000000,4.000000,4.000000,4.000000,100.000000
1602006168.298374,22.000000,0.000000,4163.589844,4136.410156,4119.487305,4134.871582,4138.974121,4145.641113,4145.128418,4140.000000,4155.897461,4153.846191,4121.538574,4151.794922,4141.538574,4141.025879,0.000000,4.000000,,,,0.000000,4.000000,4.000000,4.000000,4.000000,4.000000,4.000000,4.000000,4.000000,4.000000,4.000000,4.000000,4.000000,4.000000,4.000000,100.000000
1602006168.306256,23.000000,0.000000,4148.717773,4129.230957,4120.000000,4128.717773,4132.820313,4140.000000,4142.051270,4140.512695,4155.384766,4141.025879,4113.846191,4154.358887,4134.871582,4144.615234,0.000000,4.000000,,,,0.000000,4.000000,4.000000,4.000000,4.000000,4.000000,4.000000,4.000000,4.000000,4.000000,4.000000,4.000000,4.000000,4.000000,4.000000,100.000000
1602006168.314138,24.000000,0.000000,4140.000000,4122.563965,4122.563965,4126.153809,4126.153809,4135.384766,4142.563965,4140.000000,4154.871582,4151.282227,4106.153809,4156.922852,4122.051270,4134.871582,0.000000,4.000000,,,,0.000000,4.000000,4.000000,4.000000,4.000000,4.000000,4.000000,4.000000,4.000000,4.000000,4.000000,4.000000,4.000000,4.000000,4.000000,100.000000
1602006168.322021,25.000000,0.000000,4132.307617,4119.487305,4119.487305,4123.589844,4121.025879,4128.717773,4139.487305,4129.230957,4138.974121,4130.256348,4106.153809,4149.743652,4108.717773,4109.743652,0.000000,4.000000,,,,0.000000,4.000000,4.000000,4.000000,4.000000,4.000000,4.000000,4.000000,4.000000,4.000000,4.000000,4.000000,4.000000,4.000000,4.000000,100.000000
1602006168.329903,26.000000,0.000000,4122.051270,4118.974121,4117.436035,4121.025879,4117.436035,4115.897461,4127.692383,4116.922852,4118.974121,4096.410156,4102.563965,4143.077148,4101.538574,4114.358887,0.000000,4.000000,,,,0.000000,4.000000,4.000000,4.000000,4.000000,4.000000,4.000000,4.000000,4.000000,4.000000,4.000000,4.000000,4.000000,4.000000,4.000000,100.000000
1602006168.337785,27.000000,0.000000,4134.871582,4122.051270,4128.717773,4124.102539,4128.205078,4112.307617,4122.051270,4118.974121,4123.077148,4116.410156,4102.563965,4150.769043,4111.794922,4140.512695,0.000000,4.000000,,,,0.000000,4.000000,4.000000,4.000000,4.000000,4.000000,4.000000,4.000000,4.000000,4.000000,4.000000,4.000000,4.000000,4.000000,4.000000,100.000000
1602006168.345767,28.000000,0.000000,4156.410156,4124.615234,4141.538574,4128.717773,4141.538574,4128.205078,4123.077148,4124.615234,4137.948730,4141.538574,4110.256348,4161.025879,4126.666504,4143.077148,0.000000,4.000000,,,,0.000000,4.000000,4.000000,4.000000,4.000000,4.000000,4.000000,4.000000,4.000000,4.000000,4.000000,4.000000,4.000000,4.000000,4.000000,100.000000
1602006168.353648,29.000000,0.000000,4148.717773,4122.051270,4140.000000,4125.641113,4134.358887,4137.948730,4125.128418,4122.051270,4135.384766,4137.436035,4110.256348,4157.436035,4130.256348,4140.512695,0.000000,4.000000,,,,0.000000,4.000000,4.000000,4.000000,4.000000,4.000000,4.000000,4.000000,4.000000,4.000000,4.000000,4.000000,4.000000,4.000000,4.000000,100.000000
1602006168.361530,30.000000,0.000000,4137.436035,4121.025879,4132.307617,4125.641113,4129.743652,4131.282227,4130.256348,4120.512695,4123.589844,4132.820313,4103.589844,4150.256348,4126.666504,4154.871582,0.000000,4.000000,,,,0.000000,4.000000,4.000000,4.000000,4.000000,4.000000,4.000000,4.000000,4.000000,4.000000,4.000000,4.000000,4.000000,4.000000,4.000000,100.000000
1602006168.369412,31.000000,0.000000,4144.615234,4118.461426,4126.666504,4128.205078,4141.538574,4124.102539,4137.436035,4122.051270,4120.000000,4112.820313,4109.230957,4153.333496,4124.102539,4156.922852,0.000000,4.000000,,,,0.000000,4.000000,4.000000,4.000000,4.000000,4.000000,4.000000,4.000000,4.000000,4.000000,4.000000,4.000000,4.000000,4.000000,4.000000,100.000000
1602006168.377294,32.000000,0.000000,4144.615234,4114.871582,4128.717773,4127.179688,4142.563965,4127.692383,4136.410156,4127.692383,4126.153809,4096.410156,4118.461426,4163.077148,4124.102539,4148.717773,0.000000,4.000000,,,,0.000000,4.000000,4.000000,4.000000,4.000000,4.000000,4.000000,4.000000,4.000000,4.000000,4.000000,4.000000,4.000000,4.000000,4.000000,100.000000
1602006168.385176,33.000000,0.000000,4145.641113,4118.974121,4135.897461,4131.794922,4137.436035,4134.871582,4136.410156,4143.589844,4145.128418,4131.282227,4124.102539,4169.230957,4132.307617,4159.487305,0.000000,4.000000,,,,0.000000,4.000000,4.000000,4.000000,4.000000,4.000000,4.000000,4.000000,4.000000,4.000000,4.000000,4.000000,4.000000,4.000000,4.000000,100.000000
1602006168.393058,34.000000,0.000000,4155.384766,4126.666504,4139.487305,4137.948730,4140.000000,4139.487305,4147.692383,4158.461426,4168.717773,4161.025879,4132.307617,4169.743652,4145.128418,4174.871582,0.000000,4.000000,,,,0.000000,4.000000,4.000000,4.000000,4.000000,4.000000,4.000000,4.000000,4.000000,4.000000,4.000000,4.000000,4.000000,4.000000,4.000000,100.000000
1602006168.400940,35.000000,0.000000,4147.179688,4123.077148,4139.487305,4136.410156,4136.410156,4141.538574,4152.820313,4158.461426,4172.307617,4142.563965,4130.769043,4171.794922,4137.948730,4155.384766,0.000000,4.000000,,,,0.000000,4.000000,4.000000,4.000000,4.000000,4.000000,4.000000,4.000000,4.000000,4.000000,4.000000,4.000000,4.000000,4.000000,4.000000,100.000000
1602006168.408922,36.000000,0.000000,4133.333496,4117.948730,4142.051270,4134.871582,4127.179688,4137.948730,4142.051270,4145.641113,4158.974121,4133.333496,4120.512695,4169.230957,4119.487305,4132.307617,0.000000,4.000000,,,,0.000000,4.000000,4.000000,4.000000,4.000000,4.000000,4.000000,4.000000,4.000000,4.000000,4.000000,4.000000,4.000000,4.000000,4.000000,100.000000
1602006168.416804,37.000000,0.000000,4141.025879,4124.102539,4141.538574,4138.461426,4122.563965,4125.641113,4128.205078,4130.256348,4147.179688,4141.025879,4123.077148,4158.461426,4127.179688,4144.615234,0.000000,4.000000,,,,0.000000,4.000000,4.000000,4.000000,4.000000,4.000000,4.000000,4.000000,4.000000,4.000000,4.000000,4.000000,4.000000,4.000000,4.000000,100.000000
1602006168.424686,38.000000,0.000000,4138.974121,4130.256348,4136.922852,4137.948730,4119.487305,4119.487305,4125.128418,4123.077148,4141.025879,4139.487305,4129.743652,4154.871582,4146.153809,4149.743652,0.000000,4.000000,,,,0.000000,4.000000,4.000000,4.000000,4.000000,4.000000,4.000000,4.000000,4.000000,4.000000,4.000000,4.000000,4.000000,4.000000,4.000000,100.000000
1602006168.432568,39.000000,0.000000,4113.333496,4123.589844,4129.230957,4134.871582,4117.948730,4124.102539,4125.641113,4123.589844,4136.410156,4138.461426,4122.563965,4156.922852,4142.563965,4122.563965,0.000000,4.000000,,,,0.000000,4.000000,4.000000,4.000000,4.000000,4.000000,4.000000,4.000000,4.000000,4.000000,4.000000,4.000000,4.000000,4.000000,4.000000,100.000000
1602006168.440450,40.000000,0.000000,4098.974121,4117.948730,4121.025879,4135.897461,4122.563965,4127.179688,4128.205078,4121.538574,4131.282227,4134.358887,4115.897461,4150.256348,4134.871582,4104.102539,0.000000,4.000000,,,,0.000000,4.000000,4.000000,4.000000,4.000000,4.000000,4.000000,4.000000,4.000000,4.000000,4.000000,4.000000,4.000000,4.000000,4.000000,100.000000
1602006168.448332,41.000000,0.000000,4105.641113,4128.717773,4128.205078,4137.436035,4132.820313,4132.820313,4135.897461,4121.025879,4130.256348,4121.538574,4121.538574,4143.589844,4143.589844,4110.769043,0.000000,4.000000,,,,0.000000,4.000000,4.000000,4.000000,4.000000,4.000000,4.000000,4.000000,4.000000,4.000000,4.000000,4.000000,4.000000,4.000000,4.000000,100.000000
1602006168.456214,42.000000,0.000000,4109.743652,4134.871582,4135.384766,4136.410156,4145.641113,4142.051270,4133.333496,4121.025879,4128.205078,4120.512695,4121.025879,4141.538574,4145.128418,4110.769043,0.000000,4.000000,,,,0.000000,4.000000,4.000000,4.000000,4.000000,4.000000,4.000000,4.000000,4.000000,4.000000,4.000000,4.000000,4.000000,4.000000,4.000000,100.000000
1602006168.464097,43.000000,0.000000,4104.615234,4126.153809,4126.153809,4134.358887,4152.820313,4141.025879,4123.077148,4112.820313,4123.077148,4125.641113,4114.358887,4137.436035,4135.384766,4101.025879,0.000000,4.000000,,,,0.000000,4.000000,4.000000,4.000000,4.000000,4.000000,4.000000,4.000000,4.000000,4.000000,4.000000,4.000000,4.000000,4.000000,4.000000,100.000000
1602006168.471979,44.000000,0.000000,4105.128418,4123.589844,4125.641113,4135.384766,4154.871582,4140.000000,4128.205078,4110.256348,4123.077148,4125.641113,4115.384766,4137.948730,4133.846191,4109.230957,0.000000,4.000000,,,,0.000000,4.000000,4.000000,4.000000,4.000000,4.000000,4.000000,4.000000,4.000000,4.000000,4.000000,4.000000,4.000000,4.000000,4.000000,100.000000
1602006168.479960,45.000000,0.000000,4109.743652,4132.820313,4137.436035,4136.410156,4152.820313,4142.051270,4137.436035,4120.512695,4130.256348,4132.307617,4123.077148,4141.025879,4139.487305,4124.615234,0.000000,4.000000,,,,0.000000,4.000000,4.000000,4.000000,4.000000,4.000000,4.000000,4.000000,4.000000,4.000000,4.000000,4.000000,4.000000,4.000000,4.000000,100.000000
1602006168.487841,46.000000,0.000000,4110.769043,4138.461426,4136.410156,4138.461426,4144.615234,4131.794922,4131.282227,4124.102539,4127.179688,4138.461426,4123.077148,4142.051270,4146.153809,4125.128418,0.000000,4.000000,,,,0.000000,4.000000,4.000000,4.000000,4.000000,4.000000,4.000000,4.000000,4.000000,4.000000,4.000000,4.000000,4.000000,4.000000,4.000000,100.000000
1602006168.495723,47.000000,0.000000,4112.307617,4137.948730,4131.282227,4143.077148,4137.948730,4120.000000,4129.743652,4120.512695,4123.589844,4139.487305,4120.512695,4146.666504,4150.769043,4120.512695,0.000000,4.000000,,,,0.000000,4.000000,4.000000,4.000000,4.000000,4.000000,4.000000,4.000000,4.000000,4.000000,4.000000,4.000000,4.000000,4.000000,4.000000,100.000000
1602006168.503604,48.000000,0.000000,4120.000000,4138.461426,4136.922852,4142.051270,4136.410156,4121.538574,4140.000000,4129.230957,4136.410156,4144.102539,4130.256348,4158.461426,4159.487305,4132.307617,0.000000,4.000000,,,,0.000000,4.000000,4.000000,4.000000,4.000000,4.000000,4.000000,4.000000,4.000000,4.000000,4.000000,4.000000,4.000000,4.000000,4.000000,100.000000
1602006168.511486,49.000000,0.000000,4123.077148,4139.487305,4137.436035,4135.384766,4134.871582,4123.589844,4148.205078,4141.025879,4142.563965,4154.358887,4142.563965,4167.692383,4166.153809,4141.025879,0.000000,4.000000,,,,0.000000,4.000000,4.000000,4.000000,4.000000,4.000000,4.000000,4.000000,4.000000,4.000000,4.000000,4.000000,4.000000,4.000000,4.000000,100.000000
1602006168.519267,50.000000,0.000000,4121.538574,4142.563965,4142.051270,4138.461426,4135.897461,4118.974121,4152.307617,4143.589844,4137.948730,4156.410156,4146.153809,4169.743652,4163.589844,4144.615234,0.000000,4.000000,,,,0.000000,4.000000,4.000000,4.000000,4.000000,4.000000,4.000000,4.000000,4.000000,4.000000,4.000000,4.000000,4.000000,4.000000,4.000000,100.000000
1602006168.527149,51.000000,0.000000,4126.666504,4146.153809,4154.358887,4145.128418,4137.436035,4124.615234,4151.794922,4143.589844,4140.000000,4148.205078,4138.974121,4170.256348,4160.000000,4154.871582,0.000000,4.000000,,,,0.000000,4.000000,4.000000,4.000000,4.000000,4.000000,4.000000,4.000000,4.000000,4.000000,4.000000,4.000000,4.000000,4.000000,4.000000,100.000000
1602006168.535031,52.000000,0.000000,4124.102539,4143.077148,4151.282227,4141.025879,4131.282227,4142.563965,4151.794922,4143.077148,4140.512695,4142.563965,4132.307617,4167.179688,4155.897461,4148.205078,0.000000,4.000000,,,,0.000000,4.000000,4.000000,4.000000,4.000000,4.000000,4.000000,4.000000,4.000000,4.000000,4.000000,4.000000,4.000000,4.000000,4.000000,100.000000
1602006168.542912,53.000000,0.000000,4108.205078,4133.333496,4138.461426,4132.820313,4127.692383,4156.410156,4156.922852,4146.666504,4141.025879,4141.025879,4135.384766,4160.000000,4147.692383,4124.615234,0.000000,4.000000,,,,0.000000,4.000000,4.000000,4.000000,4.000000,4.000000,4.000000,4.000000,4.000000,4.000000,4.000000,4.000000,4.000000,4.000000,4.000000,100.000000
1602006168.550794,54.000000,0.000000,4104.102539,4125.641113,4134.358887,4131.794922,4134.871582,4162.051270,4158.974121,4152.820313,4153.333496,4140.512695,4135.897461,4157.948730,4141.538574,4122.563965,0.000000,4.000000,,,,0.000000,4.000000,4.000000,4.000000,4.000000,4.000000,4.000000,4.000000,4.000000,4.000000,4.000000,4.000000,4.000000,4.000000,4.000000,100.000000
1602006168.558676,55.000000,0.000000,4111.282227,4123.589844,4136.922852,4130.769043,4138.461426,4162.051270,4155.384766,4150.769043,4156.410156,4140.512695,4127.692383,4160.000000,4136.922852,4128.717773,0.000000,4.000000,,,,0.000000,4.000000,4.000000,4.000000,4.000000,4.000000,4.000000,4.000000,4.000000,4.000000,4.000000,4.000000,4.000000,4.000000,4.000000,100.000000
1602006168.566656,56.000000,0.000000,4099.487305,4122.051270,4136.922852,4125.641113,4132.307617,4156.922852,4153.333496,4141.538574,4140.512695,4141.025879,4119.487305,4154.358887,4122.563965,4105.641113,0.000000,4.000000,,,,0.000000,4.000000,4.000000,4.000000,4.000000,4.000000,4.000000,4.000000,4.000000,4.000000,4.000000,4.000000,4.000000,4.000000,4.000000,100.000000
1602006168.574537,57.000000,0.000000,4088.205078,4121.025879,4132.307617,4127.692383,4130.769043,4151.282227,4148.717773,4136.410156,4133.333496,4132.307617,4118.461426,4148.205078,4117.436035,4093.333252,0.000000,4.000000,,,,0.000000,4.000000,4.000000,4.000000,4.000000,4.000000,4.000000,4.000000,4.000000,4.000000,4.000000,4.000000,4.000000,4.000000,4.000000,100.000000
1602006168.582518,58.000000,0.000000,4105.641113,4123.077148,4125.128418,4135.897461,4137.436035,4153.333496,4143.589844,4132.307617,4138.974121,4115.897461,4124.615234,4151.794922,4132.820313,4116.410156,0.000000,4.000000,,,,0.000000,4.000000,4.000000,4.000000,4.000000,4.000000,4.000000,4.000000,4.000000,4.000000,4.000000,4.000000,4.000000,4.000000,4.000000,100.000000
1602006168.590399,59.000000,0.000000,4122.563965,4124.615234,4126.666504,4137.948730,4138.461426,4157.948730,4143.589844,4129.743652,4141.538574,4121.538574,4134.871582,4156.922852,4147.692383,4136.922852,0.000000,4.000000,,,,0.000000,4.000000,4.000000,4.000000,4.000000,4.000000,4.000000,4.000000,4.000000,4.000000,4.000000,4.000000,4.000000,4.000000,4.000000,100.000000
1602006168.598380,60.000000,0.000000,4121.538574,4123.589844,4137.436035,4134.358887,4132.820313,4151.794922,4141.538574,4128.717773,4140.512695,4146.666504,4141.025879,4157.948730,4152.820313,4138.461426,0.000000,4.000000,,,,0.000000,4.000000,4.000000,4.000000,4.000000,4.000000,4.000000,4.000000,4.000000,4.000000,4.000000,4.000000,4.000000,4.000000,4.000000,100.000000
1602006168.606261,61.000000,0.000000,4120.512695,4125.128418,4141.025879,4134.871582,4126.153809,4139.487305,4136.410156,4124.102539,4141.025879,4155.384766,4135.384766,4157.436035,4150.769043,4136.410156,0.000000,4.000000,,,,0.000000,4.000000,4.000000,4.000000,4.000000,4.000000,4.000000,4.000000,4.000000,4.000000,4.000000,4.000000,4.000000,4.000000,4.000000,100.000000
1602006168.614242,62.000000,0.000000,4124.615234,4126.666504,4138.461426,4134.871582,4122.051270,4135.384766,4135.897461,4124.102539,4137.948730,4144.615234,4125.128418,4155.897461,4143.589844,4135.384766,0.000000,4.000000,,,,0.000000,4.000000,4.000000,4.000000,4.000000,4.000000,4.000000,4.000000,4.000000,4.000000,4.000000,4.000000,4.000000,4.000000,4.000000,100.000000
1602006168.622124,63.000000,0.000000,4123.077148,4130.769043,4141.538574,4134.871582,4118.974121,4138.974121,4136.922852,4127.692383,4127.179688,4134.871582,4120.000000,4153.333496,4137.436035,4128.205078,0.000000,4.000000,,,,0.000000,4.000000,4.000000,4.000000,4.000000,4.000000,4.000000,4.000000,4.000000,4.000000,4.000000,4.000000,4.000000,4.000000,4.000000,100.000000
1602006168.630005,64.000000,0.000000,4125.641113,4137.948730,4146.153809,4137.948730,4122.051270,4135.897461,4131.282227,4124.615234,4121.025879,4131.282227,4124.615234,4153.846191,4137.436035,4122.563965,798.000000,4.000000,,,,0.000000,4.000000,4.000000,4.000000,4.000000,4.000000,4.000000,4.000000,4.000000,4.000000,4.000000,4.000000,4.000000,4.000000,4.000000,100.000000
1602006168.637886,65.000000,0.000000,4127.179688,4141.025879,4144.615234,4140.000000,4126.153809,4135.384766,4128.205078,4121.538574,4123.077148,4132.820313,4124.102539,4156.922852,4137.948730,4129.743652,793.000000,4.000000,,,,0.000000,4.000000,4.000000,4.000000,4.000000,4.000000,4.000000,4.000000,4.000000,4.000000,4.000000,4.000000,4.000000,4.000000,4.000000,100.000000
1602006168.645768,66.000000,0.000000,4115.897461,4136.922852,4138.461426,4138.461426,4127.692383,4138.461426,4132.307617,4122.051270,4121.025879,4131.282227,4116.410156,4153.846191,4134.358887,4135.897461,849.000000,4.000000,,,,0.000000,4.000000,4.000000,4.000000,4.000000,4.000000,4.000000,4.000000,4.000000,4.000000,4.000000,4.000000,4.000000,4.000000,4.000000,100.000000
1602006168.653649,67.000000,0.000000,4110.256348,4134.358887,4135.897461,4133.846191,4132.307617,4133.333496,4136.922852,4125.128418,4118.461426,4122.051270,4125.641113,4156.922852,4135.897461,4127.692383,874.000000,4.000000,,,,0.000000,4.000000,4.000000,4.000000,4.000000,4.000000,4.000000,4.000000,4.000000,4.000000,4.000000,4.000000,4.000000,4.000000,4.000000,100.000000
1602006168.661431,68.000000,0.000000,4122.563965,4137.948730,4136.922852,4131.794922,4141.025879,4130.256348,4140.512695,4133.333496,4124.615234,4124.615234,4136.410156,4167.179688,4142.051270,4126.153809,813.000000,4.000000,,,,0.000000,4.000000,4.000000,4.000000,4.000000,4.000000,4.000000,4.000000,4.000000,4.000000,4.000000,4.000000,4.000000,4.000000,4.000000,100.000000
1602006168.669313,69.000000,0.000000,4123.589844,4135.384766,4132.307617,4135.384766,4142.051270,4135.897461,4140.000000,4133.846191,4127.692383,4137.948730,4124.615234,4162.051270,4140.000000,4136.410156,822.000000,4.000000,,,,0.000000,4.000000,4.000000,4.000000,4.000000,4.000000,4.000000,4.000000,4.000000,4.000000,4.000000,4.000000,4.000000,4.000000,4.000000,100.000000
1602006168.677195,70.000000,0.000000,4108.205078,4127.692383,4124.102539,4134.358887,4137.948730,4138.974121,4136.922852,4124.102539,4130.769043,4143.589844,4116.410156,4144.615234,4134.358887,4137.948730,767.000000,4.000000,,,,0.000000,4.000000,4.000000,4.000000,4.000000,4.000000,4.000000,4.000000,4.000000,4.000000,4.000000,4.000000,4.000000,4.000000,4.000000,100.000000
1602006168.685077,71.000000,0.000000,4104.102539,4127.179688,4120.512695,4129.230957,4141.538574,4140.000000,4138.461426,4122.563965,4138.974121,4137.948730,4124.102539,4135.384766,4133.846191,4132.307617,675.000000,4.000000,,,,0.000000,4.000000,4.000000,4.000000,4.000000,4.000000,4.000000,4.000000,4.000000,4.000000,4.000000,4.000000,4.000000,4.000000,4.000000,100.000000
1602006168.692959,72.000000,0.000000,4103.077148,4127.692383,4121.025879,4127.179688,4137.436035,4140.512695,4136.922852,4126.153809,4133.333496,4124.102539,4120.000000,4125.641113,4123.589844,4118.461426,785.000000,4.000000,,,,0.000000,4.000000,4.000000,4.000000,4.000000,4.000000,4.000000,4.000000,4.000000,4.000000,4.000000,4.000000,4.000000,4.000000,4.000000,100.000000
1602006168.700841,73.000000,0.000000,4097.436035,4120.000000,4119.487305,4124.102539,4123.077148,4131.794922,4124.615234,4122.563965,4124.102539,4121.025879,4108.205078,4117.436035,4116.410156,4102.051270,841.000000,4.000000,,,,0.000000,4.000000,4.000000,4.000000,4.000000,4.000000,4.000000,4.000000,4.000000,4.000000,4.000000,4.000000,4.000000,4.000000,4.000000,100.000000
1602006168.708722,74.000000,0.000000,4102.051270,4118.461426,4121.538574,4124.615234,4120.512695,4124.102539,4118.974121,4121.538574,4132.820313,4143.077148,4113.846191,4127.692383,4129.230957,4108.717773,868.000000,4.000000,,,,0.000000,4.000000,4.000000,4.000000,4.000000,4.000000,4.000000,4.000000,4.000000,4.000000,4.000000,4.000000,4.000000,4.000000,4.000000,100.000000
1602006168.716604,75.000000,0.000000,4107.179688,4129.743652,4132.820313,4136.410156,4124.615234,4129.743652,4130.769043,4128.205078,4145.128418,4156.922852,4129.230957,4143.589844,4140.512695,4125.128418,838.000000,4.000000,,,,0.000000,4.000000,4.000000,4.000000,4.000000,4.000000,4.000000,4.000000,4.000000,4.000000,4.000000,4.000000,4.000000,4.000000,4.000000,100.000000
1602006168.724386,76.000000,0.000000,4111.282227,4136.410156,4138.974121,4141.538574,4120.512695,4127.692383,4135.384766,4128.717773,4141.025879,4140.512695,4138.461426,4147.179688,4142.051270,4126.666504,767.000000,4.000000,,,,0.000000,4.000000,4.000000,4.000000,4.000000,4.000000,4.000000,4.000000,4.000000,4.000000,4.000000,4.000000,4.000000,4.000000,4.000000,100.000000
1602006168.732268,77.000000,0.000000,4119.487305,4134.358887,4138.974121,4134.871582,4120.512695,4119.487305,4123.589844,4124.615234,4129.743652,4129.230957,4136.410156,4148.717773,4147.179688,4130.256348,744.000000,4.000000,,,,0.000000,4.000000,4.000000,4.000000,4.000000,4.000000,4.000000,4.000000,4.000000,4.000000,4.000000,4.000000,4.000000,4.000000,4.000000,100.000000
1602006168.740149,78.000000,0.000000,4126.153809,4135.384766,4148.205078,4137.436035,4134.358887,4127.692383,4122.563965,4125.641113,4132.307617,4147.692383,4137.948730,4157.948730,4153.333496,4150.256348,868.000000,4.000000,,,,0.000000,4.000000,4.000000,4.000000,4.000000,4.000000,4.000000,4.000000,4.000000,4.000000,4.000000,4.000000,4.000000,4.000000,4.000000,100.000000
1602006168.748031,79.000000,0.000000,4132.307617,4138.974121,4157.948730,4140.512695,4141.025879,4140.512695,4134.358887,4128.205078,4143.077148,4165.128418,4148.717773,4170.769043,4156.410156,4166.153809,838.000000,4.000000,,,,0.000000,4.000000,4.000000,4.000000,4.000000,4.000000,4.000000,4.000000,4.000000,4.000000,4.000000,4.000000,4.000000,4.000000,4.000000,100.000000
1602006168.755913,80.000000,0.000000,4135.384766,4137.948730,4151.282227,4132.307617,4136.922852,4140.512695,4138.461426,4126.153809,4143.589844,4168.717773,4145.641113,4168.717773,4158.974121,4159.487305,767.000000,4.000000,,,,0.000000,4.000000,4.000000,4.000000,4.000000,4.000000,4.000000,4.000000,4.000000,4.000000,4.000000,4.000000,4.000000,4.000000,4.000000,100.000000
1602006168.763794,81.000000,0.000000,4127.692383,4135.897461,4135.384766,4127.179688,4136.410156,4135.897461,4136.410156,4124.615234,4135.897461,4169.743652,4134.358887,4151.282227,4154.871582,4142.563965,744.000000,4.000000,,,,0.000000,4.000000,4.000000,4.000000,4.000000,4.000000,4.000000,4.000000,4.000000,4.000000,4.000000,4.000000,4.000000,4.000000,4.000000,100.000000
1602006168.771775,82.000000,0.000000,4119.487305,4133.846191,4123.077148,4127.692383,4140.000000,4135.384766,4133.333496,4120.000000,4127.692383,4154.358887,4137.948730,4136.410156,4142.051270,4137.436035,868.000000,4.000000,,,,0.000000,4.000000,4.000000,4.000000,4.000000,4.000000,4.000000,4.000000,4.000000,4.000000,4.000000,4.000000,4.000000,4.000000,4.000000,100.000000
1602006168.779656,83.000000,0.000000,4119.487305,4133.333496,4122.051270,4130.256348,4138.974121,4136.410156,4129.230957,4114.871582,4119.487305,4122.563965,4135.384766,4134.358887,4138.974121,4141.538574,838.000000,4.000000,,,,0.000000,4.000000,4.000000,4.000000,4.000000,4.000000,4.000000,4.000000,4.000000,4.000000,4.000000,4.000000,4.000000,4.000000,4.000000,100.000000
1602006168.787538,84.000000,0.000000,4127.692383,4144.615234,4133.846191,4139.487305,4140.512695,4140.000000,4130.256348,4120.000000,4122.563965,4114.358887,4122.051270,4144.102539,4148.205078,4138.461426,767.000000,4.000000,,,,0.000000,4.000000,4.000000,4.000000,4.000000,4.000000,4.000000,4.000000,4.000000,4.000000,4.000000,4.000000,4.000000,4.000000,4.000000,100.000000
1602006168.795419,85.000000,0.000000,4142.051270,4155.897461,4144.102539,4148.205078,4151.282227,4145.641113,4131.794922,4127.179688,4136.922852,4143.077148,4129.743652,4156.922852,4155.384766,4135.897461,744.000000,4.000000,,,,0.000000,4.000000,4.000000,4.000000,4.000000,4.000000,4.000000,4.000000,4.000000,4.000000,4.000000,4.000000,4.000000,4.000000,4.000000,100.000000
1602006168.803200,86.000000,0.000000,4140.000000,4148.205078,4143.077148,4141.538574,4153.333496,4140.000000,4124.615234,4124.102539,4138.461426,4151.282227,4139.487305,4152.820313,4153.846191,4139.487305,868.000000,4.000000,,,,0.000000,4.000000,4.000000,4.000000,4.000000,4.000000,4.000000,4.000000,4.000000,4.000000,4.000000,4.000000,4.000000,4.000000,4.000000,100.000000
1602006168.810981,87.000000,0.000000,4124.102539,4137.436035,4142.051270,4134.871582,4141.538574,4129.743652,4120.000000,4120.512695,4127.179688,4135.897461,4125.641113,4142.563965,4150.769043,4142.051270,838.000000,4.000000,,,,0.000000,4.000000,4.000000,4.000000,4.000000,4.000000,4.000000,4.000000,4.000000,4.000000,4.000000,4.000000,4.000000,4.000000,4.000000,100.000000
1602006168.818862,88.000000,0.000000,4123.077148,4138.461426,4143.589844,4138.461426,4130.256348,4128.205078,4121.538574,4120.512695,4121.025879,4142.563965,4120.512695,4148.717773,4143.589844,4139.487305,767.000000,4.000000,,,,0.000000,4.000000,4.000000,4.000000,4.000000,4.000000,4.000000,4.000000,4.000000,4.000000,4.000000,4.000000,4.000000,4.000000,4.000000,100.000000
1602006168.826643,89.000000,0.000000,4126.666504,4133.333496,4140.512695,4133.846191,4124.615234,4127.179688,4122.563965,4119.487305,4123.077148,4156.922852,4130.769043,4154.358887,4135.897461,4137.436035,744.000000,4.000000,,,,0.000000,4.000000,4.000000,4.000000,4.000000,4.000000,4.000000,4.000000,4.000000,4.000000,4.000000,4.000000,4.000000,4.000000,4.000000,100.000000
1602006168.834524,90.000000,0.000000,4125.128418,4124.102539,4143.077148,4129.743652,4121.025879,4126.153809,4130.256348,4129.743652,4136.410156,4153.333496,4134.871582,4152.307617,4145.128418,4148.205078,868.000000,4.000000,,,,0.000000,4.000000,4.000000,4.000000,4.000000,4.000000,4.000000,4.000000,4.000000,4.000000,4.000000,4.000000,4.000000,4.000000,4.000000,100.000000
1602006168.842405,91.000000,0.000000,4127.179688,4126.666504,4149.230957,4136.922852,4119.487305,4133.333496,4142.563965,4146.153809,4154.871582,4158.461426,4142.051270,4162.051270,4156.922852,4158.461426,838.000000,4.000000,,,,0.000000,4.000000,4.000000,4.000000,4.000000,4.000000,4.000000,4.000000,4.000000,4.000000,4.000000,4.000000,4.000000,4.000000,4.000000,100.000000
1602006168.850387,92.000000,0.000000,4125.641113,4128.717773,4146.666504,4133.846191,4124.615234,4139.487305,4143.077148,4149.743652,4161.025879,4173.846191,4151.282227,4168.717773,4157.948730,4152.820313,767.000000,4.000000,,,,0.000000,4.000000,4.000000,4.000000,4.000000,4.000000,4.000000,4.000000,4.000000,4.000000,4.000000,4.000000,4.000000,4.000000,4.000000,100.000000
1602006168.858269,93.000000,0.000000,4114.871582,4122.563965,4136.922852,4122.051270,4134.871582,4135.384766,4138.974121,4143.589844,4155.897461,4164.102539,4140.512695,4154.358887,4156.922852,4136.410156,744.000000,4.000000,,,,0.000000,4.000000,4.000000,4.000000,4.000000,4.000000,4.000000,4.000000,4.000000,4.000000,4.000000,4.000000,4.000000,4.000000,4.000000,100.000000
1602006168.866151,94.000000,0.000000,4105.641113,4119.487305,4130.256348,4121.538574,4141.538574,4135.384766,4135.897461,4136.922852,4146.153809,4150.256348,4122.051270,4138.461426,4149.230957,4125.641113,868.000000,4.000000,,,,0.000000,4.000000,4.000000,4.000000,4.000000,4.000000,4.000000,4.000000,4.000000,4.000000,4.000000,4.000000,4.000000,4.000000,4.000000,100.000000
1602006168.874033,95.000000,0.000000,4101.025879,4125.128418,4123.077148,4124.615234,4142.563965,4141.025879,4130.256348,4126.153809,4129.743652,4146.666504,4121.538574,4131.794922,4137.436035,4126.666504,838.000000,4.000000,,,,0.000000,4.000000,4.000000,4.000000,4.000000,4.000000,4.000000,4.000000,4.000000,4.000000,4.000000,4.000000,4.000000,4.000000,4.000000,100.000000
1602006168.881914,96.000000,0.000000,4087.692383,4122.051270,4109.230957,4116.410156,4140.512695,4137.436035,4120.512695,4113.333496,4118.461426,4135.897461,4121.538574,4123.589844,4128.205078,4126.666504,767.000000,4.000000,,,,0.000000,4.000000,4.000000,4.000000,4.000000,4.000000,4.000000,4.000000,4.000000,4.000000,4.000000,4.000000,4.000000,4.000000,4.000000,100.000000
1602006168.889796,97.000000,0.000000,4072.820557,4113.846191,4101.025879,4113.333496,4136.922852,4131.282227,4115.384766,4107.692383,4116.410156,4131.794922,4110.256348,4114.871582,4121.025879,4113.846191,744.000000,4.000000,,,,0.000000,4.000000,4.000000,4.000000,4.000000,4.000000,4.000000,4.000000,4.000000,4.000000,4.000000,4.000000,4.000000,4.000000,4.000000,100.000000
1602006168.897678,98.000000,0.000000,4082.564209,4115.384766,4109.230957,4120.000000,4136.410156,4134.871582,4123.077148,4114.871582,4121.025879,4135.384766,4111.282227,4121.025879,4125.641113,4109.743652,868.000000,4.000000,,,,0.000000,4.000000,4.000000,4.000000,4.000000,4.000000,4.000000,4.000000,4.000000,4.000000,4.000000,4.000000,4.000000,4.000000,4.000000,100.000000
1602006168.905560,99.000000,0.000000,4102.563965,4123.077148,4123.077148,4125.128418,4137.948730,4137.436035,4135.897461,4131.794922,4135.897461,4137.436035,4123.077148,4140.000000,4138.974121,4124.102539,838.000000,4.000000,,,,0.000000,4.000000,4.000000,4.000000,4.000000,4.000000,4.000000,4.000000,4.000000,4.000000,4.000000,4.000000,4.000000,4.000000,4.000000,100.000000
1602006168.913442,100.000000,0.000000,4097.948730,4122.051270,4123.077148,4121.025879,4129.230957,4126.666504,4136.922852,4142.051270,4142.563965,4143.589844,4120.000000,4146.153809,4132.820313,4124.615234,767.000000,4.000000,,,,0.000000,4.000000,4.000000,4.000000,4.000000,4.000000,4.000000,4.000000,4.000000,4.000000,4.000000,4.000000,4.000000,4.000000,4.000000,100.000000
1602006168.921224,101.000000,0.000000,4088.718018,4117.948730,4118.974121,4116.922852,4123.589844,4118.461426,4134.358887,4140.512695,4137.948730,4143.589844,4113.846191,4137.436035,4123.589844,4114.871582,744.000000,4.000000,,,,0.000000,4.000000,4.000000,4.000000,4.000000,4.000000,4.000000,4.000000,4.000000,4.000000,4.000000,4.000000,4.000000,4.000000,4.000000,100.000000
1602006168.929105,102.000000,0.000000,4101.025879,4122.051270,4123.589844,4127.692383,4135.384766,4129.743652,4137.948730,4138.974121,4144.615234,4141.025879,4121.538574,4137.948730,4136.922852,4126.666504,868.000000,4.000000,,,,0.000000,4.000000,4.000000,4.000000,4.000000,4.000000,4.000000,4.000000,4.000000,4.000000,4.000000,4.000000,4.000000,4.000000,4.000000,100.000000
1602006168.936987,103.000000,0.000000,4114.358887,4128.205078,4128.717773,4139.487305,4143.589844,4137.436035,4138.974121,4139.487305,4150.256348,4149.230957,4124.615234,4149.743652,4144.615234,4140.000000,838.000000,4.000000,,,,0.000000,4.000000,4.000000,4.000000,4.000000,4.000000,4.000000,4.000000,4.000000,4.000000,4.000000,4.000000,4.000000,4.000000,4.000000,100.000000
1602006168.944869,104.000000,0.000000,4116.922852,4133.333496,4133.333496,4135.897461,4138.461426,4131.282227,4135.897461,4135.897461,4145.641113,4156.410156,4125.641113,4152.820313,4139.487305,4135.897461,767.000000,4.000000,,,,0.000000,4.000000,4.000000,4.000000,4.000000,4.000000,4.000000,4.000000,4.000000,4.000000,4.000000,4.000000,4.000000,4.000000,4.000000,100.000000
1602006168.952750,105.000000,0.000000,4125.128418,4135.384766,4145.641113,4131.794922,4134.871582,4129.230957,4137.436035,4131.282227,4148.205078,4151.794922,4136.410156,4150.769043,4145.128418,4141.025879,744.000000,4.000000,,,,0.000000,4.000000,4.000000,4.000000,4.000000,4.000000,4.000000,4.000000,4.000000,4.000000,4.000000,4.000000,4.000000,4.000000,4.000000,100.000000
1602006168.960632,106.000000,0.000000,4138.461426,4140.512695,4153.846191,4140.000000,4138.461426,4137.436035,4140.512695,4134.871582,4156.922852,4150.769043,4143.077148,4161.025879,4157.436035,4156.410156,868.000000,4.000000,,,,0.000000,4.000000,4.000000,4.000000,4.000000,4.000000,4.000000,4.000000,4.000000,4.000000,4.000000,4.000000,4.000000,4.000000,4.000000,100.000000
1602006168.968514,107.000000,0.000000,4142.563965,4152.307617,4148.717773,4143.589844,4148.205078,4145.128418,4142.051270,4138.974121,4156.922852,4154.358887,4140.000000,4170.769043,4158.461426,4153.846191,838.000000,4.000000,,,,0.000000,4.000000,4.000000,4.000000,4.000000,4.000000,4.000000,4.000000,4.000000,4.000000,4.000000,4.000000,4.000000,4.000000,4.000000,100.000000
1602006168.976296,108.000000,0.000000,4137.948730,4151.794922,4143.077148,4139.487305,4153.333496,4145.641113,4142.563965,4134.871582,4154.358887,4149.230957,4141.025879,4166.666504,4151.282227,4140.000000,767.000000,4.000000,,,,0.000000,4.000000,4.000000,4.000000,4.000000,4.000000,4.000000,4.000000,4.000000,4.000000,4.000000,4.000000,4.000000,4.000000,4.000000,100.000000
1602006168.984177,109.000000,0.000000,4130.256348,4141.538574,4141.538574,4140.512695,4141.538574,4132.820313,4137.436035,4125.641113,4151.794922,4143.589844,4141.025879,4157.948730,4144.615234,4135.897461,744.000000,4.000000,,,,0.000000,4.000000,4.000000,4.000000,4.000000,4.000000,4.000000,4.000000,4.000000,4.000000,4.000000,4.000000,4.000000,4.000000,4.000000,100.000000
1602006168.992059,110.000000,0.000000,4124.102539,4137.948730,4136.410156,4140.000000,4132.820313,4116.410156,4128.717773,4122.563965,4150.256348,4140.000000,4133.333496,4155.897461,4137.948730,4140.512695,868.000000,4.000000,,,,0.000000,4.000000,4.000000,4.000000,4.000000,4.000000,4.000000,4.000000,4.000000,4.000000,4.000000,4.000000,4.000000,4.000000,4.000000,100.000000
1602006168.999941,111.000000,0.000000,4123.589844,4141.538574,4136.410156,4137.948730,4141.538574,4116.410156,4123.077148,4130.769043,4151.282227,4137.948730,4134.358887,4156.922852,4142.563965,4144.102539,838.000000,4.000000,,,,0.000000,4.000000,4.000000,4.000000,4.000000,4.000000,4.000000,4.000000,4.000000,4.000000,4.000000,4.000000,4.000000,4.000000,4.000000,100.000000
1602006169.007823,112.000000,0.000000,4128.205078,4141.025879,4147.179688,4141.538574,4142.051270,4117.948730,4122.051270,4134.358887,4142.563965,4137.948730,4136.410156,4157.948730,4154.871582,4144.615234,767.000000,4.000000,,,,0.000000,4.000000,4.000000,4.000000,4.000000,4.000000,4.000000,4.000000,4.000000,4.000000,4.000000,4.000000,4.000000,4.000000,4.000000,100.000000
1602006169.015705,113.000000,0.000000,4127.179688,4133.333496,4146.666504,4134.871582,4125.641113,4111.794922,4122.563965,4125.641113,4133.333496,4138.974121,4124.102539,4157.948730,4148.205078,4140.512695,744.000000,4.000000,,,,0.000000,4.000000,4.000000,4.000000,4.000000,4.000000,4.000000,4.000000,4.000000,4.000000,4.000000,4.000000,4.000000,4.000000,4.000000,100.000000
1602006169.023587,114.000000,0.000000,4117.948730,4124.102539,4131.282227,4123.077148,4117.436035,4123.589844,4130.256348,4118.974121,4137.436035,4127.692383,4115.384766,4151.794922,4124.102539,4129.743652,868.000000,4.000000,,,,0.000000,4.000000,4.000000,4.000000,4.000000,4.000000,4.000000,4.000000,4.000000,4.000000,4.000000,4.000000,4.000000,4.000000,4.000000,100.000000
1602006169.031469,115.000000,0.000000,4105.128418,4117.436035,4116.922852,4122.563965,4120.512695,4141.025879,4137.948730,4121.538574,4138.461426,4111.282227,4118.974121,4144.615234,4112.820313,4112.820313,838.000000,4.000000,,,,0.000000,4.000000,4.000000,4.000000,4.000000,4.000000,4.000000,4.000000,4.000000,4.000000,4.000000,4.000000,4.000000,4.000000,4.000000,100.000000
1602006169.039351,116.000000,0.000000,4091.281982,4110.256348,4105.128418,4117.436035,4122.051270,4137.948730,4137.948730,4123.077148,4136.922852,4120.000000,4118.461426,4138.461426,4116.410156,4102.051270,767.000000,4.000000,,,,0.000000,4.000000,4.000000,4.000000,4.000000,4.000000,4.000000,4.000000,4.000000,4.000000,4.000000,4.000000,4.000000,4.000000,4.000000,100.000000
1602006169.047132,117.000000,0.000000,4084.102539,4103.589844,4096.410156,4106.153809,4120.000000,4135.384766,4134.358887,4121.538574,4143.077148,4143.077148,4109.743652,4135.897461,4111.794922,4105.641113,744.000000,4.000000,,,,0.000000,4.000000,4.000000,4.000000,4.000000,4.000000,4.000000,4.000000,4.000000,4.000000,4.000000,4.000000,4.000000,4.000000,4.000000,100.000000
1602006169.055013,118.000000,0.000000,4086.666748,4109.743652,4097.948730,4111.794922,4121.025879,4137.948730,4129.743652,4123.077148,4145.128418,4143.077148,4100.512695,4142.563965,4110.256348,4110.256348,868.000000,4.000000,,,,0.000000,4.000000,4.000000,4.000000,4.000000,4.000000,4.000000,4.000000,4.000000,4.000000,4.000000,4.000000,4.000000,4.000000,4.000000,100.000000
1602006169.062895,119.000000,0.000000,4096.922852,4121.025879,4109.230957,4123.077148,4128.205078,4127.179688,4124.102539,4124.615234,4147.179688,4127.692383,4108.205078,4151.282227,4124.102539,4110.256348,838.000000,4.000000,,,,0.000000,4.000000,4.000000,4.000000,4.000000,4.000000,4.000000,4.000000,4.000000,4.000000,4.000000,4.000000,4.000000,4.000000,4.000000,100.000000
1602006169.070776,120.000000,0.000000,4111.794922,4126.153809,4122.563965,4125.641113,4136.922852,4117.436035,4122.563965,4124.615234,4154.358887,4132.307617,4133.333496,4158.461426,4139.487305,4121.538574,767.000000,4.000000,,,,0.000000,4.000000,4.000000,4.000000,4.000000,4.000000,4.000000,4.000000,4.000000,4.000000,4.000000,4.000000,4.000000,4.000000,4.000000,100.000000
1602006169.078658,121.000000,0.000000,4124.102539,4128.205078,4129.743652,4128.717773,4138.461426,4118.461426,4123.077148,4121.538574,4147.179688,4135.384766,4138.461426,4160.000000,4143.589844,4136.922852,744.000000,4.000000,,,,0.000000,4.000000,4.000000,4.000000,4.000000,4.000000,4.000000,4.000000,4.000000,4.000000,4.000000,4.000000,4.000000,4.000000,4.000000,100.000000
1602006169.086539,122.000000,0.000000,4123.589844,4127.179688,4124.615234,4127.179688,4128.205078,4117.948730,4120.000000,4117.948730,4132.307617,4120.000000,4123.589844,4153.333496,4135.384766,4131.282227,868.000000,4.000000,,,,0.000000,4.000000,4.000000,4.000000,4.000000,4.000000,4.000000,4.000000,4.000000,4.000000,4.000000,4.000000,4.000000,4.000000,4.000000,100.000000
1602006169.094321,123.000000,0.000000,4121.538574,4126.666504,4122.563965,4122.563965,4121.538574,4117.948730,4118.974121,4120.000000,4135.384766,4131.794922,4122.051270,4148.717773,4129.230957,4119.487305,838.000000,4.000000,,,,0.000000,4.000000,4.000000,4.000000,4.000000,4.000000,4.000000,4.000000,4.000000,4.000000,4.000000,4.000000,4.000000,4.000000,4.000000,100.000000
1602006169.102203,124.000000,0.000000,4124.615234,4129.743652,4127.692383,4126.666504,4122.051270,4121.025879,4122.563965,4122.051270,4144.102539,4157.948730,4126.153809,4153.846191,4130.769043,4123.589844,767.000000,4.000000,,,,0.000000,4.000000,4.000000,4.000000,4.000000,4.000000,4.000000,4.000000,4.000000,4.000000,4.000000,4.000000,4.000000,4.000000,4.000000,100.000000
1602006169.110086,125.000000,0.000000,4122.051270,4127.692383,4126.153809,4127.692383,4117.436035,4121.538574,4123.077148,4122.051270,4138.461426,4143.077148,4121.025879,4155.384766,4127.692383,4128.717773,744.000000,4.000000,,,,0.000000,4.000000,4.000000,4.000000,4.000000,4.000000,4.000000,4.000000,4.000000,4.000000,4.000000,4.000000,4.000000,4.000000,4.000000,100.000000
1602006169.117968,126.000000,0.000000,4126.666504,4123.589844,4125.641113,4122.051270,4108.205078,4118.461426,4121.538574,4125.128418,4133.333496,4123.077148,4120.000000,4155.384766,4124.102539,4129.743652,868.000000,4.000000,,,,0.000000,4.000000,4.000000,4.000000,4.000000,4.000000,4.000000,4.000000,4.000000,4.000000,4.000000,4.000000,4.000000,4.000000,4.000000,100.000000
1602006169.125850,127.000000,0.000000,4138.974121,4130.769043,4138.974121,4126.666504,4107.692383,4116.922852,4128.205078,4131.794922,4140.000000,4130.769043,4125.641113,4164.615234,4132.307617,4145.641113,838.000000,4.000000,,,,0.000000,4.000000,4.000000,4.000000,4.000000,4.000000,4.000000,4.000000,4.000000,4.000000,4.000000,4.000000,4.000000,4.000000,4.000000,100.000000
1602006169.133732,128.000000,0.000000,4144.102539,4140.512695,4151.794922,4138.461426,4120.000000,4118.974121,4135.897461,4131.794922,4146.666504,4125.641113,4134.358887,4172.307617,4142.563965,4156.922852,767.000000,4.000000,,,,0.000000,4.000000,4.000000,4.000000,4.000000,4.000000,4.000000,4.000000,4.000000,4.000000,4.000000,4.000000,4.000000,4.000000,4.000000,100.000000
1602006169.141614,0.000000,0.000000,4143.077148,4141.538574,4147.179688,4140.512695,4128.717773,4124.615234,4138.461426,4125.128418,4136.922852,4110.769043,4134.871582,4166.153809,4138.974121,4138.974121,798.000000,4.000000,,,,0.000000,4.000000,4.000000,4.000000,4.000000,4.000000,4.000000,4.000000,4.000000,4.000000,4.000000,4.000000,4.000000,4.000000,4.000000,100.000000
1602006169.149496,1.000000,0.000000,4134.871582,4133.846191,4131.282227,4131.282227,4126.153809,4128.205078,4136.410156,4121.025879,4121.025879,4116.922852,4115.384766,4153.333496,4127.692383,4121.025879,793.000000,4.000000,,,,0.000000,4.000000,4.000000,4.000000,4.000000,4.000000,4.000000,4.000000,4.000000,4.000000,4.000000,4.000000,4.000000,4.000000,4.000000,100.000000
1602006169.157378,2.000000,0.000000,4120.000000,4123.077148,4120.000000,4121.538574,4120.512695,4126.153809,4129.743652,4119.487305,4117.436035,4128.717773,4103.077148,4143.589844,4119.487305,4122.563965,850.000000,4.000000,,,,0.000000,4.000000,4.000000,4.000000,4.000000,4.000000,4.000000,4.000000,4.000000,4.000000,4.000000,4.000000,4.000000,4.000000,4.000000,100.000000
1602006169.165360,3.000000,0.000000,4118.461426,4123.589844,4117.436035,4123.077148,4124.615234,4123.077148,4125.128418,4120.512695,4129.230957,4140.000000,4116.922852,4145.128418,4125.641113,4130.769043,874.000000,4.000000,,,,0.000000,4.000000,4.000000,4.000000,4.000000,4.000000,4.000000,4.000000,4.000000,4.000000,4.000000,4.000000,4.000000,4.000000,4.000000,100.000000
1602006169.173242,4.000000,0.000000,4137.436035,4137.948730,4121.538574,4133.846191,4136.922852,4127.179688,4126.666504,4128.717773,4147.692383,4142.051270,4130.769043,4155.897461,4143.589844,4143.077148,813.000000,4.000000,,,,0.000000,4.000000,4.000000,4.000000,4.000000,4.000000,4.000000,4.000000,4.000000,4.000000,4.000000,4.000000,4.000000,4.000000,4.000000,100.000000
1602006169.181124,5.000000,0.000000,4144.102539,4143.077148,4126.666504,4139.487305,4140.000000,4129.230957,4128.205078,4136.410156,4156.922852,4134.871582,4128.205078,4157.948730,4148.205078,4150.256348,822.000000,4.000000,,,,0.000000,4.000000,4.000000,4.000000,4.000000,4.000000,4.000000,4.000000,4.000000,4.000000,4.000000,4.000000,4.000000,4.000000,4.000000,100.000000
1602006169.189006,6.000000,0.000000,4134.871582,4135.897461,4130.256348,4136.922852,4135.897461,4123.589844,4131.282227,4138.974121,4154.358887,4145.128418,4131.282227,4152.820313,4147.692383,4148.717773,767.000000,4.000000,,,,0.000000,4.000000,4.000000,4.000000,4.000000,4.000000,4.000000,4.000000,4.000000,4.000000,4.000000,4.000000,4.000000,4.000000,4.000000,100.000000
1602006169.196888,7.000000,0.000000,4143.077148,4144.102539,4137.436035,4138.461426,4139.487305,4128.205078,4138.974121,4141.538574,4157.436035,4160.000000,4148.205078,4164.102539,4163.077148,4150.769043,675.000000,4.000000,,,,0.000000,4.000000,4.000000,4.000000,4.000000,4.000000,4.000000,4.000000,4.000000,4.000000,4.000000,4.000000,4.000000,4.000000,4.000000,100.000000
1602006169.204769,8.000000,0.000000,4157.436035,4154.358887,4151.282227,4141.025879,4142.051270,4134.358887,4138.974121,4140.000000,4158.974121,4154.358887,4153.846191,4175.897461,4173.846191,4157.948730,785.000000,4.000000,,,,0.000000,4.000000,4.000000,4.000000,4.000000,4.000000,4.000000,4.000000,4.000000,4.000000,4.000000,4.000000,4.000000,4.000000,4.000000,100.000000
1602006169.212651,9.000000,0.000000,4152.820313,4143.589844,4157.948730,4142.051270,4131.794922,4126.666504,4134.871582,4129.230957,4146.153809,4152.820313,4144.615234,4167.179688,4161.538574,4161.025879,841.000000,4.000000,,,,0.000000,4.000000,4.000000,4.000000,4.000000,4.000000,4.000000,4.000000,4.000000,4.000000,4.000000,4.000000,4.000000,4.000000,4.000000,100.000000
1602006169.220533,10.000000,0.000000,4136.410156,4130.769043,4147.179688,4140.000000,4123.077148,4121.538574,4138.461426,4120.512695,4131.282227,4145.641113,4131.794922,4152.307617,4144.102539,4153.846191,869.000000,4.000000,,,,0.000000,4.000000,4.000000,4.000000,4.000000,4.000000,4.000000,4.000000,4.000000,4.000000,4.000000,4.000000,4.000000,4.000000,4.000000,100.000000
1602006169.228314,11.000000,0.000000,4122.051270,4122.051270,4127.179688,4126.153809,4115.384766,4122.563965,4136.922852,4121.025879,4117.436035,4112.820313,4115.897461,4140.000000,4126.153809,4132.820313,838.000000,4.000000,,,,0.000000,4.000000,4.000000,4.000000,4.000000,4.000000,4.000000,4.000000,4.000000,4.000000,4.000000,4.000000,4.000000,4.000000,4.000000,100.000000
1602006169.236195,12.000000,0.000000,4113.333496,4115.897461,4115.897461,4114.358887,4109.230957,4121.538574,4129.230957,4122.563965,4106.666504,4104.615234,4109.743652,4133.846191,4116.410156,4118.461426,777.000000,4.000000,,,,0.000000,4.000000,4.000000,4.000000,4.000000,4.000000,4.000000,4.000000,4.000000,4.000000,4.000000,4.000000,4.000000,4.000000,4.000000,100.000000
1602006169.243977,13.000000,0.000000,4124.615234,4122.563965,4124.615234,4126.153809,4117.436035,4122.563965,4128.205078,4123.077148,4111.794922,4128.205078,4120.000000,4138.974121,4126.153809,4131.794922,744.000000,4.000000,,,,0.000000,4.000000,4.000000,4.000000,4.000000,4.000000,4.000000,4.000000,4.000000,4.000000,4.000000,4.000000,4.000000,4.000000,4.000000,100.000000
1602006169.251859,14.000000,0.000000,4144.615234,4136.410156,4142.563965,4139.487305,4127.179688,4118.461426,4128.717773,4124.615234,4123.077148,4131.794922,4124.102539,4149.230957,4137.948730,4150.256348,869.000000,4.000000,,,,0.000000,4.000000,4.000000,4.000000,4.000000,4.000000,4.000000,4.000000,4.000000,4.000000,4.000000,4.000000,4.000000,4.000000,4.000000,100.000000
1602006169.259741,15.000000,0.000000,4153.333496,4145.641113,4153.846191,4139.487305,4124.615234,4109.230957,4128.205078,4127.179688,4129.230957,4132.307617,4126.666504,4160.000000,4143.077148,4150.769043,838.000000,4.000000,,,,0.000000,4.000000,4.000000,4.000000,4.000000,4.000000,4.000000,4.000000,4.000000,4.000000,4.000000,4.000000,4.000000,4.000000,4.000000,100.000000
1602006169.267623,16.000000,0.000000,4158.461426,4153.333496,4162.563965,4145.641113,4122.563965,4113.846191,4127.179688,4128.205078,4139.487305,4156.410156,4146.153809,4171.282227,4152.820313,4156.410156,0.000000,4.000000,,,,0.000000,4.000000,4.000000,4.000000,4.000000,4.000000,4.000000,4.000000,4.000000,4.000000,4.000000,4.000000,4.000000,4.000000,4.000000,100.000000
1602006169.275505,17.000000,0.000000,4163.077148,4155.384766,4165.128418,4154.358887,4126.666504,4123.589844,4123.589844,4126.153809,4142.563965,4162.051270,4155.384766,4174.871582,4160.512695,4173.333496,0.000000,4.000000,,,,0.000000,4.000000,4.000000,4.000000,4.000000,4.000000,4.000000,4.000000,4.000000,4.000000,4.000000,4.000000,4.000000,4.000000,4.000000,100.000000
1602006169.283387,18.000000,0.000000,4159.487305,4152.820313,4158.461426,4147.179688,4124.615234,4124.102539,4126.666504,4129.743652,4129.743652,4141.538574,4146.666504,4171.282227,4155.897461,4169.230957,0.000000,4.000000,,,,0.000000,4.000000,4.000000,4.000000,4.000000,4.000000,4.000000,4.000000,4.000000,4.000000,4.000000,4.000000,4.000000,4.000000,4.000000,100.000000
1602006169.291268,19.000000,0.000000,4153.846191,4152.307617,4153.846191,4140.000000,4121.538574,4123.589844,4136.410156,4135.897461,4126.666504,4140.512695,4150.769043,4172.820313,4153.846191,4156.410156,0.000000,4.000000,,,,0.000000,4.000000,4.000000,4.000000,4.000000,4.000000,4.000000,4.000000,4.000000,4.000000,4.000000,4.000000,4.000000,4.000000,4.000000,100.000000
1602006169.299150,20.000000,0.000000,4157.436035,4150.256348,4156.922852,4144.615234,4126.153809,4125.641113,4136.410156,4135.897461,4137.436035,4156.410156,4160.000000,4182.051270,4157.948730,4167.179688,0.000000,4.000000,,,,0.000000,4.000000,4.000000,4.000000,4.000000,4.000000,4.000000,4.000000,4.000000,4.000000,4.000000,4.000000,4.000000,4.000000,4.000000,100.000000
1602006169.306932,21.000000,0.000000,4158.974121,4145.128418,4157.948730,4143.077148,4123.589844,4123.077148,4131.794922,4135.384766,4142.563965,4161.538574,4150.256348,4187.179688,4155.384766,4173.846191,0.000000,4.000000,,,,0.000000,4.000000,4.000000,4.000000,4.000000,4.000000,4.000000,4.000000,4.000000,4.000000,4.000000,4.000000,4.000000,4.000000,4.000000,100.000000
1602006169.314814,22.000000,0.000000,4146.666504,4139.487305,4155.897461,4134.358887,4112.820313,4118.974121,4134.358887,4134.358887,4135.384766,4150.256348,4137.948730,4179.487305,4147.692383,4150.769043,0.000000,4.000000,,,,0.000000,4.000000,4.000000,4.000000,4.000000,4.000000,4.000000,4.000000,4.000000,4.000000,4.000000,4.000000,4.000000,4.000000,4.000000,100.000000
1602006169.322696,23.000000,0.000000,4141.538574,4135.384766,4153.846191,4135.897461,4112.820313,4118.974121,4137.948730,4129.230957,4133.846191,4142.563965,4137.948730,4169.743652,4140.512695,4137.948730,0.000000,4.000000,,,,0.000000,4.000000,4.000000,4.000000,4.000000,4.000000,4.000000,4.000000,4.000000,4.000000,4.000000,4.000000,4.000000,4.000000,4.000000,100.000000
1602006169.330578,24.000000,0.000000,4144.102539,4133.333496,4146.666504,4136.410156,4122.051270,4123.589844,4138.461426,4124.615234,4140.000000,4142.563965,4136.922852,4167.692383,4138.974121,4144.615234,0.000000,4.000000,,,,0.000000,4.000000,4.000000,4.000000,4.000000,4.000000,4.000000,4.000000,4.000000,4.000000,4.000000,4.000000,4.000000,4.000000,4.000000,100.000000
1602006169.338460,25.000000,0.000000,4132.820313,4131.794922,4130.769043,4124.615234,4121.025879,4123.589844,4137.436035,4124.102539,4133.333496,4132.307617,4132.820313,4156.410156,4136.410156,4138.974121,0.000000,4.000000,,,,0.000000,4.000000,4.000000,4.000000,4.000000,4.000000,4.000000,4.000000,4.000000,4.000000,4.000000,4.000000,4.000000,4.000000,4.000000,100.000000
1602006169.346342,26.000000,0.000000,4126.666504,4133.846191,4118.461426,4123.589844,4120.000000,4126.666504,4137.948730,4132.820313,4125.641113,4141.025879,4137.436035,4148.717773,4137.948730,4142.051270,0.000000,4.000000,,,,0.000000,4.000000,4.000000,4.000000,4.000000,4.000000,4.000000,4.000000,4.000000,4.000000,4.000000,4.000000,4.000000,4.000000,4.000000,100.000000
1602006169.354224,27.000000,0.000000,4141.538574,4143.077148,4129.743652,4138.461426,4131.282227,4137.436035,4143.077148,4146.666504,4137.948730,4175.897461,4147.179688,4166.153809,4152.307617,4166.666504,0.000000,4.000000,,,,0.000000,4.000000,4.000000,4.000000,4.000000,4.000000,4.000000,4.000000,4.000000,4.000000,4.000000,4.000000,4.000000,4.000000,4.000000,100.000000
1602006169.362105,28.000000,0.000000,4146.153809,4140.512695,4140.000000,4137.436035,4131.794922,4135.384766,4136.922852,4145.641113,4140.000000,4182.051270,4142.563965,4176.410156,4155.384766,4165.128418,0.000000,4.000000,,,,0.000000,4.000000,4.000000,4.000000,4.000000,4.000000,4.000000,4.000000,4.000000,4.000000,4.000000,4.000000,4.000000,4.000000,4.000000,100.000000
1602006169.370087,29.000000,0.000000,4134.358887,4124.615234,4128.205078,4122.563965,4122.563965,4121.538574,4118.461426,4134.358887,4123.589844,4150.256348,4128.205078,4156.922852,4131.282227,4133.846191,0.000000,4.000000,,,,0.000000,4.000000,4.000000,4.000000,4.000000,4.000000,4.000000,4.000000,4.000000,4.000000,4.000000,4.000000,4.000000,4.000000,4.000000,100.000000
1602006169.377968,30.000000,0.000000,4129.230957,4120.512695,4123.077148,4125.641113,4121.025879,4121.538574,4116.410156,4134.358887,4124.615234,4136.922852,4126.153809,4139.487305,4122.563965,4129.230957,0.000000,4.000000,,,,0.000000,4.000000,4.000000,4.000000,4.000000,4.000000,4.000000,4.000000,4.000000,4.000000,4.000000,4.000000,4.000000,4.000000,4.000000,100.000000
1602006169.385850,31.000000,0.000000,4129.230957,4126.666504,4130.256348,4138.461426,4124.615234,4124.615234,4124.615234,4141.025879,4140.512695,4136.922852,4134.871582,4140.000000,4136.922852,4146.153809,0.000000,4.000000,,,,0.000000,4.000000,4.000000,4.000000,4.000000,4.000000,4.000000,4.000000,4.000000,4.000000,4.000000,4.000000,4.000000,4.000000,4.000000,100.000000
1602006169.393731,32.000000,0.000000,4127.179688,4126.153809,4126.153809,4135.897461,4124.102539,4114.871582,4124.615234,4141.025879,4140.512695,4131.794922,4138.461426,4136.922852,4132.820313,4135.897461,0.000000,4.000000,,,,0.000000,4.000000,4.000000,4.000000,4.000000,4.000000,4.000000,4.000000,4.000000,4.000000,4.000000,4.000000,4.000000,4.000000,4.000000,100.000000
1602006169.401612,33.000000,0.000000,4131.794922,4127.692383,4124.615234,4131.282227,4122.563965,4111.282227,4129.743652,4138.461426,4133.333496,4149.230957,4136.410156,4132.820313,4123.589844,4126.666504,0.000000,4.000000,,,,0.000000,4.000000,4.000000,4.000000,4.000000,4.000000,4.000000,4.000000,4.000000,4.000000,4.000000,4.000000,4.000000,4.000000,4.000000,100.000000
1602006169.409594,34.000000,0.000000,4148.205078,4138.461426,4145.128418,4136.922852,4124.615234,4118.974121,4138.974121,4140.512695,4140.512695,4167.692383,4138.974121,4148.717773,4138.461426,4144.615234,0.000000,4.000000,,,,0.000000,4.000000,4.000000,4.000000,4.000000,4.000000,4.000000,4.000000,4.000000,4.000000,4.000000,4.000000,4.000000,4.000000,4.000000,100.000000
1602006169.417476,35.000000,0.000000,4156.410156,4138.974121,4154.871582,4141.538574,4120.512695,4123.589844,4140.000000,4143.589844,4148.717773,4158.974121,4141.538574,4161.538574,4144.102539,4151.794922,0.000000,4.000000,,,,0.000000,4.000000,4.000000,4.000000,4.000000,4.000000,4.000000,4.000000,4.000000,4.000000,4.000000,4.000000,4.000000,4.000000,4.000000,100.000000
1602006169.425357,36.000000,0.000000,4144.615234,4124.102539,4143.077148,4138.461426,4113.333496,4122.051270,4137.948730,4135.897461,4134.871582,4142.051270,4132.820313,4147.179688,4122.563965,4136.410156,0.000000,4.000000,,,,0.000000,4.000000,4.000000,4.000000,4.000000,4.000000,4.000000,4.000000,4.000000,4.000000,4.000000,4.000000,4.000000,4.000000,4.000000,100.000000
1602006169.433239,37.000000,0.000000,4134.358887,4119.487305,4138.461426,4132.307617,4108.717773,4120.000000,4132.820313,4126.153809,4119.487305,4132.307617,4121.025879,4130.769043,4109.743652,4132.820313,0.000000,4.000000,,,,0.000000,4.000000,4.000000,4.000000,4.000000,4.000000,4.000000,4.000000,4.000000,4.000000,4.000000,4.000000,4.000000,4.000000,4.000000,100.000000
1602006169.441120,38.000000,0.000000,4135.897461,4122.563965,4137.948730,4124.615234,4109.230957,4123.077148,4124.615234,4127.692383,4123.077148,4120.000000,4120.000000,4131.794922,4116.922852,4138.974121,0.000000,4.000000,,,,0.000000,4.000000,4.000000,4.000000,4.000000,4.000000,4.000000,4.000000,4.000000,4.000000,4.000000,4.000000,4.000000,4.000000,4.000000,100.000000
1602006169.449002,39.000000,0.000000,4131.794922,4113.846191,4126.153809,4117.948730,4115.384766,4122.563965,4121.538574,4128.205078,4123.077148,4115.384766,4125.128418,4133.846191,4120.512695,4132.307617,0.000000,4.000000,,,,0.000000,4.000000,4.000000,4.000000,4.000000,4.000000,4.000000,4.000000,4.000000,4.000000,4.000000,4.000000,4.000000,4.000000,4.000000,100.000000
1602006169.456884,40.000000,0.000000,4121.538574,4108.717773,4116.410156,4117.948730,4119.487305,4111.794922,4122.563965,4123.589844,4122.051270,4131.282227,4123.077148,4129.230957,4117.948730,4130.769043,0.000000,4.000000,,,,0.000000,4.000000,4.000000,4.000000,4.000000,4.000000,4.000000,4.000000,4.000000,4.000000,4.000000,4.000000,4.000000,4.000000,4.000000,100.000000
1602006169.464665,41.000000,0.000000,4122.051270,4121.538574,4121.025879,4122.563965,4121.025879,4108.205078,4121.538574,4129.230957,4137.948730,4155.384766,4129.230957,4134.871582,4127.692383,4137.948730,0.000000,4.000000,,,,0.000000,4.000000,4.000000,4.000000,4.000000,4.000000,4.000000,4.000000,4.000000,4.000000,4.000000,4.000000,4.000000,4.000000,4.000000,100.000000
1602006169.472547,42.000000,0.000000,4130.256348,4126.666504,4123.589844,4125.128418,4123.589844,4115.384766,4123.077148,4136.922852,4140.000000,4166.666504,4142.563965,4143.589844,4141.538574,4134.358887,0.000000,4.000000,,,,0.000000,4.000000,4.000000,4.000000,4.000000,4.000000,4.000000,4.000000,4.000000,4.000000,4.000000,4.000000,4.000000,4.000000,4.000000,100.000000
1602006169.480429,43.000000,0.000000,4137.948730,4121.025879,4121.025879,4125.641113,4124.102539,4108.717773,4123.077148,4134.358887,4125.128418,4154.358887,4141.538574,4143.589844,4144.615234,4136.922852,0.000000,4.000000,,,,0.000000,4.000000,4.000000,4.000000,4.000000,4.000000,4.000000,4.000000,4.000000,4.000000,4.000000,4.000000,4.000000,4.000000,4.000000,100.000000
1602006169.488310,44.000000,0.000000,4141.538574,4129.743652,4131.794922,4132.820313,4121.538574,4108.205078,4120.512695,4134.871582,4126.666504,4145.641113,4140.000000,4146.666504,4151.794922,4158.461426,0.000000,4.000000,,,,0.000000,4.000000,4.000000,4.000000,4.000000,4.000000,4.000000,4.000000,4.000000,4.000000,4.000000,4.000000,4.000000,4.000000,4.000000,100.000000
1602006169.496192,45.000000,0.000000,4144.615234,4136.922852,4141.025879,4139.487305,4124.615234,4131.794922,4126.153809,4135.897461,4130.769043,4139.487305,4143.077148,4154.358887,4156.410156,4164.615234,0.000000,4.000000,,,,0.000000,4.000000,4.000000,4.000000,4.000000,4.000000,4.000000,4.000000,4.000000,4.000000,4.000000,4.000000,4.000000,4.000000,4.000000,100.000000
1602006169.504074,46.000000,0.000000,4141.538574,4126.666504,4133.333496,4133.333496,4125.641113,4144.102539,4135.384766,4126.666504,4122.051270,4125.641113,4138.974121,4149.230957,4141.538574,4144.615234,0.000000,4.000000,,,,0.000000,4.000000,4.000000,4.000000,4.000000,4.000000,4.000000,4.000000,4.000000,4.000000,4.000000,4.000000,4.000000,4.000000,4.000000,100.000000
1602006169.511955,47.000000,0.000000,4127.692383,4117.436035,4122.051270,4124.102539,4122.051270,4136.922852,4142.051270,4127.179688,4121.538574,4130.256348,4134.871582,4137.436035,4131.282227,4133.333496,0.000000,4.000000,,,,0.000000,4.000000,4.000000,4.000000,4.000000,4.000000,4.000000,4.000000,4.000000,4.000000,4.000000,4.000000,4.000000,4.000000,4.000000,100.000000
1602006169.519737,48.000000,0.000000,4123.077148,4114.358887,4121.025879,4121.538574,4122.051270,4136.922852,4145.641113,4139.487305,4134.358887,4157.436035,4132.307617,4135.897461,4136.410156,4135.897461,0.000000,4.000000,,,,0.000000,4.000000,4.000000,4.000000,4.000000,4.000000,4.000000,4.000000,4.000000,4.000000,4.000000,4.000000,4.000000,4.000000,4.000000,100.000000
1602006169.527619,49.000000,0.000000,4136.922852,4117.948730,4127.692383,4128.205078,4125.641113,4142.051270,4145.641113,4142.563965,4145.128418,4163.589844,4130.769043,4142.563965,4135.897461,4137.436035,0.000000,4.000000,,,,0.000000,4.000000,4.000000,4.000000,4.000000,4.000000,4.000000,4.000000,4.000000,4.000000,4.000000,4.000000,4.000000,4.000000,4.000000,100.000000
1602006169.535501,50.000000,0.000000,4151.794922,4130.769043,4135.897461,4136.922852,4130.256348,4135.384766,4142.563965,4138.461426,4152.820313,4148.717773,4143.589844,4152.307617,4138.461426,4135.384766,0.000000,4.000000,,,,0.000000,4.000000,4.000000,4.000000,4.000000,4.000000,4.000000,4.000000,4.000000,4.000000,4.000000,4.000000,4.000000,4.000000,4.000000,100.000000
1602006169.543383,51.000000,0.000000,4155.897461,4144.102539,4141.025879,4140.000000,4135.897461,4126.666504,4135.384766,4139.487305,4154.358887,4160.000000,4158.974121,4156.410156,4152.307617,4141.025879,0.000000,4.000000,,,,0.000000,4.000000,4.000000,4.000000,4.000000,4.000000,4.000000,4.000000,4.000000,4.000000,4.000000,4.000000,4.000000,4.000000,4.000000,100.000000
1602006169.551265,52.000000,0.000000,4151.282227,4146.666504,4139.487305,4145.128418,4137.948730,4125.641113,4125.128418,4141.025879,4146.666504,4166.153809,4153.846191,4147.692383,4155.897461,4154.358887,0.000000,4.000000,,,,0.000000,4.000000,4.000000,4.000000,4.000000,4.000000,4.000000,4.000000,4.000000,4.000000,4.000000,4.000000,4.000000,4.000000,4.000000,100.000000
1602006169.559147,53.000000,0.000000,4150.769043,4145.641113,4139.487305,4150.256348,4138.974121,4130.256348,4117.436035,4134.358887,4134.871582,4137.948730,4140.000000,4137.948730,4145.128418,4153.333496,0.000000,4.000000,,,,0.000000,4.000000,4.000000,4.000000,4.000000,4.000000,4.000000,4.000000,4.000000,4.000000,4.000000,4.000000,4.000000,4.000000,4.000000,100.000000
