Timestamp,EEG.Counter,EEG.Interpolated,EEG.AF3,EEG.F7,EEG.F3,EEG.FC5,EEG.T7,EEG.P7,EEG.O1,EEG.O2,EEG.P8,EEG.T8,EEG.FC6,EEG.F4,EEG.F8,EEG.AF4,EEG.RawCq,EEG.Battery,MarkerIndex,MarkerType,MarkerValueInt,EEG.MarkerHardware,CQ.AF3,CQ.F7,CQ.F3,CQ.FC5,CQ.T7,CQ.P7,CQ.O1,CQ.O2,CQ.P8,CQ.T8,CQ.FC6,CQ.F4,CQ.F8,CQ.AF4,CQ.Overall
1602006179.133964,107.000000,0.000000,4140.512695,4118.974121,4128.717773,4118.461426,4104.615234,4115.897461,4124.615234,4134.358887,4120.000000,4111.282227,4109.230957,4136.922852,4103.589844,4115.384766,836.000000,4.000000,,,,0.000000,4.000000,4.000000,4.000000,4.000000,4.000000,4.000000,4.000000,4.000000,4.000000,4.000000,4.000000,4.000000,4.000000,4.000000,100.000000
1602006179.141746,108.000000,0.000000,4135.897461,4119.487305,4135.897461,4121.538574,4113.333496,4115.897461,4122.563965,4126.666504,4116.922852,4117.436035,4109.230957,4138.974121,4095.897461,4106.666504,761.000000,4.000000,,,,0.000000,4.000000,4.000000,4.000000,4.000000,4.000000,4.000000,4.000000,4.000000,4.000000,4.000000,4.000000,4.000000,4.000000,4.000000,100.000000
1602006179.149628,109.000000,0.000000,4139.487305,4121.538574,4141.538574,4123.589844,4126.666504,4118.974121,4121.538574,4123.077148,4122.051270,4124.615234,4107.179688,4145.641113,4093.846191,4118.461426,747.000000,4.000000,,,,0.000000,4.000000,4.000000,4.000000,4.000000,4.000000,4.000000,4.000000,4.000000,4.000000,4.000000,4.000000,4.000000,4.000000,4.000000,100.000000
1602006179.157510,110.000000,0.000000,4141.025879,4120.512695,4139.487305,4121.025879,4122.563965,4116.410156,4119.487305,4120.512695,4110.769043,4114.871582,4110.769043,4146.153809,4088.718018,4125.641113,873.000000,4.000000,,,,0.000000,4.000000,4.000000,4.000000,4.000000,4.000000,4.000000,4.000000,4.000000,4.000000,4.000000,4.000000,4.000000,4.000000,4.000000,100.000000
1602006179.165391,111.000000,0.000000,4141.538574,4120.000000,4137.948730,4121.538574,4116.922852,4116.922852,4118.461426,4120.512695,4100.512695,4107.692383,4117.436035,4139.487305,4092.820557,4120.512695,836.000000,4.000000,,,,0.000000,4.000000,4.000000,4.000000,4.000000,4.000000,4.000000,4.000000,4.000000,4.000000,4.000000,4.000000,4.000000,4.000000,4.000000,100.000000
1602006179.173273,112.000000,0.000000,4140.000000,4121.025879,4138.461426,4125.641113,4121.538574,4123.589844,4120.512695,4129.743652,4117.436035,4119.487305,4119.487305,4137.948730,4105.128418,4121.538574,761.000000,4.000000,,,,0.000000,4.000000,4.000000,4.000000,4.000000,4.000000,4.000000,4.000000,4.000000,4.000000,4.000000,4.000000,4.000000,4.000000,4.000000,100.000000
1602006179.181155,113.000000,0.000000,4133.846191,4119.487305,4134.871582,4123.077148,4121.025879,4123.589844,4122.563965,4135.384766,4130.769043,4129.743652,4120.000000,4139.487305,4106.153809,4123.077148,747.000000,4.000000,,,,0.000000,4.000000,4.000000,4.000000,4.000000,4.000000,4.000000,4.000000,4.000000,4.000000,4.000000,4.000000,4.000000,4.000000,4.000000,100.000000
1602006179.189037,114.000000,0.000000,4135.897461,4121.538574,4133.846191,4121.538574,4119.487305,4121.025879,4130.256348,4134.358887,4126.153809,4125.128418,4121.538574,4137.948730,4110.256348,4120.512695,873.000000,4.000000,,,,0.000000,4.000000,4.000000,4.000000,4.000000,4.000000,4.000000,4.000000,4.000000,4.000000,4.000000,4.000000,4.000000,4.000000,4.000000,100.000000
1602006179.196919,115.000000,0.000000,4148.717773,4134.358887,4144.102539,4130.256348,4125.128418,4124.102539,4139.487305,4140.000000,4128.717773,4122.051270,4125.128418,4148.717773,4122.051270,4127.179688,836.000000,4.000000,,,,0.000000,4.000000,4.000000,4.000000,4.000000,4.000000,4.000000,4.000000,4.000000,4.000000,4.000000,4.000000,4.000000,4.000000,4.000000,100.000000
1602006179.204801,116.000000,0.000000,4158.974121,4144.102539,4161.025879,4139.487305,4124.102539,4122.563965,4137.436035,4145.641113,4137.436035,4126.666504,4132.307617,4167.692383,4128.205078,4144.615234,761.000000,4.000000,,,,0.000000,4.000000,4.000000,4.000000,4.000000,4.000000,4.000000,4.000000,4.000000,4.000000,4.000000,4.000000,4.000000,4.000000,4.000000,100.000000
1602006179.212682,117.000000,0.000000,4162.563965,4143.589844,4168.205078,4142.051270,4123.589844,4119.487305,4134.871582,4142.563965,4137.436035,4141.025879,4141.025879,4172.820313,4136.922852,4163.077148,747.000000,4.000000,,,,0.000000,4.000000,4.000000,4.000000,4.000000,4.000000,4.000000,4.000000,4.000000,4.000000,4.000000,4.000000,4.000000,4.000000,4.000000,100.000000
1602006179.220563,118.000000,0.000000,4160.512695,4143.077148,4159.487305,4140.512695,4125.128418,4121.538574,4140.512695,4143.589844,4138.974121,4157.948730,4140.000000,4169.743652,4144.615234,4168.717773,873.000000,4.000000,,,,0.000000,4.000000,4.000000,4.000000,4.000000,4.000000,4.000000,4.000000,4.000000,4.000000,4.000000,4.000000,4.000000,4.000000,4.000000,100.000000
1602006179.228444,119.000000,0.000000,4149.230957,4133.846191,4143.589844,4133.333496,4117.948730,4115.384766,4135.384766,4139.487305,4135.384766,4145.641113,4128.205078,4157.436035,4127.692383,4144.102539,836.000000,4.000000,,,,0.000000,4.000000,4.000000,4.000000,4.000000,4.000000,4.000000,4.000000,4.000000,4.000000,4.000000,4.000000,4.000000,4.000000,4.000000,100.000000
1602006179.236225,120.000000,0.000000,4136.922852,4120.000000,4134.358887,4122.563965,4108.717773,4105.128418,4122.563965,4127.179688,4116.922852,4114.871582,4113.333496,4140.512695,4104.615234,4116.922852,761.000000,4.000000,,,,0.000000,4.000000,4.000000,4.000000,4.000000,4.000000,4.000000,4.000000,4.000000,4.000000,4.000000,4.000000,4.000000,4.000000,4.000000,100.000000
1602006179.244106,121.000000,0.000000,4135.897461,4127.179688,4135.384766,4121.538574,4109.743652,4111.794922,4122.051270,4127.692383,4110.769043,4108.205078,4105.128418,4143.589844,4104.102539,4127.179688,747.000000,4.000000,,,,0.000000,4.000000,4.000000,4.000000,4.000000,4.000000,4.000000,4.000000,4.000000,4.000000,4.000000,4.000000,4.000000,4.000000,4.000000,100.000000
1602006179.251987,122.000000,0.000000,4145.128418,4138.974121,4140.000000,4133.333496,4115.897461,4124.615234,4128.205078,4135.897461,4120.512695,4109.743652,4109.743652,4150.769043,4109.230957,4138.974121,873.000000,4.000000,,,,0.000000,4.000000,4.000000,4.000000,4.000000,4.000000,4.000000,4.000000,4.000000,4.000000,4.000000,4.000000,4.000000,4.000000,4.000000,100.000000
1602006179.259769,123.000000,0.000000,4152.307617,4137.436035,4142.051270,4138.974121,4121.025879,4130.769043,4131.282227,4135.897461,4122.051270,4098.974121,4120.512695,4141.538574,4107.692383,4122.563965,836.000000,4.000000,,,,0.000000,4.000000,4.000000,4.000000,4.000000,4.000000,4.000000,4.000000,4.000000,4.000000,4.000000,4.000000,4.000000,4.000000,4.000000,100.000000
1602006179.267650,124.000000,0.000000,4152.820313,4136.410156,4136.410156,4131.794922,4124.615234,4133.333496,4135.384766,4136.922852,4124.615234,4107.692383,4118.974121,4134.871582,4110.769043,4118.461426,761.000000,4.000000,,,,0.000000,4.000000,4.000000,4.000000,4.000000,4.000000,4.000000,4.000000,4.000000,4.000000,4.000000,4.000000,4.000000,4.000000,4.000000,100.000000
1602006179.275532,125.000000,0.000000,4144.102539,4134.871582,4125.641113,4123.589844,4125.641113,4132.820313,4136.410156,4134.358887,4128.717773,4133.333496,4106.153809,4134.871582,4110.769043,4126.666504,747.000000,4.000000,,,,0.000000,4.000000,4.000000,4.000000,4.000000,4.000000,4.000000,4.000000,4.000000,4.000000,4.000000,4.000000,4.000000,4.000000,4.000000,100.000000
1602006179.283414,126.000000,0.000000,4127.692383,4124.615234,4117.948730,4121.025879,4122.563965,4125.641113,4126.153809,4122.563965,4114.358887,4131.282227,4102.051270,4127.179688,4097.436035,4108.717773,873.000000,4.000000,,,,0.000000,4.000000,4.000000,4.000000,4.000000,4.000000,4.000000,4.000000,4.000000,4.000000,4.000000,4.000000,4.000000,4.000000,4.000000,100.000000
1602006179.291296,127.000000,0.000000,4124.102539,4124.102539,4117.948730,4120.000000,4123.077148,4121.025879,4120.000000,4117.948730,4102.563965,4115.897461,4109.230957,4127.692383,4093.846191,4100.000000,836.000000,4.000000,,,,0.000000,4.000000,4.000000,4.000000,4.000000,4.000000,4.000000,4.000000,4.000000,4.000000,4.000000,4.000000,4.000000,4.000000,4.000000,100.000000
1602006179.299178,128.000000,0.000000,4138.461426,4133.846191,4128.717773,4120.000000,4125.128418,4130.769043,4128.205078,4122.051270,4104.615234,4126.666504,4113.333496,4139.487305,4109.230957,4122.563965,761.000000,4.000000,,,,0.000000,4.000000,4.000000,4.000000,4.000000,4.000000,4.000000,4.000000,4.000000,4.000000,4.000000,4.000000,4.000000,4.000000,4.000000,100.000000
1602006179.307060,0.000000,0.000000,4147.692383,4139.487305,4141.025879,4127.692383,4128.205078,4138.974121,4138.461426,4127.179688,4106.666504,4148.717773,4121.025879,4145.128418,4121.538574,4131.794922,801.000000,4.000000,,,,0.000000,4.000000,4.000000,4.000000,4.000000,4.000000,4.000000,4.000000,4.000000,4.000000,4.000000,4.000000,4.000000,4.000000,4.000000,100.000000
1602006179.314942,1.000000,0.000000,4142.563965,4138.461426,4142.051270,4130.769043,4126.666504,4129.230957,4136.922852,4134.358887,4113.846191,4147.179688,4130.769043,4150.256348,4127.692383,4129.743652,785.000000,4.000000,,,,0.000000,4.000000,4.000000,4.000000,4.000000,4.000000,4.000000,4.000000,4.000000,4.000000,4.000000,4.000000,4.000000,4.000000,4.000000,100.000000
1602006179.322824,2.000000,0.000000,4136.922852,4134.871582,4138.974121,4124.615234,4117.948730,4116.410156,4127.692383,4137.948730,4124.615234,4133.333496,4126.666504,4150.769043,4125.128418,4138.974121,850.000000,4.000000,,,,0.000000,4.000000,4.000000,4.000000,4.000000,4.000000,4.000000,4.000000,4.000000,4.000000,4.000000,4.000000,4.000000,4.000000,4.000000,100.000000
1602006179.330605,3.000000,0.000000,4138.461426,4134.358887,4141.025879,4122.051270,4113.846191,4119.487305,4125.641113,4136.410156,4132.307617,4144.615234,4117.436035,4142.051270,4112.820313,4137.948730,872.000000,4.000000,,,,0.000000,4.000000,4.000000,4.000000,4.000000,4.000000,4.000000,4.000000,4.000000,4.000000,4.000000,4.000000,4.000000,4.000000,4.000000,100.000000
1602006179.338486,4.000000,0.000000,4139.487305,4137.436035,4141.538574,4126.666504,4124.615234,4121.538574,4131.282227,4137.436035,4138.461426,4155.384766,4123.077148,4136.922852,4112.307617,4124.102539,813.000000,4.000000,,,,0.000000,4.000000,4.000000,4.000000,4.000000,4.000000,4.000000,4.000000,4.000000,4.000000,4.000000,4.000000,4.000000,4.000000,4.000000,100.000000
1602006179.346367,5.000000,0.000000,4138.461426,4137.436035,4137.436035,4129.230957,4131.794922,4119.487305,4129.230957,4137.436035,4137.436035,4139.487305,4128.717773,4139.487305,4118.974121,4118.461426,822.000000,4.000000,,,,0.000000,4.000000,4.000000,4.000000,4.000000,4.000000,4.000000,4.000000,4.000000,4.000000,4.000000,4.000000,4.000000,4.000000,4.000000,100.000000
1602006179.354248,6.000000,0.000000,4136.410156,4134.871582,4134.871582,4123.077148,4123.589844,4122.051270,4122.051270,4135.384766,4127.179688,4132.820313,4115.897461,4138.461426,4113.846191,4120.512695,772.000000,4.000000,,,,0.000000,4.000000,4.000000,4.000000,4.000000,4.000000,4.000000,4.000000,4.000000,4.000000,4.000000,4.000000,4.000000,4.000000,4.000000,100.000000
1602006179.362030,7.000000,0.000000,4140.000000,4135.897461,4135.897461,4121.538574,4122.563965,4120.000000,4121.025879,4134.358887,4121.538574,4139.487305,4105.128418,4136.922852,4113.846191,4126.666504,675.000000,4.000000,,,,0.000000,4.000000,4.000000,4.000000,4.000000,4.000000,4.000000,4.000000,4.000000,4.000000,4.000000,4.000000,4.000000,4.000000,4.000000,100.000000
1602006179.369911,8.000000,0.000000,4146.666504,4142.051270,4138.974121,4133.846191,4136.410156,4122.051270,4124.102539,4129.230957,4122.563965,4132.820313,4111.794922,4138.974121,4122.051270,4137.948730,755.000000,4.000000,,,,0.000000,4.000000,4.000000,4.000000,4.000000,4.000000,4.000000,4.000000,4.000000,4.000000,4.000000,4.000000,4.000000,4.000000,4.000000,100.000000
1602006179.377793,9.000000,0.000000,4144.615234,4144.102539,4136.922852,4136.922852,4140.000000,4124.615234,4121.025879,4123.077148,4114.358887,4123.589844,4110.256348,4132.820313,4113.333496,4135.384766,841.000000,4.000000,,,,0.000000,4.000000,4.000000,4.000000,4.000000,4.000000,4.000000,4.000000,4.000000,4.000000,4.000000,4.000000,4.000000,4.000000,4.000000,100.000000
1602006179.385674,10.000000,0.000000,4135.897461,4137.436035,4131.282227,4124.615234,4124.615234,4102.563965,4116.410156,4117.436035,4098.974121,4122.563965,4098.461426,4124.615234,4099.487305,4118.974121,873.000000,4.000000,,,,0.000000,4.000000,4.000000,4.000000,4.000000,4.000000,4.000000,4.000000,4.000000,4.000000,4.000000,4.000000,4.000000,4.000000,4.000000,100.000000
1602006179.393555,11.000000,0.000000,4142.563965,4136.922852,4134.871582,4124.615234,4116.410156,4086.666748,4117.948730,4120.000000,4093.333252,4126.153809,4110.769043,4132.307617,4114.871582,4126.666504,799.000000,4.000000,,,,0.000000,4.000000,4.000000,4.000000,4.000000,4.000000,4.000000,4.000000,4.000000,4.000000,4.000000,4.000000,4.000000,4.000000,4.000000,100.000000
1602006179.401437,12.000000,0.000000,4158.461426,4150.256348,4149.230957,4141.025879,4131.282227,4107.179688,4123.077148,4131.794922,4101.538574,4132.820313,4134.871582,4144.615234,4136.410156,4153.333496,761.000000,4.000000,,,,0.000000,4.000000,4.000000,4.000000,4.000000,4.000000,4.000000,4.000000,4.000000,4.000000,4.000000,4.000000,4.000000,4.000000,4.000000,100.000000
1602006179.409318,13.000000,0.000000,4154.358887,4155.384766,4153.333496,4146.153809,4140.512695,4126.666504,4126.153809,4141.025879,4113.333496,4140.512695,4133.846191,4143.589844,4131.794922,4156.410156,677.000000,4.000000,,,,0.000000,4.000000,4.000000,4.000000,4.000000,4.000000,4.000000,4.000000,4.000000,4.000000,4.000000,4.000000,4.000000,4.000000,4.000000,100.000000
1602006179.417200,14.000000,0.000000,4138.461426,4144.102539,4140.512695,4133.846191,4126.666504,4122.563965,4125.641113,4140.000000,4117.948730,4136.922852,4118.461426,4137.948730,4117.436035,4142.051270,873.000000,4.000000,,,,0.000000,4.000000,4.000000,4.000000,4.000000,4.000000,4.000000,4.000000,4.000000,4.000000,4.000000,4.000000,4.000000,4.000000,4.000000,100.000000
1602006179.425081,15.000000,0.000000,4138.461426,4133.333496,4132.820313,4123.077148,4113.333496,4118.974121,4125.128418,4138.461426,4121.025879,4122.563965,4116.922852,4137.948730,4117.948730,4136.410156,799.000000,4.000000,,,,0.000000,4.000000,4.000000,4.000000,4.000000,4.000000,4.000000,4.000000,4.000000,4.000000,4.000000,4.000000,4.000000,4.000000,4.000000,100.000000
1602006179.432962,16.000000,0.000000,4143.589844,4134.871582,4137.436035,4122.563965,4117.436035,4123.077148,4125.128418,4141.025879,4126.153809,4123.077148,4124.102539,4141.025879,4126.153809,4137.436035,0.000000,4.000000,,,,0.000000,4.000000,4.000000,4.000000,4.000000,4.000000,4.000000,4.000000,4.000000,4.000000,4.000000,4.000000,4.000000,4.000000,4.000000,100.000000
1602006179.440844,17.000000,0.000000,4140.512695,4136.410156,4142.051270,4124.615234,4120.000000,4124.615234,4125.128418,4137.948730,4131.282227,4144.102539,4127.692383,4144.102539,4124.102539,4138.461426,0.000000,4.000000,,,,0.000000,4.000000,4.000000,4.000000,4.000000,4.000000,4.000000,4.000000,4.000000,4.000000,4.000000,4.000000,4.000000,4.000000,4.000000,100.000000
1602006179.448826,18.000000,0.000000,4136.922852,4128.717773,4139.487305,4121.538574,4116.410156,4127.692383,4124.102539,4127.692383,4126.666504,4147.692383,4123.077148,4141.538574,4110.256348,4133.846191,0.000000,4.000000,,,,0.000000,4.000000,4.000000,4.000000,4.000000,4.000000,4.000000,4.000000,4.000000,4.000000,4.000000,4.000000,4.000000,4.000000,4.000000,100.000000
1602006179.456708,19.000000,0.000000,4128.205078,4120.000000,4131.282227,4118.461426,4115.384766,4126.666504,4124.102539,4122.051270,4113.333496,4116.922852,4109.230957,4133.846191,4095.897461,4117.948730,0.000000,4.000000,,,,0.000000,4.000000,4.000000,4.000000,4.000000,4.000000,4.000000,4.000000,4.000000,4.000000,4.000000,4.000000,4.000000,4.000000,4.000000,100.000000
1602006179.464589,20.000000,0.000000,4118.974121,4122.051270,4124.102539,4121.538574,4118.974121,4125.641113,4125.128418,4124.102539,4104.615234,4100.512695,4109.230957,4133.333496,4098.461426,4121.025879,0.000000,4.000000,,,,0.000000,4.000000,4.000000,4.000000,4.000000,4.000000,4.000000,4.000000,4.000000,4.000000,4.000000,4.000000,4.000000,4.000000,4.000000,100.000000
1602006179.472471,21.000000,0.000000,4128.205078,4132.820313,4130.769043,4123.589844,4130.256348,4132.820313,4125.641113,4120.000000,4103.077148,4117.436035,4123.589844,4138.461426,4109.230957,4141.025879,0.000000,4.000000,,,,0.000000,4.000000,4.000000,4.000000,4.000000,4.000000,4.000000,4.000000,4.000000,4.000000,4.000000,4.000000,4.000000,4.000000,4.000000,100.000000
1602006179.480353,22.000000,0.000000,4142.563965,4137.948730,4137.436035,4124.615234,4137.948730,4138.461426,4122.563965,4112.307617,4105.128418,4127.692383,4118.974121,4141.538574,4109.230957,4137.436035,0.000000,4.000000,,,,0.000000,4.000000,4.000000,4.000000,4.000000,4.000000,4.000000,4.000000,4.000000,4.000000,4.000000,4.000000,4.000000,4.000000,4.000000,100.000000
1602006179.488235,23.000000,0.000000,4137.436035,4136.410156,4130.256348,4126.153809,4137.948730,4131.794922,4118.461426,4115.897461,4104.615234,4119.487305,4109.743652,4142.051270,4109.743652,4120.512695,0.000000,4.000000,,,,0.000000,4.000000,4.000000,4.000000,4.000000,4.000000,4.000000,4.000000,4.000000,4.000000,4.000000,4.000000,4.000000,4.000000,4.000000,100.000000
1602006179.496117,24.000000,0.000000,4127.179688,4133.846191,4123.077148,4124.102539,4134.358887,4120.512695,4118.461426,4124.102539,4104.615234,4127.179688,4118.974121,4140.000000,4111.794922,4118.461426,0.000000,4.000000,,,,0.000000,4.000000,4.000000,4.000000,4.000000,4.000000,4.000000,4.000000,4.000000,4.000000,4.000000,4.000000,4.000000,4.000000,4.000000,100.000000
1602006179.503999,25.000000,0.000000,4134.871582,4134.871582,4124.615234,4122.563965,4135.897461,4125.128418,4122.563965,4129.230957,4114.871582,4153.333496,4127.179688,4138.974121,4111.794922,4123.077148,0.000000,4.000000,,,,0.000000,4.000000,4.000000,4.000000,4.000000,4.000000,4.000000,4.000000,4.000000,4.000000,4.000000,4.000000,4.000000,4.000000,4.000000,100.000000
1602006179.511881,26.000000,0.000000,4145.641113,4135.897461,4126.153809,4125.641113,4139.487305,4138.461426,4125.128418,4135.384766,4128.717773,4153.333496,4125.641113,4141.025879,4111.794922,4122.563965,0.000000,4.000000,,,,0.000000,4.000000,4.000000,4.000000,4.000000,4.000000,4.000000,4.000000,4.000000,4.000000,4.000000,4.000000,4.000000,4.000000,4.000000,100.000000
1602006179.519863,27.000000,0.000000,4136.410156,4133.333496,4123.077148,4126.153809,4136.922852,4137.948730,4130.769043,4138.974121,4137.436035,4138.461426,4125.641113,4139.487305,4113.333496,4125.128418,0.000000,4.000000,,,,0.000000,4.000000,4.000000,4.000000,4.000000,4.000000,4.000000,4.000000,4.000000,4.000000,4.000000,4.000000,4.000000,4.000000,4.000000,100.000000
1602006179.527745,28.000000,0.000000,4126.153809,4132.820313,4122.051270,4123.077148,4138.974121,4133.846191,4136.922852,4136.922852,4139.487305,4138.974121,4122.051270,4137.948730,4116.922852,4131.794922,0.000000,4.000000,,,,0.000000,4.000000,4.000000,4.000000,4.000000,4.000000,4.000000,4.000000,4.000000,4.000000,4.000000,4.000000,4.000000,4.000000,4.000000,100.000000
1602006179.535627,29.000000,0.000000,4129.230957,4130.769043,4124.102539,4124.102539,4142.051270,4140.512695,4133.846191,4133.333496,4134.871582,4135.384766,4118.974121,4138.974121,4116.922852,4130.256348,0.000000,4.000000,,,,0.000000,4.000000,4.000000,4.000000,4.000000,4.000000,4.000000,4.000000,4.000000,4.000000,4.000000,4.000000,4.000000,4.000000,4.000000,100.000000
1602006179.543509,30.000000,0.000000,4126.153809,4125.128418,4119.487305,4124.615234,4131.794922,4138.461426,4122.051270,4125.641113,4124.102539,4119.487305,4121.025879,4136.922852,4108.205078,4121.025879,0.000000,4.000000,,,,0.000000,4.000000,4.000000,4.000000,4.000000,4.000000,4.000000,4.000000,4.000000,4.000000,4.000000,4.000000,4.000000,4.000000,4.000000,100.000000
1602006179.551391,31.000000,0.000000,4119.487305,4122.051270,4113.333496,4121.538574,4123.077148,4122.051270,4118.461426,4117.436035,4118.974121,4111.282227,4116.922852,4135.384766,4102.051270,4117.436035,0.000000,4.000000,,,,0.000000,4.000000,4.000000,4.000000,4.000000,4.000000,4.000000,4.000000,4.000000,4.000000,4.000000,4.000000,4.000000,4.000000,4.000000,100.000000
1602006179.559273,32.000000,0.000000,4125.128418,4127.692383,4118.974121,4123.589844,4133.333496,4118.461426,4123.077148,4120.512695,4124.615234,4122.563965,4119.487305,4139.487305,4108.205078,4122.051270,0.000000,4.000000,,,,0.000000,4.000000,4.000000,4.000000,4.000000,4.000000,4.000000,4.000000,4.000000,4.000000,4.000000,4.000000,4.000000,4.000000,4.000000,100.000000
1602006179.567155,33.000000,0.000000,4127.692383,4128.717773,4125.641113,4125.128418,4137.436035,4122.563965,4121.025879,4119.487305,4123.077148,4127.179688,4123.077148,4138.974121,4108.205078,4115.897461,0.000000,4.000000,,,,0.000000,4.000000,4.000000,4.000000,4.000000,4.000000,4.000000,4.000000,4.000000,4.000000,4.000000,4.000000,4.000000,4.000000,4.000000,100.000000
1602006179.575038,34.000000,0.000000,4119.487305,4121.538574,4120.512695,4122.563965,4125.641113,4111.794922,4113.333496,4109.743652,4114.358887,4112.307617,4108.205078,4132.820313,4098.461426,4109.743652,0.000000,4.000000,,,,0.000000,4.000000,4.000000,4.000000,4.000000,4.000000,4.000000,4.000000,4.000000,4.000000,4.000000,4.000000,4.000000,4.000000,4.000000,100.000000
1602006179.582920,35.000000,0.000000,4130.256348,4130.769043,4120.512695,4129.230957,4124.615234,4104.102539,4112.820313,4112.307617,4115.897461,4116.922852,4106.666504,4138.974121,4111.282227,4124.615234,0.000000,4.000000,,,,0.000000,4.000000,4.000000,4.000000,4.000000,4.000000,4.000000,4.000000,4.000000,4.000000,4.000000,4.000000,4.000000,4.000000,4.000000,100.000000
1602006179.590802,36.000000,0.000000,4138.461426,4136.410156,4127.179688,4133.333496,4128.717773,4116.922852,4121.538574,4124.102539,4129.230957,4145.641113,4125.641113,4147.179688,4124.102539,4126.666504,0.000000,4.000000,,,,0.000000,4.000000,4.000000,4.000000,4.000000,4.000000,4.000000,4.000000,4.000000,4.000000,4.000000,4.000000,4.000000,4.000000,4.000000,100.000000
1602006179.598583,37.000000,0.000000,4125.128418,4124.102539,4127.179688,4129.743652,4124.615234,4126.666504,4127.179688,4127.179688,4132.820313,4138.461426,4124.615234,4142.563965,4111.794922,4105.128418,0.000000,4.000000,,,,0.000000,4.000000,4.000000,4.000000,4.000000,4.000000,4.000000,4.000000,4.000000,4.000000,4.000000,4.000000,4.000000,4.000000,4.000000,100.000000
1602006179.606465,38.000000,0.000000,4123.589844,4127.179688,4124.102539,4133.333496,4125.641113,4125.128418,4125.641113,4121.538574,4120.000000,4106.666504,4110.256348,4135.384766,4106.153809,4109.230957,0.000000,4.000000,,,,0.000000,4.000000,4.000000,4.000000,4.000000,4.000000,4.000000,4.000000,4.000000,4.000000,4.000000,4.000000,4.000000,4.000000,4.000000,100.000000
1602006179.614346,39.000000,0.000000,4121.025879,4137.948730,4118.974121,4135.384766,4130.256348,4130.256348,4124.102539,4120.512695,4107.692383,4107.692383,4117.436035,4136.410156,4122.051270,4127.692383,0.000000,4.000000,,,,0.000000,4.000000,4.000000,4.000000,4.000000,4.000000,4.000000,4.000000,4.000000,4.000000,4.000000,4.000000,4.000000,4.000000,4.000000,100.000000
1602006179.622227,40.000000,0.000000,4094.358887,4125.641113,4110.256348,4123.077148,4129.230957,4137.948730,4124.102539,4118.461426,4109.743652,4112.307617,4128.205078,4137.948730,4131.794922,4116.410156,0.000000,4.000000,,,,0.000000,4.000000,4.000000,4.000000,4.000000,4.000000,4.000000,4.000000,4.000000,4.000000,4.000000,4.000000,4.000000,4.000000,4.000000,100.000000
1602006179.630109,41.000000,0.000000,4080.000000,4113.333496,4105.128418,4117.948730,4131.282227,4139.487305,4121.538574,4111.794922,4115.384766,4104.615234,4127.692383,4136.922852,4132.820313,4100.000000,0.000000,4.000000,,,,0.000000,4.000000,4.000000,4.000000,4.000000,4.000000,4.000000,4.000000,4.000000,4.000000,4.000000,4.000000,4.000000,4.000000,4.000000,100.000000
1602006179.637891,42.000000,0.000000,4090.769287,4120.000000,4105.128418,4123.589844,4140.512695,4140.000000,4119.487305,4111.794922,4118.461426,4122.563965,4132.307617,4138.461426,4140.000000,4108.205078,0.000000,4.000000,,,,0.000000,4.000000,4.000000,4.000000,4.000000,4.000000,4.000000,4.000000,4.000000,4.000000,4.000000,4.000000,4.000000,4.000000,4.000000,100.000000
1602006179.645772,43.000000,0.000000,4091.281982,4123.077148,4110.256348,4124.615234,4142.563965,4138.461426,4121.025879,4118.974121,4130.256348,4142.563965,4140.000000,4145.128418,4149.743652,4121.025879,0.000000,4.000000,,,,0.000000,4.000000,4.000000,4.000000,4.000000,4.000000,4.000000,4.000000,4.000000,4.000000,4.000000,4.000000,4.000000,4.000000,4.000000,100.000000
1602006179.653654,44.000000,0.000000,4090.769287,4122.563965,4119.487305,4128.717773,4136.922852,4136.922852,4122.563965,4121.025879,4140.512695,4138.461426,4141.538574,4151.794922,4157.948730,4124.615234,0.000000,4.000000,,,,0.000000,4.000000,4.000000,4.000000,4.000000,4.000000,4.000000,4.000000,4.000000,4.000000,4.000000,4.000000,4.000000,4.000000,4.000000,100.000000
1602006179.661536,45.000000,0.000000,4104.102539,4127.179688,4124.102539,4138.461426,4135.897461,4139.487305,4120.512695,4118.974121,4139.487305,4142.563965,4140.000000,4153.846191,4158.974121,4122.051270,0.000000,4.000000,,,,0.000000,4.000000,4.000000,4.000000,4.000000,4.000000,4.000000,4.000000,4.000000,4.000000,4.000000,4.000000,4.000000,4.000000,4.000000,100.000000
1602006179.669417,46.000000,0.000000,4104.102539,4126.153809,4125.641113,4141.025879,4141.538574,4138.461426,4121.025879,4121.538574,4145.641113,4152.820313,4138.461426,4151.794922,4150.769043,4118.461426,0.000000,4.000000,,,,0.000000,4.000000,4.000000,4.000000,4.000000,4.000000,4.000000,4.000000,4.000000,4.000000,4.000000,4.000000,4.000000,4.000000,4.000000,100.000000
1602006179.677299,47.000000,0.000000,4091.794922,4122.563965,4124.615234,4131.794922,4144.615234,4130.769043,4121.538574,4125.128418,4156.410156,4157.948730,4137.436035,4150.769043,4150.769043,4125.128418,0.000000,4.000000,,,,0.000000,4.000000,4.000000,4.000000,4.000000,4.000000,4.000000,4.000000,4.000000,4.000000,4.000000,4.000000,4.000000,4.000000,4.000000,100.000000
1602006179.685180,48.000000,0.000000,4092.820557,4120.000000,4116.410156,4121.025879,4139.487305,4122.563965,4118.461426,4125.641113,4149.230957,4154.871582,4137.436035,4146.666504,4153.333496,4129.230957,0.000000,4.000000,,,,0.000000,4.000000,4.000000,4.000000,4.000000,4.000000,4.000000,4.000000,4.000000,4.000000,4.000000,4.000000,4.000000,4.000000,4.000000,100.000000
1602006179.693162,49.000000,0.000000,4106.666504,4122.563965,4112.820313,4127.179688,4137.948730,4120.512695,4117.948730,4125.128418,4136.922852,4130.256348,4139.487305,4140.512695,4148.205078,4120.000000,0.000000,4.000000,,,,0.000000,4.000000,4.000000,4.000000,4.000000,4.000000,4.000000,4.000000,4.000000,4.000000,4.000000,4.000000,4.000000,4.000000,4.000000,100.000000
1602006179.701045,50.000000,0.000000,4112.307617,4126.666504,4122.051270,4138.974121,4148.205078,4129.230957,4122.563965,4125.128418,4133.333496,4108.717773,4137.436035,4138.974121,4140.512695,4113.333496,0.000000,4.000000,,,,0.000000,4.000000,4.000000,4.000000,4.000000,4.000000,4.000000,4.000000,4.000000,4.000000,4.000000,4.000000,4.000000,4.000000,4.000000,100.000000
1602006179.708927,51.000000,0.000000,4102.051270,4126.153809,4120.512695,4137.436035,4151.794922,4134.871582,4123.589844,4123.589844,4128.717773,4118.974121,4125.128418,4138.461426,4137.436035,4115.384766,0.000000,4.000000,,,,0.000000,4.000000,4.000000,4.000000,4.000000,4.000000,4.000000,4.000000,4.000000,4.000000,4.000000,4.000000,4.000000,4.000000,4.000000,100.000000
1602006179.716809,52.000000,0.000000,4092.307617,4124.102539,4109.743652,4132.820313,4141.538574,4128.717773,4122.563965,4123.589844,4130.769043,4133.846191,4122.563965,4138.974121,4135.897461,4113.333496,0.000000,4.000000,,,,0.000000,4.000000,4.000000,4.000000,4.000000,4.000000,4.000000,4.000000,4.000000,4.000000,4.000000,4.000000,4.000000,4.000000,4.000000,100.000000
1602006179.724691,53.000000,0.000000,4096.410156,4123.589844,4112.820313,4132.307617,4136.922852,4125.128418,4123.077148,4124.615234,4141.538574,4132.820313,4137.436035,4140.512695,4135.384766,4107.179688,0.000000,4.000000,,,,0.000000,4.000000,4.000000,4.000000,4.000000,4.000000,4.000000,4.000000,4.000000,4.000000,4.000000,4.000000,4.000000,4.000000,4.000000,100.000000
1602006179.732573,54.000000,0.000000,4102.051270,4124.102539,4124.615234,4131.282227,4138.974121,4130.769043,4125.128418,4125.128418,4144.615234,4138.461426,4140.000000,4142.563965,4140.000000,4116.922852,0.000000,4.000000,,,,0.000000,4.000000,4.000000,4.000000,4.000000,4.000000,4.000000,4.000000,4.000000,4.000000,4.000000,4.000000,4.000000,4.000000,4.000000,100.000000
1602006179.740455,55.000000,0.000000,4095.897461,4122.051270,4123.077148,4133.333496,4136.410156,4128.717773,4126.666504,4123.589844,4134.358887,4144.102539,4123.077148,4140.000000,4135.384766,4125.641113,0.000000,4.000000,,,,0.000000,4.000000,4.000000,4.000000,4.000000,4.000000,4.000000,4.000000,4.000000,4.000000,4.000000,4.000000,4.000000,4.000000,4.000000,100.000000
1602006179.748337,56.000000,0.000000,4089.230713,4121.025879,4113.846191,4132.820313,4133.846191,4123.589844,4125.641113,4121.025879,4124.615234,4120.512695,4118.461426,4134.871582,4120.000000,4113.333496,0.000000,4.000000,,,,0.000000,4.000000,4.000000,4.000000,4.000000,4.000000,4.000000,4.000000,4.000000,4.000000,4.000000,4.000000,4.000000,4.000000,4.000000,100.000000
1602006179.756219,57.000000,0.000000,4091.281982,4122.563965,4117.948730,4127.179688,4134.871582,4129.743652,4123.589844,4122.051270,4130.256348,4096.410156,4125.128418,4135.897461,4116.410156,4101.025879,0.000000,4.000000,,,,0.000000,4.000000,4.000000,4.000000,4.000000,4.000000,4.000000,4.000000,4.000000,4.000000,4.000000,4.000000,4.000000,4.000000,4.000000,100.000000
1602006179.764102,58.000000,0.000000,4096.922852,4116.922852,4124.615234,4125.641113,4133.846191,4132.307617,4124.102539,4124.615234,4137.948730,4115.384766,4120.512695,4140.000000,4128.717773,4109.743652,0.000000,4.000000,,,,0.000000,4.000000,4.000000,4.000000,4.000000,4.000000,4.000000,4.000000,4.000000,4.000000,4.000000,4.000000,4.000000,4.000000,4.000000,100.000000
1602006179.771883,59.000000,0.000000,4106.153809,4117.436035,4121.025879,4129.743652,4135.384766,4125.128418,4124.615234,4124.102539,4133.333496,4150.769043,4121.538574,4141.025879,4139.487305,4120.000000,0.000000,4.000000,,,,0.000000,4.000000,4.000000,4.000000,4.000000,4.000000,4.000000,4.000000,4.000000,4.000000,4.000000,4.000000,4.000000,4.000000,4.000000,100.000000
1602006179.779764,60.000000,0.000000,4107.692383,4120.512695,4117.948730,4127.179688,4138.461426,4123.589844,4122.051270,4122.563965,4131.282227,4159.487305,4137.948730,4142.563965,4140.512695,4115.897461,0.000000,4.000000,,,,0.000000,4.000000,4.000000,4.000000,4.000000,4.000000,4.000000,4.000000,4.000000,4.000000,4.000000,4.000000,4.000000,4.000000,4.000000,100.000000
1602006179.787645,61.000000,0.000000,4091.794922,4103.077148,4120.512695,4119.487305,4137.436035,4135.384766,4123.589844,4126.153809,4135.897461,4148.717773,4138.974121,4143.589844,4132.307617,4107.692383,0.000000,4.000000,,,,0.000000,4.000000,4.000000,4.000000,4.000000,4.000000,4.000000,4.000000,4.000000,4.000000,4.000000,4.000000,4.000000,4.000000,4.000000,100.000000
1602006179.795526,62.000000,0.000000,4088.205078,4095.897461,4121.538574,4118.974121,4135.897461,4142.563965,4124.615234,4122.563965,4119.487305,4124.102539,4120.512695,4136.410156,4118.974121,4110.769043,0.000000,4.000000,,,,0.000000,4.000000,4.000000,4.000000,4.000000,4.000000,4.000000,4.000000,4.000000,4.000000,4.000000,4.000000,4.000000,4.000000,4.000000,100.000000
1602006179.803308,63.000000,0.000000,4105.641113,4123.077148,4118.974121,4123.077148,4135.384766,4126.153809,4112.307617,4101.025879,4091.281982,4093.846191,4107.692383,4128.717773,4105.641113,4112.307617,0.000000,4.000000,,,,0.000000,4.000000,4.000000,4.000000,4.000000,4.000000,4.000000,4.000000,4.000000,4.000000,4.000000,4.000000,4.000000,4.000000,4.000000,100.000000
1602006179.811190,64.000000,0.000000,4120.512695,4141.538574,4121.025879,4130.769043,4134.871582,4112.307617,4102.051270,4089.230713,4090.769287,4090.256348,4105.641113,4130.769043,4101.025879,4102.563965,801.000000,4.000000,,,,0.000000,4.000000,4.000000,4.000000,4.000000,4.000000,4.000000,4.000000,4.000000,4.000000,4.000000,4.000000,4.000000,4.000000,4.000000,100.000000
1602006179.819072,65.000000,0.000000,4135.384766,4146.666504,4130.256348,4144.102539,4138.461426,4128.717773,4113.846191,4099.487305,4108.717773,4100.512695,4114.871582,4138.974121,4107.692383,4100.512695,786.000000,4.000000,,,,0.000000,4.000000,4.000000,4.000000,4.000000,4.000000,4.000000,4.000000,4.000000,4.000000,4.000000,4.000000,4.000000,4.000000,4.000000,100.000000
1602006179.826954,66.000000,0.000000,4151.282227,4165.641113,4132.307617,4154.871582,4141.025879,4143.589844,4122.563965,4108.205078,4117.948730,4096.410156,4120.512695,4143.077148,4104.615234,4103.077148,849.000000,4.000000,,,,0.000000,4.000000,4.000000,4.000000,4.000000,4.000000,4.000000,4.000000,4.000000,4.000000,4.000000,4.000000,4.000000,4.000000,4.000000,100.000000
1602006179.834836,67.000000,0.000000,4154.358887,4170.769043,4125.641113,4151.794922,4136.410156,4128.205078,4112.820313,4104.615234,4116.922852,4107.179688,4109.743652,4141.025879,4087.692383,4092.820557,872.000000,4.000000,,,,0.000000,4.000000,4.000000,4.000000,4.000000,4.000000,4.000000,4.000000,4.000000,4.000000,4.000000,4.000000,4.000000,4.000000,4.000000,100.000000
1602006179.842718,68.000000,0.000000,4150.769043,4161.538574,4130.256348,4147.692383,4135.384766,4123.077148,4113.333496,4105.641113,4116.922852,4135.384766,4100.512695,4145.128418,4087.692383,4089.743652,813.000000,4.000000,,,,0.000000,4.000000,4.000000,4.000000,4.000000,4.000000,4.000000,4.000000,4.000000,4.000000,4.000000,4.000000,4.000000,4.000000,4.000000,100.000000
1602006179.850600,69.000000,0.000000,4157.436035,4167.692383,4142.563965,4153.333496,4141.538574,4139.487305,4124.615234,4114.871582,4125.641113,4140.512695,4109.743652,4153.846191,4103.589844,4101.025879,822.000000,4.000000,,,,0.000000,4.000000,4.000000,4.000000,4.000000,4.000000,4.000000,4.000000,4.000000,4.000000,4.000000,4.000000,4.000000,4.000000,4.000000,100.000000
1602006179.858481,70.000000,0.000000,4159.487305,4172.820313,4142.051270,4151.794922,4142.563965,4142.563965,4125.128418,4121.025879,4131.282227,4120.000000,4121.538574,4155.384766,4102.563965,4108.205078,772.000000,4.000000,,,,0.000000,4.000000,4.000000,4.000000,4.000000,4.000000,4.000000,4.000000,4.000000,4.000000,4.000000,4.000000,4.000000,4.000000,4.000000,100.000000
1602006179.866264,71.000000,0.000000,4154.358887,4166.153809,4138.974121,4143.077148,4138.974121,4134.871582,4122.051270,4121.025879,4126.153809,4119.487305,4123.589844,4153.333496,4093.846191,4109.743652,675.000000,4.000000,,,,0.000000,4.000000,4.000000,4.000000,4.000000,4.000000,4.000000,4.000000,4.000000,4.000000,4.000000,4.000000,4.000000,4.000000,4.000000,100.000000
1602006179.874146,72.000000,0.000000,4152.307617,4165.128418,4140.000000,4144.102539,4138.461426,4134.871582,4124.615234,4118.974121,4125.128418,4131.794922,4122.051270,4152.307617,4100.000000,4109.743652,776.000000,4.000000,,,,0.000000,4.000000,4.000000,4.000000,4.000000,4.000000,4.000000,4.000000,4.000000,4.000000,4.000000,4.000000,4.000000,4.000000,4.000000,100.000000
1602006179.882028,73.000000,0.000000,4151.794922,4170.256348,4140.512695,4152.820313,4138.974121,4135.897461,4129.230957,4121.025879,4134.358887,4125.641113,4123.589844,4152.307617,4107.179688,4106.666504,841.000000,4.000000,,,,0.000000,4.000000,4.000000,4.000000,4.000000,4.000000,4.000000,4.000000,4.000000,4.000000,4.000000,4.000000,4.000000,4.000000,4.000000,100.000000
1602006179.889910,74.000000,0.000000,4154.358887,4171.282227,4141.538574,4151.794922,4138.974121,4137.436035,4135.897461,4127.692383,4138.974121,4123.589844,4122.051270,4153.333496,4107.179688,4105.128418,873.000000,4.000000,,,,0.000000,4.000000,4.000000,4.000000,4.000000,4.000000,4.000000,4.000000,4.000000,4.000000,4.000000,4.000000,4.000000,4.000000,4.000000,100.000000
1602006179.897792,75.000000,0.000000,4148.205078,4163.077148,4134.358887,4140.512695,4139.487305,4143.077148,4138.974121,4129.230957,4133.333496,4135.897461,4110.769043,4149.230957,4107.179688,4098.461426,818.000000,4.000000,,,,0.000000,4.000000,4.000000,4.000000,4.000000,4.000000,4.000000,4.000000,4.000000,4.000000,4.000000,4.000000,4.000000,4.000000,4.000000,100.000000
1602006179.905674,76.000000,0.000000,4130.256348,4152.820313,4122.051270,4136.410156,4138.974121,4142.051270,4136.922852,4124.615234,4130.256348,4141.538574,4104.615234,4138.461426,4104.615234,4087.179443,761.000000,4.000000,,,,0.000000,4.000000,4.000000,4.000000,4.000000,4.000000,4.000000,4.000000,4.000000,4.000000,4.000000,4.000000,4.000000,4.000000,4.000000,100.000000
1602006179.913556,77.000000,0.000000,4121.538574,4152.307617,4120.512695,4140.512695,4138.461426,4139.487305,4138.461426,4128.205078,4130.256348,4135.384766,4109.230957,4135.384766,4096.922852,4087.179443,718.000000,4.000000,,,,0.000000,4.000000,4.000000,4.000000,4.000000,4.000000,4.000000,4.000000,4.000000,4.000000,4.000000,4.000000,4.000000,4.000000,4.000000,100.000000
1602006179.921439,78.000000,0.000000,4129.743652,4155.384766,4124.102539,4138.974121,4135.897461,4145.641113,4143.589844,4137.948730,4126.153809,4129.743652,4109.230957,4140.000000,4093.846191,4098.974121,873.000000,4.000000,,,,0.000000,4.000000,4.000000,4.000000,4.000000,4.000000,4.000000,4.000000,4.000000,4.000000,4.000000,4.000000,4.000000,4.000000,4.000000,100.000000
1602006179.929321,79.000000,0.000000,4137.436035,4153.846191,4125.641113,4133.333496,4135.897461,4151.282227,4143.077148,4140.000000,4122.563965,4131.794922,4111.794922,4146.666504,4097.436035,4104.615234,818.000000,4.000000,,,,0.000000,4.000000,4.000000,4.000000,4.000000,4.000000,4.000000,4.000000,4.000000,4.000000,4.000000,4.000000,4.000000,4.000000,4.000000,100.000000
1602006179.937203,80.000000,0.000000,4142.563965,4153.846191,4134.358887,4136.922852,4137.436035,4146.666504,4143.589844,4139.487305,4130.256348,4136.922852,4120.000000,4153.333496,4101.025879,4104.102539,761.000000,4.000000,,,,0.000000,4.000000,4.000000,4.000000,4.000000,4.000000,4.000000,4.000000,4.000000,4.000000,4.000000,4.000000,4.000000,4.000000,4.000000,100.000000
1602006179.944984,81.000000,0.000000,4139.487305,4152.820313,4142.563965,4137.948730,4128.717773,4138.461426,4144.102539,4142.051270,4138.461426,4137.948730,4122.051270,4153.846191,4096.922852,4106.153809,718.000000,4.000000,,,,0.000000,4.000000,4.000000,4.000000,4.000000,4.000000,4.000000,4.000000,4.000000,4.000000,4.000000,4.000000,4.000000,4.000000,4.000000,100.000000
1602006179.952865,82.000000,0.000000,4126.666504,4143.589844,4134.871582,4128.205078,4117.436035,4134.871582,4139.487305,4142.051270,4140.512695,4137.948730,4122.051270,4151.794922,4094.871826,4110.256348,873.000000,4.000000,,,,0.000000,4.000000,4.000000,4.000000,4.000000,4.000000,4.000000,4.000000,4.000000,4.000000,4.000000,4.000000,4.000000,4.000000,4.000000,100.000000
1602006179.960746,83.000000,0.000000,4127.692383,4137.948730,4124.615234,4122.051270,4122.563965,4134.871582,4135.897461,4138.974121,4141.538574,4140.000000,4119.487305,4153.333496,4103.077148,4111.282227,818.000000,4.000000,,,,0.000000,4.000000,4.000000,4.000000,4.000000,4.000000,4.000000,4.000000,4.000000,4.000000,4.000000,4.000000,4.000000,4.000000,4.000000,100.000000
1602006179.968727,84.000000,0.000000,4134.358887,4140.000000,4124.615234,4125.641113,4131.794922,4141.025879,4136.410156,4137.436035,4137.436035,4133.333496,4108.205078,4145.641113,4104.102539,4104.615234,761.000000,4.000000,,,,0.000000,4.000000,4.000000,4.000000,4.000000,4.000000,4.000000,4.000000,4.000000,4.000000,4.000000,4.000000,4.000000,4.000000,4.000000,100.000000
1602006179.976608,85.000000,0.000000,4127.692383,4142.051270,4128.205078,4130.769043,4128.205078,4144.102539,4133.333496,4132.307617,4128.717773,4124.615234,4102.563965,4141.025879,4090.769287,4096.922852,718.000000,4.000000,,,,0.000000,4.000000,4.000000,4.000000,4.000000,4.000000,4.000000,4.000000,4.000000,4.000000,4.000000,4.000000,4.000000,4.000000,4.000000,100.000000
1602006179.984489,86.000000,0.000000,4123.589844,4145.128418,4126.666504,4133.846191,4127.179688,4138.974121,4129.743652,4124.102539,4118.461426,4116.410156,4107.692383,4150.769043,4085.641113,4098.974121,873.000000,4.000000,,,,0.000000,4.000000,4.000000,4.000000,4.000000,4.000000,4.000000,4.000000,4.000000,4.000000,4.000000,4.000000,4.000000,4.000000,4.000000,100.000000
1602006179.992270,87.000000,0.000000,4126.153809,4151.282227,4121.025879,4138.461426,4134.871582,4135.384766,4134.871582,4121.538574,4107.179688,4103.077148,4107.692383,4152.820313,4090.256348,4106.153809,818.000000,4.000000,,,,0.000000,4.000000,4.000000,4.000000,4.000000,4.000000,4.000000,4.000000,4.000000,4.000000,4.000000,4.000000,4.000000,4.000000,4.000000,100.000000
1602006180.000151,88.000000,0.000000,4129.230957,4154.871582,4124.615234,4140.512695,4137.436035,4134.358887,4136.410156,4124.102539,4101.025879,4109.743652,4106.153809,4148.717773,4093.333252,4106.153809,761.000000,4.000000,,,,0.000000,4.000000,4.000000,4.000000,4.000000,4.000000,4.000000,4.000000,4.000000,4.000000,4.000000,4.000000,4.000000,4.000000,4.000000,100.000000
1602006180.008132,89.000000,0.000000,4136.410156,4154.358887,4135.384766,4141.025879,4134.358887,4134.358887,4136.410156,4125.128418,4110.256348,4124.102539,4114.358887,4152.820313,4098.461426,4103.589844,718.000000,4.000000,,,,0.000000,4.000000,4.000000,4.000000,4.000000,4.000000,4.000000,4.000000,4.000000,4.000000,4.000000,4.000000,4.000000,4.000000,4.000000,100.000000
1602006180.016113,90.000000,0.000000,4142.051270,4154.871582,4140.000000,4142.051270,4134.871582,4138.974121,4140.512695,4129.743652,4120.512695,4122.563965,4121.538574,4149.743652,4104.102539,4105.128418,873.000000,4.000000,,,,0.000000,4.000000,4.000000,4.000000,4.000000,4.000000,4.000000,4.000000,4.000000,4.000000,4.000000,4.000000,4.000000,4.000000,4.000000,100.000000
1602006180.023994,91.000000,0.000000,4141.025879,4157.948730,4137.948730,4142.563965,4137.948730,4142.051270,4141.538574,4137.436035,4121.025879,4127.179688,4124.615234,4142.051270,4107.692383,4113.333496,818.000000,4.000000,,,,0.000000,4.000000,4.000000,4.000000,4.000000,4.000000,4.000000,4.000000,4.000000,4.000000,4.000000,4.000000,4.000000,4.000000,4.000000,100.000000
1602006180.031974,92.000000,0.000000,4141.538574,4157.436035,4138.974121,4141.538574,4138.461426,4136.410156,4143.077148,4137.948730,4128.205078,4137.948730,4123.077148,4148.205078,4108.717773,4119.487305,761.000000,4.000000,,,,0.000000,4.000000,4.000000,4.000000,4.000000,4.000000,4.000000,4.000000,4.000000,4.000000,4.000000,4.000000,4.000000,4.000000,4.000000,100.000000
1602006180.039855,93.000000,0.000000,4139.487305,4152.307617,4138.974121,4138.974121,4137.436035,4140.512695,4151.794922,4138.974121,4142.051270,4140.512695,4117.436035,4154.358887,4104.102539,4110.256348,718.000000,4.000000,,,,0.000000,4.000000,4.000000,4.000000,4.000000,4.000000,4.000000,4.000000,4.000000,4.000000,4.000000,4.000000,4.000000,4.000000,4.000000,100.000000
1602006180.047736,94.000000,0.000000,4135.384766,4152.820313,4137.436035,4139.487305,4138.461426,4155.897461,4155.897461,4145.641113,4148.717773,4153.333496,4127.179688,4150.769043,4109.743652,4105.641113,873.000000,4.000000,,,,0.000000,4.000000,4.000000,4.000000,4.000000,4.000000,4.000000,4.000000,4.000000,4.000000,4.000000,4.000000,4.000000,4.000000,4.000000,100.000000
1602006180.055517,95.000000,0.000000,4138.461426,4156.410156,4137.436035,4142.051270,4140.512695,4152.820313,4151.282227,4146.666504,4145.128418,4161.025879,4139.487305,4150.256348,4124.615234,4121.538574,818.000000,4.000000,,,,0.000000,4.000000,4.000000,4.000000,4.000000,4.000000,4.000000,4.000000,4.000000,4.000000,4.000000,4.000000,4.000000,4.000000,4.000000,100.000000
1602006180.063399,96.000000,0.000000,4141.538574,4149.230957,4133.333496,4140.000000,4140.000000,4141.538574,4149.743652,4141.538574,4148.717773,4153.333496,4137.948730,4152.820313,4133.846191,4134.358887,761.000000,4.000000,,,,0.000000,4.000000,4.000000,4.000000,4.000000,4.000000,4.000000,4.000000,4.000000,4.000000,4.000000,4.000000,4.000000,4.000000,4.000000,100.000000
1602006180.071280,97.000000,0.000000,4136.922852,4141.538574,4131.282227,4138.974121,4139.487305,4150.769043,4151.282227,4141.025879,4156.922852,4164.102539,4145.128418,4152.307617,4148.717773,4139.487305,718.000000,4.000000,,,,0.000000,4.000000,4.000000,4.000000,4.000000,4.000000,4.000000,4.000000,4.000000,4.000000,4.000000,4.000000,4.000000,4.000000,4.000000,100.000000
1602006180.079161,98.000000,0.000000,4121.538574,4137.436035,4135.384766,4138.461426,4140.000000,4160.000000,4151.282227,4140.512695,4149.230957,4166.153809,4159.487305,4152.820313,4165.128418,4147.179688,873.000000,4.000000,,,,0.000000,4.000000,4.000000,4.000000,4.000000,4.000000,4.000000,4.000000,4.000000,4.000000,4.000000,4.000000,4.000000,4.000000,4.000000,100.000000
1602006180.086942,99.000000,0.000000,4107.179688,4126.666504,4135.384766,4131.794922,4140.000000,4148.717773,4149.230957,4139.487305,4136.410156,4141.538574,4153.846191,4154.358887,4163.077148,4148.205078,818.000000,4.000000,,,,0.000000,4.000000,4.000000,4.000000,4.000000,4.000000,4.000000,4.000000,4.000000,4.000000,4.000000,4.000000,4.000000,4.000000,4.000000,100.000000
1602006180.094824,100.000000,0.000000,4104.102539,4118.974121,4131.282227,4123.589844,4134.871582,4140.512695,4145.128418,4138.461426,4133.846191,4145.641113,4147.179688,4155.897461,4156.922852,4146.153809,761.000000,4.000000,,,,0.000000,4.000000,4.000000,4.000000,4.000000,4.000000,4.000000,4.000000,4.000000,4.000000,4.000000,4.000000,4.000000,4.000000,4.000000,100.000000
1602006180.102705,101.000000,0.000000,4100.512695,4122.563965,4127.692383,4123.077148,4131.794922,4141.025879,4139.487305,4137.948730,4138.461426,4171.282227,4156.410156,4155.384766,4160.000000,4146.153809,718.000000,4.000000,,,,0.000000,4.000000,4.000000,4.000000,4.000000,4.000000,4.000000,4.000000,4.000000,4.000000,4.000000,4.000000,4.000000,4.000000,4.000000,100.000000
1602006180.110587,102.000000,0.000000,4095.897461,4121.025879,4125.641113,4124.102539,4134.871582,4137.436035,4140.512695,4145.641113,4141.025879,4172.307617,4152.820313,4153.846191,4159.487305,4142.563965,873.000000,4.000000,,,,0.000000,4.000000,4.000000,4.000000,4.000000,4.000000,4.000000,4.000000,4.000000,4.000000,4.000000,4.000000,4.000000,4.000000,4.000000,100.000000
1602006180.118468,103.000000,0.000000,4103.077148,4111.282227,4129.743652,4122.051270,4135.897461,4142.051270,4149.743652,4152.307617,4143.077148,4165.641113,4136.410156,4156.410156,4155.384766,4138.461426,818.000000,4.000000,,,,0.000000,4.000000,4.000000,4.000000,4.000000,4.000000,4.000000,4.000000,4.000000,4.000000,4.000000,4.000000,4.000000,4.000000,4.000000,100.000000
1602006180.126450,104.000000,0.000000,4108.205078,4110.769043,4136.922852,4122.051270,4132.307617,4155.384766,4157.436035,4145.128418,4140.512695,4161.025879,4134.358887,4156.922852,4152.820313,4140.512695,761.000000,4.000000,,,,0.000000,4.000000,4.000000,4.000000,4.000000,4.000000,4.000000,4.000000,4.000000,4.000000,4.000000,4.000000,4.000000,4.000000,4.000000,100.000000
1602006180.134332,105.000000,0.000000,4102.563965,4116.922852,4137.436035,4122.563965,4133.333496,4151.794922,4155.384766,4136.922852,4134.871582,4139.487305,4142.563965,4154.358887,4150.769043,4143.589844,718.000000,4.000000,,,,0.000000,4.000000,4.000000,4.000000,4.000000,4.000000,4.000000,4.000000,4.000000,4.000000,4.000000,4.000000,4.000000,4.000000,4.000000,100.000000
1602006180.142214,106.000000,0.000000,4103.589844,4120.000000,4129.743652,4123.589844,4136.410156,4141.538574,4148.717773,4136.922852,4134.358887,4125.641113,4137.436035,4151.794922,4150.769043,4134.358887,873.000000,4.000000,,,,0.000000,4.000000,4.000000,4.000000,4.000000,4.000000,4.000000,4.000000,4.000000,4.000000,4.000000,4.000000,4.000000,4.000000,4.000000,100.000000
1602006180.150096,107.000000,0.000000,4104.615234,4119.487305,4126.153809,4125.128418,4136.922852,4147.692383,4148.717773,4137.948730,4134.871582,4146.666504,4126.666504,4150.769043,4149.743652,4127.692383,818.000000,4.000000,,,,0.000000,4.000000,4.000000,4.000000,4.000000,4.000000,4.000000,4.000000,4.000000,4.000000,4.000000,4.000000,4.000000,4.000000,4.000000,100.000000
1602006180.157977,108.000000,0.000000,4100.512695,4120.000000,4132.307617,4124.615234,4140.512695,4151.282227,4149.230957,4141.538574,4139.487305,4175.897461,4136.922852,4150.769043,4151.282227,4137.436035,761.000000,4.000000,,,,0.000000,4.000000,4.000000,4.000000,4.000000,4.000000,4.000000,4.000000,4.000000,4.000000,4.000000,4.000000,4.000000,4.000000,4.000000,100.000000
1602006180.165859,109.000000,0.000000,4109.230957,4122.051270,4140.000000,4124.102539,4138.974121,4139.487305,4142.051270,4150.256348,4151.282227,4183.589844,4153.846191,4152.307617,4156.922852,4145.641113,718.000000,4.000000,,,,0.000000,4.000000,4.000000,4.000000,4.000000,4.000000,4.000000,4.000000,4.000000,4.000000,4.000000,4.000000,4.000000,4.000000,4.000000,100.000000
1602006180.173741,110.000000,0.000000,4122.563965,4122.051270,4143.589844,4130.769043,4128.205078,4133.846191,4136.922852,4155.384766,4154.358887,4174.358887,4154.871582,4154.871582,4158.461426,4142.563965,873.000000,4.000000,,,,0.000000,4.000000,4.000000,4.000000,4.000000,4.000000,4.000000,4.000000,4.000000,4.000000,4.000000,4.000000,4.000000,4.000000,4.000000,100.000000
1602006180.181623,111.000000,0.000000,4126.666504,4125.641113,4144.102539,4137.436035,4126.153809,4140.512695,4140.512695,4153.333496,4151.794922,4169.743652,4153.333496,4155.897461,4157.436035,4149.743652,818.000000,4.000000,,,,0.000000,4.000000,4.000000,4.000000,4.000000,4.000000,4.000000,4.000000,4.000000,4.000000,4.000000,4.000000,4.000000,4.000000,4.000000,100.000000
1602006180.189505,112.000000,0.000000,4123.077148,4124.102539,4142.051270,4133.333496,4136.410156,4142.051270,4141.025879,4146.153809,4155.897461,4169.743652,4157.436035,4154.871582,4156.922852,4158.461426,761.000000,4.000000,,,,0.000000,4.000000,4.000000,4.000000,4.000000,4.000000,4.000000,4.000000,4.000000,4.000000,4.000000,4.000000,4.000000,4.000000,4.000000,100.000000
1602006180.197486,113.000000,0.000000,4117.436035,4114.871582,4138.974121,4125.128418,4136.410156,4136.410156,4136.410156,4144.102539,4157.948730,4169.743652,4155.897461,4154.358887,4155.897461,4146.666504,718.000000,4.000000,,,,0.000000,4.000000,4.000000,4.000000,4.000000,4.000000,4.000000,4.000000,4.000000,4.000000,4.000000,4.000000,4.000000,4.000000,4.000000,100.000000
1602006180.205368,114.000000,0.000000,4116.410156,4115.384766,4141.538574,4122.051270,4126.666504,4135.384766,4139.487305,4151.794922,4155.384766,4169.230957,4152.820313,4157.436035,4156.410156,4140.512695,873.000000,4.000000,,,,0.000000,4.000000,4.000000,4.000000,4.000000,4.000000,4.000000,4.000000,4.000000,4.000000,4.000000,4.000000,4.000000,4.000000,4.000000,100.000000
1602006180.213250,115.000000,0.000000,4123.077148,4124.102539,4143.589844,4126.666504,4125.641113,4146.153809,4147.692383,4154.358887,4158.461426,4168.205078,4155.384766,4161.538574,4161.538574,4150.769043,818.000000,4.000000,,,,0.000000,4.000000,4.000000,4.000000,4.000000,4.000000,4.000000,4.000000,4.000000,4.000000,4.000000,4.000000,4.000000,4.000000,4.000000,100.000000
1602006180.221131,116.000000,0.000000,4124.615234,4123.077148,4138.974121,4127.692383,4126.666504,4155.384766,4151.794922,4147.692383,4157.948730,4168.205078,4151.282227,4157.436035,4160.000000,4148.205078,761.000000,4.000000,,,,0.000000,4.000000,4.000000,4.000000,4.000000,4.000000,4.000000,4.000000,4.000000,4.000000,4.000000,4.000000,4.000000,4.000000,4.000000,100.000000
1602006180.229013,117.000000,0.000000,4118.974121,4118.461426,4136.922852,4123.077148,4126.666504,4149.230957,4152.307617,4148.205078,4152.307617,4165.128418,4140.512695,4155.384766,4151.282227,4138.974121,718.000000,4.000000,,,,0.000000,4.000000,4.000000,4.000000,4.000000,4.000000,4.000000,4.000000,4.000000,4.000000,4.000000,4.000000,4.000000,4.000000,4.000000,100.000000
1602006180.236895,118.000000,0.000000,4121.538574,4123.077148,4142.563965,4127.692383,4134.871582,4145.128418,4153.846191,4151.282227,4154.358887,4162.051270,4140.512695,4163.077148,4150.256348,4143.589844,873.000000,4.000000,,,,0.000000,4.000000,4.000000,4.000000,4.000000,4.000000,4.000000,4.000000,4.000000,4.000000,4.000000,4.000000,4.000000,4.000000,4.000000,100.000000
1602006180.244776,119.000000,0.000000,4123.589844,4127.692383,4141.025879,4135.384766,4139.487305,4147.179688,4151.794922,4143.077148,4150.769043,4157.948730,4146.153809,4161.025879,4149.743652,4148.205078,818.000000,4.000000,,,,0.000000,4.000000,4.000000,4.000000,4.000000,4.000000,4.000000,4.000000,4.000000,4.000000,4.000000,4.000000,4.000000,4.000000,4.000000,100.000000
1602006180.252557,120.000000,0.000000,4115.897461,4124.615234,4127.692383,4130.256348,4135.384766,4142.563965,4144.102539,4136.410156,4137.436035,4150.256348,4138.974121,4145.641113,4142.563965,4137.436035,761.000000,4.000000,,,,0.000000,4.000000,4.000000,4.000000,4.000000,4.000000,4.000000,4.000000,4.000000,4.000000,4.000000,4.000000,4.000000,4.000000,4.000000,100.000000
1602006180.260538,121.000000,0.000000,4115.897461,4124.615234,4126.153809,4128.205078,4137.948730,4136.922852,4139.487305,4135.897461,4134.358887,4158.461426,4133.846191,4142.563965,4143.589844,4137.436035,718.000000,4.000000,,,,0.000000,4.000000,4.000000,4.000000,4.000000,4.000000,4.000000,4.000000,4.000000,4.000000,4.000000,4.000000,4.000000,4.000000,4.000000,100.000000
1602006180.268519,122.000000,0.000000,4124.102539,4128.205078,4138.461426,4134.871582,4142.051270,4139.487305,4137.948730,4130.256348,4134.871582,4171.794922,4143.589844,4152.820313,4155.384766,4152.820313,873.000000,4.000000,,,,0.000000,4.000000,4.000000,4.000000,4.000000,4.000000,4.000000,4.000000,4.000000,4.000000,4.000000,4.000000,4.000000,4.000000,4.000000,100.000000
1602006180.276400,123.000000,0.000000,4121.538574,4125.641113,4135.897461,4131.282227,4136.922852,4140.000000,4135.384766,4122.051270,4124.615234,4150.256348,4144.615234,4150.769043,4155.384766,4151.794922,818.000000,4.000000,,,,0.000000,4.000000,4.000000,4.000000,4.000000,4.000000,4.000000,4.000000,4.000000,4.000000,4.000000,4.000000,4.000000,4.000000,4.000000,100.000000
1602006180.284381,124.000000,0.000000,4108.205078,4118.461426,4121.025879,4123.589844,4134.358887,4138.461426,4133.846191,4121.025879,4116.922852,4120.512695,4135.897461,4137.436035,4141.025879,4138.461426,761.000000,4.000000,,,,0.000000,4.000000,4.000000,4.000000,4.000000,4.000000,4.000000,4.000000,4.000000,4.000000,4.000000,4.000000,4.000000,4.000000,4.000000,100.000000
1602006180.292263,125.000000,0.000000,4103.589844,4117.948730,4121.538574,4123.077148,4137.948730,4141.025879,4136.410156,4127.179688,4117.436035,4130.769043,4132.820313,4135.384766,4132.820313,4132.307617,718.000000,4.000000,,,,0.000000,4.000000,4.000000,4.000000,4.000000,4.000000,4.000000,4.000000,4.000000,4.000000,4.000000,4.000000,4.000000,4.000000,4.000000,100.000000
1602006180.300145,126.000000,0.000000,4112.820313,4120.000000,4134.871582,4122.563965,4137.436035,4141.025879,4138.974121,4139.487305,4123.589844,4152.820313,4135.897461,4147.692383,4140.000000,4137.948730,873.000000,4.000000,,,,0.000000,4.000000,4.000000,4.000000,4.000000,4.000000,4.000000,4.000000,4.000000,4.000000,4.000000,4.000000,4.000000,4.000000,4.000000,100.000000
1602006180.308026,127.000000,0.000000,4127.179688,4125.641113,4146.666504,4129.230957,4135.384766,4136.410156,4139.487305,4152.307617,4136.410156,4153.333496,4145.128418,4157.948730,4151.282227,4152.820313,818.000000,4.000000,,,,0.000000,4.000000,4.000000,4.000000,4.000000,4.000000,4.000000,4.000000,4.000000,4.000000,4.000000,4.000000,4.000000,4.000000,4.000000,100.000000
1602006180.315908,128.000000,0.000000,4136.922852,4137.948730,4154.358887,4140.000000,4137.436035,4134.871582,4141.025879,4155.897461,4145.128418,4154.358887,4156.410156,4158.974121,4161.538574,4164.615234,761.000000,4.000000,,,,0.000000,4.000000,4.000000,4.000000,4.000000,4.000000,4.000000,4.000000,4.000000,4.000000,4.000000,4.000000,4.000000,4.000000,4.000000,100.000000
1602006180.323790,0.000000,0.000000,4137.948730,4140.000000,4151.282227,4141.025879,4137.948730,4140.000000,4146.153809,4151.282227,4143.077148,4161.025879,4158.461426,4156.922852,4167.179688,4162.051270,801.000000,4.000000,,,,0.000000,4.000000,4.000000,4.000000,4.000000,4.000000,4.000000,4.000000,4.000000,4.000000,4.000000,4.000000,4.000000,4.000000,4.000000,100.000000
1602006180.331671,1.000000,0.000000,4132.307617,4127.692383,4138.974121,4130.769043,4130.769043,4140.512695,4144.102539,4141.538574,4132.820313,4156.410156,4147.692383,4155.384766,4159.487305,4154.358887,789.000000,4.000000,,,,0.000000,4.000000,4.000000,4.000000,4.000000,4.000000,4.000000,4.000000,4.000000,4.000000,4.000000,4.000000,4.000000,4.000000,4.000000,100.000000
1602006180.339453,2.000000,0.000000,4122.563965,4118.974121,4132.820313,4122.051270,4126.666504,4136.922852,4137.948730,4133.846191,4127.692383,4148.205078,4140.000000,4152.307617,4149.743652,4151.282227,849.000000,4.000000,,,,0.000000,4.000000,4.000000,4.000000,4.000000,4.000000,4.000000,4.000000,4.000000,4.000000,4.000000,4.000000,4.000000,4.000000,4.000000,100.000000
1602006180.347335,3.000000,0.000000,4118.461426,4123.077148,4137.436035,4125.641113,4138.974121,4145.641113,4141.538574,4134.358887,4137.948730,4146.666504,4149.230957,4151.282227,4155.897461,4152.820313,871.000000,4.000000,,,,0.000000,4.000000,4.000000,4.000000,4.000000,4.000000,4.000000,4.000000,4.000000,4.000000,4.000000,4.000000,4.000000,4.000000,4.000000,100.000000
1602006180.355217,4.000000,0.000000,4123.589844,4125.641113,4139.487305,4131.282227,4149.743652,4152.307617,4140.000000,4135.384766,4153.846191,4157.948730,4153.846191,4152.820313,4163.077148,4155.384766,813.000000,4.000000,,,,0.000000,4.000000,4.000000,4.000000,4.000000,4.000000,4.000000,4.000000,4.000000,4.000000,4.000000,4.000000,4.000000,4.000000,4.000000,100.000000
1602006180.363099,5.000000,0.000000,4124.102539,4123.077148,4137.948730,4127.692383,4144.102539,4143.077148,4128.205078,4134.358887,4163.589844,4178.461426,4143.589844,4153.333496,4158.974121,4148.205078,822.000000,4.000000,,,,0.000000,4.000000,4.000000,4.000000,4.000000,4.000000,4.000000,4.000000,4.000000,4.000000,4.000000,4.000000,4.000000,4.000000,4.000000,100.000000
1602006180.370981,6.000000,0.000000,4121.025879,4121.538574,4138.461426,4121.025879,4137.948730,4136.410156,4127.692383,4143.077148,4173.846191,4183.589844,4140.000000,4152.820313,4154.871582,4136.922852,772.000000,4.000000,,,,0.000000,4.000000,4.000000,4.000000,4.000000,4.000000,4.000000,4.000000,4.000000,4.000000,4.000000,4.000000,4.000000,4.000000,4.000000,100.000000
1602006180.378863,7.000000,0.000000,4121.025879,4125.128418,4138.461426,4123.589844,4141.025879,4141.538574,4137.436035,4153.846191,4173.846191,4164.102539,4145.128418,4151.794922,4153.846191,4140.000000,675.000000,4.000000,,,,0.000000,4.000000,4.000000,4.000000,4.000000,4.000000,4.000000,4.000000,4.000000,4.000000,4.000000,4.000000,4.000000,4.000000,4.000000,100.000000
1602006180.386745,8.000000,0.000000,4122.563965,4127.692383,4137.436035,4134.358887,4143.077148,4141.538574,4142.051270,4154.871582,4158.974121,4150.256348,4139.487305,4150.769043,4150.256348,4143.589844,781.000000,4.000000,,,,0.000000,4.000000,4.000000,4.000000,4.000000,4.000000,4.000000,4.000000,4.000000,4.000000,4.000000,4.000000,4.000000,4.000000,4.000000,100.000000
1602006180.394626,9.000000,0.000000,4124.102539,4126.153809,4134.358887,4140.000000,4140.000000,4138.461426,4146.666504,4154.358887,4153.846191,4155.897461,4139.487305,4150.769043,4145.641113,4138.974121,841.000000,4.000000,,,,0.000000,4.000000,4.000000,4.000000,4.000000,4.000000,4.000000,4.000000,4.000000,4.000000,4.000000,4.000000,4.000000,4.000000,4.000000,100.000000
1602006180.402508,10.000000,0.000000,4116.410156,4125.128418,4131.794922,4134.358887,4138.461426,4138.974121,4155.384766,4156.410156,4161.025879,4154.358887,4148.717773,4152.820313,4142.563965,4138.461426,873.000000,4.000000,,,,0.000000,4.000000,4.000000,4.000000,4.000000,4.000000,4.000000,4.000000,4.000000,4.000000,4.000000,4.000000,4.000000,4.000000,4.000000,100.000000
1602006180.410290,11.000000,0.000000,4105.641113,4127.179688,4132.820313,4126.666504,4137.436035,4138.461426,4151.282227,4150.256348,4154.358887,4139.487305,4143.589844,4153.846191,4142.051270,4140.512695,825.000000,4.000000,,,,0.000000,4.000000,4.000000,4.000000,4.000000,4.000000,4.000000,4.000000,4.000000,4.000000,4.000000,4.000000,4.000000,4.000000,4.000000,100.000000
1602006180.418171,12.000000,0.000000,4114.358887,4127.692383,4139.487305,4126.153809,4135.897461,4138.461426,4140.000000,4140.000000,4137.948730,4133.333496,4141.538574,4155.384766,4148.205078,4139.487305,761.000000,4.000000,,,,0.000000,4.000000,4.000000,4.000000,4.000000,4.000000,4.000000,4.000000,4.000000,4.000000,4.000000,4.000000,4.000000,4.000000,4.000000,100.000000
1602006180.426053,13.000000,0.000000,4124.615234,4124.615234,4142.563965,4128.717773,4136.922852,4142.563965,4138.974121,4134.358887,4136.410156,4141.538574,4153.846191,4158.461426,4154.358887,4139.487305,732.000000,4.000000,,,,0.000000,4.000000,4.000000,4.000000,4.000000,4.000000,4.000000,4.000000,4.000000,4.000000,4.000000,4.000000,4.000000,4.000000,4.000000,100.000000
1602006180.433934,14.000000,0.000000,4110.256348,4121.538574,4131.794922,4124.615234,4139.487305,4144.102539,4141.538574,4129.743652,4140.000000,4145.641113,4149.743652,4155.384766,4148.717773,4140.512695,873.000000,4.000000,,,,0.000000,4.000000,4.000000,4.000000,4.000000,4.000000,4.000000,4.000000,4.000000,4.000000,4.000000,4.000000,4.000000,4.000000,4.000000,100.000000
1602006180.441815,15.000000,0.000000,4100.512695,4119.487305,4120.000000,4117.436035,4140.000000,4140.000000,4137.948730,4130.256348,4136.410156,4143.077148,4133.333496,4145.641113,4138.461426,4133.846191,825.000000,4.000000,,,,0.000000,4.000000,4.000000,4.000000,4.000000,4.000000,4.000000,4.000000,4.000000,4.000000,4.000000,4.000000,4.000000,4.000000,4.000000,100.000000
1602006180.449597,16.000000,0.000000,4108.717773,4119.487305,4119.487305,4118.461426,4139.487305,4139.487305,4134.871582,4137.436035,4141.025879,4152.307617,4132.307617,4138.461426,4137.436035,4123.589844,0.000000,4.000000,,,,0.000000,4.000000,4.000000,4.000000,4.000000,4.000000,4.000000,4.000000,4.000000,4.000000,4.000000,4.000000,4.000000,4.000000,4.000000,100.000000
1602006180.457478,17.000000,0.000000,4108.205078,4121.025879,4119.487305,4124.102539,4141.025879,4146.666504,4137.436035,4143.589844,4154.358887,4155.384766,4137.436035,4133.333496,4141.538574,4120.000000,0.000000,4.000000,,,,0.000000,4.000000,4.000000,4.000000,4.000000,4.000000,4.000000,4.000000,4.000000,4.000000,4.000000,4.000000,4.000000,4.000000,4.000000,100.000000
1602006180.465360,18.000000,0.000000,4100.512695,4121.538574,4114.871582,4122.563965,4141.025879,4154.871582,4139.487305,4142.563965,4149.743652,4133.333496,4135.897461,4135.384766,4136.922852,4123.077148,0.000000,4.000000,,,,0.000000,4.000000,4.000000,4.000000,4.000000,4.000000,4.000000,4.000000,4.000000,4.000000,4.000000,4.000000,4.000000,4.000000,4.000000,100.000000
1602006180.473241,19.000000,0.000000,4104.615234,4123.077148,4124.615234,4123.077148,4141.025879,4153.333496,4133.846191,4140.000000,4138.974121,4116.410156,4134.358887,4151.282227,4129.230957,4130.769043,0.000000,4.000000,,,,0.000000,4.000000,4.000000,4.000000,4.000000,4.000000,4.000000,4.000000,4.000000,4.000000,4.000000,4.000000,4.000000,4.000000,4.000000,100.000000
1602006180.481123,20.000000,0.000000,4114.871582,4123.589844,4140.512695,4124.102539,4140.000000,4143.077148,4125.641113,4136.922852,4148.205078,4128.717773,4133.333496,4161.025879,4128.717773,4135.897461,0.000000,4.000000,,,,0.000000,4.000000,4.000000,4.000000,4.000000,4.000000,4.000000,4.000000,4.000000,4.000000,4.000000,4.000000,4.000000,4.000000,4.000000,100.000000
1602006180.489004,21.000000,0.000000,4120.000000,4122.051270,4140.000000,4121.538574,4135.384766,4135.897461,4125.641113,4130.769043,4153.846191,4145.641113,4132.307617,4155.897461,4134.871582,4136.922852,0.000000,4.000000,,,,0.000000,4.000000,4.000000,4.000000,4.000000,4.000000,4.000000,4.000000,4.000000,4.000000,4.000000,4.000000,4.000000,4.000000,4.000000,100.000000
1602006180.496785,22.000000,0.000000,4122.563965,4129.230957,4139.487305,4128.717773,4136.410156,4138.461426,4136.922852,4126.153809,4142.051270,4135.897461,4139.487305,4159.487305,4143.077148,4137.948730,0.000000,4.000000,,,,0.000000,4.000000,4.000000,4.000000,4.000000,4.000000,4.000000,4.000000,4.000000,4.000000,4.000000,4.000000,4.000000,4.000000,4.000000,100.000000
1602006180.504666,23.000000,0.000000,4121.538574,4137.436035,4141.025879,4134.358887,4141.025879,4140.512695,4143.589844,4121.538574,4135.384766,4115.897461,4144.102539,4168.717773,4150.769043,4138.461426,0.000000,4.000000,,,,0.000000,4.000000,4.000000,4.000000,4.000000,4.000000,4.000000,4.000000,4.000000,4.000000,4.000000,4.000000,4.000000,4.000000,4.000000,100.000000
1602006180.512447,24.000000,0.000000,4126.153809,4134.358887,4139.487305,4129.230957,4139.487305,4137.436035,4141.538574,4120.512695,4136.922852,4125.641113,4138.461426,4168.717773,4152.820313,4142.563965,0.000000,4.000000,,,,0.000000,4.000000,4.000000,4.000000,4.000000,4.000000,4.000000,4.000000,4.000000,4.000000,4.000000,4.000000,4.000000,4.000000,4.000000,100.000000
1602006180.520328,25.000000,0.000000,4139.487305,4135.897461,4145.128418,4131.794922,4137.948730,4137.948730,4145.641113,4127.179688,4136.410156,4155.384766,4142.563965,4171.282227,4153.846191,4153.846191,0.000000,4.000000,,,,0.000000,4.000000,4.000000,4.000000,4.000000,4.000000,4.000000,4.000000,4.000000,4.000000,4.000000,4.000000,4.000000,4.000000,4.000000,100.000000
1602006180.528309,26.000000,0.000000,4134.358887,4143.589844,4150.256348,4139.487305,4141.025879,4140.512695,4150.769043,4136.410156,4142.563965,4151.794922,4152.307617,4173.846191,4156.922852,4154.358887,0.000000,4.000000,,,,0.000000,4.000000,4.000000,4.000000,4.000000,4.000000,4.000000,4.000000,4.000000,4.000000,4.000000,4.000000,4.000000,4.000000,4.000000,100.000000
1602006180.536190,27.000000,0.000000,4122.051270,4142.051270,4146.153809,4136.922852,4143.589844,4138.974121,4144.615234,4145.128418,4152.307617,4137.948730,4153.333496,4170.256348,4164.615234,4152.820313,0.000000,4.000000,,,,0.000000,4.000000,4.000000,4.000000,4.000000,4.000000,4.000000,4.000000,4.000000,4.000000,4.000000,4.000000,4.000000,4.000000,4.000000,100.000000
1602006180.544071,28.000000,0.000000,4134.871582,4142.563965,4151.282227,4138.974121,4144.102539,4140.512695,4138.974121,4151.794922,4158.974121,4159.487305,4155.897461,4175.897461,4173.846191,4169.230957,0.000000,4.000000,,,,0.000000,4.000000,4.000000,4.000000,4.000000,4.000000,4.000000,4.000000,4.000000,4.000000,4.000000,4.000000,4.000000,4.000000,4.000000,100.000000
1602006180.552053,29.000000,0.000000,4141.025879,4141.538574,4157.436035,4142.563965,4140.000000,4142.051270,4141.025879,4147.692383,4160.512695,4168.717773,4155.384766,4175.897461,4166.666504,4169.230957,0.000000,4.000000,,,,0.000000,4.000000,4.000000,4.000000,4.000000,4.000000,4.000000,4.000000,4.000000,4.000000,4.000000,4.000000,4.000000,4.000000,4.000000,100.000000
1602006180.559935,30.000000,0.000000,4112.820313,4126.153809,4138.461426,4126.666504,4133.846191,4138.461426,4137.948730,4131.794922,4148.717773,4138.974121,4133.333496,4149.743652,4142.051270,4135.897461,0.000000,4.000000,,,,0.000000,4.000000,4.000000,4.000000,4.000000,4.000000,4.000000,4.000000,4.000000,4.000000,4.000000,4.000000,4.000000,4.000000,4.000000,100.000000
1602006180.567817,31.000000,0.000000,4103.589844,4116.410156,4119.487305,4116.410156,4134.358887,4135.897461,4133.333496,4125.641113,4142.563965,4129.743652,4121.538574,4131.794922,4130.769043,4115.897461,0.000000,4.000000,,,,0.000000,4.000000,4.000000,4.000000,4.000000,4.000000,4.000000,4.000000,4.000000,4.000000,4.000000,4.000000,4.000000,4.000000,4.000000,100.000000
1602006180.575699,32.000000,0.000000,4118.974121,4121.538574,4124.615234,4122.051270,4137.436035,4137.948730,4135.897461,4132.307617,4152.307617,4154.871582,4134.358887,4140.512695,4138.974121,4126.153809,0.000000,4.000000,,,,0.000000,4.000000,4.000000,4.000000,4.000000,4.000000,4.000000,4.000000,4.000000,4.000000,4.000000,4.000000,4.000000,4.000000,4.000000,100.000000
1602006180.583581,33.000000,0.000000,4120.512695,4124.615234,4135.384766,4126.153809,4136.922852,4133.846191,4138.974121,4135.897461,4149.743652,4153.846191,4136.410156,4148.717773,4138.461426,4135.897461,0.000000,4.000000,,,,0.000000,4.000000,4.000000,4.000000,4.000000,4.000000,4.000000,4.000000,4.000000,4.000000,4.000000,4.000000,4.000000,4.000000,4.000000,100.000000
1602006180.591462,34.000000,0.000000,4127.179688,4131.282227,4149.230957,4133.333496,4138.461426,4128.717773,4138.974121,4137.948730,4135.384766,4131.282227,4135.897461,4157.948730,4137.948730,4140.000000,0.000000,4.000000,,,,0.000000,4.000000,4.000000,4.000000,4.000000,4.000000,4.000000,4.000000,4.000000,4.000000,4.000000,4.000000,4.000000,4.000000,4.000000,100.000000
1602006180.599344,35.000000,0.000000,4135.897461,4136.922852,4160.000000,4138.974121,4141.538574,4127.179688,4137.948730,4139.487305,4130.256348,4130.769043,4145.128418,4166.666504,4147.179688,4143.589844,0.000000,4.000000,,,,0.000000,4.000000,4.000000,4.000000,4.000000,4.000000,4.000000,4.000000,4.000000,4.000000,4.000000,4.000000,4.000000,4.000000,4.000000,100.000000
1602006180.607226,36.000000,0.000000,4121.538574,4130.769043,4148.205078,4132.307617,4136.410156,4123.589844,4134.871582,4137.436035,4122.051270,4132.307617,4137.948730,4150.256348,4143.077148,4136.922852,0.000000,4.000000,,,,0.000000,4.000000,4.000000,4.000000,4.000000,4.000000,4.000000,4.000000,4.000000,4.000000,4.000000,4.000000,4.000000,4.000000,4.000000,100.000000
1602006180.615008,37.000000,0.000000,4120.512695,4132.307617,4137.436035,4131.794922,4132.820313,4128.205078,4135.384766,4136.410156,4120.000000,4132.820313,4131.282227,4138.974121,4136.922852,4135.897461,0.000000,4.000000,,,,0.000000,4.000000,4.000000,4.000000,4.000000,4.000000,4.000000,4.000000,4.000000,4.000000,4.000000,4.000000,4.000000,4.000000,4.000000,100.000000
1602006180.622890,38.000000,0.000000,4143.077148,4145.128418,4150.769043,4144.102539,4138.461426,4141.538574,4140.000000,4141.538574,4141.025879,4155.384766,4148.205078,4157.436035,4149.230957,4154.358887,0.000000,4.000000,,,,0.000000,4.000000,4.000000,4.000000,4.000000,4.000000,4.000000,4.000000,4.000000,4.000000,4.000000,4.000000,4.000000,4.000000,4.000000,100.000000
1602006180.630771,39.000000,0.000000,4140.000000,4142.051270,4154.871582,4143.077148,4142.051270,4139.487305,4140.512695,4144.615234,4155.384766,4180.000000,4153.846191,4163.589844,4160.000000,4161.025879,0.000000,4.000000,,,,0.000000,4.000000,4.000000,4.000000,4.000000,4.000000,4.000000,4.000000,4.000000,4.000000,4.000000,4.000000,4.000000,4.000000,4.000000,100.000000
1602006180.638653,40.000000,0.000000,4118.974121,4126.666504,4137.948730,4131.282227,4135.897461,4124.615234,4138.974121,4144.615234,4152.820313,4163.589844,4141.538574,4150.256348,4150.769043,4145.128418,0.000000,4.000000,,,,0.000000,4.000000,4.000000,4.000000,4.000000,4.000000,4.000000,4.000000,4.000000,4.000000,4.000000,4.000000,4.000000,4.000000,4.000000,100.000000
1602006180.646534,41.000000,0.000000,4120.000000,4125.128418,4135.897461,4124.615234,4133.333496,4121.025879,4138.974121,4145.641113,4150.256348,4132.820313,4138.974121,4149.230957,4140.000000,4135.897461,0.000000,4.000000,,,,0.000000,4.000000,4.000000,4.000000,4.000000,4.000000,4.000000,4.000000,4.000000,4.000000,4.000000,4.000000,4.000000,4.000000,4.000000,100.000000
1602006180.654416,42.000000,0.000000,4124.615234,4133.846191,4142.563965,4126.666504,4138.461426,4125.128418,4134.871582,4140.512695,4143.589844,4137.948730,4143.077148,4152.820313,4144.615234,4137.948730,0.000000,4.000000,,,,0.000000,4.000000,4.000000,4.000000,4.000000,4.000000,4.000000,4.000000,4.000000,4.000000,4.000000,4.000000,4.000000,4.000000,4.000000,100.000000
1602006180.662398,43.000000,0.000000,4120.512695,4137.948730,4138.461426,4134.871582,4140.000000,4120.512695,4131.282227,4136.410156,4138.461426,4155.384766,4146.666504,4150.769043,4154.358887,4142.563965,0.000000,4.000000,,,,0.000000,4.000000,4.000000,4.000000,4.000000,4.000000,4.000000,4.000000,4.000000,4.000000,4.000000,4.000000,4.000000,4.000000,4.000000,100.000000
1602006180.670279,44.000000,0.000000,4128.205078,4138.974121,4143.077148,4137.948730,4137.948730,4115.384766,4133.846191,4137.948730,4140.000000,4150.256348,4151.282227,4155.384766,4157.948730,4152.307617,0.000000,4.000000,,,,0.000000,4.000000,4.000000,4.000000,4.000000,4.000000,4.000000,4.000000,4.000000,4.000000,4.000000,4.000000,4.000000,4.000000,4.000000,100.000000
1602006180.678161,45.000000,0.000000,4139.487305,4140.512695,4149.743652,4134.871582,4137.948730,4119.487305,4136.922852,4138.974121,4137.948730,4143.589844,4153.846191,4155.384766,4157.436035,4153.846191,0.000000,4.000000,,,,0.000000,4.000000,4.000000,4.000000,4.000000,4.000000,4.000000,4.000000,4.000000,4.000000,4.000000,4.000000,4.000000,4.000000,4.000000,100.000000
1602006180.686043,46.000000,0.000000,4139.487305,4141.025879,4142.051270,4135.897461,4140.512695,4129.230957,4137.436035,4139.487305,4135.384766,4166.153809,4150.769043,4151.794922,4158.461426,4143.589844,0.000000,4.000000,,,,0.000000,4.000000,4.000000,4.000000,4.000000,4.000000,4.000000,4.000000,4.000000,4.000000,4.000000,4.000000,4.000000,4.000000,4.000000,100.000000
1602006180.693924,47.000000,0.000000,4137.948730,4138.974121,4141.025879,4137.436035,4138.461426,4130.769043,4136.922852,4140.000000,4137.436035,4174.358887,4143.077148,4160.000000,4157.948730,4143.589844,0.000000,4.000000,,,,0.000000,4.000000,4.000000,4.000000,4.000000,4.000000,4.000000,4.000000,4.000000,4.000000,4.000000,4.000000,4.000000,4.000000,4.000000,100.000000
1602006180.701806,48.000000,0.000000,4146.666504,4136.922852,4152.307617,4136.410156,4132.307617,4126.666504,4136.410156,4136.922852,4133.846191,4146.666504,4143.077148,4168.205078,4154.871582,4152.820313,0.000000,4.000000,,,,0.000000,4.000000,4.000000,4.000000,4.000000,4.000000,4.000000,4.000000,4.000000,4.000000,4.000000,4.000000,4.000000,4.000000,4.000000,100.000000
1602006180.709688,49.000000,0.000000,4151.794922,4138.461426,4157.436035,4137.948730,4135.384766,4132.307617,4133.846191,4131.282227,4134.871582,4131.794922,4152.307617,4162.051270,4156.410156,4154.871582,0.000000,4.000000,,,,0.000000,4.000000,4.000000,4.000000,4.000000,4.000000,4.000000,4.000000,4.000000,4.000000,4.000000,4.000000,4.000000,4.000000,4.000000,100.000000
1602006180.717669,50.000000,0.000000,4145.641113,4140.000000,4152.820313,4137.436035,4141.538574,4140.512695,4127.692383,4126.666504,4138.974121,4135.897461,4147.179688,4152.820313,4155.897461,4156.410156,0.000000,4.000000,,,,0.000000,4.000000,4.000000,4.000000,4.000000,4.000000,4.000000,4.000000,4.000000,4.000000,4.000000,4.000000,4.000000,4.000000,4.000000,100.000000
1602006180.725551,51.000000,0.000000,4134.871582,4131.282227,4146.153809,4129.230957,4132.820313,4130.256348,4120.512695,4122.563965,4136.922852,4135.897461,4135.384766,4151.794922,4147.692383,4154.358887,0.000000,4.000000,,,,0.000000,4.000000,4.000000,4.000000,4.000000,4.000000,4.000000,4.000000,4.000000,4.000000,4.000000,4.000000,4.000000,4.000000,4.000000,100.000000
1602006180.733433,52.000000,0.000000,4125.128418,4120.512695,4138.461426,4124.615234,4120.512695,4120.000000,4121.025879,4125.128418,4137.948730,4136.922852,4140.512695,4154.871582,4138.974121,4138.461426,0.000000,4.000000,,,,0.000000,4.000000,4.000000,4.000000,4.000000,4.000000,4.000000,4.000000,4.000000,4.000000,4.000000,4.000000,4.000000,4.000000,4.000000,100.000000
1602006180.741315,53.000000,0.000000,4120.512695,4120.000000,4137.436035,4122.563965,4123.589844,4128.205078,4124.615234,4132.820313,4142.051270,4144.615234,4138.974121,4150.769043,4135.897461,4127.179688,0.000000,4.000000,,,,0.000000,4.000000,4.000000,4.000000,4.000000,4.000000,4.000000,4.000000,4.000000,4.000000,4.000000,4.000000,4.000000,4.000000,4.000000,100.000000
1602006180.749197,54.000000,0.000000,4122.563965,4122.051270,4139.487305,4121.538574,4132.820313,4133.846191,4125.128418,4135.384766,4141.025879,4154.358887,4126.666504,4138.461426,4136.922852,4131.794922,0.000000,4.000000,,,,0.000000,4.000000,4.000000,4.000000,4.000000,4.000000,4.000000,4.000000,4.000000,4.000000,4.000000,4.000000,4.000000,4.000000,4.000000,100.000000
1602006180.757079,55.000000,0.000000,4132.307617,4127.179688,4136.922852,4127.692383,4137.436035,4129.743652,4123.589844,4135.897461,4138.461426,4154.358887,4130.256348,4133.846191,4138.461426,4137.436035,0.000000,4.000000,,,,0.000000,4.000000,4.000000,4.000000,4.000000,4.000000,4.000000,4.000000,4.000000,4.000000,4.000000,4.000000,4.000000,4.000000,4.000000,100.000000
1602006180.764961,56.000000,0.000000,4137.436035,4135.384766,4138.461426,4132.820313,4137.948730,4133.846191,4123.589844,4140.512695,4137.436035,4138.974121,4142.563965,4147.692383,4141.538574,4136.410156,0.000000,4.000000,,,,0.000000,4.000000,4.000000,4.000000,4.000000,4.000000,4.000000,4.000000,4.000000,4.000000,4.000000,4.000000,4.000000,4.000000,4.000000,100.000000
1602006180.772842,57.000000,0.000000,4133.846191,4134.358887,4140.000000,4126.153809,4137.436035,4147.692383,4131.794922,4142.563965,4137.436035,4133.333496,4139.487305,4159.487305,4139.487305,4131.794922,0.000000,4.000000,,,,0.000000,4.000000,4.000000,4.000000,4.000000,4.000000,4.000000,4.000000,4.000000,4.000000,4.000000,4.000000,4.000000,4.000000,4.000000,100.000000
1602006180.780724,58.000000,0.000000,4122.051270,4120.512695,4129.743652,4120.000000,4140.512695,4153.333496,4137.948730,4133.333496,4134.358887,4133.846191,4126.153809,4148.717773,4128.205078,4125.128418,0.000000,4.000000,,,,0.000000,4.000000,4.000000,4.000000,4.000000,4.000000,4.000000,4.000000,4.000000,4.000000,4.000000,4.000000,4.000000,4.000000,4.000000,100.000000
1602006180.788706,59.000000,0.000000,4112.820313,4112.820313,4120.000000,4122.563965,4137.436035,4145.128418,4133.846191,4124.102539,4127.179688,4122.051270,4120.512695,4129.230957,4120.512695,4120.000000,0.000000,4.000000,,,,0.000000,4.000000,4.000000,4.000000,4.000000,4.000000,4.000000,4.000000,4.000000,4.000000,4.000000,4.000000,4.000000,4.000000,4.000000,100.000000
1602006180.796588,60.000000,0.000000,4117.436035,4117.436035,4122.563965,4120.512695,4128.205078,4128.205078,4123.589844,4118.974121,4125.128418,4120.000000,4123.077148,4126.153809,4123.077148,4118.974121,0.000000,4.000000,,,,0.000000,4.000000,4.000000,4.000000,4.000000,4.000000,4.000000,4.000000,4.000000,4.000000,4.000000,4.000000,4.000000,4.000000,4.000000,100.000000
1602006180.804471,61.000000,0.000000,4122.563965,4121.025879,4125.641113,4113.333496,4129.230957,4118.461426,4117.948730,4113.333496,4122.563965,4137.948730,4125.128418,4134.358887,4126.666504,4118.974121,0.000000,4.000000,,,,0.000000,4.000000,4.000000,4.000000,4.000000,4.000000,4.000000,4.000000,4.000000,4.000000,4.000000,4.000000,4.000000,4.000000,4.000000,100.000000
1602006180.812353,62.000000,0.000000,4117.948730,4120.512695,4124.615234,4115.384766,4135.897461,4129.230957,4120.000000,4115.384766,4122.563965,4142.563965,4128.205078,4138.461426,4124.102539,4123.589844,0.000000,4.000000,,,,0.000000,4.000000,4.000000,4.000000,4.000000,4.000000,4.000000,4.000000,4.000000,4.000000,4.000000,4.000000,4.000000,4.000000,4.000000,100.000000
1602006180.820235,63.000000,0.000000,4115.384766,4121.025879,4130.256348,4120.512695,4137.436035,4138.461426,4122.051270,4121.538574,4134.358887,4135.897461,4134.358887,4140.512695,4127.179688,4126.153809,0.000000,4.000000,,,,0.000000,4.000000,4.000000,4.000000,4.000000,4.000000,4.000000,4.000000,4.000000,4.000000,4.000000,4.000000,4.000000,4.000000,4.000000,100.000000
1602006180.828117,64.000000,0.000000,4125.128418,4124.615234,4138.461426,4123.077148,4134.871582,4137.436035,4119.487305,4123.077148,4143.589844,4146.666504,4137.948730,4143.589844,4136.410156,4123.589844,801.000000,4.000000,,,,0.000000,4.000000,4.000000,4.000000,4.000000,4.000000,4.000000,4.000000,4.000000,4.000000,4.000000,4.000000,4.000000,4.000000,4.000000,100.000000
1602006180.835999,65.000000,0.000000,4136.410156,4127.179688,4136.922852,4123.077148,4134.358887,4133.333496,4118.461426,4128.205078,4139.487305,4156.410156,4138.461426,4143.589844,4136.922852,4125.128418,789.000000,4.000000,,,,0.000000,4.000000,4.000000,4.000000,4.000000,4.000000,4.000000,4.000000,4.000000,4.000000,4.000000,4.000000,4.000000,4.000000,4.000000,100.000000
1602006180.843881,66.000000,0.000000,4135.897461,4126.153809,4128.717773,4122.563965,4136.410156,4135.897461,4129.743652,4140.000000,4140.512695,4150.256348,4133.846191,4142.563965,4133.846191,4126.153809,849.000000,4.000000,,,,0.000000,4.000000,4.000000,4.000000,4.000000,4.000000,4.000000,4.000000,4.000000,4.000000,4.000000,4.000000,4.000000,4.000000,4.000000,100.000000
1602006180.851763,67.000000,0.000000,4126.153809,4124.102539,4124.102539,4122.051270,4135.897461,4142.051270,4139.487305,4143.077148,4142.051270,4141.538574,4125.128418,4141.538574,4134.358887,4120.000000,871.000000,4.000000,,,,0.000000,4.000000,4.000000,4.000000,4.000000,4.000000,4.000000,4.000000,4.000000,4.000000,4.000000,4.000000,4.000000,4.000000,4.000000,100.000000
1602006180.859645,68.000000,0.000000,4120.512695,4122.051270,4122.051270,4122.051270,4127.692383,4141.538574,4139.487305,4138.461426,4125.128418,4130.256348,4120.512695,4134.358887,4127.692383,4118.974121,813.000000,4.000000,,,,0.000000,4.000000,4.000000,4.000000,4.000000,4.000000,4.000000,4.000000,4.000000,4.000000,4.000000,4.000000,4.000000,4.000000,4.000000,100.000000
1602006180.867427,69.000000,0.000000,4124.102539,4120.000000,4118.974121,4123.077148,4123.589844,4129.230957,4135.384766,4132.307617,4104.615234,4109.230957,4121.538574,4124.102539,4110.256348,4123.077148,822.000000,4.000000,,,,0.000000,4.000000,4.000000,4.000000,4.000000,4.000000,4.000000,4.000000,4.000000,4.000000,4.000000,4.000000,4.000000,4.000000,4.000000,100.000000
1602006180.875309,70.000000,0.000000,4121.538574,4119.487305,4118.974121,4120.512695,4131.794922,4117.948730,4130.769043,4122.563965,4096.922852,4100.512695,4121.025879,4123.589844,4101.538574,4110.769043,772.000000,4.000000,,,,0.000000,4.000000,4.000000,4.000000,4.000000,4.000000,4.000000,4.000000,4.000000,4.000000,4.000000,4.000000,4.000000,4.000000,4.000000,100.000000
1602006180.883191,71.000000,0.000000,4120.000000,4125.128418,4125.128418,4125.128418,4137.948730,4124.615234,4127.692383,4117.948730,4101.025879,4124.615234,4123.589844,4132.307617,4110.256348,4102.563965,675.000000,4.000000,,,,0.000000,4.000000,4.000000,4.000000,4.000000,4.000000,4.000000,4.000000,4.000000,4.000000,4.000000,4.000000,4.000000,4.000000,4.000000,100.000000
1602006180.891073,72.000000,0.000000,4129.743652,4131.794922,4130.256348,4133.846191,4135.897461,4130.256348,4124.102539,4124.102539,4112.307617,4140.000000,4130.769043,4136.410156,4121.025879,4123.589844,782.000000,4.000000,,,,0.000000,4.000000,4.000000,4.000000,4.000000,4.000000,4.000000,4.000000,4.000000,4.000000,4.000000,4.000000,4.000000,4.000000,4.000000,100.000000
1602006180.898955,73.000000,0.000000,4146.666504,4136.410156,4136.410156,4138.461426,4136.922852,4124.615234,4120.000000,4131.282227,4125.128418,4133.333496,4137.436035,4138.461426,4129.230957,4143.589844,841.000000,4.000000,,,,0.000000,4.000000,4.000000,4.000000,4.000000,4.000000,4.000000,4.000000,4.000000,4.000000,4.000000,4.000000,4.000000,4.000000,4.000000,100.000000
1602006180.906837,74.000000,0.000000,4158.974121,4141.538574,4143.589844,4139.487305,4143.077148,4133.333496,4128.205078,4137.436035,4134.871582,4144.615234,4140.000000,4148.205078,4135.897461,4142.563965,873.000000,4.000000,,,,0.000000,4.000000,4.000000,4.000000,4.000000,4.000000,4.000000,4.000000,4.000000,4.000000,4.000000,4.000000,4.000000,4.000000,4.000000,100.000000
1602006180.914719,75.000000,0.000000,4150.256348,4142.563965,4144.102539,4136.922852,4144.102539,4150.769043,4143.077148,4148.717773,4145.641113,4160.512695,4136.922852,4158.974121,4142.051270,4142.051270,832.000000,4.000000,,,,0.000000,4.000000,4.000000,4.000000,4.000000,4.000000,4.000000,4.000000,4.000000,4.000000,4.000000,4.000000,4.000000,4.000000,4.000000,100.000000
1602006180.922601,76.000000,0.000000,4134.871582,4133.333496,4137.436035,4127.692383,4136.922852,4147.692383,4143.589844,4152.820313,4158.461426,4146.666504,4138.974121,4159.487305,4138.461426,4144.615234,761.000000,4.000000,,,,0.000000,4.000000,4.000000,4.000000,4.000000,4.000000,4.000000,4.000000,4.000000,4.000000,4.000000,4.000000,4.000000,4.000000,4.000000,100.000000
1602006180.930583,77.000000,0.000000,4133.333496,4122.051270,4131.282227,4115.384766,4133.333496,4135.897461,4138.974121,4146.153809,4151.794922,4134.358887,4143.077148,4149.230957,4124.615234,4133.333496,734.000000,4.000000,,,,0.000000,4.000000,4.000000,4.000000,4.000000,4.000000,4.000000,4.000000,4.000000,4.000000,4.000000,4.000000,4.000000,4.000000,4.000000,100.000000
1602006180.938465,78.000000,0.000000,4139.487305,4121.538574,4132.307617,4118.461426,4136.410156,4137.948730,4135.897461,4134.871582,4125.128418,4137.436035,4132.307617,4138.461426,4114.358887,4121.025879,873.000000,4.000000,,,,0.000000,4.000000,4.000000,4.000000,4.000000,4.000000,4.000000,4.000000,4.000000,4.000000,4.000000,4.000000,4.000000,4.000000,4.000000,100.000000
1602006180.946347,79.000000,0.000000,4132.820313,4126.666504,4135.897461,4127.692383,4135.384766,4139.487305,4128.205078,4126.666504,4112.307617,4131.794922,4118.461426,4132.307617,4114.871582,4124.102539,832.000000,4.000000,,,,0.000000,4.000000,4.000000,4.000000,4.000000,4.000000,4.000000,4.000000,4.000000,4.000000,4.000000,4.000000,4.000000,4.000000,4.000000,100.000000
1602006180.954229,80.000000,0.000000,4126.153809,4126.666504,4136.922852,4129.230957,4134.358887,4136.410156,4127.692383,4127.692383,4120.512695,4123.589844,4127.692383,4133.846191,4123.077148,4132.307617,761.000000,4.000000,,,,0.000000,4.000000,4.000000,4.000000,4.000000,4.000000,4.000000,4.000000,4.000000,4.000000,4.000000,4.000000,4.000000,4.000000,4.000000,100.000000
1602006180.962111,81.000000,0.000000,4132.307617,4123.077148,4134.871582,4128.717773,4136.410156,4134.358887,4136.922852,4135.897461,4119.487305,4124.102539,4140.000000,4142.051270,4127.692383,4124.615234,734.000000,4.000000,,,,0.000000,4.000000,4.000000,4.000000,4.000000,4.000000,4.000000,4.000000,4.000000,4.000000,4.000000,4.000000,4.000000,4.000000,4.000000,100.000000
1602006180.969993,82.000000,0.000000,4141.025879,4123.077148,4135.384766,4133.333496,4137.948730,4126.153809,4140.512695,4140.000000,4113.333496,4121.025879,4127.692383,4150.256348,4124.102539,4118.974121,873.000000,4.000000,,,,0.000000,4.000000,4.000000,4.000000,4.000000,4.000000,4.000000,4.000000,4.000000,4.000000,4.000000,4.000000,4.000000,4.000000,4.000000,100.000000
1602006180.977875,83.000000,0.000000,4143.077148,4125.128418,4138.461426,4137.948730,4132.307617,4115.897461,4138.461426,4136.922852,4117.948730,4114.358887,4116.922852,4147.692383,4122.051270,4134.871582,832.000000,4.000000,,,,0.000000,4.000000,4.000000,4.000000,4.000000,4.000000,4.000000,4.000000,4.000000,4.000000,4.000000,4.000000,4.000000,4.000000,4.000000,100.000000
1602006180.985757,84.000000,0.000000,4142.563965,4128.717773,4140.000000,4132.820313,4131.282227,4123.077148,4138.974121,4134.358887,4123.589844,4119.487305,4130.769043,4139.487305,4127.179688,4143.589844,761.000000,4.000000,,,,0.000000,4.000000,4.000000,4.000000,4.000000,4.000000,4.000000,4.000000,4.000000,4.000000,4.000000,4.000000,4.000000,4.000000,4.000000,100.000000
1602006180.993640,85.000000,0.000000,4146.666504,4136.922852,4145.641113,4128.205078,4136.410156,4137.948730,4138.461426,4135.897461,4131.794922,4139.487305,4142.563965,4141.538574,4136.410156,4140.000000,734.000000,4.000000,,,,0.000000,4.000000,4.000000,4.000000,4.000000,4.000000,4.000000,4.000000,4.000000,4.000000,4.000000,4.000000,4.000000,4.000000,4.000000,100.000000
1602006181.001621,86.000000,0.000000,4153.333496,4142.051270,4151.794922,4133.846191,4137.436035,4141.025879,4135.897461,4137.948730,4148.717773,4161.025879,4146.153809,4151.282227,4147.179688,4146.153809,873.000000,4.000000,,,,0.000000,4.000000,4.000000,4.000000,4.000000,4.000000,4.000000,4.000000,4.000000,4.000000,4.000000,4.000000,4.000000,4.000000,4.000000,100.000000
1602006181.009502,87.000000,0.000000,4164.102539,4141.025879,4155.897461,4142.563965,4138.461426,4141.025879,4134.871582,4138.974121,4158.461426,4168.717773,4156.410156,4158.461426,4156.922852,4153.846191,832.000000,4.000000,,,,0.000000,4.000000,4.000000,4.000000,4.000000,4.000000,4.000000,4.000000,4.000000,4.000000,4.000000,4.000000,4.000000,4.000000,4.000000,100.000000
1602006181.017384,88.000000,0.000000,4171.794922,4142.563965,4153.333496,4142.051270,4143.589844,4143.589844,4135.384766,4141.025879,4157.948730,4169.230957,4156.922852,4153.333496,4160.512695,4150.256348,761.000000,4.000000,,,,0.000000,4.000000,4.000000,4.000000,4.000000,4.000000,4.000000,4.000000,4.000000,4.000000,4.000000,4.000000,4.000000,4.000000,4.000000,100.000000
1602006181.025265,89.000000,0.000000,4166.666504,4145.641113,4144.102539,4139.487305,4145.128418,4141.025879,4137.948730,4146.153809,4155.897461,4166.666504,4142.563965,4136.410156,4153.333496,4143.589844,734.000000,4.000000,,,,0.000000,4.000000,4.000000,4.000000,4.000000,4.000000,4.000000,4.000000,4.000000,4.000000,4.000000,4.000000,4.000000,4.000000,4.000000,100.000000
1602006181.033146,90.000000,0.000000,4153.333496,4138.461426,4135.384766,4139.487305,4139.487305,4137.948730,4137.948730,4141.538574,4140.512695,4141.538574,4133.333496,4122.051270,4137.948730,4132.820313,873.000000,4.000000,,,,0.000000,4.000000,4.000000,4.000000,4.000000,4.000000,4.000000,4.000000,4.000000,4.000000,4.000000,4.000000,4.000000,4.000000,4.000000,100.000000
1602006181.040929,91.000000,0.000000,4140.000000,4125.641113,4134.871582,4131.282227,4133.333496,4135.897461,4136.922852,4133.846191,4123.077148,4117.436035,4129.230957,4119.487305,4123.077148,4118.974121,832.000000,4.000000,,,,0.000000,4.000000,4.000000,4.000000,4.000000,4.000000,4.000000,4.000000,4.000000,4.000000,4.000000,4.000000,4.000000,4.000000,4.000000,100.000000
1602006181.048811,92.000000,0.000000,4135.384766,4120.512695,4136.922852,4121.538574,4131.282227,4127.179688,4134.358887,4137.436035,4118.974121,4122.051270,4120.512695,4122.051270,4119.487305,4115.384766,761.000000,4.000000,,,,0.000000,4.000000,4.000000,4.000000,4.000000,4.000000,4.000000,4.000000,4.000000,4.000000,4.000000,4.000000,4.000000,4.000000,4.000000,100.000000
1602006181.056693,93.000000,0.000000,4138.461426,4121.538574,4136.922852,4122.563965,4134.358887,4125.641113,4129.743652,4136.922852,4113.333496,4121.025879,4120.512695,4123.077148,4123.589844,4119.487305,734.000000,4.000000,,,,0.000000,4.000000,4.000000,4.000000,4.000000,4.000000,4.000000,4.000000,4.000000,4.000000,4.000000,4.000000,4.000000,4.000000,4.000000,100.000000
1602006181.064575,94.000000,0.000000,4142.051270,4123.589844,4136.922852,4126.666504,4136.922852,4135.897461,4127.692383,4122.563965,4102.051270,4106.666504,4124.615234,4127.179688,4123.077148,4122.563965,873.000000,4.000000,,,,0.000000,4.000000,4.000000,4.000000,4.000000,4.000000,4.000000,4.000000,4.000000,4.000000,4.000000,4.000000,4.000000,4.000000,4.000000,100.000000
1602006181.072457,95.000000,0.000000,4139.487305,4125.128418,4134.871582,4124.102539,4137.436035,4139.487305,4124.102539,4120.000000,4102.051270,4111.794922,4120.512695,4133.846191,4120.512695,4124.102539,832.000000,4.000000,,,,0.000000,4.000000,4.000000,4.000000,4.000000,4.000000,4.000000,4.000000,4.000000,4.000000,4.000000,4.000000,4.000000,4.000000,4.000000,100.000000
1602006181.080339,96.000000,0.000000,4143.589844,4125.641113,4134.358887,4121.538574,4144.102539,4142.051270,4120.512695,4132.307617,4120.512695,4130.769043,4127.179688,4136.922852,4128.717773,4121.025879,761.000000,4.000000,,,,0.000000,4.000000,4.000000,4.000000,4.000000,4.000000,4.000000,4.000000,4.000000,4.000000,4.000000,4.000000,4.000000,4.000000,4.000000,100.000000
1602006181.088221,97.000000,0.000000,4148.717773,4127.179688,4135.384766,4123.077148,4146.666504,4153.333496,4125.641113,4138.974121,4142.563965,4131.282227,4138.974121,4137.436035,4138.974121,4119.487305,734.000000,4.000000,,,,0.000000,4.000000,4.000000,4.000000,4.000000,4.000000,4.000000,4.000000,4.000000,4.000000,4.000000,4.000000,4.000000,4.000000,4.000000,100.000000
1602006181.096103,98.000000,0.000000,4147.692383,4127.179688,4135.897461,4125.641113,4141.025879,4160.512695,4138.461426,4144.615234,4154.358887,4138.461426,4138.974121,4138.974121,4141.538574,4133.333496,873.000000,4.000000,,,,0.000000,4.000000,4.000000,4.000000,4.000000,4.000000,4.000000,4.000000,4.000000,4.000000,4.000000,4.000000,4.000000,4.000000,4.000000,100.000000
1602006181.103986,99.000000,0.000000,4152.307617,4124.615234,4136.410156,4124.102539,4138.974121,4154.358887,4147.692383,4156.410156,4163.077148,4169.230957,4140.512695,4138.461426,4142.563965,4141.025879,832.000000,4.000000,,,,0.000000,4.000000,4.000000,4.000000,4.000000,4.000000,4.000000,4.000000,4.000000,4.000000,4.000000,4.000000,4.000000,4.000000,4.000000,100.000000
1602006181.111967,100.000000,0.000000,4155.384766,4121.025879,4134.358887,4120.512695,4133.846191,4143.589844,4148.717773,4161.025879,4175.897461,4175.384766,4145.641113,4136.410156,4139.487305,4135.384766,761.000000,4.000000,,,,0.000000,4.000000,4.000000,4.000000,4.000000,4.000000,4.000000,4.000000,4.000000,4.000000,4.000000,4.000000,4.000000,4.000000,4.000000,100.000000
1602006181.119848,101.000000,0.000000,4158.461426,4127.692383,4137.436035,4127.692383,4128.205078,4139.487305,4146.153809,4158.974121,4171.794922,4153.333496,4141.538574,4140.512695,4138.974121,4138.974121,734.000000,4.000000,,,,0.000000,4.000000,4.000000,4.000000,4.000000,4.000000,4.000000,4.000000,4.000000,4.000000,4.000000,4.000000,4.000000,4.000000,4.000000,100.000000
1602006181.127730,102.000000,0.000000,4164.615234,4138.461426,4145.641113,4139.487305,4133.333496,4133.846191,4139.487305,4157.436035,4149.743652,4148.717773,4138.974121,4145.128418,4150.769043,4147.692383,873.000000,4.000000,,,,0.000000,4.000000,4.000000,4.000000,4.000000,4.000000,4.000000,4.000000,4.000000,4.000000,4.000000,4.000000,4.000000,4.000000,4.000000,100.000000
1602006181.135611,103.000000,0.000000,4160.512695,4138.461426,4144.615234,4137.948730,4137.948730,4119.487305,4129.230957,4148.717773,4133.846191,4153.846191,4142.563965,4140.512695,4151.794922,4137.948730,832.000000,4.000000,,,,0.000000,4.000000,4.000000,4.000000,4.000000,4.000000,4.000000,4.000000,4.000000,4.000000,4.000000,4.000000,4.000000,4.000000,4.000000,100.000000
1602006181.143493,104.000000,0.000000,4153.846191,4134.358887,4141.538574,4132.307617,4136.410156,4114.358887,4120.000000,4136.410156,4120.512695,4132.307617,4141.025879,4140.512695,4139.487305,4131.794922,761.000000,4.000000,,,,0.000000,4.000000,4.000000,4.000000,4.000000,4.000000,4.000000,4.000000,4.000000,4.000000,4.000000,4.000000,4.000000,4.000000,4.000000,100.000000
1602006181.151374,105.000000,0.000000,4164.615234,4138.461426,4151.282227,4137.948730,4141.025879,4119.487305,4118.974121,4131.794922,4111.282227,4118.974121,4144.102539,4157.436035,4146.153809,4148.205078,734.000000,4.000000,,,,0.000000,4.000000,4.000000,4.000000,4.000000,4.000000,4.000000,4.000000,4.000000,4.000000,4.000000,4.000000,4.000000,4.000000,4.000000,100.000000
1602006181.159156,106.000000,0.000000,4176.410156,4142.563965,4154.358887,4141.538574,4146.666504,4122.563965,4131.282227,4133.846191,4116.922852,4142.563965,4154.358887,4170.769043,4161.025879,4157.436035,873.000000,4.000000,,,,0.000000,4.000000,4.000000,4.000000,4.000000,4.000000,4.000000,4.000000,4.000000,4.000000,4.000000,4.000000,4.000000,4.000000,4.000000,100.000000
1602006181.167037,107.000000,0.000000,4168.205078,4139.487305,4141.538574,4134.358887,4144.102539,4132.820313,4142.563965,4138.974121,4129.743652,4156.922852,4153.846191,4173.333496,4159.487305,4157.948730,832.000000,4.000000,,,,0.000000,4.000000,4.000000,4.000000,4.000000,4.000000,4.000000,4.000000,4.000000,4.000000,4.000000,4.000000,4.000000,4.000000,4.000000,100.000000
1602006181.174919,108.000000,0.000000,4155.384766,4131.794922,4131.794922,4127.692383,4135.897461,4143.077148,4143.077148,4140.000000,4138.974121,4148.205078,4140.512695,4168.205078,4148.205078,4152.307617,761.000000,4.000000,,,,0.000000,4.000000,4.000000,4.000000,4.000000,4.000000,4.000000,4.000000,4.000000,4.000000,4.000000,4.000000,4.000000,4.000000,4.000000,100.000000
1602006181.182801,109.000000,0.000000,4145.641113,4124.615234,4131.794922,4125.128418,4129.230957,4135.897461,4141.538574,4138.974121,4149.230957,4141.025879,4139.487305,4157.948730,4144.615234,4136.922852,734.000000,4.000000,,,,0.000000,4.000000,4.000000,4.000000,4.000000,4.000000,4.000000,4.000000,4.000000,4.000000,4.000000,4.000000,4.000000,4.000000,4.000000,100.000000
1602006181.190682,110.000000,0.000000,4147.179688,4124.615234,4134.871582,4129.743652,4133.333496,4126.153809,4137.948730,4146.153809,4164.615234,4134.358887,4153.846191,4157.436035,4151.794922,4131.282227,873.000000,4.000000,,,,0.000000,4.000000,4.000000,4.000000,4.000000,4.000000,4.000000,4.000000,4.000000,4.000000,4.000000,4.000000,4.000000,4.000000,4.000000,100.000000
1602006181.198564,111.000000,0.000000,4149.230957,4125.641113,4138.461426,4135.384766,4135.384766,4118.461426,4126.153809,4154.871582,4169.230957,4130.769043,4154.358887,4167.179688,4156.410156,4140.512695,832.000000,4.000000,,,,0.000000,4.000000,4.000000,4.000000,4.000000,4.000000,4.000000,4.000000,4.000000,4.000000,4.000000,4.000000,4.000000,4.000000,4.000000,100.000000
1602006181.206446,112.000000,0.000000,4145.128418,4126.666504,4143.589844,4137.948730,4130.769043,4104.615234,4119.487305,4155.897461,4160.512695,4143.077148,4138.461426,4170.256348,4146.666504,4141.538574,761.000000,4.000000,,,,0.000000,4.000000,4.000000,4.000000,4.000000,4.000000,4.000000,4.000000,4.000000,4.000000,4.000000,4.000000,4.000000,4.000000,4.000000,100.000000
1602006181.214327,113.000000,0.000000,4151.794922,4134.871582,4154.358887,4142.051270,4133.846191,4101.025879,4125.128418,4154.871582,4153.846191,4156.922852,4141.025879,4167.179688,4138.974121,4137.436035,734.000000,4.000000,,,,0.000000,4.000000,4.000000,4.000000,4.000000,4.000000,4.000000,4.000000,4.000000,4.000000,4.000000,4.000000,4.000000,4.000000,4.000000,100.000000
1602006181.222108,114.000000,0.000000,4159.487305,4140.000000,4160.512695,4144.102539,4141.025879,4109.230957,4127.692383,4148.717773,4145.641113,4150.769043,4154.871582,4168.717773,4147.179688,4140.000000,873.000000,4.000000,,,,0.000000,4.000000,4.000000,4.000000,4.000000,4.000000,4.000000,4.000000,4.000000,4.000000,4.000000,4.000000,4.000000,4.000000,4.000000,100.000000
1602006181.229989,115.000000,0.000000,4156.410156,4138.461426,4153.846191,4143.077148,4139.487305,4107.179688,4128.205078,4135.897461,4128.717773,4143.077148,4152.820313,4168.717773,4159.487305,4141.025879,832.000000,4.000000,,,,0.000000,4.000000,4.000000,4.000000,4.000000,4.000000,4.000000,4.000000,4.000000,4.000000,4.000000,4.000000,4.000000,4.000000,4.000000,100.000000
1602006181.237771,116.000000,0.000000,4151.282227,4134.871582,4144.102539,4137.436035,4131.282227,4101.538574,4134.871582,4126.153809,4120.000000,4142.563965,4143.589844,4166.153809,4155.897461,4136.922852,761.000000,4.000000,,,,0.000000,4.000000,4.000000,4.000000,4.000000,4.000000,4.000000,4.000000,4.000000,4.000000,4.000000,4.000000,4.000000,4.000000,4.000000,100.000000
1602006181.245653,117.000000,0.000000,4143.077148,4124.615234,4137.436035,4127.692383,4127.692383,4111.282227,4137.948730,4117.436035,4115.897461,4131.794922,4133.333496,4159.487305,4140.000000,4127.692383,734.000000,4.000000,,,,0.000000,4.000000,4.000000,4.000000,4.000000,4.000000,4.000000,4.000000,4.000000,4.000000,4.000000,4.000000,4.000000,4.000000,4.000000,100.000000
1602006181.253535,118.000000,0.000000,4132.820313,4120.000000,4133.333496,4121.538574,4133.846191,4124.102539,4135.384766,4111.282227,4101.538574,4112.820313,4127.692383,4144.102539,4134.871582,4122.051270,873.000000,4.000000,,,,0.000000,4.000000,4.000000,4.000000,4.000000,4.000000,4.000000,4.000000,4.000000,4.000000,4.000000,4.000000,4.000000,4.000000,4.000000,100.000000
1602006181.261417,119.000000,0.000000,4129.230957,4120.000000,4128.717773,4124.102539,4139.487305,4129.230957,4137.436035,4117.436035,4104.615234,4110.769043,4135.897461,4134.871582,4133.333496,4125.641113,832.000000,4.000000,,,,0.000000,4.000000,4.000000,4.000000,4.000000,4.000000,4.000000,4.000000,4.000000,4.000000,4.000000,4.000000,4.000000,4.000000,4.000000,100.000000
1602006181.269299,120.000000,0.000000,4127.692383,4110.769043,4120.000000,4120.000000,4134.871582,4125.128418,4136.410156,4126.666504,4127.692383,4132.307617,4134.871582,4140.000000,4127.179688,4114.358887,761.000000,4.000000,,,,0.000000,4.000000,4.000000,4.000000,4.000000,4.000000,4.000000,4.000000,4.000000,4.000000,4.000000,4.000000,4.000000,4.000000,4.000000,100.000000
1602006181.277180,121.000000,0.000000,4129.230957,4108.717773,4117.948730,4115.384766,4135.384766,4125.128418,4135.897461,4133.846191,4149.743652,4155.897461,4118.974121,4151.282227,4130.769043,4105.641113,734.000000,4.000000,,,,0.000000,4.000000,4.000000,4.000000,4.000000,4.000000,4.000000,4.000000,4.000000,4.000000,4.000000,4.000000,4.000000,4.000000,4.000000,100.000000
1602006181.285062,122.000000,0.000000,4142.051270,4124.102539,4130.256348,4129.230957,4142.051270,4136.922852,4147.179688,4147.692383,4162.563965,4162.563965,4125.641113,4160.512695,4138.974121,4130.769043,873.000000,4.000000,,,,0.000000,4.000000,4.000000,4.000000,4.000000,4.000000,4.000000,4.000000,4.000000,4.000000,4.000000,4.000000,4.000000,4.000000,4.000000,100.000000
1602006181.292944,123.000000,0.000000,4142.563965,4127.692383,4138.974121,4135.897461,4138.974121,4132.820313,4150.769043,4156.410156,4146.666504,4141.025879,4146.666504,4166.153809,4140.000000,4143.589844,832.000000,4.000000,,,,0.000000,4.000000,4.000000,4.000000,4.000000,4.000000,4.000000,4.000000,4.000000,4.000000,4.000000,4.000000,4.000000,4.000000,4.000000,100.000000
1602006181.300826,124.000000,0.000000,4132.820313,4120.000000,4135.384766,4125.641113,4133.846191,4106.666504,4140.512695,4148.717773,4124.102539,4107.692383,4138.461426,4168.717773,4134.871582,4120.000000,761.000000,4.000000,,,,0.000000,4.000000,4.000000,4.000000,4.000000,4.000000,4.000000,4.000000,4.000000,4.000000,4.000000,4.000000,4.000000,4.000000,4.000000,100.000000
1602006181.308608,125.000000,0.000000,4143.077148,4129.230957,4138.461426,4129.743652,4136.410156,4094.871826,4137.436035,4143.077148,4140.000000,4112.307617,4126.666504,4169.743652,4136.922852,4125.128418,734.000000,4.000000,,,,0.000000,4.000000,4.000000,4.000000,4.000000,4.000000,4.000000,4.000000,4.000000,4.000000,4.000000,4.000000,4.000000,4.000000,4.000000,100.000000
1602006181.316490,126.000000,0.000000,4161.025879,4151.282227,4153.333496,4150.256348,4142.051270,4104.615234,4137.948730,4147.179688,4168.205078,4156.922852,4153.846191,4173.846191,4152.307617,4167.692383,873.000000,4.000000,,,,0.000000,4.000000,4.000000,4.000000,4.000000,4.000000,4.000000,4.000000,4.000000,4.000000,4.000000,4.000000,4.000000,4.000000,4.000000,100.000000
1602006181.324371,127.000000,0.000000,4161.025879,4157.948730,4163.077148,4157.436035,4144.102539,4113.846191,4128.205078,4145.128418,4157.436035,4183.589844,4176.922852,4176.410156,4165.641113,4182.051270,832.000000,4.000000,,,,0.000000,4.000000,4.000000,4.000000,4.000000,4.000000,4.000000,4.000000,4.000000,4.000000,4.000000,4.000000,4.000000,4.000000,4.000000,100.000000
1602006181.332253,128.000000,0.000000,4150.769043,4145.128418,4155.897461,4148.205078,4141.025879,4116.410156,4119.487305,4129.743652,4127.179688,4161.538574,4157.436035,4166.666504,4157.436035,4150.256348,761.000000,4.000000,,,,0.000000,4.000000,4.000000,4.000000,4.000000,4.000000,4.000000,4.000000,4.000000,4.000000,4.000000,4.000000,4.000000,4.000000,4.000000,100.000000
1602006181.340134,0.000000,0.000000,4140.512695,4133.333496,4140.512695,4138.461426,4138.974121,4122.051270,4122.051270,4111.794922,4108.717773,4124.102539,4135.384766,4151.794922,4140.000000,4113.846191,801.000000,4.000000,,,,0.000000,4.000000,4.000000,4.000000,4.000000,4.000000,4.000000,4.000000,4.000000,4.000000,4.000000,4.000000,4.000000,4.000000,4.000000,100.000000
1602006181.348016,1.000000,0.000000,4125.641113,4125.128418,4123.077148,4129.230957,4139.487305,4133.846191,4125.128418,4104.102539,4095.897461,4103.589844,4134.871582,4139.487305,4130.769043,4109.743652,790.000000,4.000000,,,,0.000000,4.000000,4.000000,4.000000,4.000000,4.000000,4.000000,4.000000,4.000000,4.000000,4.000000,4.000000,4.000000,4.000000,4.000000,100.000000
1602006181.355898,2.000000,0.000000,4110.256348,4110.769043,4106.666504,4119.487305,4135.384766,4143.589844,4126.666504,4103.077148,4083.076904,4094.871826,4128.205078,4129.743652,4125.641113,4122.051270,849.000000,4.000000,,,,0.000000,4.000000,4.000000,4.000000,4.000000,4.000000,4.000000,4.000000,4.000000,4.000000,4.000000,4.000000,4.000000,4.000000,4.000000,100.000000
1602006181.363779,3.000000,0.000000,4106.153809,4102.563965,4103.589844,4112.820313,4129.743652,4144.102539,4132.820313,4103.077148,4088.205078,4092.307617,4115.897461,4130.256348,4116.410156,4116.922852,870.000000,4.000000,,,,0.000000,4.000000,4.000000,4.000000,4.000000,4.000000,4.000000,4.000000,4.000000,4.000000,4.000000,4.000000,4.000000,4.000000,4.000000,100.000000
1602006181.371561,4.000000,0.000000,4104.615234,4104.615234,4108.717773,4109.230957,4131.282227,4143.589844,4140.512695,4111.794922,4114.871582,4103.589844,4120.000000,4137.948730,4108.717773,4105.641113,813.000000,4.000000,,,,0.000000,4.000000,4.000000,4.000000,4.000000,4.000000,4.000000,4.000000,4.000000,4.000000,4.000000,4.000000,4.000000,4.000000,4.000000,100.000000
1602006181.379442,5.000000,0.000000,4101.025879,4107.692383,4109.230957,4108.205078,4131.282227,4143.589844,4141.538574,4126.153809,4136.922852,4120.512695,4128.717773,4138.974121,4111.794922,4104.102539,822.000000,4.000000,,,,0.000000,4.000000,4.000000,4.000000,4.000000,4.000000,4.000000,4.000000,4.000000,4.000000,4.000000,4.000000,4.000000,4.000000,4.000000,100.000000
1602006181.387324,6.000000,0.000000,4107.692383,4113.333496,4113.333496,4116.410156,4128.717773,4129.230957,4134.871582,4138.461426,4147.692383,4129.743652,4134.871582,4143.077148,4121.025879,4102.051270,772.000000,4.000000,,,,0.000000,4.000000,4.000000,4.000000,4.000000,4.000000,4.000000,4.000000,4.000000,4.000000,4.000000,4.000000,4.000000,4.000000,4.000000,100.000000
1602006181.395205,7.000000,0.000000,4128.717773,4127.179688,4131.794922,4131.282227,4132.820313,4105.128418,4126.153809,4149.230957,4161.538574,4140.000000,4141.538574,4160.000000,4129.743652,4114.358887,675.000000,4.000000,,,,0.000000,4.000000,4.000000,4.000000,4.000000,4.000000,4.000000,4.000000,4.000000,4.000000,4.000000,4.000000,4.000000,4.000000,4.000000,100.000000
1602006181.403086,8.000000,0.000000,4149.743652,4143.077148,4149.743652,4142.563965,4137.436035,4089.743652,4116.410156,4151.282227,4171.794922,4149.230957,4142.563965,4171.794922,4144.102539,4144.615234,782.000000,4.000000,,,,0.000000,4.000000,4.000000,4.000000,4.000000,4.000000,4.000000,4.000000,4.000000,4.000000,4.000000,4.000000,4.000000,4.000000,4.000000,100.000000
1602006181.410968,9.000000,0.000000,4157.436035,4154.358887,4156.922852,4151.282227,4135.384766,4086.153809,4107.179688,4138.974121,4167.692383,4141.538574,4148.205078,4175.384766,4155.384766,4162.051270,841.000000,4.000000,,,,0.000000,4.000000,4.000000,4.000000,4.000000,4.000000,4.000000,4.000000,4.000000,4.000000,4.000000,4.000000,4.000000,4.000000,4.000000,100.000000
1602006181.418749,10.000000,0.000000,4156.410156,4158.974121,4164.615234,4155.384766,4133.846191,4091.281982,4107.692383,4127.179688,4159.487305,4142.051270,4160.000000,4183.077148,4157.436035,4172.307617,873.000000,4.000000,,,,0.000000,4.000000,4.000000,4.000000,4.000000,4.000000,4.000000,4.000000,4.000000,4.000000,4.000000,4.000000,4.000000,4.000000,4.000000,100.000000
1602006181.426631,11.000000,0.000000,4158.461426,4160.000000,4168.717773,4148.717773,4134.358887,4102.563965,4116.922852,4124.615234,4151.794922,4158.974121,4160.000000,4186.153809,4161.538574,4171.282227,835.000000,4.000000,,,,0.000000,4.000000,4.000000,4.000000,4.000000,4.000000,4.000000,4.000000,4.000000,4.000000,4.000000,4.000000,4.000000,4.000000,4.000000,100.000000
1602006181.434512,12.000000,0.000000,4156.410156,4152.307617,4162.563965,4141.025879,4135.897461,4113.333496,4122.051270,4114.358887,4135.897461,4151.794922,4149.743652,4177.436035,4155.897461,4148.717773,761.000000,4.000000,,,,0.000000,4.000000,4.000000,4.000000,4.000000,4.000000,4.000000,4.000000,4.000000,4.000000,4.000000,4.000000,4.000000,4.000000,4.000000,100.000000
1602006181.442394,13.000000,0.000000,4142.563965,4141.538574,4149.230957,4138.974121,4140.000000,4120.512695,4117.948730,4095.384521,4110.256348,4115.897461,4146.666504,4158.974121,4142.051270,4136.922852,734.000000,4.000000,,,,0.000000,4.000000,4.000000,4.000000,4.000000,4.000000,4.000000,4.000000,4.000000,4.000000,4.000000,4.000000,4.000000,4.000000,4.000000,100.000000
1602006181.450275,14.000000,0.000000,4128.205078,4133.846191,4134.358887,4132.307617,4142.051270,4131.794922,4116.410156,4084.615479,4095.897461,4098.974121,4138.461426,4140.512695,4138.461426,4135.897461,873.000000,4.000000,,,,0.000000,4.000000,4.000000,4.000000,4.000000,4.000000,4.000000,4.000000,4.000000,4.000000,4.000000,4.000000,4.000000,4.000000,4.000000,100.000000
1602006181.458156,15.000000,0.000000,4120.000000,4124.102539,4121.025879,4120.512695,4140.000000,4142.051270,4123.077148,4089.230713,4100.512695,4113.846191,4119.487305,4132.820313,4132.307617,4121.538574,835.000000,4.000000,,,,0.000000,4.000000,4.000000,4.000000,4.000000,4.000000,4.000000,4.000000,4.000000,4.000000,4.000000,4.000000,4.000000,4.000000,4.000000,100.000000
1602006181.466138,16.000000,0.000000,4114.871582,4117.436035,4111.794922,4116.410156,4138.974121,4142.051270,4125.128418,4106.666504,4111.794922,4124.102539,4121.538574,4134.871582,4123.589844,4120.000000,0.000000,4.000000,,,,0.000000,4.000000,4.000000,4.000000,4.000000,4.000000,4.000000,4.000000,4.000000,4.000000,4.000000,4.000000,4.000000,4.000000,4.000000,100.000000
1602006181.474020,17.000000,0.000000,4109.743652,4120.512695,4108.205078,4120.512695,4146.153809,4139.487305,4124.615234,4128.205078,4129.230957,4123.077148,4136.410156,4137.436035,4127.179688,4126.153809,0.000000,4.000000,,,,0.000000,4.000000,4.000000,4.000000,4.000000,4.000000,4.000000,4.000000,4.000000,4.000000,4.000000,4.000000,4.000000,4.000000,4.000000,100.000000
1602006181.481901,18.000000,0.000000,4106.153809,4124.615234,4106.153809,4121.025879,4150.769043,4135.384766,4125.641113,4144.102539,4148.205078,4131.794922,4137.436035,4137.948730,4137.948730,4113.846191,0.000000,4.000000,,,,0.000000,4.000000,4.000000,4.000000,4.000000,4.000000,4.000000,4.000000,4.000000,4.000000,4.000000,4.000000,4.000000,4.000000,4.000000,100.000000
1602006181.489783,19.000000,0.000000,4108.717773,4125.641113,4104.102539,4123.589844,4140.000000,4116.922852,4116.410156,4145.641113,4150.256348,4144.102539,4133.333496,4136.922852,4140.512695,4115.897461,0.000000,4.000000,,,,0.000000,4.000000,4.000000,4.000000,4.000000,4.000000,4.000000,4.000000,4.000000,4.000000,4.000000,4.000000,4.000000,4.000000,4.000000,100.000000
1602006181.497665,20.000000,0.000000,4118.974121,4133.333496,4110.256348,4133.333496,4134.358887,4090.769287,4103.589844,4135.384766,4135.384766,4134.871582,4137.948730,4135.897461,4138.461426,4140.000000,0.000000,4.000000,,,,0.000000,4.000000,4.000000,4.000000,4.000000,4.000000,4.000000,4.000000,4.000000,4.000000,4.000000,4.000000,4.000000,4.000000,4.000000,100.000000
1602006181.505546,21.000000,0.000000,4135.384766,4147.179688,4128.717773,4141.538574,4147.179688,4085.641113,4102.563965,4125.128418,4125.128418,4114.871582,4144.615234,4137.436035,4144.102539,4149.743652,0.000000,4.000000,,,,0.000000,4.000000,4.000000,4.000000,4.000000,4.000000,4.000000,4.000000,4.000000,4.000000,4.000000,4.000000,4.000000,4.000000,4.000000,100.000000
1602006181.513428,22.000000,0.000000,4150.769043,4160.000000,4143.077148,4148.717773,4155.384766,4101.538574,4108.717773,4119.487305,4122.051270,4122.051270,4152.307617,4144.615234,4155.384766,4153.333496,0.000000,4.000000,,,,0.000000,4.000000,4.000000,4.000000,4.000000,4.000000,4.000000,4.000000,4.000000,4.000000,4.000000,4.000000,4.000000,4.000000,4.000000,100.000000
1602006181.521309,23.000000,0.000000,4160.000000,4163.077148,4145.128418,4155.384766,4152.820313,4117.948730,4108.717773,4110.769043,4114.871582,4145.128418,4156.410156,4152.820313,4160.512695,4161.538574,0.000000,4.000000,,,,0.000000,4.000000,4.000000,4.000000,4.000000,4.000000,4.000000,4.000000,4.000000,4.000000,4.000000,4.000000,4.000000,4.000000,4.000000,100.000000
1602006181.529091,24.000000,0.000000,4157.436035,4158.974121,4142.563965,4153.846191,4155.384766,4119.487305,4105.641113,4093.846191,4101.025879,4150.256348,4148.205078,4153.333496,4154.871582,4153.846191,0.000000,4.000000,,,,0.000000,4.000000,4.000000,4.000000,4.000000,4.000000,4.000000,4.000000,4.000000,4.000000,4.000000,4.000000,4.000000,4.000000,4.000000,100.000000
1602006181.536972,25.000000,0.000000,4147.179688,4156.410156,4133.333496,4141.538574,4154.871582,4115.384766,4110.256348,4081.538574,4089.743652,4133.846191,4142.563965,4147.692383,4149.230957,4140.512695,0.000000,4.000000,,,,0.000000,4.000000,4.000000,4.000000,4.000000,4.000000,4.000000,4.000000,4.000000,4.000000,4.000000,4.000000,4.000000,4.000000,4.000000,100.000000
1602006181.544854,26.000000,0.000000,4134.871582,4146.666504,4122.563965,4131.282227,4145.128418,4116.922852,4121.538574,4082.051270,4095.384521,4113.846191,4136.922852,4138.974121,4143.077148,4132.307617,0.000000,4.000000,,,,0.000000,4.000000,4.000000,4.000000,4.000000,4.000000,4.000000,4.000000,4.000000,4.000000,4.000000,4.000000,4.000000,4.000000,4.000000,100.000000
1602006181.552735,27.000000,0.000000,4120.512695,4127.692383,4118.974121,4123.077148,4130.769043,4124.102539,4131.794922,4095.384521,4112.307617,4115.384766,4123.589844,4131.794922,4130.256348,4124.615234,0.000000,4.000000,,,,0.000000,4.000000,4.000000,4.000000,4.000000,4.000000,4.000000,4.000000,4.000000,4.000000,4.000000,4.000000,4.000000,4.000000,4.000000,100.000000
1602006181.560617,28.000000,0.000000,4110.769043,4113.333496,4113.846191,4112.820313,4122.051270,4125.641113,4136.410156,4120.000000,4125.128418,4133.333496,4120.512695,4131.282227,4121.025879,4117.948730,0.000000,4.000000,,,,0.000000,4.000000,4.000000,4.000000,4.000000,4.000000,4.000000,4.000000,4.000000,4.000000,4.000000,4.000000,4.000000,4.000000,4.000000,100.000000
1602006181.568398,29.000000,0.000000,4105.128418,4105.641113,4104.615234,4104.615234,4121.538574,4116.922852,4137.948730,4146.153809,4129.230957,4130.769043,4125.641113,4135.384766,4111.282227,4110.256348,0.000000,4.000000,,,,0.000000,4.000000,4.000000,4.000000,4.000000,4.000000,4.000000,4.000000,4.000000,4.000000,4.000000,4.000000,4.000000,4.000000,4.000000,100.000000
1602006181.576279,30.000000,0.000000,4102.563965,4104.615234,4107.179688,4103.077148,4122.051270,4113.333496,4133.846191,4160.512695,4135.897461,4113.333496,4119.487305,4137.436035,4103.589844,4105.641113,0.000000,4.000000,,,,0.000000,4.000000,4.000000,4.000000,4.000000,4.000000,4.000000,4.000000,4.000000,4.000000,4.000000,4.000000,4.000000,4.000000,4.000000,100.000000
1602006181.584161,31.000000,0.000000,4111.282227,4115.384766,4124.615234,4110.769043,4122.563965,4115.384766,4125.128418,4156.410156,4151.282227,4119.487305,4120.000000,4140.512695,4107.179688,4115.897461,0.000000,4.000000,,,,0.000000,4.000000,4.000000,4.000000,4.000000,4.000000,4.000000,4.000000,4.000000,4.000000,4.000000,4.000000,4.000000,4.000000,4.000000,100.000000
1602006181.592042,32.000000,0.000000,4133.846191,4132.307617,4140.000000,4125.128418,4132.820313,4114.871582,4116.922852,4147.692383,4155.897461,4134.358887,4137.436035,4142.051270,4124.102539,4136.410156,0.000000,4.000000,,,,0.000000,4.000000,4.000000,4.000000,4.000000,4.000000,4.000000,4.000000,4.000000,4.000000,4.000000,4.000000,4.000000,4.000000,4.000000,100.000000
1602006181.599924,33.000000,0.000000,4144.102539,4139.487305,4139.487305,4134.871582,4140.512695,4107.692383,4110.256348,4136.410156,4139.487305,4127.692383,4143.077148,4141.025879,4137.436035,4142.563965,0.000000,4.000000,,,,0.000000,4.000000,4.000000,4.000000,4.000000,4.000000,4.000000,4.000000,4.000000,4.000000,4.000000,4.000000,4.000000,4.000000,4.000000,100.000000
1602006181.607805,34.000000,0.000000,4137.948730,4140.000000,4139.487305,4137.436035,4135.897461,4104.102539,4106.666504,4127.179688,4125.641113,4129.743652,4138.461426,4147.179688,4141.538574,4145.128418,0.000000,4.000000,,,,0.000000,4.000000,4.000000,4.000000,4.000000,4.000000,4.000000,4.000000,4.000000,4.000000,4.000000,4.000000,4.000000,4.000000,4.000000,100.000000
1602006181.615787,35.000000,0.000000,4145.128418,4148.205078,4145.641113,4140.000000,4135.384766,4107.692383,4110.769043,4122.563965,4126.153809,4150.256348,4142.051270,4153.846191,4143.589844,4157.436035,0.000000,4.000000,,,,0.000000,4.000000,4.000000,4.000000,4.000000,4.000000,4.000000,4.000000,4.000000,4.000000,4.000000,4.000000,4.000000,4.000000,4.000000,100.000000
1602006181.623668,36.000000,0.000000,4156.410156,4152.820313,4145.128418,4142.051270,4137.948730,4111.282227,4117.436035,4112.307617,4123.077148,4148.205078,4145.641113,4151.282227,4142.563965,4154.358887,0.000000,4.000000,,,,0.000000,4.000000,4.000000,4.000000,4.000000,4.000000,4.000000,4.000000,4.000000,4.000000,4.000000,4.000000,4.000000,4.000000,4.000000,100.000000
1602006181.631550,37.000000,0.000000,4148.205078,4146.666504,4139.487305,4141.538574,4137.436035,4118.974121,4121.538574,4101.025879,4120.000000,4135.897461,4142.563965,4147.692383,4140.512695,4144.615234,0.000000,4.000000,,,,0.000000,4.000000,4.000000,4.000000,4.000000,4.000000,4.000000,4.000000,4.000000,4.000000,4.000000,4.000000,4.000000,4.000000,4.000000,100.000000
1602006181.639432,38.000000,0.000000,4138.974121,4141.538574,4141.538574,4141.538574,4140.512695,4125.128418,4130.256348,4107.692383,4126.666504,4143.077148,4140.000000,4151.282227,4142.051270,4150.769043,0.000000,4.000000,,,,0.000000,4.000000,4.000000,4.000000,4.000000,4.000000,4.000000,4.000000,4.000000,4.000000,4.000000,4.000000,4.000000,4.000000,4.000000,100.000000
1602006181.647313,39.000000,0.000000,4139.487305,4141.538574,4144.102539,4135.384766,4144.615234,4124.615234,4138.974121,4121.538574,4127.692383,4139.487305,4137.948730,4156.922852,4141.025879,4155.897461,0.000000,4.000000,,,,0.000000,4.000000,4.000000,4.000000,4.000000,4.000000,4.000000,4.000000,4.000000,4.000000,4.000000,4.000000,4.000000,4.000000,4.000000,100.000000
