Timestamp,EEG.Counter,EEG.Interpolated,EEG.AF3,EEG.F7,EEG.F3,EEG.FC5,EEG.T7,EEG.P7,EEG.O1,EEG.O2,EEG.P8,EEG.T8,EEG.FC6,EEG.F4,EEG.F8,EEG.AF4,EEG.RawCq,EEG.Battery,MarkerIndex,MarkerType,MarkerValueInt,EEG.MarkerHardware,CQ.AF3,CQ.F7,CQ.F3,CQ.FC5,CQ.T7,CQ.P7,CQ.O1,CQ.O2,CQ.P8,CQ.T8,CQ.FC6,CQ.F4,CQ.F8,CQ.AF4,CQ.Overall
1602006194.154046,78.000000,0.000000,2924.615479,4023.076904,4121.538574,4125.641113,4058.974365,4143.589844,4137.436035,4134.871582,4183.589844,4162.563965,3998.974365,4069.230713,4060.000000,3327.179443,878.000000,4.000000,,,,0.000000,4.000000,4.000000,4.000000,4.000000,4.000000,4.000000,4.000000,4.000000,4.000000,4.000000,4.000000,4.000000,4.000000,4.000000,100.000000
1602006194.161828,79.000000,0.000000,2933.846191,4027.179443,4122.563965,4133.333496,4063.076904,4157.436035,4141.025879,4139.487305,4189.230957,4170.256348,4012.307617,4071.281982,4072.820557,3324.615479,868.000000,4.000000,,,,0.000000,4.000000,4.000000,4.000000,4.000000,4.000000,4.000000,4.000000,4.000000,4.000000,4.000000,4.000000,4.000000,4.000000,4.000000,100.000000
1602006194.169710,80.000000,0.000000,2941.538574,4021.538574,4110.256348,4126.153809,4063.076904,4149.230957,4130.769043,4127.179688,4167.179688,4171.794922,4012.820557,4064.615479,4075.384521,3323.076904,767.000000,4.000000,,,,0.000000,4.000000,4.000000,4.000000,4.000000,4.000000,4.000000,4.000000,4.000000,4.000000,4.000000,4.000000,4.000000,4.000000,4.000000,100.000000
1602006194.177592,81.000000,0.000000,2961.025635,4025.128174,4108.205078,4126.666504,4070.769287,4137.436035,4124.102539,4112.307617,4153.333496,4180.000000,4000.512939,4067.692383,4072.307617,3343.589844,742.000000,4.000000,,,,0.000000,4.000000,4.000000,4.000000,4.000000,4.000000,4.000000,4.000000,4.000000,4.000000,4.000000,4.000000,4.000000,4.000000,4.000000,100.000000
1602006194.185474,82.000000,0.000000,2980.000000,4034.871826,4119.487305,4137.948730,4079.487061,4137.436035,4117.948730,4106.666504,4164.102539,4187.692383,4005.641113,4078.461426,4081.538574,3364.615479,878.000000,4.000000,,,,0.000000,4.000000,4.000000,4.000000,4.000000,4.000000,4.000000,4.000000,4.000000,4.000000,4.000000,4.000000,4.000000,4.000000,4.000000,100.000000
1602006194.193356,83.000000,0.000000,2993.333252,4040.512939,4128.717773,4142.051270,4081.025635,4141.538574,4106.666504,4107.692383,4171.282227,4189.743652,4027.179443,4085.128174,4097.436035,3373.846191,868.000000,4.000000,,,,0.000000,4.000000,4.000000,4.000000,4.000000,4.000000,4.000000,4.000000,4.000000,4.000000,4.000000,4.000000,4.000000,4.000000,4.000000,100.000000
1602006194.201238,84.000000,0.000000,3016.923096,4053.333252,4138.974121,4148.717773,4081.538574,4145.128418,4103.077148,4112.307617,4163.589844,4186.666504,4041.025635,4096.922852,4107.692383,3395.384521,767.000000,4.000000,,,,0.000000,4.000000,4.000000,4.000000,4.000000,4.000000,4.000000,4.000000,4.000000,4.000000,4.000000,4.000000,4.000000,4.000000,4.000000,100.000000
1602006194.209120,85.000000,0.000000,3040.000000,4062.564209,4153.846191,4160.000000,4077.948730,4136.410156,4107.179688,4112.307617,4157.436035,4182.051270,4038.974365,4109.743652,4109.743652,3423.076904,742.000000,4.000000,,,,0.000000,4.000000,4.000000,4.000000,4.000000,4.000000,4.000000,4.000000,4.000000,4.000000,4.000000,4.000000,4.000000,4.000000,4.000000,100.000000
1602006194.217001,86.000000,0.000000,3053.333252,4054.871826,4167.179688,4153.846191,4070.769287,4119.487305,4107.692383,4112.307617,4157.948730,4187.179688,4033.846191,4114.358887,4110.256348,3435.384521,878.000000,4.000000,,,,0.000000,4.000000,4.000000,4.000000,4.000000,4.000000,4.000000,4.000000,4.000000,4.000000,4.000000,4.000000,4.000000,4.000000,4.000000,100.000000
1602006194.224883,87.000000,0.000000,3066.153809,4048.205078,4173.846191,4137.948730,4063.589844,4115.897461,4109.743652,4118.974121,4157.436035,4171.282227,4033.333252,4121.025879,4111.794922,3437.948730,868.000000,4.000000,,,,0.000000,4.000000,4.000000,4.000000,4.000000,4.000000,4.000000,4.000000,4.000000,4.000000,4.000000,4.000000,4.000000,4.000000,4.000000,100.000000
1602006194.232864,88.000000,0.000000,3077.435791,4048.718018,4173.333496,4139.487305,4056.923096,4124.102539,4117.436035,4121.025879,4157.436035,4143.077148,4034.871826,4129.743652,4110.256348,3444.102539,767.000000,4.000000,,,,0.000000,4.000000,4.000000,4.000000,4.000000,4.000000,4.000000,4.000000,4.000000,4.000000,4.000000,4.000000,4.000000,4.000000,4.000000,100.000000
1602006194.240745,89.000000,0.000000,3086.666748,4046.666748,4168.717773,4151.282227,4063.076904,4132.307617,4122.563965,4118.974121,4160.512695,4164.615234,4034.871826,4130.256348,4108.717773,3451.281982,742.000000,4.000000,,,,0.000000,4.000000,4.000000,4.000000,4.000000,4.000000,4.000000,4.000000,4.000000,4.000000,4.000000,4.000000,4.000000,4.000000,4.000000,100.000000
1602006194.248727,90.000000,0.000000,3094.358887,4042.564209,4156.410156,4151.282227,4077.948730,4132.820313,4122.051270,4120.512695,4156.410156,4196.410156,4031.281982,4118.974121,4106.666504,3447.179443,878.000000,4.000000,,,,0.000000,4.000000,4.000000,4.000000,4.000000,4.000000,4.000000,4.000000,4.000000,4.000000,4.000000,4.000000,4.000000,4.000000,4.000000,100.000000
1602006194.256609,91.000000,0.000000,3096.410156,4043.076904,4139.487305,4145.641113,4080.512939,4130.769043,4118.461426,4121.538574,4148.717773,4180.512695,4028.205078,4102.051270,4099.487305,3436.923096,868.000000,4.000000,,,,0.000000,4.000000,4.000000,4.000000,4.000000,4.000000,4.000000,4.000000,4.000000,4.000000,4.000000,4.000000,4.000000,4.000000,4.000000,100.000000
1602006194.264491,92.000000,0.000000,3100.000000,4050.256348,4137.948730,4151.794922,4081.538574,4136.922852,4118.974121,4123.077148,4162.051270,4178.974121,4029.230713,4096.410156,4098.974121,3439.487061,767.000000,4.000000,,,,0.000000,4.000000,4.000000,4.000000,4.000000,4.000000,4.000000,4.000000,4.000000,4.000000,4.000000,4.000000,4.000000,4.000000,4.000000,100.000000
1602006194.272373,93.000000,0.000000,3103.589844,4049.743652,4139.487305,4151.282227,4088.205078,4145.641113,4122.563965,4129.230957,4176.922852,4207.179688,4031.794922,4092.820557,4100.000000,3440.000000,742.000000,4.000000,,,,0.000000,4.000000,4.000000,4.000000,4.000000,4.000000,4.000000,4.000000,4.000000,4.000000,4.000000,4.000000,4.000000,4.000000,4.000000,100.000000
1602006194.280254,94.000000,0.000000,3102.564209,4045.128174,4122.563965,4138.461426,4084.102539,4142.051270,4121.538574,4127.692383,4157.948730,4187.179688,4024.615479,4078.461426,4087.179443,3422.051270,878.000000,4.000000,,,,0.000000,4.000000,4.000000,4.000000,4.000000,4.000000,4.000000,4.000000,4.000000,4.000000,4.000000,4.000000,4.000000,4.000000,4.000000,100.000000
1602006194.288136,95.000000,0.000000,3106.153809,4048.718018,4111.282227,4134.358887,4074.871826,4134.358887,4116.922852,4113.333496,4132.307617,4135.897461,4017.435791,4074.871826,4081.538574,3424.615479,868.000000,4.000000,,,,0.000000,4.000000,4.000000,4.000000,4.000000,4.000000,4.000000,4.000000,4.000000,4.000000,4.000000,4.000000,4.000000,4.000000,4.000000,100.000000
1602006194.296018,96.000000,0.000000,3106.666748,4038.974365,4118.461426,4130.769043,4073.333252,4142.051270,4122.051270,4105.641113,4137.948730,4130.769043,4020.000000,4085.641113,4087.179443,3441.025635,767.000000,4.000000,,,,0.000000,4.000000,4.000000,4.000000,4.000000,4.000000,4.000000,4.000000,4.000000,4.000000,4.000000,4.000000,4.000000,4.000000,4.000000,100.000000
1602006194.303900,97.000000,0.000000,3105.128174,4023.589844,4122.051270,4124.102539,4077.948730,4147.179688,4127.179688,4108.205078,4146.666504,4144.102539,4017.435791,4082.564209,4080.512939,3434.871826,742.000000,4.000000,,,,0.000000,4.000000,4.000000,4.000000,4.000000,4.000000,4.000000,4.000000,4.000000,4.000000,4.000000,4.000000,4.000000,4.000000,4.000000,100.000000
1602006194.311782,98.000000,0.000000,3122.051270,4040.000000,4121.538574,4132.307617,4079.487061,4134.871582,4114.871582,4103.077148,4135.384766,4143.589844,4011.794922,4071.281982,4071.281982,3429.230713,878.000000,4.000000,,,,0.000000,4.000000,4.000000,4.000000,4.000000,4.000000,4.000000,4.000000,4.000000,4.000000,4.000000,4.000000,4.000000,4.000000,4.000000,100.000000
1602006194.319563,99.000000,0.000000,3149.743652,4066.666748,4130.769043,4143.589844,4076.410156,4127.179688,4106.153809,4103.077148,4137.948730,4164.615234,4021.025635,4072.820557,4079.487061,3450.256348,868.000000,4.000000,,,,0.000000,4.000000,4.000000,4.000000,4.000000,4.000000,4.000000,4.000000,4.000000,4.000000,4.000000,4.000000,4.000000,4.000000,4.000000,100.000000
1602006194.327444,100.000000,0.000000,3163.589844,4064.615479,4136.922852,4142.051270,4074.358887,4135.897461,4114.871582,4117.436035,4158.974121,4191.794922,4031.281982,4076.410156,4081.025635,3464.615479,767.000000,4.000000,,,,0.000000,4.000000,4.000000,4.000000,4.000000,4.000000,4.000000,4.000000,4.000000,4.000000,4.000000,4.000000,4.000000,4.000000,4.000000,100.000000
1602006194.335326,101.000000,0.000000,3172.307617,4051.281982,4133.846191,4138.461426,4072.820557,4140.000000,4121.538574,4126.666504,4174.358887,4187.692383,4025.128174,4077.435791,4064.102539,3461.025635,742.000000,4.000000,,,,0.000000,4.000000,4.000000,4.000000,4.000000,4.000000,4.000000,4.000000,4.000000,4.000000,4.000000,4.000000,4.000000,4.000000,4.000000,100.000000
1602006194.343207,102.000000,0.000000,3185.641113,4048.718018,4135.384766,4137.436035,4067.179443,4134.871582,4118.461426,4125.128418,4172.820313,4175.897461,4016.923096,4082.564209,4054.358887,3465.641113,878.000000,4.000000,,,,0.000000,4.000000,4.000000,4.000000,4.000000,4.000000,4.000000,4.000000,4.000000,4.000000,4.000000,4.000000,4.000000,4.000000,4.000000,100.000000
1602006194.351188,103.000000,0.000000,3191.281982,4050.256348,4141.025879,4137.436035,4063.076904,4137.948730,4118.974121,4123.077148,4157.948730,4166.153809,4013.846191,4084.102539,4050.769287,3468.718018,868.000000,4.000000,,,,0.000000,4.000000,4.000000,4.000000,4.000000,4.000000,4.000000,4.000000,4.000000,4.000000,4.000000,4.000000,4.000000,4.000000,4.000000,100.000000
1602006194.359070,104.000000,0.000000,3195.897461,4054.358887,4139.487305,4137.948730,4063.589844,4140.512695,4120.000000,4115.384766,4143.077148,4140.000000,4001.538574,4081.538574,4043.076904,3461.025635,767.000000,4.000000,,,,0.000000,4.000000,4.000000,4.000000,4.000000,4.000000,4.000000,4.000000,4.000000,4.000000,4.000000,4.000000,4.000000,4.000000,4.000000,100.000000
1602006194.366952,105.000000,0.000000,3207.692383,4056.410156,4134.871582,4137.948730,4069.743652,4136.922852,4114.358887,4111.282227,4143.077148,4131.282227,3998.461426,4085.128174,4043.589844,3466.153809,742.000000,4.000000,,,,0.000000,4.000000,4.000000,4.000000,4.000000,4.000000,4.000000,4.000000,4.000000,4.000000,4.000000,4.000000,4.000000,4.000000,4.000000,100.000000
1602006194.374834,106.000000,0.000000,3224.615479,4064.615479,4144.102539,4145.128418,4075.897461,4132.307617,4109.743652,4116.922852,4143.589844,4162.051270,4021.538574,4094.871826,4057.948730,3481.538574,878.000000,4.000000,,,,0.000000,4.000000,4.000000,4.000000,4.000000,4.000000,4.000000,4.000000,4.000000,4.000000,4.000000,4.000000,4.000000,4.000000,4.000000,100.000000
1602006194.382716,107.000000,0.000000,3235.897461,4075.897461,4156.922852,4152.820313,4072.820557,4129.230957,4109.230957,4111.282227,4127.179688,4171.794922,4025.641113,4097.436035,4067.179443,3484.615479,868.000000,4.000000,,,,0.000000,4.000000,4.000000,4.000000,4.000000,4.000000,4.000000,4.000000,4.000000,4.000000,4.000000,4.000000,4.000000,4.000000,4.000000,100.000000
1602006194.390598,108.000000,0.000000,3237.435791,4069.743652,4155.897461,4152.820313,4061.538574,4128.717773,4105.128418,4093.333252,4106.666504,4131.282227,4004.615479,4081.025635,4055.384521,3481.538574,767.000000,4.000000,,,,0.000000,4.000000,4.000000,4.000000,4.000000,4.000000,4.000000,4.000000,4.000000,4.000000,4.000000,4.000000,4.000000,4.000000,4.000000,100.000000
1602006194.398480,109.000000,0.000000,3243.589844,4061.538574,4149.743652,4150.769043,4055.897461,4123.589844,4104.615234,4092.307617,4100.512695,4103.589844,4010.256348,4066.153809,4038.461426,3493.846191,742.000000,4.000000,,,,0.000000,4.000000,4.000000,4.000000,4.000000,4.000000,4.000000,4.000000,4.000000,4.000000,4.000000,4.000000,4.000000,4.000000,4.000000,100.000000
1602006194.406362,110.000000,0.000000,3255.897461,4070.256348,4152.820313,4150.256348,4064.615479,4128.205078,4120.000000,4105.128418,4112.820313,4127.692383,4032.307617,4074.871826,4042.564209,3509.743652,878.000000,4.000000,,,,0.000000,4.000000,4.000000,4.000000,4.000000,4.000000,4.000000,4.000000,4.000000,4.000000,4.000000,4.000000,4.000000,4.000000,4.000000,100.000000
1602006194.414244,111.000000,0.000000,3272.820557,4076.923096,4154.871582,4154.871582,4078.461426,4150.256348,4132.820313,4113.333496,4130.769043,4157.948730,4023.589844,4090.256348,4054.358887,3512.820557,868.000000,4.000000,,,,0.000000,4.000000,4.000000,4.000000,4.000000,4.000000,4.000000,4.000000,4.000000,4.000000,4.000000,4.000000,4.000000,4.000000,4.000000,100.000000
1602006194.422025,112.000000,0.000000,3288.205078,4068.205078,4147.179688,4157.436035,4074.871826,4157.436035,4127.692383,4117.948730,4147.179688,4154.871582,4010.256348,4091.794922,4056.923096,3506.666748,767.000000,4.000000,,,,0.000000,4.000000,4.000000,4.000000,4.000000,4.000000,4.000000,4.000000,4.000000,4.000000,4.000000,4.000000,4.000000,4.000000,4.000000,100.000000
1602006194.429905,113.000000,0.000000,3295.897461,4068.205078,4139.487305,4152.820313,4066.153809,4133.333496,4121.538574,4125.641113,4167.179688,4145.641113,4027.179443,4087.692383,4056.923096,3514.358887,742.000000,4.000000,,,,0.000000,4.000000,4.000000,4.000000,4.000000,4.000000,4.000000,4.000000,4.000000,4.000000,4.000000,4.000000,4.000000,4.000000,4.000000,100.000000
1602006194.437786,114.000000,0.000000,3307.179443,4076.923096,4137.948730,4159.487305,4080.512939,4112.820313,4120.000000,4130.256348,4177.436035,4155.897461,4036.923096,4083.589844,4061.538574,3526.666748,878.000000,4.000000,,,,0.000000,4.000000,4.000000,4.000000,4.000000,4.000000,4.000000,4.000000,4.000000,4.000000,4.000000,4.000000,4.000000,4.000000,4.000000,100.000000
1602006194.445567,115.000000,0.000000,3315.384521,4077.435791,4140.512695,4169.230957,4095.384521,4126.666504,4111.282227,4129.743652,4167.179688,4168.717773,4020.000000,4078.461426,4064.102539,3520.512939,868.000000,4.000000,,,,0.000000,4.000000,4.000000,4.000000,4.000000,4.000000,4.000000,4.000000,4.000000,4.000000,4.000000,4.000000,4.000000,4.000000,4.000000,100.000000
1602006194.453448,116.000000,0.000000,3304.615479,4076.923096,4141.538574,4160.000000,4086.153809,4146.666504,4110.769043,4124.615234,4155.384766,4168.205078,4010.769287,4075.384521,4058.461426,3509.743652,767.000000,4.000000,,,,0.000000,4.000000,4.000000,4.000000,4.000000,4.000000,4.000000,4.000000,4.000000,4.000000,4.000000,4.000000,4.000000,4.000000,4.000000,100.000000
1602006194.461329,117.000000,0.000000,3298.461426,4073.846191,4138.461426,4148.205078,4073.846191,4135.384766,4116.410156,4111.282227,4141.538574,4144.102539,4018.974365,4066.153809,4044.615479,3511.794922,742.000000,4.000000,,,,0.000000,4.000000,4.000000,4.000000,4.000000,4.000000,4.000000,4.000000,4.000000,4.000000,4.000000,4.000000,4.000000,4.000000,4.000000,100.000000
1602006194.469110,118.000000,0.000000,3318.974365,4069.230713,4134.871582,4152.820313,4075.897461,4118.974121,4115.384766,4105.641113,4117.948730,4115.897461,4020.512939,4058.974365,4035.384521,3518.974365,878.000000,4.000000,,,,0.000000,4.000000,4.000000,4.000000,4.000000,4.000000,4.000000,4.000000,4.000000,4.000000,4.000000,4.000000,4.000000,4.000000,4.000000,100.000000
1602006194.476991,119.000000,0.000000,3331.281982,4071.281982,4136.922852,4155.897461,4076.410156,4143.589844,4124.102539,4117.948730,4112.820313,4118.461426,4017.435791,4070.256348,4042.564209,3531.281982,868.000000,4.000000,,,,0.000000,4.000000,4.000000,4.000000,4.000000,4.000000,4.000000,4.000000,4.000000,4.000000,4.000000,4.000000,4.000000,4.000000,4.000000,100.000000
1602006194.484973,120.000000,0.000000,3322.564209,4070.256348,4138.974121,4145.128418,4076.410156,4171.282227,4140.000000,4124.615234,4131.282227,4137.436035,4018.974365,4080.512939,4050.769287,3542.051270,767.000000,4.000000,,,,0.000000,4.000000,4.000000,4.000000,4.000000,4.000000,4.000000,4.000000,4.000000,4.000000,4.000000,4.000000,4.000000,4.000000,4.000000,100.000000
1602006194.492854,121.000000,0.000000,3328.205078,4062.564209,4138.974121,4142.563965,4081.025635,4163.077148,4139.487305,4115.897461,4141.538574,4143.077148,4020.000000,4076.923096,4050.769287,3541.538574,742.000000,4.000000,,,,0.000000,4.000000,4.000000,4.000000,4.000000,4.000000,4.000000,4.000000,4.000000,4.000000,4.000000,4.000000,4.000000,4.000000,4.000000,100.000000
1602006194.500735,122.000000,0.000000,3347.692383,4061.538574,4144.615234,4151.282227,4080.512939,4151.794922,4128.205078,4110.256348,4135.384766,4133.333496,4017.435791,4077.435791,4050.769287,3536.410156,878.000000,4.000000,,,,0.000000,4.000000,4.000000,4.000000,4.000000,4.000000,4.000000,4.000000,4.000000,4.000000,4.000000,4.000000,4.000000,4.000000,4.000000,100.000000
1602006194.508617,123.000000,0.000000,3360.512939,4064.102539,4154.871582,4154.871582,4073.333252,4151.794922,4125.128418,4111.794922,4128.205078,4119.487305,4015.384521,4087.179443,4046.153809,3543.076904,868.000000,4.000000,,,,0.000000,4.000000,4.000000,4.000000,4.000000,4.000000,4.000000,4.000000,4.000000,4.000000,4.000000,4.000000,4.000000,4.000000,4.000000,100.000000
1602006194.516498,124.000000,0.000000,3364.615479,4065.128174,4165.641113,4154.871582,4076.923096,4143.589844,4125.128418,4112.307617,4127.179688,4112.307617,4016.410156,4092.307617,4041.538574,3558.974365,767.000000,4.000000,,,,0.000000,4.000000,4.000000,4.000000,4.000000,4.000000,4.000000,4.000000,4.000000,4.000000,4.000000,4.000000,4.000000,4.000000,4.000000,100.000000
1602006194.524479,125.000000,0.000000,3371.281982,4065.641113,4171.282227,4155.384766,4081.538574,4134.358887,4121.025879,4111.282227,4125.128418,4121.538574,4018.974365,4095.897461,4046.666748,3571.794922,742.000000,4.000000,,,,0.000000,4.000000,4.000000,4.000000,4.000000,4.000000,4.000000,4.000000,4.000000,4.000000,4.000000,4.000000,4.000000,4.000000,4.000000,100.000000
1602006194.532361,126.000000,0.000000,3388.205078,4067.692383,4171.282227,4155.897461,4076.410156,4131.794922,4117.436035,4113.846191,4116.922852,4124.615234,4021.538574,4104.102539,4057.948730,3582.051270,878.000000,4.000000,,,,0.000000,4.000000,4.000000,4.000000,4.000000,4.000000,4.000000,4.000000,4.000000,4.000000,4.000000,4.000000,4.000000,4.000000,4.000000,100.000000
1602006194.540242,127.000000,0.000000,3405.128174,4074.871826,4171.282227,4160.512695,4077.948730,4130.769043,4120.000000,4121.538574,4115.384766,4113.333496,4027.179443,4109.743652,4062.051270,3598.461426,868.000000,4.000000,,,,0.000000,4.000000,4.000000,4.000000,4.000000,4.000000,4.000000,4.000000,4.000000,4.000000,4.000000,4.000000,4.000000,4.000000,4.000000,100.000000
1602006194.548124,128.000000,0.000000,3411.281982,4082.564209,4170.256348,4166.153809,4086.153809,4133.333496,4123.589844,4126.153809,4125.128418,4125.641113,4035.384521,4104.615234,4057.948730,3610.256348,767.000000,4.000000,,,,0.000000,4.000000,4.000000,4.000000,4.000000,4.000000,4.000000,4.000000,4.000000,4.000000,4.000000,4.000000,4.000000,4.000000,4.000000,100.000000
1602006194.556005,0.000000,0.000000,3409.230713,4082.051270,4156.922852,4161.025879,4085.128174,4131.282227,4123.077148,4123.589844,4140.512695,4154.871582,4035.897461,4094.871826,4066.153809,3605.641113,795.000000,4.000000,,,,0.000000,4.000000,4.000000,4.000000,4.000000,4.000000,4.000000,4.000000,4.000000,4.000000,4.000000,4.000000,4.000000,4.000000,4.000000,100.000000
1602006194.563886,1.000000,0.000000,3406.153809,4076.410156,4140.512695,4152.820313,4076.923096,4116.410156,4126.153809,4125.128418,4150.256348,4160.512695,4035.384521,4096.410156,4075.897461,3602.564209,785.000000,4.000000,,,,0.000000,4.000000,4.000000,4.000000,4.000000,4.000000,4.000000,4.000000,4.000000,4.000000,4.000000,4.000000,4.000000,4.000000,4.000000,100.000000
1602006194.571668,2.000000,0.000000,3402.051270,4070.256348,4140.000000,4152.307617,4074.358887,4117.436035,4129.743652,4129.230957,4144.102539,4143.077148,4043.076904,4101.538574,4071.281982,3611.794922,863.000000,4.000000,,,,0.000000,4.000000,4.000000,4.000000,4.000000,4.000000,4.000000,4.000000,4.000000,4.000000,4.000000,4.000000,4.000000,4.000000,4.000000,100.000000
1602006194.579549,3.000000,0.000000,3404.102539,4068.718018,4144.615234,4153.846191,4081.025635,4148.205078,4128.205078,4126.666504,4138.461426,4130.769043,4040.000000,4097.436035,4067.692383,3620.512939,891.000000,4.000000,,,,0.000000,4.000000,4.000000,4.000000,4.000000,4.000000,4.000000,4.000000,4.000000,4.000000,4.000000,4.000000,4.000000,4.000000,4.000000,100.000000
1602006194.587431,4.000000,0.000000,3412.307617,4072.820557,4138.461426,4152.820313,4079.487061,4158.974121,4121.538574,4121.538574,4144.102539,4124.615234,4028.205078,4088.205078,4066.666748,3618.461426,813.000000,4.000000,,,,0.000000,4.000000,4.000000,4.000000,4.000000,4.000000,4.000000,4.000000,4.000000,4.000000,4.000000,4.000000,4.000000,4.000000,4.000000,100.000000
1602006194.595312,5.000000,0.000000,3419.487061,4075.897461,4129.230957,4152.820313,4075.384521,4137.948730,4115.897461,4121.538574,4146.666504,4118.461426,4030.256348,4084.102539,4060.512939,3615.384521,821.000000,4.000000,,,,0.000000,4.000000,4.000000,4.000000,4.000000,4.000000,4.000000,4.000000,4.000000,4.000000,4.000000,4.000000,4.000000,4.000000,4.000000,100.000000
1602006194.603194,6.000000,0.000000,3424.615479,4075.384521,4124.615234,4154.358887,4087.692383,4134.871582,4116.410156,4124.102539,4147.692383,4126.666504,4034.871826,4081.538574,4060.000000,3615.384521,768.000000,4.000000,,,,0.000000,4.000000,4.000000,4.000000,4.000000,4.000000,4.000000,4.000000,4.000000,4.000000,4.000000,4.000000,4.000000,4.000000,4.000000,100.000000
1602006194.611075,7.000000,0.000000,3418.974365,4072.820557,4121.538574,4153.333496,4093.846191,4144.102539,4117.948730,4123.589844,4159.487305,4143.077148,4030.256348,4078.461426,4065.128174,3608.718018,672.000000,4.000000,,,,0.000000,4.000000,4.000000,4.000000,4.000000,4.000000,4.000000,4.000000,4.000000,4.000000,4.000000,4.000000,4.000000,4.000000,4.000000,100.000000
1602006194.619056,8.000000,0.000000,3412.820557,4072.820557,4127.179688,4152.307617,4076.923096,4136.410156,4121.025879,4122.051270,4162.563965,4148.717773,4026.666748,4081.538574,4066.153809,3605.128174,787.000000,4.000000,,,,0.000000,4.000000,4.000000,4.000000,4.000000,4.000000,4.000000,4.000000,4.000000,4.000000,4.000000,4.000000,4.000000,4.000000,4.000000,100.000000
1602006194.626938,9.000000,0.000000,3430.256348,4077.948730,4138.974121,4154.358887,4072.820557,4135.384766,4122.563965,4123.077148,4148.717773,4142.563965,4024.615479,4089.230713,4063.589844,3616.923096,836.000000,4.000000,,,,0.000000,4.000000,4.000000,4.000000,4.000000,4.000000,4.000000,4.000000,4.000000,4.000000,4.000000,4.000000,4.000000,4.000000,4.000000,100.000000
1602006194.634819,10.000000,0.000000,3454.871826,4079.487061,4143.589844,4156.410156,4084.102539,4140.000000,4124.102539,4117.436035,4135.897461,4125.128418,4025.128174,4095.384521,4060.000000,3630.256348,876.000000,4.000000,,,,0.000000,4.000000,4.000000,4.000000,4.000000,4.000000,4.000000,4.000000,4.000000,4.000000,4.000000,4.000000,4.000000,4.000000,4.000000,100.000000
1602006194.642700,11.000000,0.000000,3450.769287,4075.384521,4148.717773,4159.487305,4080.000000,4130.256348,4126.153809,4107.179688,4128.717773,4103.589844,4030.769287,4100.000000,4056.923096,3635.384521,862.000000,4.000000,,,,0.000000,4.000000,4.000000,4.000000,4.000000,4.000000,4.000000,4.000000,4.000000,4.000000,4.000000,4.000000,4.000000,4.000000,4.000000,100.000000
1602006194.650582,12.000000,0.000000,3444.615479,4073.846191,4154.871582,4160.000000,4070.256348,4127.179688,4125.128418,4106.153809,4121.538574,4099.487305,4035.384521,4105.128418,4056.923096,3642.051270,767.000000,4.000000,,,,0.000000,4.000000,4.000000,4.000000,4.000000,4.000000,4.000000,4.000000,4.000000,4.000000,4.000000,4.000000,4.000000,4.000000,4.000000,100.000000
1602006194.658463,13.000000,0.000000,3469.230713,4074.358887,4156.410156,4151.794922,4075.384521,4135.897461,4122.563965,4114.871582,4121.538574,4121.025879,4038.974365,4115.897461,4065.128174,3655.384521,742.000000,4.000000,,,,0.000000,4.000000,4.000000,4.000000,4.000000,4.000000,4.000000,4.000000,4.000000,4.000000,4.000000,4.000000,4.000000,4.000000,4.000000,100.000000
1602006194.666445,14.000000,0.000000,3500.512939,4076.923096,4164.615234,4152.307617,4087.179443,4141.538574,4122.563965,4123.077148,4137.948730,4135.897461,4041.538574,4125.641113,4075.897461,3666.153809,876.000000,4.000000,,,,0.000000,4.000000,4.000000,4.000000,4.000000,4.000000,4.000000,4.000000,4.000000,4.000000,4.000000,4.000000,4.000000,4.000000,4.000000,100.000000
1602006194.674327,15.000000,0.000000,3504.615479,4074.358887,4168.205078,4158.461426,4089.230713,4136.922852,4123.077148,4123.077148,4144.102539,4124.615234,4032.820557,4120.000000,4071.794922,3661.538574,862.000000,4.000000,,,,0.000000,4.000000,4.000000,4.000000,4.000000,4.000000,4.000000,4.000000,4.000000,4.000000,4.000000,4.000000,4.000000,4.000000,4.000000,100.000000
1602006194.682209,16.000000,0.000000,3486.666748,4065.128174,4153.846191,4151.282227,4088.205078,4134.871582,4118.974121,4120.000000,4134.358887,4120.000000,4025.128174,4104.102539,4056.410156,3648.718018,0.000000,4.000000,,,,0.000000,4.000000,4.000000,4.000000,4.000000,4.000000,4.000000,4.000000,4.000000,4.000000,4.000000,4.000000,4.000000,4.000000,4.000000,100.000000
1602006194.690091,17.000000,0.000000,3483.076904,4064.615479,4152.307617,4149.230957,4093.846191,4146.153809,4120.512695,4122.563965,4143.589844,4140.000000,4035.384521,4104.102539,4057.948730,3660.000000,0.000000,4.000000,,,,0.000000,4.000000,4.000000,4.000000,4.000000,4.000000,4.000000,4.000000,4.000000,4.000000,4.000000,4.000000,4.000000,4.000000,4.000000,100.000000
1602006194.697973,18.000000,0.000000,3492.307617,4066.666748,4158.461426,4155.897461,4089.743652,4149.230957,4118.974121,4118.974121,4147.179688,4138.461426,4041.025635,4107.179688,4063.589844,3676.410156,0.000000,4.000000,,,,0.000000,4.000000,4.000000,4.000000,4.000000,4.000000,4.000000,4.000000,4.000000,4.000000,4.000000,4.000000,4.000000,4.000000,4.000000,100.000000
1602006194.705854,19.000000,0.000000,3495.384521,4064.102539,4145.128418,4149.743652,4081.538574,4134.358887,4111.282227,4105.128418,4122.563965,4116.410156,4034.871826,4098.974121,4055.897461,3668.205078,0.000000,4.000000,,,,0.000000,4.000000,4.000000,4.000000,4.000000,4.000000,4.000000,4.000000,4.000000,4.000000,4.000000,4.000000,4.000000,4.000000,4.000000,100.000000
1602006194.713736,20.000000,0.000000,3503.589844,4072.307617,4142.051270,4148.205078,4088.205078,4134.358887,4116.410156,4103.077148,4121.538574,4121.538574,4037.948730,4101.538574,4061.025635,3667.179443,0.000000,4.000000,,,,0.000000,4.000000,4.000000,4.000000,4.000000,4.000000,4.000000,4.000000,4.000000,4.000000,4.000000,4.000000,4.000000,4.000000,4.000000,100.000000
1602006194.721618,21.000000,0.000000,3509.743652,4074.871826,4150.769043,4154.358887,4088.718018,4137.948730,4118.461426,4110.769043,4138.974121,4134.871582,4034.358887,4105.128418,4065.641113,3674.871826,0.000000,4.000000,,,,0.000000,4.000000,4.000000,4.000000,4.000000,4.000000,4.000000,4.000000,4.000000,4.000000,4.000000,4.000000,4.000000,4.000000,4.000000,100.000000
1602006194.729500,22.000000,0.000000,3502.564209,4057.435791,4141.025879,4146.153809,4075.897461,4122.051270,4110.769043,4112.307617,4135.384766,4121.025879,4022.564209,4094.358887,4052.820557,3666.666748,0.000000,4.000000,,,,0.000000,4.000000,4.000000,4.000000,4.000000,4.000000,4.000000,4.000000,4.000000,4.000000,4.000000,4.000000,4.000000,4.000000,4.000000,100.000000
1602006194.737281,23.000000,0.000000,3509.743652,4060.000000,4132.820313,4142.051270,4081.025635,4125.641113,4121.538574,4117.948730,4139.487305,4112.820313,4033.333252,4095.384521,4054.871826,3672.307617,0.000000,4.000000,,,,0.000000,4.000000,4.000000,4.000000,4.000000,4.000000,4.000000,4.000000,4.000000,4.000000,4.000000,4.000000,4.000000,4.000000,4.000000,100.000000
1602006194.745162,24.000000,0.000000,3527.692383,4078.461426,4141.025879,4155.384766,4094.871826,4152.307617,4141.025879,4131.794922,4158.461426,4127.179688,4047.179443,4107.692383,4072.820557,3694.871826,0.000000,4.000000,,,,0.000000,4.000000,4.000000,4.000000,4.000000,4.000000,4.000000,4.000000,4.000000,4.000000,4.000000,4.000000,4.000000,4.000000,4.000000,100.000000
1602006194.753143,25.000000,0.000000,3531.281982,4071.794922,4141.025879,4150.769043,4090.256348,4156.922852,4142.563965,4136.410156,4156.922852,4135.897461,4046.153809,4108.205078,4078.461426,3698.461426,0.000000,4.000000,,,,0.000000,4.000000,4.000000,4.000000,4.000000,4.000000,4.000000,4.000000,4.000000,4.000000,4.000000,4.000000,4.000000,4.000000,4.000000,100.000000
1602006194.761024,26.000000,0.000000,3530.256348,4062.051270,4136.410156,4137.436035,4085.641113,4148.717773,4139.487305,4131.282227,4152.820313,4143.589844,4053.846191,4105.641113,4076.923096,3696.923096,0.000000,4.000000,,,,0.000000,4.000000,4.000000,4.000000,4.000000,4.000000,4.000000,4.000000,4.000000,4.000000,4.000000,4.000000,4.000000,4.000000,4.000000,100.000000
1602006194.768805,27.000000,0.000000,3534.871826,4070.256348,4138.461426,4145.128418,4094.358887,4151.794922,4138.461426,4124.615234,4158.974121,4151.282227,4055.897461,4103.589844,4079.487061,3700.000000,0.000000,4.000000,,,,0.000000,4.000000,4.000000,4.000000,4.000000,4.000000,4.000000,4.000000,4.000000,4.000000,4.000000,4.000000,4.000000,4.000000,4.000000,100.000000
1602006194.776687,28.000000,0.000000,3532.820557,4068.205078,4135.897461,4144.615234,4095.384521,4153.846191,4128.717773,4119.487305,4149.743652,4140.512695,4036.410156,4089.743652,4074.871826,3687.692383,0.000000,4.000000,,,,0.000000,4.000000,4.000000,4.000000,4.000000,4.000000,4.000000,4.000000,4.000000,4.000000,4.000000,4.000000,4.000000,4.000000,4.000000,100.000000
1602006194.784568,29.000000,0.000000,3538.974365,4060.512939,4135.384766,4137.948730,4094.871826,4155.897461,4126.666504,4122.051270,4145.641113,4124.102539,4031.794922,4085.641113,4067.179443,3686.666748,0.000000,4.000000,,,,0.000000,4.000000,4.000000,4.000000,4.000000,4.000000,4.000000,4.000000,4.000000,4.000000,4.000000,4.000000,4.000000,4.000000,4.000000,100.000000
1602006194.792450,30.000000,0.000000,3552.307617,4063.589844,4138.461426,4149.230957,4098.461426,4155.897461,4129.230957,4124.615234,4152.307617,4120.512695,4037.435791,4092.820557,4062.564209,3695.384521,0.000000,4.000000,,,,0.000000,4.000000,4.000000,4.000000,4.000000,4.000000,4.000000,4.000000,4.000000,4.000000,4.000000,4.000000,4.000000,4.000000,4.000000,100.000000
1602006194.800331,31.000000,0.000000,3552.820557,4064.102539,4134.358887,4151.282227,4093.846191,4141.538574,4122.051270,4120.512695,4150.769043,4129.230957,4030.256348,4090.769287,4061.538574,3685.641113,0.000000,4.000000,,,,0.000000,4.000000,4.000000,4.000000,4.000000,4.000000,4.000000,4.000000,4.000000,4.000000,4.000000,4.000000,4.000000,4.000000,4.000000,100.000000
1602006194.808212,32.000000,0.000000,3558.461426,4071.794922,4138.974121,4147.179688,4097.948730,4138.974121,4122.563965,4127.179688,4160.512695,4140.512695,4037.435791,4095.384521,4071.281982,3692.307617,0.000000,4.000000,,,,0.000000,4.000000,4.000000,4.000000,4.000000,4.000000,4.000000,4.000000,4.000000,4.000000,4.000000,4.000000,4.000000,4.000000,4.000000,100.000000
1602006194.816194,33.000000,0.000000,3582.564209,4090.769287,4154.358887,4166.153809,4110.256348,4161.538574,4129.743652,4139.487305,4168.205078,4137.948730,4052.307617,4114.871582,4083.076904,3720.512939,0.000000,4.000000,,,,0.000000,4.000000,4.000000,4.000000,4.000000,4.000000,4.000000,4.000000,4.000000,4.000000,4.000000,4.000000,4.000000,4.000000,4.000000,100.000000
1602006194.824075,34.000000,0.000000,3600.000000,4093.846191,4159.487305,4173.333496,4105.641113,4162.051270,4125.641113,4131.282227,4151.794922,4119.487305,4046.153809,4123.077148,4078.461426,3723.076904,0.000000,4.000000,,,,0.000000,4.000000,4.000000,4.000000,4.000000,4.000000,4.000000,4.000000,4.000000,4.000000,4.000000,4.000000,4.000000,4.000000,4.000000,100.000000
1602006194.831956,35.000000,0.000000,3601.538574,4083.589844,4162.051270,4157.436035,4097.436035,4136.410156,4118.461426,4114.871582,4142.563965,4112.307617,4041.025635,4117.948730,4070.769287,3714.871826,0.000000,4.000000,,,,0.000000,4.000000,4.000000,4.000000,4.000000,4.000000,4.000000,4.000000,4.000000,4.000000,4.000000,4.000000,4.000000,4.000000,4.000000,100.000000
1602006194.839838,36.000000,0.000000,3611.281982,4089.230713,4171.282227,4162.563965,4107.692383,4140.000000,4122.563965,4117.436035,4149.743652,4110.256348,4052.820557,4124.615234,4082.564209,3730.256348,0.000000,4.000000,,,,0.000000,4.000000,4.000000,4.000000,4.000000,4.000000,4.000000,4.000000,4.000000,4.000000,4.000000,4.000000,4.000000,4.000000,4.000000,100.000000
1602006194.847719,37.000000,0.000000,3623.589844,4094.871826,4173.846191,4171.794922,4112.820313,4158.461426,4126.666504,4124.102539,4148.205078,4099.487305,4055.897461,4138.461426,4095.384521,3745.641113,0.000000,4.000000,,,,0.000000,4.000000,4.000000,4.000000,4.000000,4.000000,4.000000,4.000000,4.000000,4.000000,4.000000,4.000000,4.000000,4.000000,4.000000,100.000000
1602006194.855601,38.000000,0.000000,3618.974365,4086.153809,4169.743652,4155.897461,4098.974121,4137.948730,4126.153809,4121.538574,4146.153809,4112.307617,4049.230713,4138.461426,4091.794922,3743.076904,0.000000,4.000000,,,,0.000000,4.000000,4.000000,4.000000,4.000000,4.000000,4.000000,4.000000,4.000000,4.000000,4.000000,4.000000,4.000000,4.000000,4.000000,100.000000
1602006194.863382,39.000000,0.000000,3621.025635,4083.589844,4169.743652,4150.769043,4095.384521,4118.461426,4129.743652,4122.051270,4152.820313,4142.051270,4055.384521,4135.384766,4093.846191,3736.410156,0.000000,4.000000,,,,0.000000,4.000000,4.000000,4.000000,4.000000,4.000000,4.000000,4.000000,4.000000,4.000000,4.000000,4.000000,4.000000,4.000000,4.000000,100.000000
1602006194.871264,40.000000,0.000000,3639.487061,4094.358887,4176.410156,4167.692383,4108.717773,4149.743652,4137.436035,4132.307617,4160.000000,4147.692383,4063.589844,4143.589844,4109.743652,3742.564209,0.000000,4.000000,,,,0.000000,4.000000,4.000000,4.000000,4.000000,4.000000,4.000000,4.000000,4.000000,4.000000,4.000000,4.000000,4.000000,4.000000,4.000000,100.000000
1602006194.879145,41.000000,0.000000,3652.307617,4098.974121,4175.384766,4171.282227,4109.230957,4181.538574,4140.000000,4141.025879,4168.205078,4131.282227,4061.025635,4143.077148,4110.769043,3755.897461,0.000000,4.000000,,,,0.000000,4.000000,4.000000,4.000000,4.000000,4.000000,4.000000,4.000000,4.000000,4.000000,4.000000,4.000000,4.000000,4.000000,4.000000,100.000000
1602006194.887026,42.000000,0.000000,3642.564209,4084.102539,4156.922852,4156.410156,4093.846191,4156.410156,4131.282227,4135.897461,4171.794922,4133.333496,4056.410156,4122.051270,4095.384521,3754.358887,0.000000,4.000000,,,,0.000000,4.000000,4.000000,4.000000,4.000000,4.000000,4.000000,4.000000,4.000000,4.000000,4.000000,4.000000,4.000000,4.000000,4.000000,100.000000
1602006194.894908,43.000000,0.000000,3629.230713,4071.281982,4146.666504,4150.256348,4091.281982,4128.205078,4117.436035,4126.153809,4167.179688,4141.025879,4054.358887,4114.871582,4086.153809,3737.435791,0.000000,4.000000,,,,0.000000,4.000000,4.000000,4.000000,4.000000,4.000000,4.000000,4.000000,4.000000,4.000000,4.000000,4.000000,4.000000,4.000000,4.000000,100.000000
1602006194.902789,44.000000,0.000000,3631.281982,4075.384521,4153.846191,4155.897461,4097.948730,4136.410156,4112.307617,4124.102539,4158.974121,4114.358887,4048.205078,4120.000000,4083.076904,3730.769287,0.000000,4.000000,,,,0.000000,4.000000,4.000000,4.000000,4.000000,4.000000,4.000000,4.000000,4.000000,4.000000,4.000000,4.000000,4.000000,4.000000,4.000000,100.000000
1602006194.910771,45.000000,0.000000,3635.384521,4077.435791,4147.692383,4155.384766,4094.358887,4144.615234,4115.384766,4123.077148,4141.538574,4081.025635,4035.897461,4109.230957,4077.435791,3729.743652,0.000000,4.000000,,,,0.000000,4.000000,4.000000,4.000000,4.000000,4.000000,4.000000,4.000000,4.000000,4.000000,4.000000,4.000000,4.000000,4.000000,4.000000,100.000000
1602006194.918653,46.000000,0.000000,3631.794922,4068.718018,4141.025879,4149.230957,4098.974121,4145.128418,4125.641113,4123.077148,4136.410156,4092.820557,4032.820557,4106.153809,4072.307617,3730.256348,0.000000,4.000000,,,,0.000000,4.000000,4.000000,4.000000,4.000000,4.000000,4.000000,4.000000,4.000000,4.000000,4.000000,4.000000,4.000000,4.000000,4.000000,100.000000
1602006194.926535,47.000000,0.000000,3632.307617,4063.589844,4155.897461,4140.000000,4104.615234,4147.179688,4135.384766,4123.589844,4147.179688,4126.153809,4037.948730,4126.666504,4071.281982,3738.461426,0.000000,4.000000,,,,0.000000,4.000000,4.000000,4.000000,4.000000,4.000000,4.000000,4.000000,4.000000,4.000000,4.000000,4.000000,4.000000,4.000000,4.000000,100.000000
1602006194.934417,48.000000,0.000000,3647.692383,4070.256348,4162.563965,4137.436035,4095.384521,4137.436035,4133.846191,4123.077148,4146.153809,4126.153809,4043.076904,4140.000000,4074.871826,3750.769287,0.000000,4.000000,,,,0.000000,4.000000,4.000000,4.000000,4.000000,4.000000,4.000000,4.000000,4.000000,4.000000,4.000000,4.000000,4.000000,4.000000,4.000000,100.000000
1602006194.942298,49.000000,0.000000,3659.487061,4072.820557,4153.333496,4149.743652,4088.205078,4123.077148,4125.641113,4124.102539,4133.846191,4093.846191,4046.153809,4136.922852,4076.923096,3759.487061,0.000000,4.000000,,,,0.000000,4.000000,4.000000,4.000000,4.000000,4.000000,4.000000,4.000000,4.000000,4.000000,4.000000,4.000000,4.000000,4.000000,4.000000,100.000000
1602006194.950180,50.000000,0.000000,3661.538574,4070.769287,4156.922852,4158.461426,4087.179443,4119.487305,4123.589844,4124.102539,4130.256348,4076.923096,4047.692383,4135.897461,4068.718018,3759.487061,0.000000,4.000000,,,,0.000000,4.000000,4.000000,4.000000,4.000000,4.000000,4.000000,4.000000,4.000000,4.000000,4.000000,4.000000,4.000000,4.000000,4.000000,100.000000
1602006194.958062,51.000000,0.000000,3668.205078,4075.384521,4172.820313,4155.384766,4093.333252,4120.512695,4124.102539,4126.153809,4143.077148,4106.153809,4060.512939,4141.538574,4078.974365,3766.153809,0.000000,4.000000,,,,0.000000,4.000000,4.000000,4.000000,4.000000,4.000000,4.000000,4.000000,4.000000,4.000000,4.000000,4.000000,4.000000,4.000000,4.000000,100.000000
1602006194.965944,52.000000,0.000000,3674.871826,4077.948730,4170.769043,4155.897461,4101.025879,4130.769043,4120.000000,4134.871582,4160.512695,4137.948730,4077.948730,4145.128418,4112.820313,3788.718018,0.000000,4.000000,,,,0.000000,4.000000,4.000000,4.000000,4.000000,4.000000,4.000000,4.000000,4.000000,4.000000,4.000000,4.000000,4.000000,4.000000,4.000000,100.000000
1602006194.973826,53.000000,0.000000,3674.358887,4069.230713,4155.897461,4158.461426,4100.512695,4149.743652,4119.487305,4141.025879,4169.230957,4140.000000,4086.666748,4142.563965,4135.897461,3810.769287,0.000000,4.000000,,,,0.000000,4.000000,4.000000,4.000000,4.000000,4.000000,4.000000,4.000000,4.000000,4.000000,4.000000,4.000000,4.000000,4.000000,4.000000,100.000000
1602006194.981608,54.000000,0.000000,3668.205078,4058.461426,4151.282227,4148.717773,4103.077148,4155.897461,4124.615234,4137.948730,4166.153809,4143.077148,4090.256348,4145.641113,4147.179688,3820.512939,0.000000,4.000000,,,,0.000000,4.000000,4.000000,4.000000,4.000000,4.000000,4.000000,4.000000,4.000000,4.000000,4.000000,4.000000,4.000000,4.000000,4.000000,100.000000
1602006194.989490,55.000000,0.000000,3661.025635,4050.769287,4157.948730,4138.974121,4112.820313,4153.846191,4127.692383,4132.307617,4152.820313,4140.000000,4089.743652,4156.922852,4152.820313,3818.461426,0.000000,4.000000,,,,0.000000,4.000000,4.000000,4.000000,4.000000,4.000000,4.000000,4.000000,4.000000,4.000000,4.000000,4.000000,4.000000,4.000000,4.000000,100.000000
1602006194.997372,56.000000,0.000000,3650.256348,4038.974365,4153.846191,4136.410156,4100.000000,4139.487305,4126.153809,4123.589844,4140.000000,4110.256348,4083.076904,4151.794922,4137.436035,3804.615479,0.000000,4.000000,,,,0.000000,4.000000,4.000000,4.000000,4.000000,4.000000,4.000000,4.000000,4.000000,4.000000,4.000000,4.000000,4.000000,4.000000,4.000000,100.000000
1602006195.005254,57.000000,0.000000,3642.051270,4030.769287,4141.025879,4132.820313,4080.512939,4107.179688,4120.512695,4117.436035,4135.384766,4100.512695,4075.384521,4136.410156,4116.922852,3790.769287,0.000000,4.000000,,,,0.000000,4.000000,4.000000,4.000000,4.000000,4.000000,4.000000,4.000000,4.000000,4.000000,4.000000,4.000000,4.000000,4.000000,4.000000,100.000000
1602006195.013135,58.000000,0.000000,3648.205078,4036.410156,4141.538574,4134.358887,4092.820557,4106.666504,4120.000000,4120.000000,4132.307617,4125.641113,4067.692383,4143.589844,4127.179688,3795.384521,0.000000,4.000000,,,,0.000000,4.000000,4.000000,4.000000,4.000000,4.000000,4.000000,4.000000,4.000000,4.000000,4.000000,4.000000,4.000000,4.000000,4.000000,100.000000
1602006195.021017,59.000000,0.000000,3661.538574,4050.256348,4154.871582,4145.128418,4112.307617,4147.179688,4123.077148,4124.102539,4140.512695,4136.922852,4064.615479,4156.410156,4141.025879,3814.871826,0.000000,4.000000,,,,0.000000,4.000000,4.000000,4.000000,4.000000,4.000000,4.000000,4.000000,4.000000,4.000000,4.000000,4.000000,4.000000,4.000000,4.000000,100.000000
1602006195.028899,60.000000,0.000000,3673.333252,4062.051270,4164.615234,4152.307617,4111.282227,4164.615234,4123.589844,4130.256348,4167.179688,4137.948730,4082.051270,4155.897461,4142.051270,3833.333252,0.000000,4.000000,,,,0.000000,4.000000,4.000000,4.000000,4.000000,4.000000,4.000000,4.000000,4.000000,4.000000,4.000000,4.000000,4.000000,4.000000,4.000000,100.000000
1602006195.036781,61.000000,0.000000,3676.923096,4062.051270,4161.538574,4151.794922,4106.153809,4148.205078,4123.589844,4135.897461,4172.820313,4136.922852,4098.461426,4154.871582,4146.153809,3834.358887,0.000000,4.000000,,,,0.000000,4.000000,4.000000,4.000000,4.000000,4.000000,4.000000,4.000000,4.000000,4.000000,4.000000,4.000000,4.000000,4.000000,4.000000,100.000000
1602006195.044763,62.000000,0.000000,3683.589844,4061.538574,4158.461426,4155.384766,4109.743652,4150.769043,4132.307617,4137.436035,4155.897461,4125.641113,4100.000000,4160.000000,4152.307617,3833.846191,0.000000,4.000000,,,,0.000000,4.000000,4.000000,4.000000,4.000000,4.000000,4.000000,4.000000,4.000000,4.000000,4.000000,4.000000,4.000000,4.000000,4.000000,100.000000
1602006195.052645,63.000000,0.000000,3690.256348,4059.487061,4153.846191,4151.794922,4103.077148,4162.563965,4138.974121,4137.948730,4154.358887,4126.666504,4095.897461,4159.487305,4148.717773,3837.948730,0.000000,4.000000,,,,0.000000,4.000000,4.000000,4.000000,4.000000,4.000000,4.000000,4.000000,4.000000,4.000000,4.000000,4.000000,4.000000,4.000000,4.000000,100.000000
1602006195.060527,64.000000,0.000000,3682.051270,4045.128174,4139.487305,4138.974121,4087.179443,4138.461426,4134.871582,4135.384766,4152.307617,4137.436035,4084.615479,4146.153809,4132.820313,3822.564209,795.000000,4.000000,,,,0.000000,4.000000,4.000000,4.000000,4.000000,4.000000,4.000000,4.000000,4.000000,4.000000,4.000000,4.000000,4.000000,4.000000,4.000000,100.000000
1602006195.068409,65.000000,0.000000,3678.461426,4039.487061,4142.051270,4134.358887,4092.820557,4125.641113,4140.000000,4135.384766,4148.205078,4140.512695,4079.487061,4143.589844,4128.717773,3815.384521,788.000000,4.000000,,,,0.000000,4.000000,4.000000,4.000000,4.000000,4.000000,4.000000,4.000000,4.000000,4.000000,4.000000,4.000000,4.000000,4.000000,4.000000,100.000000
1602006195.076290,66.000000,0.000000,3689.743652,4051.794922,4153.846191,4136.922852,4110.256348,4155.897461,4150.256348,4143.589844,4169.230957,4142.563965,4088.718018,4154.358887,4142.051270,3831.794922,863.000000,4.000000,,,,0.000000,4.000000,4.000000,4.000000,4.000000,4.000000,4.000000,4.000000,4.000000,4.000000,4.000000,4.000000,4.000000,4.000000,4.000000,100.000000
1602006195.084172,67.000000,0.000000,3696.923096,4054.871826,4146.666504,4137.436035,4109.743652,4174.358887,4146.666504,4146.153809,4180.512695,4131.282227,4080.512939,4150.769043,4142.563965,3832.307617,874.000000,4.000000,,,,0.000000,4.000000,4.000000,4.000000,4.000000,4.000000,4.000000,4.000000,4.000000,4.000000,4.000000,4.000000,4.000000,4.000000,4.000000,100.000000
1602006195.092054,68.000000,0.000000,3690.769287,4043.589844,4135.384766,4135.897461,4099.487305,4154.871582,4136.922852,4137.436035,4160.512695,4115.384766,4064.102539,4133.846191,4125.128418,3817.435791,813.000000,4.000000,,,,0.000000,4.000000,4.000000,4.000000,4.000000,4.000000,4.000000,4.000000,4.000000,4.000000,4.000000,4.000000,4.000000,4.000000,4.000000,100.000000
1602006195.099936,69.000000,0.000000,3690.769287,4042.051270,4141.538574,4136.922852,4103.077148,4141.025879,4136.410156,4138.461426,4149.743652,4120.000000,4070.769287,4136.410156,4120.000000,3816.923096,821.000000,4.000000,,,,0.000000,4.000000,4.000000,4.000000,4.000000,4.000000,4.000000,4.000000,4.000000,4.000000,4.000000,4.000000,4.000000,4.000000,4.000000,100.000000
1602006195.107818,70.000000,0.000000,3701.538574,4047.179443,4142.563965,4138.461426,4094.871826,4142.051270,4136.922852,4142.563965,4155.384766,4125.128418,4078.974365,4147.179688,4123.589844,3824.615479,733.000000,4.000000,,,,0.000000,4.000000,4.000000,4.000000,4.000000,4.000000,4.000000,4.000000,4.000000,4.000000,4.000000,4.000000,4.000000,4.000000,4.000000,100.000000
1602006195.115599,71.000000,0.000000,3710.256348,4046.666748,4141.025879,4139.487305,4077.948730,4139.487305,4134.358887,4138.974121,4162.051270,4124.615234,4075.897461,4149.230957,4120.000000,3829.230713,650.000000,4.000000,,,,0.000000,4.000000,4.000000,4.000000,4.000000,4.000000,4.000000,4.000000,4.000000,4.000000,4.000000,4.000000,4.000000,4.000000,4.000000,100.000000
1602006195.123481,72.000000,0.000000,3716.923096,4051.794922,4155.384766,4142.051270,4093.333252,4151.794922,4140.512695,4135.897461,4166.666504,4140.512695,4084.615479,4158.461426,4129.743652,3839.487061,786.000000,4.000000,,,,0.000000,4.000000,4.000000,4.000000,4.000000,4.000000,4.000000,4.000000,4.000000,4.000000,4.000000,4.000000,4.000000,4.000000,4.000000,100.000000
1602006195.131362,73.000000,0.000000,3722.564209,4057.435791,4163.077148,4142.563965,4115.384766,4173.846191,4153.333496,4141.538574,4158.974121,4141.025879,4097.436035,4167.179688,4140.000000,3853.846191,836.000000,4.000000,,,,0.000000,4.000000,4.000000,4.000000,4.000000,4.000000,4.000000,4.000000,4.000000,4.000000,4.000000,4.000000,4.000000,4.000000,4.000000,100.000000
1602006195.139244,74.000000,0.000000,3723.076904,4050.769287,4156.410156,4139.487305,4108.205078,4176.922852,4153.846191,4140.000000,4150.769043,4116.410156,4089.230713,4160.000000,4127.692383,3854.871826,873.000000,4.000000,,,,0.000000,4.000000,4.000000,4.000000,4.000000,4.000000,4.000000,4.000000,4.000000,4.000000,4.000000,4.000000,4.000000,4.000000,4.000000,100.000000
1602006195.147125,75.000000,0.000000,3714.871826,4037.435791,4149.230957,4131.794922,4090.769287,4156.410156,4139.487305,4126.666504,4150.256348,4109.743652,4072.307617,4146.666504,4112.820313,3832.307617,857.000000,4.000000,,,,0.000000,4.000000,4.000000,4.000000,4.000000,4.000000,4.000000,4.000000,4.000000,4.000000,4.000000,4.000000,4.000000,4.000000,4.000000,100.000000
1602006195.155006,76.000000,0.000000,3708.205078,4033.333252,4142.563965,4127.179688,4091.794922,4143.589844,4137.948730,4125.641113,4143.077148,4112.307617,4068.205078,4141.538574,4116.410156,3816.410156,767.000000,4.000000,,,,0.000000,4.000000,4.000000,4.000000,4.000000,4.000000,4.000000,4.000000,4.000000,4.000000,4.000000,4.000000,4.000000,4.000000,4.000000,100.000000
1602006195.162788,77.000000,0.000000,3711.281982,4035.897461,4127.179688,4124.102539,4096.410156,4155.384766,4149.743652,4137.948730,4140.512695,4108.205078,4074.358887,4140.000000,4121.538574,3835.384521,742.000000,4.000000,,,,0.000000,4.000000,4.000000,4.000000,4.000000,4.000000,4.000000,4.000000,4.000000,4.000000,4.000000,4.000000,4.000000,4.000000,4.000000,100.000000
1602006195.170670,78.000000,0.000000,3722.051270,4037.435791,4123.589844,4123.077148,4090.769287,4161.025879,4145.641113,4137.948730,4150.256348,4118.461426,4081.025635,4132.307617,4120.512695,3850.256348,873.000000,4.000000,,,,0.000000,4.000000,4.000000,4.000000,4.000000,4.000000,4.000000,4.000000,4.000000,4.000000,4.000000,4.000000,4.000000,4.000000,4.000000,100.000000
1602006195.178552,79.000000,0.000000,3731.794922,4045.128174,4144.102539,4130.256348,4092.307617,4156.410156,4140.512695,4132.820313,4154.871582,4145.128418,4085.641113,4140.512695,4128.205078,3847.692383,857.000000,4.000000,,,,0.000000,4.000000,4.000000,4.000000,4.000000,4.000000,4.000000,4.000000,4.000000,4.000000,4.000000,4.000000,4.000000,4.000000,4.000000,100.000000
1602006195.186434,80.000000,0.000000,3741.025635,4064.615479,4162.051270,4146.666504,4113.846191,4167.692383,4150.256348,4142.051270,4157.436035,4158.461426,4094.871826,4166.666504,4144.615234,3863.076904,767.000000,4.000000,,,,0.000000,4.000000,4.000000,4.000000,4.000000,4.000000,4.000000,4.000000,4.000000,4.000000,4.000000,4.000000,4.000000,4.000000,4.000000,100.000000
1602006195.194316,81.000000,0.000000,3758.974365,4077.435791,4160.000000,4157.948730,4129.230957,4178.974121,4153.333496,4144.102539,4157.436035,4141.538574,4103.589844,4173.333496,4147.179688,3884.102539,742.000000,4.000000,,,,0.000000,4.000000,4.000000,4.000000,4.000000,4.000000,4.000000,4.000000,4.000000,4.000000,4.000000,4.000000,4.000000,4.000000,4.000000,100.000000
1602006195.202198,82.000000,0.000000,3765.641113,4066.153809,4150.769043,4151.282227,4112.307617,4161.538574,4134.871582,4127.692383,4141.538574,4110.256348,4091.281982,4152.307617,4125.641113,3872.307617,873.000000,4.000000,,,,0.000000,4.000000,4.000000,4.000000,4.000000,4.000000,4.000000,4.000000,4.000000,4.000000,4.000000,4.000000,4.000000,4.000000,4.000000,100.000000
1602006195.210080,83.000000,0.000000,3753.846191,4050.256348,4144.615234,4138.974121,4101.538574,4144.102539,4120.512695,4117.948730,4125.641113,4091.794922,4067.692383,4140.512695,4107.179688,3844.615479,857.000000,4.000000,,,,0.000000,4.000000,4.000000,4.000000,4.000000,4.000000,4.000000,4.000000,4.000000,4.000000,4.000000,4.000000,4.000000,4.000000,4.000000,100.000000
1602006195.217962,84.000000,0.000000,3738.974365,4049.743652,4139.487305,4135.384766,4108.717773,4151.794922,4126.666504,4120.512695,4125.128418,4093.333252,4063.076904,4141.538574,4108.717773,3840.000000,767.000000,4.000000,,,,0.000000,4.000000,4.000000,4.000000,4.000000,4.000000,4.000000,4.000000,4.000000,4.000000,4.000000,4.000000,4.000000,4.000000,4.000000,100.000000
1602006195.225843,85.000000,0.000000,3734.358887,4052.307617,4136.410156,4139.487305,4103.589844,4156.922852,4136.922852,4122.563965,4125.641113,4104.102539,4072.820557,4136.922852,4111.282227,3857.435791,742.000000,4.000000,,,,0.000000,4.000000,4.000000,4.000000,4.000000,4.000000,4.000000,4.000000,4.000000,4.000000,4.000000,4.000000,4.000000,4.000000,4.000000,100.000000
1602006195.233625,86.000000,0.000000,3737.948730,4047.179443,4135.897461,4136.922852,4097.436035,4146.153809,4137.948730,4121.025879,4122.051270,4107.179688,4072.307617,4137.948730,4105.641113,3859.487061,873.000000,4.000000,,,,0.000000,4.000000,4.000000,4.000000,4.000000,4.000000,4.000000,4.000000,4.000000,4.000000,4.000000,4.000000,4.000000,4.000000,4.000000,100.000000
1602006195.241505,87.000000,0.000000,3746.666748,4047.692383,4140.000000,4134.358887,4103.589844,4141.538574,4138.974121,4121.025879,4117.436035,4110.256348,4075.384521,4151.282227,4108.205078,3851.794922,857.000000,4.000000,,,,0.000000,4.000000,4.000000,4.000000,4.000000,4.000000,4.000000,4.000000,4.000000,4.000000,4.000000,4.000000,4.000000,4.000000,4.000000,100.000000
1602006195.249487,88.000000,0.000000,3758.974365,4060.512939,4150.256348,4144.102539,4104.615234,4153.333496,4149.230957,4130.256348,4123.077148,4121.538574,4092.307617,4158.974121,4130.256348,3867.179443,767.000000,4.000000,,,,0.000000,4.000000,4.000000,4.000000,4.000000,4.000000,4.000000,4.000000,4.000000,4.000000,4.000000,4.000000,4.000000,4.000000,4.000000,100.000000
1602006195.257368,89.000000,0.000000,3766.666748,4065.641113,4151.282227,4153.846191,4101.025879,4157.436035,4154.871582,4137.436035,4133.333496,4117.948730,4098.461426,4155.897461,4136.922852,3886.153809,742.000000,4.000000,,,,0.000000,4.000000,4.000000,4.000000,4.000000,4.000000,4.000000,4.000000,4.000000,4.000000,4.000000,4.000000,4.000000,4.000000,4.000000,100.000000
1602006195.265250,90.000000,0.000000,3773.846191,4065.641113,4145.128418,4151.282227,4111.282227,4154.358887,4153.333496,4140.512695,4141.025879,4109.230957,4094.358887,4151.282227,4125.641113,3882.564209,873.000000,4.000000,,,,0.000000,4.000000,4.000000,4.000000,4.000000,4.000000,4.000000,4.000000,4.000000,4.000000,4.000000,4.000000,4.000000,4.000000,4.000000,100.000000
1602006195.273131,91.000000,0.000000,3770.769287,4065.128174,4137.948730,4145.128418,4126.153809,4157.948730,4150.256348,4143.589844,4156.922852,4125.641113,4094.358887,4146.153809,4128.717773,3877.948730,857.000000,4.000000,,,,0.000000,4.000000,4.000000,4.000000,4.000000,4.000000,4.000000,4.000000,4.000000,4.000000,4.000000,4.000000,4.000000,4.000000,4.000000,100.000000
1602006195.281012,92.000000,0.000000,3756.923096,4056.923096,4120.000000,4138.461426,4124.102539,4157.948730,4141.025879,4142.051270,4170.256348,4142.563965,4092.820557,4133.846191,4136.922852,3881.538574,767.000000,4.000000,,,,0.000000,4.000000,4.000000,4.000000,4.000000,4.000000,4.000000,4.000000,4.000000,4.000000,4.000000,4.000000,4.000000,4.000000,4.000000,100.000000
1602006195.288894,93.000000,0.000000,3755.384521,4052.820557,4108.717773,4137.436035,4112.307617,4156.922852,4133.333496,4144.615234,4173.333496,4146.666504,4096.922852,4129.230957,4136.410156,3887.692383,742.000000,4.000000,,,,0.000000,4.000000,4.000000,4.000000,4.000000,4.000000,4.000000,4.000000,4.000000,4.000000,4.000000,4.000000,4.000000,4.000000,4.000000,100.000000
1602006195.296875,94.000000,0.000000,3767.179443,4061.025635,4127.179688,4147.692383,4111.794922,4156.410156,4131.282227,4151.794922,4175.384766,4155.897461,4109.743652,4144.615234,4140.000000,3897.435791,873.000000,4.000000,,,,0.000000,4.000000,4.000000,4.000000,4.000000,4.000000,4.000000,4.000000,4.000000,4.000000,4.000000,4.000000,4.000000,4.000000,4.000000,100.000000
1602006195.304756,95.000000,0.000000,3777.435791,4066.666748,4151.282227,4155.384766,4119.487305,4147.179688,4125.641113,4143.077148,4163.589844,4148.717773,4114.358887,4160.512695,4140.512695,3908.718018,857.000000,4.000000,,,,0.000000,4.000000,4.000000,4.000000,4.000000,4.000000,4.000000,4.000000,4.000000,4.000000,4.000000,4.000000,4.000000,4.000000,4.000000,100.000000
1602006195.312638,96.000000,0.000000,3783.076904,4065.641113,4154.358887,4153.333496,4114.358887,4133.333496,4117.948730,4122.563965,4138.461426,4113.333496,4103.589844,4152.307617,4123.589844,3913.333252,767.000000,4.000000,,,,0.000000,4.000000,4.000000,4.000000,4.000000,4.000000,4.000000,4.000000,4.000000,4.000000,4.000000,4.000000,4.000000,4.000000,4.000000,100.000000
1602006195.320519,97.000000,0.000000,3787.692383,4064.102539,4153.333496,4148.205078,4104.102539,4131.282227,4124.102539,4117.436035,4125.128418,4086.666748,4088.205078,4133.333496,4108.205078,3901.025635,742.000000,4.000000,,,,0.000000,4.000000,4.000000,4.000000,4.000000,4.000000,4.000000,4.000000,4.000000,4.000000,4.000000,4.000000,4.000000,4.000000,4.000000,100.000000
1602006195.328401,98.000000,0.000000,3784.102539,4064.102539,4151.282227,4145.128418,4106.666504,4142.563965,4135.384766,4119.487305,4122.051270,4080.000000,4073.333252,4131.282227,4103.589844,3881.025635,873.000000,4.000000,,,,0.000000,4.000000,4.000000,4.000000,4.000000,4.000000,4.000000,4.000000,4.000000,4.000000,4.000000,4.000000,4.000000,4.000000,4.000000,100.000000
1602006195.336382,99.000000,0.000000,3777.435791,4070.256348,4146.666504,4149.743652,4116.922852,4153.333496,4137.948730,4121.538574,4121.538574,4082.051270,4072.307617,4138.974121,4105.128418,3888.205078,857.000000,4.000000,,,,0.000000,4.000000,4.000000,4.000000,4.000000,4.000000,4.000000,4.000000,4.000000,4.000000,4.000000,4.000000,4.000000,4.000000,4.000000,100.000000
1602006195.344264,100.000000,0.000000,3785.641113,4077.948730,4149.743652,4158.461426,4125.128418,4157.436035,4139.487305,4129.743652,4138.461426,4103.077148,4096.410156,4145.641113,4123.077148,3912.307617,767.000000,4.000000,,,,0.000000,4.000000,4.000000,4.000000,4.000000,4.000000,4.000000,4.000000,4.000000,4.000000,4.000000,4.000000,4.000000,4.000000,4.000000,100.000000
1602006195.352146,101.000000,0.000000,3801.538574,4083.076904,4157.948730,4160.512695,4119.487305,4157.436035,4145.128418,4140.000000,4155.384766,4136.410156,4116.922852,4152.307617,4141.025879,3914.358887,742.000000,4.000000,,,,0.000000,4.000000,4.000000,4.000000,4.000000,4.000000,4.000000,4.000000,4.000000,4.000000,4.000000,4.000000,4.000000,4.000000,4.000000,100.000000
1602006195.360028,102.000000,0.000000,3806.153809,4084.615479,4152.307617,4153.846191,4105.128418,4157.436035,4144.615234,4148.717773,4155.384766,4147.692383,4116.410156,4153.846191,4142.051270,3906.153809,873.000000,4.000000,,,,0.000000,4.000000,4.000000,4.000000,4.000000,4.000000,4.000000,4.000000,4.000000,4.000000,4.000000,4.000000,4.000000,4.000000,4.000000,100.000000
1602006195.367910,103.000000,0.000000,3800.000000,4077.435791,4144.102539,4152.307617,4109.743652,4155.384766,4141.025879,4151.282227,4160.000000,4130.769043,4110.769043,4150.769043,4136.922852,3907.179443,857.000000,4.000000,,,,0.000000,4.000000,4.000000,4.000000,4.000000,4.000000,4.000000,4.000000,4.000000,4.000000,4.000000,4.000000,4.000000,4.000000,4.000000,100.000000
1602006195.375792,104.000000,0.000000,3809.743652,4074.871826,4149.230957,4155.897461,4122.563965,4156.410156,4143.589844,4149.230957,4172.820313,4127.179688,4110.256348,4155.384766,4136.922852,3914.871826,767.000000,4.000000,,,,0.000000,4.000000,4.000000,4.000000,4.000000,4.000000,4.000000,4.000000,4.000000,4.000000,4.000000,4.000000,4.000000,4.000000,4.000000,100.000000
1602006195.383674,105.000000,0.000000,3818.461426,4078.461426,4148.205078,4153.846191,4114.871582,4156.922852,4141.538574,4141.538574,4167.692383,4130.769043,4101.538574,4153.333496,4130.769043,3916.923096,742.000000,4.000000,,,,0.000000,4.000000,4.000000,4.000000,4.000000,4.000000,4.000000,4.000000,4.000000,4.000000,4.000000,4.000000,4.000000,4.000000,4.000000,100.000000
1602006195.391556,106.000000,0.000000,3796.410156,4066.153809,4135.384766,4140.512695,4097.948730,4148.717773,4134.358887,4128.205078,4138.974121,4102.051270,4087.179443,4136.410156,4113.333496,3903.589844,873.000000,4.000000,,,,0.000000,4.000000,4.000000,4.000000,4.000000,4.000000,4.000000,4.000000,4.000000,4.000000,4.000000,4.000000,4.000000,4.000000,4.000000,100.000000
1602006195.399437,107.000000,0.000000,3783.589844,4056.923096,4133.846191,4135.897461,4106.153809,4151.794922,4137.436035,4126.666504,4125.641113,4084.102539,4092.307617,4130.769043,4108.205078,3898.461426,857.000000,4.000000,,,,0.000000,4.000000,4.000000,4.000000,4.000000,4.000000,4.000000,4.000000,4.000000,4.000000,4.000000,4.000000,4.000000,4.000000,4.000000,100.000000
1602006195.407419,108.000000,0.000000,3799.487061,4065.641113,4140.000000,4143.589844,4120.512695,4155.897461,4141.538574,4132.820313,4140.000000,4115.897461,4108.205078,4137.436035,4122.051270,3911.281982,767.000000,4.000000,,,,0.000000,4.000000,4.000000,4.000000,4.000000,4.000000,4.000000,4.000000,4.000000,4.000000,4.000000,4.000000,4.000000,4.000000,4.000000,100.000000
1602006195.415300,109.000000,0.000000,3807.692383,4069.230713,4140.512695,4146.153809,4110.256348,4140.000000,4139.487305,4130.769043,4137.948730,4132.307617,4104.615234,4143.077148,4123.589844,3911.281982,742.000000,4.000000,,,,0.000000,4.000000,4.000000,4.000000,4.000000,4.000000,4.000000,4.000000,4.000000,4.000000,4.000000,4.000000,4.000000,4.000000,4.000000,100.000000
1602006195.423182,110.000000,0.000000,3806.666748,4068.718018,4150.769043,4149.230957,4100.512695,4134.358887,4141.025879,4130.256348,4117.948730,4105.641113,4092.307617,4150.769043,4112.307617,3906.666748,873.000000,4.000000,,,,0.000000,4.000000,4.000000,4.000000,4.000000,4.000000,4.000000,4.000000,4.000000,4.000000,4.000000,4.000000,4.000000,4.000000,4.000000,100.000000
1602006195.431063,111.000000,0.000000,3816.410156,4078.461426,4163.589844,4156.410156,4113.333496,4156.922852,4144.615234,4136.922852,4121.538574,4102.051270,4090.769287,4157.436035,4115.384766,3922.564209,857.000000,4.000000,,,,0.000000,4.000000,4.000000,4.000000,4.000000,4.000000,4.000000,4.000000,4.000000,4.000000,4.000000,4.000000,4.000000,4.000000,4.000000,100.000000
1602006195.438944,112.000000,0.000000,3820.512939,4084.615479,4156.922852,4159.487305,4125.128418,4172.307617,4141.538574,4139.487305,4140.512695,4122.563965,4095.897461,4154.871582,4124.615234,3934.871826,767.000000,4.000000,,,,0.000000,4.000000,4.000000,4.000000,4.000000,4.000000,4.000000,4.000000,4.000000,4.000000,4.000000,4.000000,4.000000,4.000000,4.000000,100.000000
1602006195.446826,113.000000,0.000000,3817.435791,4082.051270,4148.717773,4158.974121,4121.025879,4163.077148,4131.794922,4135.897461,4140.512695,4108.717773,4103.077148,4155.897461,4123.589844,3928.205078,742.000000,4.000000,,,,0.000000,4.000000,4.000000,4.000000,4.000000,4.000000,4.000000,4.000000,4.000000,4.000000,4.000000,4.000000,4.000000,4.000000,4.000000,100.000000
1602006195.454608,114.000000,0.000000,3827.692383,4081.025635,4153.333496,4157.436035,4118.974121,4146.153809,4121.025879,4127.179688,4132.820313,4084.102539,4111.794922,4155.384766,4119.487305,3923.589844,873.000000,4.000000,,,,0.000000,4.000000,4.000000,4.000000,4.000000,4.000000,4.000000,4.000000,4.000000,4.000000,4.000000,4.000000,4.000000,4.000000,4.000000,100.000000
1602006195.462490,115.000000,0.000000,3831.794922,4084.102539,4153.333496,4152.820313,4122.051270,4136.922852,4116.922852,4121.538574,4135.897461,4102.563965,4110.769043,4144.615234,4120.512695,3927.692383,857.000000,4.000000,,,,0.000000,4.000000,4.000000,4.000000,4.000000,4.000000,4.000000,4.000000,4.000000,4.000000,4.000000,4.000000,4.000000,4.000000,4.000000,100.000000
1602006195.470372,116.000000,0.000000,3820.000000,4082.564209,4137.948730,4152.820313,4122.051270,4141.538574,4123.589844,4127.179688,4141.538574,4128.717773,4106.153809,4136.410156,4123.077148,3925.128174,767.000000,4.000000,,,,0.000000,4.000000,4.000000,4.000000,4.000000,4.000000,4.000000,4.000000,4.000000,4.000000,4.000000,4.000000,4.000000,4.000000,4.000000,100.000000
1602006195.478253,117.000000,0.000000,3813.846191,4076.923096,4124.615234,4160.000000,4122.563965,4155.897461,4135.384766,4128.717773,4142.563965,4125.128418,4104.615234,4137.948730,4118.461426,3915.384521,742.000000,4.000000,,,,0.000000,4.000000,4.000000,4.000000,4.000000,4.000000,4.000000,4.000000,4.000000,4.000000,4.000000,4.000000,4.000000,4.000000,4.000000,100.000000
1602006195.486135,118.000000,0.000000,3813.846191,4072.307617,4119.487305,4151.282227,4123.077148,4162.563965,4135.897461,4126.153809,4138.461426,4111.282227,4096.410156,4136.410156,4106.666504,3908.205078,873.000000,4.000000,,,,0.000000,4.000000,4.000000,4.000000,4.000000,4.000000,4.000000,4.000000,4.000000,4.000000,4.000000,4.000000,4.000000,4.000000,4.000000,100.000000
1602006195.494017,119.000000,0.000000,3812.307617,4071.794922,4122.051270,4137.436035,4118.461426,4160.512695,4127.692383,4135.384766,4134.871582,4110.769043,4094.871826,4132.820313,4103.589844,3911.281982,857.000000,4.000000,,,,0.000000,4.000000,4.000000,4.000000,4.000000,4.000000,4.000000,4.000000,4.000000,4.000000,4.000000,4.000000,4.000000,4.000000,4.000000,100.000000
1602006195.501899,120.000000,0.000000,3818.974365,4077.948730,4131.794922,4144.102539,4119.487305,4159.487305,4125.641113,4135.384766,4137.948730,4113.333496,4103.077148,4141.538574,4113.333496,3930.256348,767.000000,4.000000,,,,0.000000,4.000000,4.000000,4.000000,4.000000,4.000000,4.000000,4.000000,4.000000,4.000000,4.000000,4.000000,4.000000,4.000000,4.000000,100.000000
1602006195.509781,121.000000,0.000000,3835.897461,4085.128174,4142.563965,4156.922852,4126.153809,4149.230957,4124.615234,4124.102539,4141.025879,4112.307617,4106.153809,4151.794922,4121.538574,3945.641113,742.000000,4.000000,,,,0.000000,4.000000,4.000000,4.000000,4.000000,4.000000,4.000000,4.000000,4.000000,4.000000,4.000000,4.000000,4.000000,4.000000,4.000000,100.000000
1602006195.517663,122.000000,0.000000,3853.333252,4089.743652,4152.820313,4162.051270,4130.256348,4132.307617,4118.461426,4128.205078,4135.897461,4113.846191,4111.282227,4157.948730,4130.256348,3949.230713,873.000000,4.000000,,,,0.000000,4.000000,4.000000,4.000000,4.000000,4.000000,4.000000,4.000000,4.000000,4.000000,4.000000,4.000000,4.000000,4.000000,4.000000,100.000000
1602006195.525645,123.000000,0.000000,3866.666748,4100.512695,4165.641113,4168.717773,4135.384766,4140.000000,4122.051270,4140.512695,4135.384766,4119.487305,4126.666504,4164.615234,4143.077148,3955.384521,857.000000,4.000000,,,,0.000000,4.000000,4.000000,4.000000,4.000000,4.000000,4.000000,4.000000,4.000000,4.000000,4.000000,4.000000,4.000000,4.000000,4.000000,100.000000
1602006195.533526,124.000000,0.000000,3867.179443,4108.205078,4166.153809,4172.307617,4137.436035,4166.153809,4137.436035,4140.512695,4151.282227,4133.846191,4126.153809,4163.589844,4142.563965,3959.487061,767.000000,4.000000,,,,0.000000,4.000000,4.000000,4.000000,4.000000,4.000000,4.000000,4.000000,4.000000,4.000000,4.000000,4.000000,4.000000,4.000000,4.000000,100.000000
1602006195.541408,125.000000,0.000000,3853.846191,4093.333252,4146.666504,4162.563965,4128.205078,4173.846191,4140.512695,4142.051270,4158.974121,4137.948730,4106.666504,4148.717773,4127.692383,3944.102539,742.000000,4.000000,,,,0.000000,4.000000,4.000000,4.000000,4.000000,4.000000,4.000000,4.000000,4.000000,4.000000,4.000000,4.000000,4.000000,4.000000,4.000000,100.000000
1602006195.549290,126.000000,0.000000,3844.102539,4075.897461,4127.692383,4150.769043,4124.102539,4168.717773,4138.461426,4152.820313,4154.358887,4118.974121,4103.077148,4136.410156,4119.487305,3925.641113,873.000000,4.000000,,,,0.000000,4.000000,4.000000,4.000000,4.000000,4.000000,4.000000,4.000000,4.000000,4.000000,4.000000,4.000000,4.000000,4.000000,4.000000,100.000000
1602006195.557172,127.000000,0.000000,3844.102539,4073.846191,4118.461426,4139.487305,4127.692383,4166.153809,4142.051270,4154.358887,4160.512695,4111.282227,4108.717773,4138.974121,4120.000000,3918.974365,857.000000,4.000000,,,,0.000000,4.000000,4.000000,4.000000,4.000000,4.000000,4.000000,4.000000,4.000000,4.000000,4.000000,4.000000,4.000000,4.000000,4.000000,100.000000
1602006195.565054,128.000000,0.000000,3842.051270,4073.846191,4117.948730,4133.333496,4122.563965,4164.102539,4143.589844,4153.333496,4170.769043,4130.769043,4110.256348,4148.717773,4121.538574,3923.076904,767.000000,4.000000,,,,0.000000,4.000000,4.000000,4.000000,4.000000,4.000000,4.000000,4.000000,4.000000,4.000000,4.000000,4.000000,4.000000,4.000000,4.000000,100.000000
1602006195.572936,0.000000,0.000000,3845.641113,4075.897461,4128.205078,4142.563965,4122.563965,4166.153809,4143.589844,4157.436035,4175.897461,4146.666504,4115.897461,4162.051270,4132.820313,3937.948730,795.000000,4.000000,,,,0.000000,4.000000,4.000000,4.000000,4.000000,4.000000,4.000000,4.000000,4.000000,4.000000,4.000000,4.000000,4.000000,4.000000,4.000000,100.000000
1602006195.580818,1.000000,0.000000,3863.076904,4092.307617,4140.512695,4153.846191,4137.436035,4171.282227,4144.102539,4158.974121,4184.102539,4137.436035,4124.615234,4172.307617,4149.743652,3946.153809,789.000000,4.000000,,,,0.000000,4.000000,4.000000,4.000000,4.000000,4.000000,4.000000,4.000000,4.000000,4.000000,4.000000,4.000000,4.000000,4.000000,4.000000,100.000000
1602006195.588700,2.000000,0.000000,3877.435791,4106.666504,4146.666504,4163.077148,4147.179688,4169.230957,4137.436035,4152.307617,4180.000000,4130.256348,4128.205078,4172.820313,4154.871582,3947.179443,863.000000,4.000000,,,,0.000000,4.000000,4.000000,4.000000,4.000000,4.000000,4.000000,4.000000,4.000000,4.000000,4.000000,4.000000,4.000000,4.000000,4.000000,100.000000
1602006195.596681,3.000000,0.000000,3883.589844,4108.717773,4149.743652,4170.769043,4139.487305,4152.820313,4126.666504,4141.025879,4155.897461,4133.846191,4127.692383,4168.205078,4153.846191,3962.564209,874.000000,4.000000,,,,0.000000,4.000000,4.000000,4.000000,4.000000,4.000000,4.000000,4.000000,4.000000,4.000000,4.000000,4.000000,4.000000,4.000000,4.000000,100.000000
1602006195.604563,4.000000,0.000000,3894.358887,4113.846191,4157.948730,4174.871582,4136.922852,4140.512695,4119.487305,4133.846191,4140.512695,4131.794922,4134.871582,4170.256348,4164.102539,3976.923096,813.000000,4.000000,,,,0.000000,4.000000,4.000000,4.000000,4.000000,4.000000,4.000000,4.000000,4.000000,4.000000,4.000000,4.000000,4.000000,4.000000,4.000000,100.000000
1602006195.612445,5.000000,0.000000,3903.076904,4122.051270,4169.743652,4173.846191,4145.641113,4138.461426,4113.846191,4133.846191,4144.102539,4125.128418,4135.897461,4176.922852,4165.641113,3965.128174,821.000000,4.000000,,,,0.000000,4.000000,4.000000,4.000000,4.000000,4.000000,4.000000,4.000000,4.000000,4.000000,4.000000,4.000000,4.000000,4.000000,4.000000,100.000000
1602006195.620327,6.000000,0.000000,3902.051270,4114.871582,4172.820313,4171.282227,4143.589844,4126.153809,4109.230957,4134.358887,4136.410156,4122.051270,4123.589844,4173.846191,4148.717773,3955.384521,755.000000,4.000000,,,,0.000000,4.000000,4.000000,4.000000,4.000000,4.000000,4.000000,4.000000,4.000000,4.000000,4.000000,4.000000,4.000000,4.000000,4.000000,100.000000
1602006195.628209,7.000000,0.000000,3908.718018,4108.717773,4164.615234,4171.282227,4135.384766,4118.461426,4113.333496,4133.333496,4124.615234,4118.461426,4122.051270,4170.769043,4139.487305,3963.589844,665.000000,4.000000,,,,0.000000,4.000000,4.000000,4.000000,4.000000,4.000000,4.000000,4.000000,4.000000,4.000000,4.000000,4.000000,4.000000,4.000000,4.000000,100.000000
1602006195.636091,8.000000,0.000000,3913.333252,4110.256348,4159.487305,4168.717773,4141.025879,4141.538574,4122.051270,4133.846191,4140.512695,4105.641113,4128.205078,4171.794922,4144.615234,3957.435791,786.000000,4.000000,,,,0.000000,4.000000,4.000000,4.000000,4.000000,4.000000,4.000000,4.000000,4.000000,4.000000,4.000000,4.000000,4.000000,4.000000,4.000000,100.000000
1602006195.643973,9.000000,0.000000,3890.769287,4096.922852,4152.820313,4154.358887,4143.589844,4161.538574,4125.641113,4135.897461,4161.538574,4094.871826,4111.282227,4158.461426,4135.897461,3932.820557,836.000000,4.000000,,,,0.000000,4.000000,4.000000,4.000000,4.000000,4.000000,4.000000,4.000000,4.000000,4.000000,4.000000,4.000000,4.000000,4.000000,4.000000,100.000000
1602006195.651855,10.000000,0.000000,3872.820557,4081.538574,4139.487305,4137.948730,4128.717773,4155.384766,4124.102539,4133.846191,4151.282227,4101.538574,4092.820557,4142.563965,4118.974121,3921.025635,873.000000,4.000000,,,,0.000000,4.000000,4.000000,4.000000,4.000000,4.000000,4.000000,4.000000,4.000000,4.000000,4.000000,4.000000,4.000000,4.000000,4.000000,100.000000
1602006195.659736,11.000000,0.000000,3887.692383,4087.692383,4136.922852,4144.102539,4121.025879,4155.897461,4127.179688,4129.743652,4141.538574,4110.769043,4100.000000,4148.717773,4119.487305,3933.333252,857.000000,4.000000,,,,0.000000,4.000000,4.000000,4.000000,4.000000,4.000000,4.000000,4.000000,4.000000,4.000000,4.000000,4.000000,4.000000,4.000000,4.000000,100.000000
1602006195.667518,12.000000,0.000000,3896.410156,4091.794922,4133.846191,4153.333496,4124.615234,4156.922852,4130.256348,4130.256348,4149.743652,4112.307617,4104.615234,4158.974121,4126.153809,3943.589844,767.000000,4.000000,,,,0.000000,4.000000,4.000000,4.000000,4.000000,4.000000,4.000000,4.000000,4.000000,4.000000,4.000000,4.000000,4.000000,4.000000,4.000000,100.000000
1602006195.675399,13.000000,0.000000,3888.718018,4087.179443,4128.717773,4150.769043,4125.128418,4149.743652,4128.205078,4137.436035,4145.128418,4111.282227,4111.794922,4154.358887,4129.230957,3943.589844,742.000000,4.000000,,,,0.000000,4.000000,4.000000,4.000000,4.000000,4.000000,4.000000,4.000000,4.000000,4.000000,4.000000,4.000000,4.000000,4.000000,4.000000,100.000000
1602006195.683281,14.000000,0.000000,3891.281982,4086.666748,4133.333496,4147.179688,4124.615234,4154.871582,4125.128418,4137.948730,4133.333496,4110.256348,4121.025879,4151.794922,4120.000000,3932.820557,873.000000,4.000000,,,,0.000000,4.000000,4.000000,4.000000,4.000000,4.000000,4.000000,4.000000,4.000000,4.000000,4.000000,4.000000,4.000000,4.000000,4.000000,100.000000
1602006195.691162,15.000000,0.000000,3893.333252,4083.076904,4137.436035,4140.000000,4122.051270,4158.974121,4119.487305,4127.692383,4133.333496,4104.102539,4101.538574,4154.358887,4105.641113,3912.820557,857.000000,4.000000,,,,0.000000,4.000000,4.000000,4.000000,4.000000,4.000000,4.000000,4.000000,4.000000,4.000000,4.000000,4.000000,4.000000,4.000000,4.000000,100.000000
1602006195.699044,16.000000,0.000000,3889.743652,4083.589844,4134.358887,4142.563965,4127.692383,4152.820313,4116.410156,4122.051270,4134.358887,4092.820557,4089.230713,4153.333496,4108.717773,3910.769287,0.000000,4.000000,,,,0.000000,4.000000,4.000000,4.000000,4.000000,4.000000,4.000000,4.000000,4.000000,4.000000,4.000000,4.000000,4.000000,4.000000,4.000000,100.000000
1602006195.706825,17.000000,0.000000,3903.076904,4090.256348,4135.384766,4154.871582,4141.025879,4148.717773,4117.436035,4130.256348,4134.871582,4092.307617,4111.282227,4156.922852,4125.641113,3935.384521,0.000000,4.000000,,,,0.000000,4.000000,4.000000,4.000000,4.000000,4.000000,4.000000,4.000000,4.000000,4.000000,4.000000,4.000000,4.000000,4.000000,4.000000,100.000000
1602006195.714707,18.000000,0.000000,3915.897461,4091.794922,4140.000000,4151.282227,4138.974121,4155.384766,4120.512695,4140.000000,4143.077148,4110.256348,4117.436035,4168.717773,4130.769043,3949.743652,0.000000,4.000000,,,,0.000000,4.000000,4.000000,4.000000,4.000000,4.000000,4.000000,4.000000,4.000000,4.000000,4.000000,4.000000,4.000000,4.000000,4.000000,100.000000
1602006195.722589,19.000000,0.000000,3911.281982,4089.230713,4137.436035,4142.563965,4125.128418,4160.000000,4127.179688,4134.871582,4146.153809,4124.615234,4100.512695,4170.256348,4121.025879,3942.564209,0.000000,4.000000,,,,0.000000,4.000000,4.000000,4.000000,4.000000,4.000000,4.000000,4.000000,4.000000,4.000000,4.000000,4.000000,4.000000,4.000000,4.000000,100.000000
1602006195.730470,20.000000,0.000000,3907.692383,4085.641113,4137.436035,4151.282227,4123.589844,4162.051270,4139.487305,4125.641113,4134.871582,4114.358887,4103.589844,4161.538574,4115.384766,3943.076904,0.000000,4.000000,,,,0.000000,4.000000,4.000000,4.000000,4.000000,4.000000,4.000000,4.000000,4.000000,4.000000,4.000000,4.000000,4.000000,4.000000,4.000000,100.000000
1602006195.738352,21.000000,0.000000,3906.153809,4077.435791,4137.436035,4152.820313,4123.589844,4157.948730,4143.077148,4124.615234,4121.025879,4090.769287,4110.256348,4157.436035,4111.794922,3946.153809,0.000000,4.000000,,,,0.000000,4.000000,4.000000,4.000000,4.000000,4.000000,4.000000,4.000000,4.000000,4.000000,4.000000,4.000000,4.000000,4.000000,4.000000,100.000000
1602006195.746234,22.000000,0.000000,3896.410156,4070.256348,4136.922852,4136.922852,4103.589844,4134.358887,4130.256348,4122.051270,4120.000000,4081.025635,4100.000000,4155.897461,4105.128418,3934.358887,0.000000,4.000000,,,,0.000000,4.000000,4.000000,4.000000,4.000000,4.000000,4.000000,4.000000,4.000000,4.000000,4.000000,4.000000,4.000000,4.000000,4.000000,100.000000
1602006195.754115,23.000000,0.000000,3895.897461,4073.846191,4151.794922,4134.871582,4096.410156,4117.948730,4121.025879,4123.589844,4129.743652,4088.205078,4095.384521,4157.948730,4109.743652,3940.000000,0.000000,4.000000,,,,0.000000,4.000000,4.000000,4.000000,4.000000,4.000000,4.000000,4.000000,4.000000,4.000000,4.000000,4.000000,4.000000,4.000000,4.000000,100.000000
1602006195.761897,24.000000,0.000000,3914.358887,4086.666748,4169.230957,4147.179688,4123.077148,4129.230957,4125.128418,4133.846191,4137.948730,4095.897461,4109.230957,4168.205078,4123.077148,3962.051270,0.000000,4.000000,,,,0.000000,4.000000,4.000000,4.000000,4.000000,4.000000,4.000000,4.000000,4.000000,4.000000,4.000000,4.000000,4.000000,4.000000,4.000000,100.000000
1602006195.769779,25.000000,0.000000,3931.794922,4097.436035,4162.563965,4156.410156,4138.461426,4151.794922,4121.538574,4140.000000,4142.563965,4093.333252,4125.128418,4173.333496,4129.743652,3966.153809,0.000000,4.000000,,,,0.000000,4.000000,4.000000,4.000000,4.000000,4.000000,4.000000,4.000000,4.000000,4.000000,4.000000,4.000000,4.000000,4.000000,4.000000,100.000000
1602006195.777660,26.000000,0.000000,3929.743652,4091.794922,4141.025879,4151.794922,4128.717773,4153.333496,4111.794922,4134.871582,4136.410156,4093.333252,4118.974121,4163.077148,4124.615234,3952.820557,0.000000,4.000000,,,,0.000000,4.000000,4.000000,4.000000,4.000000,4.000000,4.000000,4.000000,4.000000,4.000000,4.000000,4.000000,4.000000,4.000000,4.000000,100.000000
1602006195.785542,27.000000,0.000000,3908.718018,4077.948730,4124.102539,4140.512695,4129.743652,4138.974121,4116.410156,4127.692383,4121.025879,4103.589844,4105.641113,4153.333496,4120.000000,3942.051270,0.000000,4.000000,,,,0.000000,4.000000,4.000000,4.000000,4.000000,4.000000,4.000000,4.000000,4.000000,4.000000,4.000000,4.000000,4.000000,4.000000,4.000000,100.000000
1602006195.793423,28.000000,0.000000,3894.358887,4074.871826,4111.794922,4135.384766,4141.538574,4144.615234,4124.615234,4126.153809,4121.025879,4111.282227,4106.666504,4151.282227,4115.384766,3941.025635,0.000000,4.000000,,,,0.000000,4.000000,4.000000,4.000000,4.000000,4.000000,4.000000,4.000000,4.000000,4.000000,4.000000,4.000000,4.000000,4.000000,4.000000,100.000000
1602006195.801305,29.000000,0.000000,3899.487061,4076.923096,4111.794922,4135.384766,4138.974121,4161.025879,4121.538574,4125.128418,4136.922852,4109.743652,4103.077148,4143.077148,4109.230957,3944.102539,0.000000,4.000000,,,,0.000000,4.000000,4.000000,4.000000,4.000000,4.000000,4.000000,4.000000,4.000000,4.000000,4.000000,4.000000,4.000000,4.000000,4.000000,100.000000
1602006195.809287,30.000000,0.000000,3904.615479,4073.846191,4128.205078,4136.410156,4123.077148,4148.205078,4118.461426,4117.948730,4137.948730,4095.897461,4090.769287,4133.333496,4103.589844,3943.589844,0.000000,4.000000,,,,0.000000,4.000000,4.000000,4.000000,4.000000,4.000000,4.000000,4.000000,4.000000,4.000000,4.000000,4.000000,4.000000,4.000000,4.000000,100.000000
1602006195.817168,31.000000,0.000000,3909.230713,4078.461426,4142.051270,4138.974121,4113.333496,4128.205078,4117.948730,4112.820313,4133.333496,4090.256348,4097.948730,4140.000000,4105.128418,3945.128174,0.000000,4.000000,,,,0.000000,4.000000,4.000000,4.000000,4.000000,4.000000,4.000000,4.000000,4.000000,4.000000,4.000000,4.000000,4.000000,4.000000,4.000000,100.000000
1602006195.825050,32.000000,0.000000,3923.076904,4088.718018,4146.153809,4141.025879,4122.051270,4147.179688,4118.974121,4122.051270,4147.179688,4100.000000,4116.410156,4151.282227,4115.384766,3949.743652,0.000000,4.000000,,,,0.000000,4.000000,4.000000,4.000000,4.000000,4.000000,4.000000,4.000000,4.000000,4.000000,4.000000,4.000000,4.000000,4.000000,4.000000,100.000000
1602006195.832932,33.000000,0.000000,3925.128174,4084.615479,4137.436035,4141.025879,4130.769043,4162.051270,4123.077148,4127.179688,4143.589844,4097.436035,4114.871582,4137.948730,4114.871582,3944.102539,0.000000,4.000000,,,,0.000000,4.000000,4.000000,4.000000,4.000000,4.000000,4.000000,4.000000,4.000000,4.000000,4.000000,4.000000,4.000000,4.000000,4.000000,100.000000
1602006195.840813,34.000000,0.000000,3914.358887,4070.256348,4121.538574,4130.769043,4118.461426,4138.461426,4120.000000,4112.307617,4123.077148,4085.641113,4101.538574,4122.051270,4102.051270,3938.974365,0.000000,4.000000,,,,0.000000,4.000000,4.000000,4.000000,4.000000,4.000000,4.000000,4.000000,4.000000,4.000000,4.000000,4.000000,4.000000,4.000000,4.000000,100.000000
1602006195.848695,35.000000,0.000000,3922.564209,4072.307617,4125.128418,4127.179688,4112.307617,4123.077148,4117.436035,4110.256348,4130.769043,4103.589844,4102.563965,4136.922852,4104.615234,3954.871826,0.000000,4.000000,,,,0.000000,4.000000,4.000000,4.000000,4.000000,4.000000,4.000000,4.000000,4.000000,4.000000,4.000000,4.000000,4.000000,4.000000,4.000000,100.000000
1602006195.856576,36.000000,0.000000,3948.205078,4093.333252,4152.820313,4147.692383,4129.230957,4141.538574,4132.307617,4132.820313,4156.410156,4137.436035,4123.077148,4168.717773,4130.256348,3982.564209,0.000000,4.000000,,,,0.000000,4.000000,4.000000,4.000000,4.000000,4.000000,4.000000,4.000000,4.000000,4.000000,4.000000,4.000000,4.000000,4.000000,4.000000,100.000000
1602006195.864358,37.000000,0.000000,3957.948730,4105.641113,4166.666504,4160.000000,4143.589844,4165.128418,4144.102539,4146.153809,4164.615234,4142.563965,4141.025879,4182.563965,4146.153809,3991.281982,0.000000,4.000000,,,,0.000000,4.000000,4.000000,4.000000,4.000000,4.000000,4.000000,4.000000,4.000000,4.000000,4.000000,4.000000,4.000000,4.000000,4.000000,100.000000
1602006195.872240,38.000000,0.000000,3951.794922,4098.974121,4152.820313,4148.205078,4142.563965,4166.666504,4139.487305,4138.974121,4153.333496,4121.025879,4140.512695,4173.846191,4138.461426,3978.974365,0.000000,4.000000,,,,0.000000,4.000000,4.000000,4.000000,4.000000,4.000000,4.000000,4.000000,4.000000,4.000000,4.000000,4.000000,4.000000,4.000000,4.000000,100.000000
1602006195.880122,39.000000,0.000000,3942.051270,4089.743652,4137.948730,4141.538574,4129.230957,4157.948730,4138.461426,4130.769043,4133.333496,4103.589844,4128.717773,4160.512695,4125.641113,3973.333252,0.000000,4.000000,,,,0.000000,4.000000,4.000000,4.000000,4.000000,4.000000,4.000000,4.000000,4.000000,4.000000,4.000000,4.000000,4.000000,4.000000,4.000000,100.000000
1602006195.888003,40.000000,0.000000,3927.692383,4083.589844,4138.974121,4142.563965,4121.538574,4150.256348,4139.487305,4124.102539,4118.461426,4089.743652,4112.307617,4152.820313,4114.358887,3970.769287,0.000000,4.000000,,,,0.000000,4.000000,4.000000,4.000000,4.000000,4.000000,4.000000,4.000000,4.000000,4.000000,4.000000,4.000000,4.000000,4.000000,4.000000,100.000000
1602006195.895885,41.000000,0.000000,3920.512939,4079.487061,4141.538574,4137.948730,4125.641113,4136.410156,4128.205078,4112.820313,4120.000000,4081.538574,4099.487305,4149.743652,4102.051270,3954.358887,0.000000,4.000000,,,,0.000000,4.000000,4.000000,4.000000,4.000000,4.000000,4.000000,4.000000,4.000000,4.000000,4.000000,4.000000,4.000000,4.000000,4.000000,100.000000
1602006195.903766,42.000000,0.000000,3933.333252,4084.102539,4136.922852,4140.512695,4127.179688,4133.846191,4124.102539,4115.384766,4134.358887,4099.487305,4107.692383,4149.743652,4100.000000,3953.333252,0.000000,4.000000,,,,0.000000,4.000000,4.000000,4.000000,4.000000,4.000000,4.000000,4.000000,4.000000,4.000000,4.000000,4.000000,4.000000,4.000000,4.000000,100.000000
1602006195.911748,43.000000,0.000000,3947.179443,4092.307617,4134.871582,4144.615234,4125.641113,4153.846191,4131.282227,4131.794922,4154.871582,4133.333496,4124.102539,4153.846191,4111.794922,3979.487061,0.000000,4.000000,,,,0.000000,4.000000,4.000000,4.000000,4.000000,4.000000,4.000000,4.000000,4.000000,4.000000,4.000000,4.000000,4.000000,4.000000,4.000000,100.000000
1602006195.919630,44.000000,0.000000,3943.076904,4090.769287,4135.897461,4140.000000,4131.282227,4165.128418,4129.230957,4140.512695,4170.256348,4143.077148,4123.589844,4153.846191,4118.461426,3988.718018,0.000000,4.000000,,,,0.000000,4.000000,4.000000,4.000000,4.000000,4.000000,4.000000,4.000000,4.000000,4.000000,4.000000,4.000000,4.000000,4.000000,4.000000,100.000000
1602006195.927512,45.000000,0.000000,3939.487061,4088.718018,4135.384766,4136.922852,4140.512695,4156.410156,4124.615234,4145.128418,4169.743652,4133.333496,4124.615234,4157.948730,4124.615234,3981.538574,0.000000,4.000000,,,,0.000000,4.000000,4.000000,4.000000,4.000000,4.000000,4.000000,4.000000,4.000000,4.000000,4.000000,4.000000,4.000000,4.000000,4.000000,100.000000
1602006195.935394,46.000000,0.000000,3952.307617,4091.281982,4136.410156,4139.487305,4134.358887,4153.333496,4126.666504,4151.282227,4159.487305,4129.230957,4137.436035,4169.230957,4135.384766,3988.718018,0.000000,4.000000,,,,0.000000,4.000000,4.000000,4.000000,4.000000,4.000000,4.000000,4.000000,4.000000,4.000000,4.000000,4.000000,4.000000,4.000000,4.000000,100.000000
1602006195.943276,47.000000,0.000000,3966.666748,4097.948730,4146.153809,4145.641113,4122.563965,4157.436035,4125.641113,4153.846191,4151.794922,4118.461426,4149.230957,4175.897461,4145.641113,4007.692383,0.000000,4.000000,,,,0.000000,4.000000,4.000000,4.000000,4.000000,4.000000,4.000000,4.000000,4.000000,4.000000,4.000000,4.000000,4.000000,4.000000,4.000000,100.000000
1602006195.951158,48.000000,0.000000,3976.923096,4109.743652,4157.948730,4156.922852,4129.230957,4151.794922,4123.589844,4151.282227,4153.846191,4116.922852,4155.384766,4177.948730,4155.384766,4022.564209,0.000000,4.000000,,,,0.000000,4.000000,4.000000,4.000000,4.000000,4.000000,4.000000,4.000000,4.000000,4.000000,4.000000,4.000000,4.000000,4.000000,4.000000,100.000000
1602006195.959039,49.000000,0.000000,3978.974365,4112.307617,4160.000000,4157.948730,4139.487305,4142.563965,4125.128418,4143.077148,4158.461426,4138.974121,4152.307617,4172.820313,4152.820313,4022.051270,0.000000,4.000000,,,,0.000000,4.000000,4.000000,4.000000,4.000000,4.000000,4.000000,4.000000,4.000000,4.000000,4.000000,4.000000,4.000000,4.000000,4.000000,100.000000
1602006195.966921,50.000000,0.000000,3962.564209,4100.512695,4154.358887,4144.615234,4129.743652,4142.051270,4128.717773,4131.282227,4156.410156,4150.256348,4138.461426,4161.538574,4134.871582,4004.615479,0.000000,4.000000,,,,0.000000,4.000000,4.000000,4.000000,4.000000,4.000000,4.000000,4.000000,4.000000,4.000000,4.000000,4.000000,4.000000,4.000000,4.000000,100.000000
1602006195.974803,51.000000,0.000000,3943.076904,4089.743652,4145.128418,4137.436035,4116.922852,4151.282227,4134.358887,4125.128418,4151.794922,4129.743652,4124.615234,4149.743652,4122.563965,3989.230713,0.000000,4.000000,,,,0.000000,4.000000,4.000000,4.000000,4.000000,4.000000,4.000000,4.000000,4.000000,4.000000,4.000000,4.000000,4.000000,4.000000,4.000000,100.000000
1602006195.982585,52.000000,0.000000,3944.102539,4090.256348,4137.436035,4138.461426,4125.128418,4165.128418,4142.051270,4128.717773,4154.871582,4113.333496,4122.051270,4141.025879,4116.410156,3985.128174,0.000000,4.000000,,,,0.000000,4.000000,4.000000,4.000000,4.000000,4.000000,4.000000,4.000000,4.000000,4.000000,4.000000,4.000000,4.000000,4.000000,4.000000,100.000000
1602006195.990467,53.000000,0.000000,3953.846191,4096.410156,4136.922852,4139.487305,4136.410156,4171.282227,4144.615234,4132.307617,4157.948730,4116.922852,4120.512695,4138.461426,4108.205078,3986.153809,0.000000,4.000000,,,,0.000000,4.000000,4.000000,4.000000,4.000000,4.000000,4.000000,4.000000,4.000000,4.000000,4.000000,4.000000,4.000000,4.000000,4.000000,100.000000
1602006195.998348,54.000000,0.000000,3954.871826,4095.897461,4131.794922,4141.538574,4137.948730,4171.282227,4143.589844,4135.897461,4147.179688,4102.051270,4115.897461,4138.974121,4107.692383,3986.666748,0.000000,4.000000,,,,0.000000,4.000000,4.000000,4.000000,4.000000,4.000000,4.000000,4.000000,4.000000,4.000000,4.000000,4.000000,4.000000,4.000000,4.000000,100.000000
1602006196.006230,55.000000,0.000000,3951.281982,4090.769287,4121.538574,4143.589844,4130.769043,4165.128418,4141.538574,4137.948730,4135.897461,4077.948730,4116.922852,4135.897461,4108.717773,3980.000000,0.000000,4.000000,,,,0.000000,4.000000,4.000000,4.000000,4.000000,4.000000,4.000000,4.000000,4.000000,4.000000,4.000000,4.000000,4.000000,4.000000,4.000000,100.000000
1602006196.014112,56.000000,0.000000,3950.769287,4091.281982,4126.666504,4139.487305,4120.512695,4156.922852,4134.358887,4137.436035,4145.641113,4089.230713,4123.589844,4133.333496,4107.692383,3975.897461,0.000000,4.000000,,,,0.000000,4.000000,4.000000,4.000000,4.000000,4.000000,4.000000,4.000000,4.000000,4.000000,4.000000,4.000000,4.000000,4.000000,4.000000,100.000000
1602006196.021993,57.000000,0.000000,3961.025635,4094.871826,4142.563965,4137.948730,4130.256348,4150.769043,4125.128418,4138.461426,4154.871582,4120.000000,4127.179688,4138.974121,4110.256348,3990.769287,0.000000,4.000000,,,,0.000000,4.000000,4.000000,4.000000,4.000000,4.000000,4.000000,4.000000,4.000000,4.000000,4.000000,4.000000,4.000000,4.000000,4.000000,100.000000
1602006196.029875,58.000000,0.000000,3973.846191,4092.307617,4149.230957,4146.153809,4138.974121,4137.436035,4121.538574,4137.436035,4141.538574,4125.128418,4121.025879,4146.153809,4110.769043,4008.718018,0.000000,4.000000,,,,0.000000,4.000000,4.000000,4.000000,4.000000,4.000000,4.000000,4.000000,4.000000,4.000000,4.000000,4.000000,4.000000,4.000000,4.000000,100.000000
1602006196.037656,59.000000,0.000000,3973.846191,4094.358887,4152.820313,4154.358887,4127.692383,4133.846191,4128.717773,4137.948730,4137.436035,4110.769043,4120.000000,4159.487305,4115.384766,4015.897461,0.000000,4.000000,,,,0.000000,4.000000,4.000000,4.000000,4.000000,4.000000,4.000000,4.000000,4.000000,4.000000,4.000000,4.000000,4.000000,4.000000,4.000000,100.000000
1602006196.045538,60.000000,0.000000,3973.333252,4105.641113,4157.436035,4156.922852,4127.179688,4149.230957,4136.922852,4142.563965,4153.333496,4099.487305,4133.846191,4172.307617,4132.820313,4025.128174,0.000000,4.000000,,,,0.000000,4.000000,4.000000,4.000000,4.000000,4.000000,4.000000,4.000000,4.000000,4.000000,4.000000,4.000000,4.000000,4.000000,4.000000,100.000000
1602006196.053419,61.000000,0.000000,3976.923096,4105.128418,4151.282227,4153.846191,4133.846191,4150.256348,4136.922852,4142.051270,4156.410156,4098.461426,4140.000000,4171.794922,4135.384766,4031.281982,0.000000,4.000000,,,,0.000000,4.000000,4.000000,4.000000,4.000000,4.000000,4.000000,4.000000,4.000000,4.000000,4.000000,4.000000,4.000000,4.000000,4.000000,100.000000
1602006196.061301,62.000000,0.000000,3974.358887,4093.846191,4143.077148,4152.820313,4129.230957,4142.051270,4137.436035,4139.487305,4152.820313,4118.974121,4132.307617,4169.230957,4126.153809,4026.153809,0.000000,4.000000,,,,0.000000,4.000000,4.000000,4.000000,4.000000,4.000000,4.000000,4.000000,4.000000,4.000000,4.000000,4.000000,4.000000,4.000000,4.000000,100.000000
1602006196.069182,63.000000,0.000000,3969.230713,4093.333252,4130.769043,4150.769043,4125.641113,4152.307617,4140.000000,4140.000000,4153.846191,4131.282227,4130.769043,4168.717773,4122.563965,4010.256348,0.000000,4.000000,,,,0.000000,4.000000,4.000000,4.000000,4.000000,4.000000,4.000000,4.000000,4.000000,4.000000,4.000000,4.000000,4.000000,4.000000,4.000000,100.000000
1602006196.077063,64.000000,0.000000,3959.487061,4092.307617,4116.922852,4141.025879,4119.487305,4154.871582,4136.410156,4130.769043,4135.384766,4105.641113,4129.743652,4152.307617,4110.769043,3988.718018,795.000000,4.000000,,,,0.000000,4.000000,4.000000,4.000000,4.000000,4.000000,4.000000,4.000000,4.000000,4.000000,4.000000,4.000000,4.000000,4.000000,4.000000,100.000000
1602006196.084845,65.000000,0.000000,3959.487061,4089.230713,4113.846191,4139.487305,4114.358887,4141.025879,4135.384766,4121.025879,4121.025879,4093.846191,4124.102539,4135.897461,4104.102539,3988.718018,789.000000,4.000000,,,,0.000000,4.000000,4.000000,4.000000,4.000000,4.000000,4.000000,4.000000,4.000000,4.000000,4.000000,4.000000,4.000000,4.000000,4.000000,100.000000
1602006196.092727,66.000000,0.000000,3974.358887,4098.974121,4124.102539,4151.794922,4133.333496,4147.179688,4146.666504,4132.820313,4140.512695,4119.487305,4132.307617,4144.615234,4117.948730,4006.666748,863.000000,4.000000,,,,0.000000,4.000000,4.000000,4.000000,4.000000,4.000000,4.000000,4.000000,4.000000,4.000000,4.000000,4.000000,4.000000,4.000000,4.000000,100.000000
1602006196.100609,67.000000,0.000000,3970.256348,4105.641113,4133.333496,4158.461426,4141.538574,4161.025879,4154.358887,4146.153809,4151.282227,4122.051270,4141.538574,4154.871582,4126.666504,4015.384521,874.000000,4.000000,,,,0.000000,4.000000,4.000000,4.000000,4.000000,4.000000,4.000000,4.000000,4.000000,4.000000,4.000000,4.000000,4.000000,4.000000,4.000000,100.000000
1602006196.108491,68.000000,0.000000,3958.974365,4101.025879,4137.436035,4151.794922,4122.563965,4150.256348,4152.307617,4143.589844,4142.051270,4102.563965,4137.948730,4156.922852,4120.512695,4021.025635,810.000000,4.000000,,,,0.000000,4.000000,4.000000,4.000000,4.000000,4.000000,4.000000,4.000000,4.000000,4.000000,4.000000,4.000000,4.000000,4.000000,4.000000,100.000000
1602006196.116373,69.000000,0.000000,3978.461426,4100.512695,4144.102539,4151.794922,4120.512695,4137.948730,4151.794922,4140.512695,4141.538574,4102.563965,4134.871582,4165.128418,4120.000000,4032.307617,821.000000,4.000000,,,,0.000000,4.000000,4.000000,4.000000,4.000000,4.000000,4.000000,4.000000,4.000000,4.000000,4.000000,4.000000,4.000000,4.000000,4.000000,100.000000
1602006196.124255,70.000000,0.000000,3995.384521,4098.461426,4147.692383,4155.897461,4127.692383,4143.589844,4148.717773,4140.512695,4132.307617,4103.589844,4130.769043,4171.794922,4120.000000,4032.307617,757.000000,4.000000,,,,0.000000,4.000000,4.000000,4.000000,4.000000,4.000000,4.000000,4.000000,4.000000,4.000000,4.000000,4.000000,4.000000,4.000000,4.000000,100.000000
1602006196.132137,71.000000,0.000000,3986.666748,4090.769287,4144.102539,4146.666504,4122.051270,4157.436035,4144.102539,4135.897461,4116.922852,4095.384521,4130.256348,4167.692383,4120.000000,4027.179443,666.000000,4.000000,,,,0.000000,4.000000,4.000000,4.000000,4.000000,4.000000,4.000000,4.000000,4.000000,4.000000,4.000000,4.000000,4.000000,4.000000,4.000000,100.000000
1602006196.140019,72.000000,0.000000,3985.128174,4090.256348,4147.179688,4137.436035,4121.025879,4157.948730,4142.051270,4132.820313,4128.205078,4111.282227,4138.974121,4170.256348,4123.077148,4032.307617,786.000000,4.000000,,,,0.000000,4.000000,4.000000,4.000000,4.000000,4.000000,4.000000,4.000000,4.000000,4.000000,4.000000,4.000000,4.000000,4.000000,4.000000,100.000000
1602006196.147900,73.000000,0.000000,3988.205078,4094.871826,4156.410156,4143.589844,4122.563965,4148.205078,4133.333496,4134.871582,4143.589844,4126.666504,4139.487305,4181.025879,4127.692383,4041.025635,836.000000,4.000000,,,,0.000000,4.000000,4.000000,4.000000,4.000000,4.000000,4.000000,4.000000,4.000000,4.000000,4.000000,4.000000,4.000000,4.000000,4.000000,100.000000
1602006196.155682,74.000000,0.000000,3983.589844,4094.871826,4152.820313,4152.307617,4124.615234,4151.282227,4122.563965,4134.358887,4136.922852,4108.717773,4138.461426,4181.025879,4132.307617,4049.230713,873.000000,4.000000,,,,0.000000,4.000000,4.000000,4.000000,4.000000,4.000000,4.000000,4.000000,4.000000,4.000000,4.000000,4.000000,4.000000,4.000000,4.000000,100.000000
1602006196.163564,75.000000,0.000000,3984.615479,4095.384521,4141.025879,4154.871582,4137.436035,4160.000000,4122.563965,4129.230957,4131.282227,4097.948730,4147.179688,4168.717773,4129.230957,4046.666748,850.000000,4.000000,,,,0.000000,4.000000,4.000000,4.000000,4.000000,4.000000,4.000000,4.000000,4.000000,4.000000,4.000000,4.000000,4.000000,4.000000,4.000000,100.000000
1602006196.171446,76.000000,0.000000,3973.846191,4087.692383,4130.769043,4147.179688,4140.512695,4151.794922,4123.077148,4121.538574,4129.230957,4110.256348,4134.358887,4152.820313,4112.820313,4021.025635,767.000000,4.000000,,,,0.000000,4.000000,4.000000,4.000000,4.000000,4.000000,4.000000,4.000000,4.000000,4.000000,4.000000,4.000000,4.000000,4.000000,4.000000,100.000000
1602006196.179328,77.000000,0.000000,3957.435791,4082.051270,4124.102539,4133.333496,4128.717773,4132.307617,4126.153809,4116.410156,4117.436035,4105.128418,4111.282227,4143.589844,4099.487305,4006.666748,742.000000,4.000000,,,,0.000000,4.000000,4.000000,4.000000,4.000000,4.000000,4.000000,4.000000,4.000000,4.000000,4.000000,4.000000,4.000000,4.000000,4.000000,100.000000
1602006196.187210,78.000000,0.000000,3974.358887,4095.384521,4129.230957,4141.538574,4131.282227,4132.820313,4140.512695,4125.128418,4120.000000,4082.051270,4117.436035,4149.230957,4107.692383,4028.205078,873.000000,4.000000,,,,0.000000,4.000000,4.000000,4.000000,4.000000,4.000000,4.000000,4.000000,4.000000,4.000000,4.000000,4.000000,4.000000,4.000000,4.000000,100.000000
1602006196.195092,79.000000,0.000000,4006.153809,4111.794922,4138.974121,4165.128418,4140.512695,4153.333496,4154.358887,4146.153809,4138.974121,4093.333252,4140.000000,4165.128418,4124.615234,4050.256348,850.000000,4.000000,,,,0.000000,4.000000,4.000000,4.000000,4.000000,4.000000,4.000000,4.000000,4.000000,4.000000,4.000000,4.000000,4.000000,4.000000,4.000000,100.000000
1602006196.202974,80.000000,0.000000,4007.692383,4110.769043,4145.641113,4165.128418,4132.820313,4154.871582,4156.410156,4156.922852,4142.563965,4123.589844,4152.307617,4173.846191,4129.743652,4047.179443,767.000000,4.000000,,,,0.000000,4.000000,4.000000,4.000000,4.000000,4.000000,4.000000,4.000000,4.000000,4.000000,4.000000,4.000000,4.000000,4.000000,4.000000,100.000000
1602006196.210856,81.000000,0.000000,3997.948730,4105.641113,4148.205078,4151.794922,4121.025879,4136.410156,4149.230957,4152.820313,4136.410156,4119.487305,4150.256348,4170.256348,4126.666504,4045.641113,742.000000,4.000000,,,,0.000000,4.000000,4.000000,4.000000,4.000000,4.000000,4.000000,4.000000,4.000000,4.000000,4.000000,4.000000,4.000000,4.000000,4.000000,100.000000
1602006196.218836,82.000000,0.000000,4005.128174,4107.179688,4146.153809,4154.871582,4125.128418,4137.436035,4146.666504,4150.769043,4145.128418,4109.743652,4145.641113,4169.230957,4135.384766,4060.512939,873.000000,4.000000,,,,0.000000,4.000000,4.000000,4.000000,4.000000,4.000000,4.000000,4.000000,4.000000,4.000000,4.000000,4.000000,4.000000,4.000000,4.000000,100.000000
1602006196.226717,83.000000,0.000000,4007.179443,4107.179688,4148.717773,4155.897461,4134.358887,4156.410156,4150.256348,4154.871582,4154.871582,4127.692383,4142.051270,4172.307617,4140.512695,4064.102539,850.000000,4.000000,,,,0.000000,4.000000,4.000000,4.000000,4.000000,4.000000,4.000000,4.000000,4.000000,4.000000,4.000000,4.000000,4.000000,4.000000,4.000000,100.000000
1602006196.234598,84.000000,0.000000,4002.051270,4105.641113,4152.307617,4150.256348,4137.948730,4163.589844,4148.205078,4150.256348,4146.153809,4134.358887,4137.436035,4172.820313,4128.205078,4060.000000,767.000000,4.000000,,,,0.000000,4.000000,4.000000,4.000000,4.000000,4.000000,4.000000,4.000000,4.000000,4.000000,4.000000,4.000000,4.000000,4.000000,4.000000,100.000000
1602006196.242379,85.000000,0.000000,4005.128174,4103.589844,4145.128418,4153.333496,4134.871582,4156.410156,4140.512695,4141.025879,4137.436035,4110.256348,4137.948730,4171.282227,4120.512695,4060.000000,742.000000,4.000000,,,,0.000000,4.000000,4.000000,4.000000,4.000000,4.000000,4.000000,4.000000,4.000000,4.000000,4.000000,4.000000,4.000000,4.000000,4.000000,100.000000
1602006196.250260,86.000000,0.000000,3995.897461,4099.487305,4135.384766,4153.333496,4127.179688,4146.666504,4138.461426,4137.436035,4136.410156,4092.307617,4138.974121,4171.282227,4122.051270,4052.820557,873.000000,4.000000,,,,0.000000,4.000000,4.000000,4.000000,4.000000,4.000000,4.000000,4.000000,4.000000,4.000000,4.000000,4.000000,4.000000,4.000000,4.000000,100.000000
1602006196.258041,87.000000,0.000000,3981.025635,4094.871826,4136.922852,4142.051270,4126.666504,4144.615234,4134.871582,4133.846191,4132.820313,4099.487305,4130.769043,4167.179688,4117.436035,4035.897461,850.000000,4.000000,,,,0.000000,4.000000,4.000000,4.000000,4.000000,4.000000,4.000000,4.000000,4.000000,4.000000,4.000000,4.000000,4.000000,4.000000,4.000000,100.000000
1602006196.265822,88.000000,0.000000,3984.615479,4089.743652,4135.897461,4131.282227,4130.256348,4140.000000,4121.025879,4122.563965,4125.641113,4106.153809,4127.179688,4155.384766,4104.615234,4031.281982,767.000000,4.000000,,,,0.000000,4.000000,4.000000,4.000000,4.000000,4.000000,4.000000,4.000000,4.000000,4.000000,4.000000,4.000000,4.000000,4.000000,4.000000,100.000000
1602006196.273704,89.000000,0.000000,3998.461426,4094.358887,4130.256348,4138.974121,4127.692383,4132.820313,4110.256348,4110.769043,4120.000000,4091.794922,4133.846191,4148.717773,4104.102539,4045.128174,742.000000,4.000000,,,,0.000000,4.000000,4.000000,4.000000,4.000000,4.000000,4.000000,4.000000,4.000000,4.000000,4.000000,4.000000,4.000000,4.000000,4.000000,100.000000
1602006196.281585,90.000000,0.000000,4003.076904,4106.153809,4133.333496,4153.333496,4130.256348,4134.358887,4108.205078,4107.692383,4118.974121,4089.230713,4128.205078,4150.769043,4108.205078,4052.307617,873.000000,4.000000,,,,0.000000,4.000000,4.000000,4.000000,4.000000,4.000000,4.000000,4.000000,4.000000,4.000000,4.000000,4.000000,4.000000,4.000000,4.000000,100.000000
1602006196.289467,91.000000,0.000000,4001.538574,4107.179688,4138.461426,4152.820313,4137.436035,4129.230957,4111.794922,4114.358887,4120.512695,4106.666504,4118.461426,4152.307617,4109.230957,4045.641113,850.000000,4.000000,,,,0.000000,4.000000,4.000000,4.000000,4.000000,4.000000,4.000000,4.000000,4.000000,4.000000,4.000000,4.000000,4.000000,4.000000,4.000000,100.000000
1602006196.297348,92.000000,0.000000,4008.205078,4105.128418,4140.512695,4147.692383,4136.922852,4124.102539,4123.589844,4130.769043,4124.615234,4100.512695,4126.666504,4153.846191,4116.410156,4041.538574,767.000000,4.000000,,,,0.000000,4.000000,4.000000,4.000000,4.000000,4.000000,4.000000,4.000000,4.000000,4.000000,4.000000,4.000000,4.000000,4.000000,4.000000,100.000000
1602006196.305229,93.000000,0.000000,4016.923096,4111.282227,4144.102539,4150.256348,4135.384766,4140.512695,4138.974121,4147.692383,4137.948730,4088.718018,4136.922852,4160.512695,4123.589844,4047.692383,742.000000,4.000000,,,,0.000000,4.000000,4.000000,4.000000,4.000000,4.000000,4.000000,4.000000,4.000000,4.000000,4.000000,4.000000,4.000000,4.000000,4.000000,100.000000
1602006196.313011,94.000000,0.000000,4016.923096,4112.307617,4151.282227,4152.307617,4139.487305,4156.410156,4146.666504,4156.410156,4155.897461,4113.333496,4144.615234,4168.205078,4126.666504,4058.461426,873.000000,4.000000,,,,0.000000,4.000000,4.000000,4.000000,4.000000,4.000000,4.000000,4.000000,4.000000,4.000000,4.000000,4.000000,4.000000,4.000000,4.000000,100.000000
1602006196.320893,95.000000,0.000000,4017.948730,4108.717773,4156.410156,4154.871582,4138.974121,4152.820313,4146.666504,4159.487305,4163.077148,4133.846191,4145.641113,4173.333496,4128.717773,4060.512939,850.000000,4.000000,,,,0.000000,4.000000,4.000000,4.000000,4.000000,4.000000,4.000000,4.000000,4.000000,4.000000,4.000000,4.000000,4.000000,4.000000,4.000000,100.000000
1602006196.328775,96.000000,0.000000,4023.076904,4110.256348,4154.358887,4152.820313,4137.948730,4150.256348,4142.051270,4154.358887,4148.717773,4116.922852,4131.794922,4176.410156,4128.205078,4055.384521,767.000000,4.000000,,,,0.000000,4.000000,4.000000,4.000000,4.000000,4.000000,4.000000,4.000000,4.000000,4.000000,4.000000,4.000000,4.000000,4.000000,4.000000,100.000000
1602006196.336656,97.000000,0.000000,4013.333252,4102.051270,4139.487305,4140.512695,4134.871582,4142.563965,4131.282227,4141.025879,4133.333496,4101.538574,4130.256348,4169.230957,4122.051270,4048.205078,742.000000,4.000000,,,,0.000000,4.000000,4.000000,4.000000,4.000000,4.000000,4.000000,4.000000,4.000000,4.000000,4.000000,4.000000,4.000000,4.000000,4.000000,100.000000
1602006196.344538,98.000000,0.000000,4002.051270,4093.333252,4121.025879,4133.846191,4124.102539,4130.769043,4122.563965,4132.820313,4136.410156,4104.615234,4141.538574,4156.410156,4116.922852,4043.076904,873.000000,4.000000,,,,0.000000,4.000000,4.000000,4.000000,4.000000,4.000000,4.000000,4.000000,4.000000,4.000000,4.000000,4.000000,4.000000,4.000000,4.000000,100.000000
1602006196.352419,99.000000,0.000000,4013.333252,4098.974121,4121.538574,4142.563965,4127.692383,4146.666504,4123.589844,4137.436035,4143.077148,4096.410156,4130.256348,4152.307617,4113.333496,4031.794922,850.000000,4.000000,,,,0.000000,4.000000,4.000000,4.000000,4.000000,4.000000,4.000000,4.000000,4.000000,4.000000,4.000000,4.000000,4.000000,4.000000,4.000000,100.000000
1602006196.360401,100.000000,0.000000,4014.358887,4097.948730,4125.641113,4142.563965,4136.410156,4161.538574,4125.128418,4133.846191,4136.922852,4079.487061,4104.102539,4152.307617,4102.051270,4006.666748,767.000000,4.000000,,,,0.000000,4.000000,4.000000,4.000000,4.000000,4.000000,4.000000,4.000000,4.000000,4.000000,4.000000,4.000000,4.000000,4.000000,4.000000,100.000000
1602006196.368283,101.000000,0.000000,3996.923096,4084.615479,4118.974121,4135.384766,4132.307617,4142.563965,4122.563965,4119.487305,4133.333496,4088.718018,4103.589844,4148.717773,4092.820557,3999.487061,742.000000,4.000000,,,,0.000000,4.000000,4.000000,4.000000,4.000000,4.000000,4.000000,4.000000,4.000000,4.000000,4.000000,4.000000,4.000000,4.000000,4.000000,100.000000
1602006196.376164,102.000000,0.000000,4004.615479,4086.153809,4124.615234,4133.333496,4129.743652,4127.692383,4122.563965,4121.025879,4139.487305,4110.256348,4124.102539,4156.410156,4098.974121,4025.641113,873.000000,4.000000,,,,0.000000,4.000000,4.000000,4.000000,4.000000,4.000000,4.000000,4.000000,4.000000,4.000000,4.000000,4.000000,4.000000,4.000000,4.000000,100.000000
1602006196.384046,103.000000,0.000000,4028.718018,4102.051270,4138.461426,4131.794922,4135.384766,4137.948730,4124.102539,4133.333496,4142.051270,4097.436035,4133.846191,4175.897461,4112.820313,4049.230713,850.000000,4.000000,,,,0.000000,4.000000,4.000000,4.000000,4.000000,4.000000,4.000000,4.000000,4.000000,4.000000,4.000000,4.000000,4.000000,4.000000,4.000000,100.000000
1602006196.391928,104.000000,0.000000,4033.846191,4109.743652,4146.153809,4142.563965,4145.641113,4146.153809,4125.641113,4143.077148,4147.179688,4084.102539,4133.333496,4187.179688,4122.051270,4053.846191,767.000000,4.000000,,,,0.000000,4.000000,4.000000,4.000000,4.000000,4.000000,4.000000,4.000000,4.000000,4.000000,4.000000,4.000000,4.000000,4.000000,4.000000,100.000000
1602006196.399809,105.000000,0.000000,4030.256348,4108.717773,4152.820313,4154.358887,4151.282227,4140.512695,4128.717773,4150.256348,4157.948730,4111.282227,4133.846191,4186.153809,4125.128418,4060.000000,742.000000,4.000000,,,,0.000000,4.000000,4.000000,4.000000,4.000000,4.000000,4.000000,4.000000,4.000000,4.000000,4.000000,4.000000,4.000000,4.000000,4.000000,100.000000
1602006196.407691,106.000000,0.000000,4038.974365,4107.179688,4151.282227,4147.179688,4143.589844,4135.897461,4128.205078,4148.717773,4157.948730,4130.769043,4137.436035,4185.641113,4124.615234,4065.641113,873.000000,4.000000,,,,0.000000,4.000000,4.000000,4.000000,4.000000,4.000000,4.000000,4.000000,4.000000,4.000000,4.000000,4.000000,4.000000,4.000000,4.000000,100.000000
1602006196.415472,107.000000,0.000000,4056.923096,4108.205078,4140.000000,4141.538574,4134.358887,4133.333496,4125.641113,4142.563965,4147.179688,4108.717773,4139.487305,4189.743652,4123.589844,4061.538574,850.000000,4.000000,,,,0.000000,4.000000,4.000000,4.000000,4.000000,4.000000,4.000000,4.000000,4.000000,4.000000,4.000000,4.000000,4.000000,4.000000,4.000000,100.000000
1602006196.423354,108.000000,0.000000,4058.461426,4108.205078,4139.487305,4150.769043,4136.410156,4134.871582,4124.102539,4141.025879,4131.794922,4087.179443,4138.974121,4183.589844,4126.153809,4064.102539,767.000000,4.000000,,,,0.000000,4.000000,4.000000,4.000000,4.000000,4.000000,4.000000,4.000000,4.000000,4.000000,4.000000,4.000000,4.000000,4.000000,4.000000,100.000000
1602006196.431235,109.000000,0.000000,4035.384521,4100.512695,4140.000000,4148.205078,4136.410156,4139.487305,4122.051270,4131.794922,4118.461426,4090.769287,4132.307617,4168.717773,4118.974121,4058.974365,742.000000,4.000000,,,,0.000000,4.000000,4.000000,4.000000,4.000000,4.000000,4.000000,4.000000,4.000000,4.000000,4.000000,4.000000,4.000000,4.000000,4.000000,100.000000
1602006196.439117,110.000000,0.000000,4024.615479,4095.897461,4124.615234,4129.743652,4135.384766,4141.025879,4122.051270,4120.512695,4123.589844,4093.333252,4124.615234,4165.641113,4111.794922,4039.487061,873.000000,4.000000,,,,0.000000,4.000000,4.000000,4.000000,4.000000,4.000000,4.000000,4.000000,4.000000,4.000000,4.000000,4.000000,4.000000,4.000000,4.000000,100.000000
1602006196.446998,111.000000,0.000000,4032.307617,4096.922852,4113.846191,4122.563965,4142.563965,4138.461426,4124.102539,4122.051270,4134.871582,4087.692383,4120.512695,4166.153809,4117.436035,4033.846191,850.000000,4.000000,,,,0.000000,4.000000,4.000000,4.000000,4.000000,4.000000,4.000000,4.000000,4.000000,4.000000,4.000000,4.000000,4.000000,4.000000,4.000000,100.000000
1602006196.454879,112.000000,0.000000,4025.128174,4096.922852,4116.410156,4132.307617,4136.922852,4135.897461,4120.512695,4122.051270,4135.897461,4091.281982,4117.436035,4159.487305,4120.000000,4039.487061,767.000000,4.000000,,,,0.000000,4.000000,4.000000,4.000000,4.000000,4.000000,4.000000,4.000000,4.000000,4.000000,4.000000,4.000000,4.000000,4.000000,4.000000,100.000000
1602006196.462861,113.000000,0.000000,4026.153809,4104.615234,4123.077148,4145.641113,4132.820313,4142.563965,4118.974121,4124.102539,4144.615234,4110.256348,4127.179688,4158.974121,4117.436035,4045.641113,742.000000,4.000000,,,,0.000000,4.000000,4.000000,4.000000,4.000000,4.000000,4.000000,4.000000,4.000000,4.000000,4.000000,4.000000,4.000000,4.000000,4.000000,100.000000
1602006196.470743,114.000000,0.000000,4063.076904,4123.077148,4134.358887,4155.384766,4148.717773,4155.384766,4128.205078,4141.538574,4162.563965,4127.179688,4151.282227,4170.256348,4129.230957,4062.564209,873.000000,4.000000,,,,0.000000,4.000000,4.000000,4.000000,4.000000,4.000000,4.000000,4.000000,4.000000,4.000000,4.000000,4.000000,4.000000,4.000000,4.000000,100.000000
1602006196.478625,115.000000,0.000000,4088.718018,4127.179688,4146.666504,4156.922852,4149.743652,4153.846191,4135.897461,4155.384766,4163.077148,4130.256348,4157.948730,4179.487305,4143.589844,4078.461426,850.000000,4.000000,,,,0.000000,4.000000,4.000000,4.000000,4.000000,4.000000,4.000000,4.000000,4.000000,4.000000,4.000000,4.000000,4.000000,4.000000,4.000000,100.000000
1602006196.486507,116.000000,0.000000,4074.358887,4111.282227,4152.820313,4148.205078,4126.153809,4136.410156,4136.922852,4154.871582,4153.846191,4124.615234,4139.487305,4184.615234,4141.025879,4071.281982,767.000000,4.000000,,,,0.000000,4.000000,4.000000,4.000000,4.000000,4.000000,4.000000,4.000000,4.000000,4.000000,4.000000,4.000000,4.000000,4.000000,4.000000,100.000000
1602006196.494389,117.000000,0.000000,4057.948730,4105.641113,4147.692383,4138.461426,4122.563965,4132.820313,4138.461426,4154.871582,4154.871582,4119.487305,4135.384766,4184.102539,4130.256348,4057.435791,742.000000,4.000000,,,,0.000000,4.000000,4.000000,4.000000,4.000000,4.000000,4.000000,4.000000,4.000000,4.000000,4.000000,4.000000,4.000000,4.000000,4.000000,100.000000
1602006196.502271,118.000000,0.000000,4062.051270,4111.282227,4139.487305,4141.025879,4141.538574,4149.743652,4137.948730,4154.358887,4154.871582,4120.512695,4145.641113,4175.384766,4124.102539,4060.000000,873.000000,4.000000,,,,0.000000,4.000000,4.000000,4.000000,4.000000,4.000000,4.000000,4.000000,4.000000,4.000000,4.000000,4.000000,4.000000,4.000000,4.000000,100.000000
1602006196.510152,119.000000,0.000000,4061.025635,4110.256348,4137.948730,4143.077148,4146.153809,4161.538574,4136.922852,4143.589844,4153.333496,4116.922852,4137.436035,4168.205078,4120.512695,4061.538574,850.000000,4.000000,,,,0.000000,4.000000,4.000000,4.000000,4.000000,4.000000,4.000000,4.000000,4.000000,4.000000,4.000000,4.000000,4.000000,4.000000,4.000000,100.000000
1602006196.518034,120.000000,0.000000,4052.307617,4106.666504,4135.384766,4140.000000,4139.487305,4154.871582,4136.410156,4137.436035,4148.717773,4103.589844,4122.563965,4161.025879,4114.871582,4053.333252,767.000000,4.000000,,,,0.000000,4.000000,4.000000,4.000000,4.000000,4.000000,4.000000,4.000000,4.000000,4.000000,4.000000,4.000000,4.000000,4.000000,4.000000,100.000000
1602006196.525916,121.000000,0.000000,4050.769287,4103.589844,4125.641113,4140.000000,4135.384766,4149.230957,4131.794922,4139.487305,4136.922852,4089.230713,4125.128418,4152.820313,4113.846191,4047.179443,742.000000,4.000000,,,,0.000000,4.000000,4.000000,4.000000,4.000000,4.000000,4.000000,4.000000,4.000000,4.000000,4.000000,4.000000,4.000000,4.000000,4.000000,100.000000
1602006196.533898,122.000000,0.000000,4048.718018,4096.922852,4119.487305,4136.922852,4139.487305,4156.922852,4125.641113,4132.307617,4134.358887,4091.281982,4130.256348,4150.256348,4115.384766,4043.076904,873.000000,4.000000,,,,0.000000,4.000000,4.000000,4.000000,4.000000,4.000000,4.000000,4.000000,4.000000,4.000000,4.000000,4.000000,4.000000,4.000000,4.000000,100.000000
1602006196.541779,123.000000,0.000000,4037.435791,4090.256348,4119.487305,4126.153809,4139.487305,4151.794922,4124.615234,4124.102539,4137.948730,4101.025879,4125.641113,4150.769043,4109.230957,4043.589844,850.000000,4.000000,,,,0.000000,4.000000,4.000000,4.000000,4.000000,4.000000,4.000000,4.000000,4.000000,4.000000,4.000000,4.000000,4.000000,4.000000,4.000000,100.000000
1602006196.549661,124.000000,0.000000,4040.512939,4090.256348,4126.666504,4128.205078,4128.205078,4137.948730,4131.282227,4131.794922,4128.205078,4097.948730,4136.410156,4159.487305,4111.794922,4052.820557,767.000000,4.000000,,,,0.000000,4.000000,4.000000,4.000000,4.000000,4.000000,4.000000,4.000000,4.000000,4.000000,4.000000,4.000000,4.000000,4.000000,4.000000,100.000000
1602006196.557543,125.000000,0.000000,4061.538574,4092.820557,4138.461426,4140.512695,4122.051270,4142.051270,4138.461426,4140.000000,4122.051270,4092.820557,4144.615234,4175.384766,4122.563965,4064.102539,742.000000,4.000000,,,,0.000000,4.000000,4.000000,4.000000,4.000000,4.000000,4.000000,4.000000,4.000000,4.000000,4.000000,4.000000,4.000000,4.000000,4.000000,100.000000
1602006196.565424,126.000000,0.000000,4061.538574,4091.281982,4138.974121,4132.820313,4131.794922,4152.307617,4137.436035,4138.461426,4136.410156,4105.641113,4127.692383,4177.436035,4117.436035,4058.974365,873.000000,4.000000,,,,0.000000,4.000000,4.000000,4.000000,4.000000,4.000000,4.000000,4.000000,4.000000,4.000000,4.000000,4.000000,4.000000,4.000000,4.000000,100.000000
1602006196.573306,127.000000,0.000000,4043.076904,4089.743652,4124.615234,4117.436035,4142.051270,4153.333496,4132.820313,4140.000000,4143.077148,4121.538574,4125.128418,4161.025879,4104.102539,4051.281982,850.000000,4.000000,,,,0.000000,4.000000,4.000000,4.000000,4.000000,4.000000,4.000000,4.000000,4.000000,4.000000,4.000000,4.000000,4.000000,4.000000,4.000000,100.000000
1602006196.581287,128.000000,0.000000,4043.076904,4092.307617,4115.897461,4126.153809,4144.102539,4155.384766,4135.384766,4144.102539,4135.897461,4111.794922,4138.974121,4152.307617,4101.025879,4057.435791,767.000000,4.000000,,,,0.000000,4.000000,4.000000,4.000000,4.000000,4.000000,4.000000,4.000000,4.000000,4.000000,4.000000,4.000000,4.000000,4.000000,4.000000,100.000000
1602006196.589169,0.000000,0.000000,4050.256348,4092.820557,4122.051270,4141.538574,4140.512695,4151.794922,4136.922852,4140.000000,4137.436035,4091.794922,4133.846191,4155.384766,4105.128418,4060.000000,795.000000,4.000000,,,,0.000000,4.000000,4.000000,4.000000,4.000000,4.000000,4.000000,4.000000,4.000000,4.000000,4.000000,4.000000,4.000000,4.000000,4.000000,100.000000
1602006196.597051,1.000000,0.000000,4048.718018,4092.307617,4128.205078,4136.922852,4136.410156,4142.051270,4131.794922,4135.897461,4135.897461,4090.256348,4123.077148,4152.820313,4104.102539,4053.846191,789.000000,4.000000,,,,0.000000,4.000000,4.000000,4.000000,4.000000,4.000000,4.000000,4.000000,4.000000,4.000000,4.000000,4.000000,4.000000,4.000000,4.000000,100.000000
1602006196.604932,2.000000,0.000000,4060.000000,4094.871826,4129.743652,4131.282227,4136.410156,4149.230957,4132.820313,4136.410156,4125.128418,4089.743652,4124.615234,4151.794922,4095.897461,4045.128174,858.000000,4.000000,,,,0.000000,4.000000,4.000000,4.000000,4.000000,4.000000,4.000000,4.000000,4.000000,4.000000,4.000000,4.000000,4.000000,4.000000,4.000000,100.000000
1602006196.612814,3.000000,0.000000,4076.923096,4096.410156,4133.846191,4139.487305,4135.384766,4153.333496,4136.410156,4136.922852,4119.487305,4078.974365,4125.641113,4158.974121,4087.692383,4045.641113,874.000000,4.000000,,,,0.000000,4.000000,4.000000,4.000000,4.000000,4.000000,4.000000,4.000000,4.000000,4.000000,4.000000,4.000000,4.000000,4.000000,4.000000,100.000000
1602006196.620696,4.000000,0.000000,4077.435791,4098.461426,4139.487305,4143.077148,4132.820313,4138.461426,4134.871582,4136.410156,4118.974121,4085.641113,4129.230957,4167.692383,4094.358887,4068.718018,810.000000,4.000000,,,,0.000000,4.000000,4.000000,4.000000,4.000000,4.000000,4.000000,4.000000,4.000000,4.000000,4.000000,4.000000,4.000000,4.000000,4.000000,100.000000
1602006196.628577,5.000000,0.000000,4078.461426,4104.615234,4143.077148,4132.820313,4133.846191,4139.487305,4134.358887,4137.436035,4126.153809,4111.794922,4134.871582,4181.538574,4114.871582,4097.436035,820.000000,4.000000,,,,0.000000,4.000000,4.000000,4.000000,4.000000,4.000000,4.000000,4.000000,4.000000,4.000000,4.000000,4.000000,4.000000,4.000000,4.000000,100.000000
1602006196.636359,6.000000,0.000000,4081.538574,4107.179688,4145.128418,4123.589844,4132.820313,4156.410156,4136.922852,4138.461426,4143.589844,4117.436035,4137.436035,4187.179688,4125.128418,4093.846191,765.000000,4.000000,,,,0.000000,4.000000,4.000000,4.000000,4.000000,4.000000,4.000000,4.000000,4.000000,4.000000,4.000000,4.000000,4.000000,4.000000,4.000000,100.000000
1602006196.644240,7.000000,0.000000,4074.871826,4104.102539,4145.641113,4131.282227,4126.666504,4150.769043,4135.384766,4136.922852,4156.410156,4103.077148,4144.102539,4174.871582,4121.538574,4075.384521,670.000000,4.000000,,,,0.000000,4.000000,4.000000,4.000000,4.000000,4.000000,4.000000,4.000000,4.000000,4.000000,4.000000,4.000000,4.000000,4.000000,4.000000,100.000000
1602006196.652122,8.000000,0.000000,4077.948730,4104.615234,4145.128418,4144.615234,4122.563965,4136.410156,4131.794922,4138.461426,4150.769043,4105.641113,4145.641113,4167.179688,4121.025879,4080.000000,786.000000,4.000000,,,,0.000000,4.000000,4.000000,4.000000,4.000000,4.000000,4.000000,4.000000,4.000000,4.000000,4.000000,4.000000,4.000000,4.000000,4.000000,100.000000
1602006196.660003,9.000000,0.000000,4090.769287,4106.666504,4142.051270,4142.563965,4130.256348,4143.077148,4135.897461,4142.051270,4141.538574,4113.846191,4137.436035,4167.179688,4123.589844,4082.051270,836.000000,4.000000,,,,0.000000,4.000000,4.000000,4.000000,4.000000,4.000000,4.000000,4.000000,4.000000,4.000000,4.000000,4.000000,4.000000,4.000000,4.000000,100.000000
1602006196.667884,10.000000,0.000000,4091.794922,4102.051270,4135.897461,4136.410156,4138.461426,4152.307617,4141.025879,4140.512695,4135.897461,4101.025879,4134.871582,4157.436035,4116.410156,4071.794922,873.000000,4.000000,,,,0.000000,4.000000,4.000000,4.000000,4.000000,4.000000,4.000000,4.000000,4.000000,4.000000,4.000000,4.000000,4.000000,4.000000,4.000000,100.000000
