Timestamp,EEG.Counter,EEG.Interpolated,EEG.AF3,EEG.F7,EEG.F3,EEG.FC5,EEG.T7,EEG.P7,EEG.O1,EEG.O2,EEG.P8,EEG.T8,EEG.FC6,EEG.F4,EEG.F8,EEG.AF4,EEG.RawCq,EEG.Battery,MarkerIndex,MarkerType,MarkerValueInt,EEG.MarkerHardware,CQ.AF3,CQ.F7,CQ.F3,CQ.FC5,CQ.T7,CQ.P7,CQ.O1,CQ.O2,CQ.P8,CQ.T8,CQ.FC6,CQ.F4,CQ.F8,CQ.AF4,CQ.Overall
1602006404.904067,117.000000,0.000000,4281.025879,4156.922852,4151.282227,4145.128418,4109.230957,4112.307617,4132.307617,4128.717773,4124.102539,4131.794922,4165.641113,4164.102539,4165.641113,4258.461426,738.000000,4.000000,,,,0.000000,4.000000,4.000000,4.000000,4.000000,4.000000,4.000000,4.000000,4.000000,4.000000,4.000000,4.000000,4.000000,4.000000,4.000000,100.000000
1602006404.911849,118.000000,0.000000,4262.051270,4156.922852,4153.846191,4140.000000,4110.769043,4127.179688,4130.769043,4137.436035,4129.743652,4155.897461,4146.666504,4173.333496,4161.538574,4248.717773,869.000000,4.000000,,,,0.000000,4.000000,4.000000,4.000000,4.000000,4.000000,4.000000,4.000000,4.000000,4.000000,4.000000,4.000000,4.000000,4.000000,4.000000,100.000000
1602006404.919730,119.000000,0.000000,4245.128418,4150.256348,4142.563965,4142.051270,4115.384766,4124.102539,4122.563965,4134.358887,4120.000000,4155.897461,4151.794922,4160.000000,4153.846191,4249.230957,838.000000,4.000000,,,,0.000000,4.000000,4.000000,4.000000,4.000000,4.000000,4.000000,4.000000,4.000000,4.000000,4.000000,4.000000,4.000000,4.000000,4.000000,100.000000
1602006404.927612,120.000000,0.000000,4226.153809,4141.538574,4133.846191,4142.563965,4120.512695,4107.692383,4121.538574,4123.589844,4114.871582,4136.922852,4161.538574,4152.820313,4157.436035,4230.769043,771.000000,4.000000,,,,0.000000,4.000000,4.000000,4.000000,4.000000,4.000000,4.000000,4.000000,4.000000,4.000000,4.000000,4.000000,4.000000,4.000000,4.000000,100.000000
1602006404.935493,121.000000,0.000000,4209.743652,4141.025879,4140.000000,4136.922852,4118.974121,4108.205078,4130.769043,4122.051270,4123.077148,4142.051270,4149.230957,4162.051270,4161.538574,4201.025879,738.000000,4.000000,,,,0.000000,4.000000,4.000000,4.000000,4.000000,4.000000,4.000000,4.000000,4.000000,4.000000,4.000000,4.000000,4.000000,4.000000,4.000000,100.000000
1602006404.943374,122.000000,0.000000,4201.538574,4145.128418,4143.589844,4137.948730,4120.000000,4128.717773,4140.000000,4128.205078,4128.205078,4156.922852,4140.000000,4158.974121,4153.846191,4187.692383,869.000000,4.000000,,,,0.000000,4.000000,4.000000,4.000000,4.000000,4.000000,4.000000,4.000000,4.000000,4.000000,4.000000,4.000000,4.000000,4.000000,4.000000,100.000000
1602006404.951256,123.000000,0.000000,4195.384766,4144.102539,4141.538574,4142.563965,4123.077148,4136.922852,4140.512695,4127.179688,4119.487305,4147.179688,4131.794922,4148.717773,4141.538574,4180.000000,838.000000,4.000000,,,,0.000000,4.000000,4.000000,4.000000,4.000000,4.000000,4.000000,4.000000,4.000000,4.000000,4.000000,4.000000,4.000000,4.000000,4.000000,100.000000
1602006404.959137,124.000000,0.000000,4176.922852,4136.410156,4144.615234,4135.897461,4118.974121,4124.615234,4131.794922,4121.538574,4115.384766,4131.794922,4117.436035,4147.179688,4133.333496,4166.666504,771.000000,4.000000,,,,0.000000,4.000000,4.000000,4.000000,4.000000,4.000000,4.000000,4.000000,4.000000,4.000000,4.000000,4.000000,4.000000,4.000000,4.000000,100.000000
1602006404.967019,125.000000,0.000000,4169.743652,4134.871582,4150.769043,4131.282227,4115.384766,4118.974121,4128.205078,4122.563965,4124.102539,4135.384766,4121.025879,4151.794922,4135.384766,4164.615234,738.000000,4.000000,,,,0.000000,4.000000,4.000000,4.000000,4.000000,4.000000,4.000000,4.000000,4.000000,4.000000,4.000000,4.000000,4.000000,4.000000,4.000000,100.000000
1602006404.975000,126.000000,0.000000,4180.000000,4137.436035,4149.230957,4136.410156,4120.000000,4123.077148,4133.846191,4124.102539,4128.717773,4144.615234,4136.410156,4153.846191,4140.000000,4173.846191,869.000000,4.000000,,,,0.000000,4.000000,4.000000,4.000000,4.000000,4.000000,4.000000,4.000000,4.000000,4.000000,4.000000,4.000000,4.000000,4.000000,4.000000,100.000000
1602006404.982882,127.000000,0.000000,4169.230957,4131.282227,4135.897461,4135.384766,4122.563965,4126.666504,4136.922852,4126.666504,4130.256348,4136.410156,4140.000000,4146.666504,4137.436035,4167.179688,838.000000,4.000000,,,,0.000000,4.000000,4.000000,4.000000,4.000000,4.000000,4.000000,4.000000,4.000000,4.000000,4.000000,4.000000,4.000000,4.000000,4.000000,100.000000
1602006404.990763,128.000000,0.000000,4147.692383,4127.692383,4123.077148,4131.794922,4123.589844,4135.384766,4135.384766,4135.384766,4137.948730,4133.846191,4136.922852,4137.436035,4138.974121,4152.820313,771.000000,4.000000,,,,0.000000,4.000000,4.000000,4.000000,4.000000,4.000000,4.000000,4.000000,4.000000,4.000000,4.000000,4.000000,4.000000,4.000000,4.000000,100.000000
1602006404.998645,0.000000,0.000000,4148.717773,4136.922852,4121.538574,4133.846191,4123.589844,4141.538574,4135.897461,4138.461426,4138.461426,4146.153809,4135.897461,4139.487305,4143.077148,4149.230957,793.000000,4.000000,,,,0.000000,4.000000,4.000000,4.000000,4.000000,4.000000,4.000000,4.000000,4.000000,4.000000,4.000000,4.000000,4.000000,4.000000,4.000000,100.000000
1602006405.006527,1.000000,0.000000,4148.717773,4136.922852,4121.538574,4132.820313,4122.051270,4125.128418,4137.436035,4126.666504,4121.538574,4132.307617,4136.922852,4136.922852,4132.820313,4137.436035,794.000000,4.000000,,,,0.000000,4.000000,4.000000,4.000000,4.000000,4.000000,4.000000,4.000000,4.000000,4.000000,4.000000,4.000000,4.000000,4.000000,4.000000,100.000000
1602006405.014408,2.000000,0.000000,4135.384766,4129.230957,4120.512695,4133.333496,4123.077148,4113.333496,4135.384766,4120.000000,4107.692383,4120.000000,4133.846191,4121.538574,4125.641113,4130.769043,849.000000,4.000000,,,,0.000000,4.000000,4.000000,4.000000,4.000000,4.000000,4.000000,4.000000,4.000000,4.000000,4.000000,4.000000,4.000000,4.000000,4.000000,100.000000
1602006405.022290,3.000000,0.000000,4136.410156,4135.384766,4123.589844,4141.025879,4126.666504,4130.769043,4140.512695,4127.692383,4115.897461,4146.666504,4127.179688,4123.589844,4137.948730,4146.666504,867.000000,4.000000,,,,0.000000,4.000000,4.000000,4.000000,4.000000,4.000000,4.000000,4.000000,4.000000,4.000000,4.000000,4.000000,4.000000,4.000000,4.000000,100.000000
1602006405.030172,4.000000,0.000000,4143.589844,4140.000000,4125.128418,4140.512695,4124.615234,4140.000000,4143.077148,4129.743652,4125.128418,4155.384766,4127.179688,4140.000000,4143.589844,4150.256348,809.000000,4.000000,,,,0.000000,4.000000,4.000000,4.000000,4.000000,4.000000,4.000000,4.000000,4.000000,4.000000,4.000000,4.000000,4.000000,4.000000,4.000000,100.000000
1602006405.038053,5.000000,0.000000,4135.897461,4136.922852,4125.641113,4135.384766,4121.538574,4129.743652,4131.282227,4127.179688,4119.487305,4124.615234,4136.410156,4143.077148,4135.384766,4135.897461,827.000000,4.000000,,,,0.000000,4.000000,4.000000,4.000000,4.000000,4.000000,4.000000,4.000000,4.000000,4.000000,4.000000,4.000000,4.000000,4.000000,4.000000,100.000000
1602006405.045835,6.000000,0.000000,4134.871582,4138.974121,4135.897461,4140.000000,4125.128418,4132.820313,4125.641113,4131.282227,4118.974121,4129.230957,4146.153809,4145.641113,4136.922852,4136.410156,761.000000,4.000000,,,,0.000000,4.000000,4.000000,4.000000,4.000000,4.000000,4.000000,4.000000,4.000000,4.000000,4.000000,4.000000,4.000000,4.000000,4.000000,100.000000
1602006405.053716,7.000000,0.000000,4143.589844,4143.589844,4146.153809,4142.563965,4129.230957,4145.128418,4133.333496,4140.512695,4135.897461,4169.230957,4141.538574,4156.922852,4143.077148,4146.666504,665.000000,4.000000,,,,0.000000,4.000000,4.000000,4.000000,4.000000,4.000000,4.000000,4.000000,4.000000,4.000000,4.000000,4.000000,4.000000,4.000000,4.000000,100.000000
1602006405.061598,8.000000,0.000000,4135.384766,4140.000000,4143.589844,4140.512695,4126.153809,4134.358887,4132.820313,4140.512695,4143.077148,4169.743652,4130.769043,4159.487305,4141.538574,4142.563965,785.000000,4.000000,,,,0.000000,4.000000,4.000000,4.000000,4.000000,4.000000,4.000000,4.000000,4.000000,4.000000,4.000000,4.000000,4.000000,4.000000,4.000000,100.000000
1602006405.069479,9.000000,0.000000,4121.538574,4130.769043,4135.897461,4138.974121,4122.051270,4113.333496,4123.077148,4128.717773,4130.256348,4147.692383,4133.333496,4148.205078,4135.384766,4125.641113,836.000000,4.000000,,,,0.000000,4.000000,4.000000,4.000000,4.000000,4.000000,4.000000,4.000000,4.000000,4.000000,4.000000,4.000000,4.000000,4.000000,4.000000,100.000000
1602006405.077360,10.000000,0.000000,4117.948730,4126.666504,4130.769043,4132.820313,4122.563965,4109.743652,4119.487305,4121.025879,4121.025879,4136.922852,4129.743652,4137.948730,4125.128418,4107.179688,870.000000,4.000000,,,,0.000000,4.000000,4.000000,4.000000,4.000000,4.000000,4.000000,4.000000,4.000000,4.000000,4.000000,4.000000,4.000000,4.000000,4.000000,100.000000
1602006405.085242,11.000000,0.000000,4110.256348,4127.179688,4128.205078,4121.538574,4124.102539,4117.436035,4120.000000,4121.538574,4115.384766,4124.615234,4109.743652,4131.282227,4117.948730,4103.077148,838.000000,4.000000,,,,0.000000,4.000000,4.000000,4.000000,4.000000,4.000000,4.000000,4.000000,4.000000,4.000000,4.000000,4.000000,4.000000,4.000000,4.000000,100.000000
1602006405.093223,12.000000,0.000000,4101.025879,4127.179688,4125.641113,4124.615234,4123.589844,4125.128418,4125.128418,4124.615234,4108.205078,4116.410156,4109.230957,4132.820313,4116.922852,4113.333496,771.000000,4.000000,,,,0.000000,4.000000,4.000000,4.000000,4.000000,4.000000,4.000000,4.000000,4.000000,4.000000,4.000000,4.000000,4.000000,4.000000,4.000000,100.000000
1602006405.101105,13.000000,0.000000,4106.666504,4126.666504,4122.051270,4137.436035,4124.102539,4129.743652,4136.410156,4127.179688,4112.820313,4120.000000,4124.102539,4134.871582,4116.410156,4113.846191,738.000000,4.000000,,,,0.000000,4.000000,4.000000,4.000000,4.000000,4.000000,4.000000,4.000000,4.000000,4.000000,4.000000,4.000000,4.000000,4.000000,4.000000,100.000000
1602006405.108987,14.000000,0.000000,4112.307617,4127.692383,4124.102539,4131.282227,4125.641113,4135.897461,4139.487305,4128.205078,4128.205078,4130.769043,4114.358887,4129.743652,4116.922852,4104.102539,870.000000,4.000000,,,,0.000000,4.000000,4.000000,4.000000,4.000000,4.000000,4.000000,4.000000,4.000000,4.000000,4.000000,4.000000,4.000000,4.000000,4.000000,100.000000
1602006405.116868,15.000000,0.000000,4107.179688,4126.153809,4121.025879,4115.897461,4127.179688,4141.538574,4133.333496,4125.641113,4128.717773,4135.384766,4104.102539,4123.589844,4117.948730,4097.948730,838.000000,4.000000,,,,0.000000,4.000000,4.000000,4.000000,4.000000,4.000000,4.000000,4.000000,4.000000,4.000000,4.000000,4.000000,4.000000,4.000000,4.000000,100.000000
1602006405.124750,16.000000,0.000000,4101.025879,4118.974121,4105.641113,4114.358887,4126.153809,4130.256348,4126.153809,4122.051270,4112.820313,4130.256348,4107.692383,4125.128418,4109.743652,4089.743652,0.000000,4.000000,,,,0.000000,4.000000,4.000000,4.000000,4.000000,4.000000,4.000000,4.000000,4.000000,4.000000,4.000000,4.000000,4.000000,4.000000,4.000000,100.000000
1602006405.132632,17.000000,0.000000,4100.000000,4119.487305,4103.589844,4122.563965,4122.563965,4106.153809,4125.128418,4124.615234,4110.769043,4129.230957,4105.128418,4134.871582,4105.641113,4083.076904,0.000000,4.000000,,,,0.000000,4.000000,4.000000,4.000000,4.000000,4.000000,4.000000,4.000000,4.000000,4.000000,4.000000,4.000000,4.000000,4.000000,4.000000,100.000000
1602006405.140513,18.000000,0.000000,4110.256348,4132.820313,4122.563965,4132.307617,4125.128418,4105.641113,4128.717773,4128.717773,4121.538574,4142.563965,4117.436035,4140.512695,4120.512695,4092.820557,0.000000,4.000000,,,,0.000000,4.000000,4.000000,4.000000,4.000000,4.000000,4.000000,4.000000,4.000000,4.000000,4.000000,4.000000,4.000000,4.000000,4.000000,100.000000
1602006405.148395,19.000000,0.000000,4123.589844,4142.563965,4135.384766,4138.461426,4133.846191,4133.333496,4130.769043,4127.692383,4120.512695,4148.205078,4138.461426,4141.538574,4133.333496,4111.794922,0.000000,4.000000,,,,0.000000,4.000000,4.000000,4.000000,4.000000,4.000000,4.000000,4.000000,4.000000,4.000000,4.000000,4.000000,4.000000,4.000000,4.000000,100.000000
1602006405.156277,20.000000,0.000000,4125.641113,4141.538574,4133.333496,4138.461426,4136.922852,4142.051270,4128.205078,4124.102539,4116.922852,4137.948730,4134.358887,4147.179688,4128.205078,4120.512695,0.000000,4.000000,,,,0.000000,4.000000,4.000000,4.000000,4.000000,4.000000,4.000000,4.000000,4.000000,4.000000,4.000000,4.000000,4.000000,4.000000,4.000000,100.000000
1602006405.164058,21.000000,0.000000,4123.589844,4141.538574,4129.230957,4137.436035,4132.307617,4127.692383,4124.615234,4124.102539,4119.487305,4136.922852,4119.487305,4152.820313,4125.641113,4120.512695,0.000000,4.000000,,,,0.000000,4.000000,4.000000,4.000000,4.000000,4.000000,4.000000,4.000000,4.000000,4.000000,4.000000,4.000000,4.000000,4.000000,4.000000,100.000000
1602006405.171939,22.000000,0.000000,4120.512695,4140.000000,4124.615234,4128.205078,4127.692383,4120.000000,4123.077148,4124.102539,4116.410156,4131.282227,4114.358887,4144.615234,4128.205078,4110.769043,0.000000,4.000000,,,,0.000000,4.000000,4.000000,4.000000,4.000000,4.000000,4.000000,4.000000,4.000000,4.000000,4.000000,4.000000,4.000000,4.000000,4.000000,100.000000
1602006405.179821,23.000000,0.000000,4110.256348,4133.846191,4120.000000,4115.897461,4124.102539,4113.333496,4120.000000,4114.871582,4102.051270,4105.128418,4101.538574,4129.743652,4115.897461,4093.333252,0.000000,4.000000,,,,0.000000,4.000000,4.000000,4.000000,4.000000,4.000000,4.000000,4.000000,4.000000,4.000000,4.000000,4.000000,4.000000,4.000000,4.000000,100.000000
1602006405.187702,24.000000,0.000000,4109.743652,4134.358887,4129.230957,4125.641113,4130.256348,4112.820313,4122.563965,4108.717773,4090.256348,4103.589844,4095.384521,4131.282227,4102.051270,4091.281982,0.000000,4.000000,,,,0.000000,4.000000,4.000000,4.000000,4.000000,4.000000,4.000000,4.000000,4.000000,4.000000,4.000000,4.000000,4.000000,4.000000,4.000000,100.000000
1602006405.195584,25.000000,0.000000,4120.512695,4139.487305,4137.948730,4140.512695,4138.974121,4126.666504,4131.794922,4114.871582,4093.333252,4124.102539,4111.794922,4138.461426,4110.256348,4100.512695,0.000000,4.000000,,,,0.000000,4.000000,4.000000,4.000000,4.000000,4.000000,4.000000,4.000000,4.000000,4.000000,4.000000,4.000000,4.000000,4.000000,4.000000,100.000000
1602006405.203465,26.000000,0.000000,4121.025879,4139.487305,4128.717773,4136.410156,4131.794922,4129.230957,4136.410156,4121.538574,4104.102539,4126.666504,4120.512695,4141.025879,4120.512695,4097.948730,0.000000,4.000000,,,,0.000000,4.000000,4.000000,4.000000,4.000000,4.000000,4.000000,4.000000,4.000000,4.000000,4.000000,4.000000,4.000000,4.000000,4.000000,100.000000
1602006405.211346,27.000000,0.000000,4120.512695,4140.000000,4122.051270,4134.358887,4126.666504,4123.077148,4135.897461,4129.743652,4113.333496,4131.282227,4126.153809,4151.794922,4120.000000,4100.512695,0.000000,4.000000,,,,0.000000,4.000000,4.000000,4.000000,4.000000,4.000000,4.000000,4.000000,4.000000,4.000000,4.000000,4.000000,4.000000,4.000000,4.000000,100.000000
1602006405.219128,28.000000,0.000000,4123.077148,4140.000000,4127.179688,4141.025879,4132.820313,4128.717773,4136.922852,4133.846191,4114.871582,4152.820313,4134.358887,4158.461426,4129.230957,4112.307617,0.000000,4.000000,,,,0.000000,4.000000,4.000000,4.000000,4.000000,4.000000,4.000000,4.000000,4.000000,4.000000,4.000000,4.000000,4.000000,4.000000,4.000000,100.000000
1602006405.227009,29.000000,0.000000,4114.871582,4138.461426,4128.205078,4138.461426,4132.307617,4137.436035,4138.461426,4128.205078,4122.051270,4157.948730,4134.358887,4153.333496,4141.025879,4114.358887,0.000000,4.000000,,,,0.000000,4.000000,4.000000,4.000000,4.000000,4.000000,4.000000,4.000000,4.000000,4.000000,4.000000,4.000000,4.000000,4.000000,4.000000,100.000000
1602006405.234890,30.000000,0.000000,4112.307617,4140.000000,4132.307617,4133.846191,4130.256348,4144.102539,4137.948730,4128.205078,4135.897461,4151.794922,4134.871582,4152.820313,4133.333496,4109.743652,0.000000,4.000000,,,,0.000000,4.000000,4.000000,4.000000,4.000000,4.000000,4.000000,4.000000,4.000000,4.000000,4.000000,4.000000,4.000000,4.000000,4.000000,100.000000
1602006405.242771,31.000000,0.000000,4119.487305,4142.563965,4137.948730,4136.410156,4136.410156,4149.230957,4138.974121,4134.871582,4136.410156,4151.794922,4127.692383,4158.461426,4121.538574,4106.153809,0.000000,4.000000,,,,0.000000,4.000000,4.000000,4.000000,4.000000,4.000000,4.000000,4.000000,4.000000,4.000000,4.000000,4.000000,4.000000,4.000000,4.000000,100.000000
1602006405.250752,32.000000,0.000000,4115.897461,4140.000000,4129.230957,4135.384766,4135.384766,4139.487305,4137.948730,4130.769043,4125.641113,4136.410156,4113.846191,4156.410156,4121.538574,4103.077148,0.000000,4.000000,,,,0.000000,4.000000,4.000000,4.000000,4.000000,4.000000,4.000000,4.000000,4.000000,4.000000,4.000000,4.000000,4.000000,4.000000,4.000000,100.000000
1602006405.258634,33.000000,0.000000,4103.589844,4134.871582,4127.179688,4133.846191,4126.153809,4124.615234,4134.871582,4123.077148,4117.436035,4113.333496,4125.641113,4153.333496,4124.615234,4106.153809,0.000000,4.000000,,,,0.000000,4.000000,4.000000,4.000000,4.000000,4.000000,4.000000,4.000000,4.000000,4.000000,4.000000,4.000000,4.000000,4.000000,4.000000,100.000000
1602006405.266515,34.000000,0.000000,4105.128418,4135.384766,4136.922852,4137.436035,4125.128418,4127.179688,4135.897461,4124.102539,4122.563965,4120.512695,4140.000000,4155.384766,4123.077148,4112.307617,0.000000,4.000000,,,,0.000000,4.000000,4.000000,4.000000,4.000000,4.000000,4.000000,4.000000,4.000000,4.000000,4.000000,4.000000,4.000000,4.000000,4.000000,100.000000
1602006405.274397,35.000000,0.000000,4111.794922,4136.922852,4137.948730,4135.384766,4130.256348,4136.410156,4137.948730,4126.666504,4131.282227,4147.179688,4122.563965,4156.922852,4126.666504,4109.230957,0.000000,4.000000,,,,0.000000,4.000000,4.000000,4.000000,4.000000,4.000000,4.000000,4.000000,4.000000,4.000000,4.000000,4.000000,4.000000,4.000000,4.000000,100.000000
1602006405.282278,36.000000,0.000000,4111.794922,4139.487305,4135.897461,4127.179688,4136.410156,4138.461426,4140.512695,4134.358887,4136.410156,4157.436035,4125.641113,4157.436035,4139.487305,4110.256348,0.000000,4.000000,,,,0.000000,4.000000,4.000000,4.000000,4.000000,4.000000,4.000000,4.000000,4.000000,4.000000,4.000000,4.000000,4.000000,4.000000,4.000000,100.000000
1602006405.290160,37.000000,0.000000,4110.256348,4141.538574,4134.358887,4127.179688,4142.051270,4140.512695,4142.051270,4141.025879,4136.410156,4149.743652,4143.589844,4154.871582,4137.948730,4112.307617,0.000000,4.000000,,,,0.000000,4.000000,4.000000,4.000000,4.000000,4.000000,4.000000,4.000000,4.000000,4.000000,4.000000,4.000000,4.000000,4.000000,4.000000,100.000000
1602006405.298041,38.000000,0.000000,4106.666504,4134.871582,4122.563965,4129.230957,4136.922852,4140.000000,4136.410156,4132.820313,4128.205078,4143.589844,4123.589844,4150.256348,4119.487305,4104.615234,0.000000,4.000000,,,,0.000000,4.000000,4.000000,4.000000,4.000000,4.000000,4.000000,4.000000,4.000000,4.000000,4.000000,4.000000,4.000000,4.000000,4.000000,100.000000
1602006405.305822,39.000000,0.000000,4105.641113,4126.153809,4118.461426,4124.615234,4130.769043,4136.410156,4133.846191,4126.153809,4123.077148,4137.948730,4106.666504,4150.769043,4115.897461,4103.589844,0.000000,4.000000,,,,0.000000,4.000000,4.000000,4.000000,4.000000,4.000000,4.000000,4.000000,4.000000,4.000000,4.000000,4.000000,4.000000,4.000000,4.000000,100.000000
1602006405.313704,40.000000,0.000000,4108.717773,4126.666504,4130.769043,4122.051270,4135.384766,4137.436035,4140.512695,4131.794922,4120.000000,4118.461426,4118.974121,4155.384766,4125.641113,4110.769043,0.000000,4.000000,,,,0.000000,4.000000,4.000000,4.000000,4.000000,4.000000,4.000000,4.000000,4.000000,4.000000,4.000000,4.000000,4.000000,4.000000,4.000000,100.000000
1602006405.321585,41.000000,0.000000,4106.153809,4125.128418,4134.871582,4122.051270,4137.948730,4143.077148,4142.563965,4136.410156,4123.077148,4112.307617,4126.153809,4156.922852,4124.615234,4111.794922,0.000000,4.000000,,,,0.000000,4.000000,4.000000,4.000000,4.000000,4.000000,4.000000,4.000000,4.000000,4.000000,4.000000,4.000000,4.000000,4.000000,4.000000,100.000000
1602006405.329467,42.000000,0.000000,4105.128418,4118.974121,4132.820313,4121.538574,4128.205078,4138.461426,4139.487305,4134.871582,4135.384766,4138.461426,4124.102539,4160.000000,4121.025879,4109.743652,0.000000,4.000000,,,,0.000000,4.000000,4.000000,4.000000,4.000000,4.000000,4.000000,4.000000,4.000000,4.000000,4.000000,4.000000,4.000000,4.000000,4.000000,100.000000
1602006405.337348,43.000000,0.000000,4118.461426,4125.641113,4136.922852,4127.179688,4123.077148,4130.769043,4144.102539,4135.384766,4140.512695,4158.974121,4128.205078,4166.666504,4129.230957,4120.512695,0.000000,4.000000,,,,0.000000,4.000000,4.000000,4.000000,4.000000,4.000000,4.000000,4.000000,4.000000,4.000000,4.000000,4.000000,4.000000,4.000000,4.000000,100.000000
1602006405.345229,44.000000,0.000000,4122.051270,4123.077148,4140.000000,4128.205078,4125.128418,4137.436035,4154.358887,4141.025879,4141.538574,4157.948730,4129.743652,4171.794922,4137.948730,4131.794922,0.000000,4.000000,,,,0.000000,4.000000,4.000000,4.000000,4.000000,4.000000,4.000000,4.000000,4.000000,4.000000,4.000000,4.000000,4.000000,4.000000,4.000000,100.000000
1602006405.353111,45.000000,0.000000,4106.666504,4105.641113,4137.948730,4117.436035,4121.025879,4136.410156,4154.358887,4141.538574,4148.717773,4158.974121,4127.179688,4166.666504,4138.974121,4126.153809,0.000000,4.000000,,,,0.000000,4.000000,4.000000,4.000000,4.000000,4.000000,4.000000,4.000000,4.000000,4.000000,4.000000,4.000000,4.000000,4.000000,4.000000,100.000000
1602006405.360992,46.000000,0.000000,4113.333496,4119.487305,4137.948730,4121.538574,4124.615234,4121.538574,4146.153809,4138.461426,4147.179688,4156.410156,4132.307617,4157.436035,4138.461426,4120.512695,0.000000,4.000000,,,,0.000000,4.000000,4.000000,4.000000,4.000000,4.000000,4.000000,4.000000,4.000000,4.000000,4.000000,4.000000,4.000000,4.000000,4.000000,100.000000
1602006405.368973,47.000000,0.000000,4144.615234,4160.000000,4140.000000,4145.128418,4140.512695,4125.128418,4141.538574,4138.974121,4126.666504,4133.846191,4136.922852,4161.025879,4137.948730,4125.641113,0.000000,4.000000,,,,0.000000,4.000000,4.000000,4.000000,4.000000,4.000000,4.000000,4.000000,4.000000,4.000000,4.000000,4.000000,4.000000,4.000000,4.000000,100.000000
1602006405.376854,48.000000,0.000000,4158.974121,4178.461426,4139.487305,4161.538574,4149.230957,4141.538574,4140.000000,4139.487305,4118.974121,4115.897461,4130.256348,4168.205078,4129.743652,4124.102539,0.000000,4.000000,,,,0.000000,4.000000,4.000000,4.000000,4.000000,4.000000,4.000000,4.000000,4.000000,4.000000,4.000000,4.000000,4.000000,4.000000,4.000000,100.000000
1602006405.384736,49.000000,0.000000,4149.230957,4176.410156,4136.922852,4158.461426,4145.128418,4140.512695,4136.410156,4132.820313,4123.077148,4117.436035,4121.025879,4159.487305,4109.230957,4100.512695,0.000000,4.000000,,,,0.000000,4.000000,4.000000,4.000000,4.000000,4.000000,4.000000,4.000000,4.000000,4.000000,4.000000,4.000000,4.000000,4.000000,4.000000,100.000000
1602006405.392617,50.000000,0.000000,4145.128418,4179.487305,4134.871582,4152.820313,4143.589844,4133.846191,4134.358887,4127.692383,4121.025879,4128.717773,4120.000000,4149.743652,4097.436035,4082.564209,0.000000,4.000000,,,,0.000000,4.000000,4.000000,4.000000,4.000000,4.000000,4.000000,4.000000,4.000000,4.000000,4.000000,4.000000,4.000000,4.000000,4.000000,100.000000
1602006405.400498,51.000000,0.000000,4152.307617,4184.615234,4135.384766,4156.922852,4149.230957,4137.436035,4137.436035,4127.692383,4128.205078,4148.205078,4122.563965,4153.846191,4103.589844,4092.820557,0.000000,4.000000,,,,0.000000,4.000000,4.000000,4.000000,4.000000,4.000000,4.000000,4.000000,4.000000,4.000000,4.000000,4.000000,4.000000,4.000000,4.000000,100.000000
1602006405.408479,52.000000,0.000000,4156.922852,4185.641113,4135.897461,4161.025879,4153.846191,4134.871582,4136.922852,4126.153809,4135.384766,4153.846191,4124.615234,4152.307617,4108.717773,4098.974121,0.000000,4.000000,,,,0.000000,4.000000,4.000000,4.000000,4.000000,4.000000,4.000000,4.000000,4.000000,4.000000,4.000000,4.000000,4.000000,4.000000,4.000000,100.000000
1602006405.416361,53.000000,0.000000,4156.410156,4181.025879,4137.948730,4157.436035,4153.846191,4137.436035,4136.410156,4127.179688,4131.282227,4141.538574,4125.128418,4148.717773,4105.128418,4097.436035,0.000000,4.000000,,,,0.000000,4.000000,4.000000,4.000000,4.000000,4.000000,4.000000,4.000000,4.000000,4.000000,4.000000,4.000000,4.000000,4.000000,4.000000,100.000000
1602006405.424242,54.000000,0.000000,4151.794922,4172.307617,4140.000000,4152.307617,4147.179688,4146.153809,4144.102539,4134.871582,4135.897461,4138.461426,4119.487305,4152.820313,4104.615234,4098.974121,0.000000,4.000000,,,,0.000000,4.000000,4.000000,4.000000,4.000000,4.000000,4.000000,4.000000,4.000000,4.000000,4.000000,4.000000,4.000000,4.000000,4.000000,100.000000
1602006405.432123,55.000000,0.000000,4144.102539,4164.615234,4140.000000,4149.230957,4140.000000,4140.512695,4152.820313,4140.512695,4145.128418,4154.358887,4121.538574,4154.871582,4109.743652,4098.974121,0.000000,4.000000,,,,0.000000,4.000000,4.000000,4.000000,4.000000,4.000000,4.000000,4.000000,4.000000,4.000000,4.000000,4.000000,4.000000,4.000000,4.000000,100.000000
1602006405.440005,56.000000,0.000000,4144.615234,4157.948730,4140.000000,4143.077148,4138.974121,4135.897461,4155.384766,4140.000000,4144.102539,4161.538574,4128.717773,4155.384766,4109.743652,4102.051270,0.000000,4.000000,,,,0.000000,4.000000,4.000000,4.000000,4.000000,4.000000,4.000000,4.000000,4.000000,4.000000,4.000000,4.000000,4.000000,4.000000,4.000000,100.000000
1602006405.447886,57.000000,0.000000,4151.282227,4154.871582,4138.974121,4136.410156,4137.948730,4139.487305,4154.358887,4138.974121,4135.384766,4146.666504,4122.051270,4153.846191,4101.025879,4108.205078,0.000000,4.000000,,,,0.000000,4.000000,4.000000,4.000000,4.000000,4.000000,4.000000,4.000000,4.000000,4.000000,4.000000,4.000000,4.000000,4.000000,4.000000,100.000000
1602006405.455768,58.000000,0.000000,4146.666504,4161.538574,4140.512695,4142.563965,4137.948730,4142.051270,4155.897461,4138.974121,4128.717773,4133.333496,4117.948730,4151.794922,4099.487305,4100.000000,0.000000,4.000000,,,,0.000000,4.000000,4.000000,4.000000,4.000000,4.000000,4.000000,4.000000,4.000000,4.000000,4.000000,4.000000,4.000000,4.000000,4.000000,100.000000
1602006405.463749,59.000000,0.000000,4139.487305,4172.820313,4143.077148,4153.846191,4144.102539,4150.769043,4157.948730,4137.948730,4127.179688,4133.333496,4127.692383,4148.717773,4104.102539,4086.153809,0.000000,4.000000,,,,0.000000,4.000000,4.000000,4.000000,4.000000,4.000000,4.000000,4.000000,4.000000,4.000000,4.000000,4.000000,4.000000,4.000000,4.000000,100.000000
1602006405.471630,60.000000,0.000000,4139.487305,4173.333496,4135.384766,4153.333496,4146.666504,4156.922852,4155.384766,4136.922852,4123.077148,4137.436035,4118.461426,4143.077148,4097.436035,4088.205078,0.000000,4.000000,,,,0.000000,4.000000,4.000000,4.000000,4.000000,4.000000,4.000000,4.000000,4.000000,4.000000,4.000000,4.000000,4.000000,4.000000,4.000000,100.000000
1602006405.479511,61.000000,0.000000,4136.410156,4167.179688,4122.051270,4146.666504,4142.563965,4142.563965,4150.256348,4139.487305,4124.102539,4138.974121,4102.051270,4135.384766,4093.333252,4091.281982,0.000000,4.000000,,,,0.000000,4.000000,4.000000,4.000000,4.000000,4.000000,4.000000,4.000000,4.000000,4.000000,4.000000,4.000000,4.000000,4.000000,4.000000,100.000000
1602006405.487392,62.000000,0.000000,4130.256348,4169.743652,4121.025879,4151.282227,4143.077148,4136.922852,4152.820313,4144.102539,4143.589844,4138.461426,4117.436035,4135.897461,4104.102539,4086.153809,0.000000,4.000000,,,,0.000000,4.000000,4.000000,4.000000,4.000000,4.000000,4.000000,4.000000,4.000000,4.000000,4.000000,4.000000,4.000000,4.000000,4.000000,100.000000
1602006405.495374,63.000000,0.000000,4126.666504,4169.230957,4125.128418,4156.922852,4142.051270,4152.820313,4152.820313,4145.641113,4156.922852,4139.487305,4130.256348,4140.000000,4104.615234,4084.615479,0.000000,4.000000,,,,0.000000,4.000000,4.000000,4.000000,4.000000,4.000000,4.000000,4.000000,4.000000,4.000000,4.000000,4.000000,4.000000,4.000000,4.000000,100.000000
1602006405.503255,64.000000,0.000000,4121.538574,4156.922852,4122.563965,4148.717773,4136.922852,4152.307617,4142.563965,4141.025879,4140.512695,4140.000000,4110.769043,4133.333496,4089.230713,4088.205078,793.000000,4.000000,,,,0.000000,4.000000,4.000000,4.000000,4.000000,4.000000,4.000000,4.000000,4.000000,4.000000,4.000000,4.000000,4.000000,4.000000,4.000000,100.000000
1602006405.511137,65.000000,0.000000,4119.487305,4150.769043,4120.512695,4140.512695,4135.897461,4132.307617,4134.871582,4133.333496,4119.487305,4128.717773,4100.512695,4127.179688,4085.641113,4088.718018,794.000000,4.000000,,,,0.000000,4.000000,4.000000,4.000000,4.000000,4.000000,4.000000,4.000000,4.000000,4.000000,4.000000,4.000000,4.000000,4.000000,4.000000,100.000000
1602006405.519019,66.000000,0.000000,4129.743652,4156.922852,4128.717773,4141.025879,4137.436035,4126.666504,4136.410156,4131.794922,4122.051270,4122.563965,4118.461426,4135.384766,4096.922852,4085.128174,850.000000,4.000000,,,,0.000000,4.000000,4.000000,4.000000,4.000000,4.000000,4.000000,4.000000,4.000000,4.000000,4.000000,4.000000,4.000000,4.000000,4.000000,100.000000
1602006405.526900,67.000000,0.000000,4141.538574,4156.922852,4139.487305,4143.589844,4138.461426,4138.974121,4136.410156,4138.461426,4137.436035,4140.000000,4125.128418,4143.589844,4107.179688,4087.179443,867.000000,4.000000,,,,0.000000,4.000000,4.000000,4.000000,4.000000,4.000000,4.000000,4.000000,4.000000,4.000000,4.000000,4.000000,4.000000,4.000000,4.000000,100.000000
1602006405.534782,68.000000,0.000000,4142.563965,4151.794922,4142.051270,4140.000000,4138.974121,4140.512695,4132.820313,4139.487305,4141.538574,4157.948730,4114.358887,4141.025879,4107.692383,4092.820557,809.000000,4.000000,,,,0.000000,4.000000,4.000000,4.000000,4.000000,4.000000,4.000000,4.000000,4.000000,4.000000,4.000000,4.000000,4.000000,4.000000,4.000000,100.000000
1602006405.542664,69.000000,0.000000,4137.948730,4152.307617,4138.461426,4135.897461,4140.000000,4135.897461,4133.846191,4135.897461,4134.871582,4155.384766,4113.846191,4139.487305,4102.563965,4097.948730,779.000000,4.000000,,,,0.000000,4.000000,4.000000,4.000000,4.000000,4.000000,4.000000,4.000000,4.000000,4.000000,4.000000,4.000000,4.000000,4.000000,4.000000,100.000000
1602006405.550645,70.000000,0.000000,4141.025879,4154.871582,4140.000000,4145.641113,4141.538574,4137.436035,4136.922852,4136.922852,4134.871582,4140.000000,4123.589844,4142.563965,4104.615234,4103.589844,761.000000,4.000000,,,,0.000000,4.000000,4.000000,4.000000,4.000000,4.000000,4.000000,4.000000,4.000000,4.000000,4.000000,4.000000,4.000000,4.000000,4.000000,100.000000
1602006405.558527,71.000000,0.000000,4138.974121,4154.871582,4136.922852,4154.871582,4138.974121,4133.333496,4136.410156,4134.871582,4142.051270,4136.922852,4118.461426,4137.948730,4107.179688,4101.025879,665.000000,4.000000,,,,0.000000,4.000000,4.000000,4.000000,4.000000,4.000000,4.000000,4.000000,4.000000,4.000000,4.000000,4.000000,4.000000,4.000000,4.000000,100.000000
1602006405.566408,72.000000,0.000000,4121.025879,4151.794922,4122.051270,4142.563965,4132.820313,4126.153809,4134.358887,4126.153809,4137.948730,4144.615234,4102.563965,4123.077148,4096.410156,4083.589844,785.000000,4.000000,,,,0.000000,4.000000,4.000000,4.000000,4.000000,4.000000,4.000000,4.000000,4.000000,4.000000,4.000000,4.000000,4.000000,4.000000,4.000000,100.000000
1602006405.574290,73.000000,0.000000,4105.128418,4148.205078,4112.307617,4126.666504,4135.897461,4135.897461,4135.384766,4125.641113,4126.666504,4130.769043,4101.538574,4109.230957,4087.179443,4073.333252,836.000000,4.000000,,,,0.000000,4.000000,4.000000,4.000000,4.000000,4.000000,4.000000,4.000000,4.000000,4.000000,4.000000,4.000000,4.000000,4.000000,4.000000,100.000000
1602006405.582172,74.000000,0.000000,4110.769043,4149.230957,4110.769043,4133.333496,4144.615234,4146.666504,4135.897461,4131.282227,4123.589844,4110.769043,4110.256348,4107.692383,4092.307617,4078.974365,871.000000,4.000000,,,,0.000000,4.000000,4.000000,4.000000,4.000000,4.000000,4.000000,4.000000,4.000000,4.000000,4.000000,4.000000,4.000000,4.000000,4.000000,100.000000
1602006405.590053,75.000000,0.000000,4121.538574,4147.692383,4111.282227,4139.487305,4141.025879,4131.794922,4130.769043,4126.666504,4125.641113,4114.871582,4108.205078,4112.307617,4094.871826,4077.948730,838.000000,4.000000,,,,0.000000,4.000000,4.000000,4.000000,4.000000,4.000000,4.000000,4.000000,4.000000,4.000000,4.000000,4.000000,4.000000,4.000000,4.000000,100.000000
1602006405.597935,76.000000,0.000000,4118.974121,4147.692383,4114.871582,4137.948730,4134.871582,4116.410156,4124.615234,4120.000000,4123.077148,4120.512695,4100.512695,4115.384766,4093.846191,4075.384521,771.000000,4.000000,,,,0.000000,4.000000,4.000000,4.000000,4.000000,4.000000,4.000000,4.000000,4.000000,4.000000,4.000000,4.000000,4.000000,4.000000,4.000000,100.000000
1602006405.605817,77.000000,0.000000,4124.102539,4155.384766,4122.051270,4149.230957,4140.000000,4121.025879,4124.615234,4126.666504,4121.025879,4121.025879,4107.692383,4123.077148,4106.153809,4092.307617,738.000000,4.000000,,,,0.000000,4.000000,4.000000,4.000000,4.000000,4.000000,4.000000,4.000000,4.000000,4.000000,4.000000,4.000000,4.000000,4.000000,4.000000,100.000000
1602006405.613698,78.000000,0.000000,4138.974121,4160.512695,4127.179688,4156.410156,4138.974121,4123.589844,4128.205078,4135.897461,4122.051270,4134.358887,4117.436035,4133.333496,4116.922852,4107.692383,871.000000,4.000000,,,,0.000000,4.000000,4.000000,4.000000,4.000000,4.000000,4.000000,4.000000,4.000000,4.000000,4.000000,4.000000,4.000000,4.000000,4.000000,100.000000
1602006405.621680,79.000000,0.000000,4134.358887,4153.333496,4127.692383,4144.615234,4125.128418,4119.487305,4128.717773,4135.384766,4129.230957,4136.922852,4110.256348,4137.948730,4110.769043,4104.615234,838.000000,4.000000,,,,0.000000,4.000000,4.000000,4.000000,4.000000,4.000000,4.000000,4.000000,4.000000,4.000000,4.000000,4.000000,4.000000,4.000000,4.000000,100.000000
1602006405.629561,80.000000,0.000000,4120.000000,4147.692383,4129.230957,4135.897461,4122.563965,4117.948730,4130.256348,4134.871582,4138.974121,4124.615234,4111.794922,4137.436035,4106.153809,4095.897461,771.000000,4.000000,,,,0.000000,4.000000,4.000000,4.000000,4.000000,4.000000,4.000000,4.000000,4.000000,4.000000,4.000000,4.000000,4.000000,4.000000,4.000000,100.000000
1602006405.637443,81.000000,0.000000,4128.205078,4152.307617,4134.358887,4140.512695,4133.846191,4118.974121,4136.410156,4137.436035,4145.128418,4130.256348,4123.077148,4136.410156,4114.358887,4091.794922,738.000000,4.000000,,,,0.000000,4.000000,4.000000,4.000000,4.000000,4.000000,4.000000,4.000000,4.000000,4.000000,4.000000,4.000000,4.000000,4.000000,4.000000,100.000000
1602006405.645325,82.000000,0.000000,4141.538574,4154.871582,4140.512695,4142.563965,4134.358887,4124.615234,4140.512695,4138.461426,4146.666504,4153.333496,4113.846191,4138.461426,4123.589844,4099.487305,871.000000,4.000000,,,,0.000000,4.000000,4.000000,4.000000,4.000000,4.000000,4.000000,4.000000,4.000000,4.000000,4.000000,4.000000,4.000000,4.000000,4.000000,100.000000
1602006405.653206,83.000000,0.000000,4130.256348,4144.615234,4136.922852,4139.487305,4128.205078,4138.974121,4145.641113,4143.589844,4148.205078,4158.974121,4102.563965,4138.974121,4123.589844,4105.128418,838.000000,4.000000,,,,0.000000,4.000000,4.000000,4.000000,4.000000,4.000000,4.000000,4.000000,4.000000,4.000000,4.000000,4.000000,4.000000,4.000000,4.000000,100.000000
1602006405.661088,84.000000,0.000000,4110.769043,4133.846191,4125.641113,4135.384766,4128.205078,4138.974121,4152.820313,4145.128418,4144.102539,4138.461426,4107.179688,4131.282227,4112.820313,4087.692383,771.000000,4.000000,,,,0.000000,4.000000,4.000000,4.000000,4.000000,4.000000,4.000000,4.000000,4.000000,4.000000,4.000000,4.000000,4.000000,4.000000,4.000000,100.000000
1602006405.668970,85.000000,0.000000,4110.769043,4142.563965,4119.487305,4132.820313,4128.205078,4122.563965,4149.743652,4139.487305,4137.948730,4128.205078,4109.230957,4121.025879,4102.563965,4073.846191,738.000000,4.000000,,,,0.000000,4.000000,4.000000,4.000000,4.000000,4.000000,4.000000,4.000000,4.000000,4.000000,4.000000,4.000000,4.000000,4.000000,4.000000,100.000000
1602006405.676851,86.000000,0.000000,4124.102539,4154.871582,4120.512695,4135.384766,4130.769043,4124.615234,4142.563965,4140.512695,4140.000000,4137.436035,4110.256348,4120.512695,4109.743652,4084.102539,871.000000,4.000000,,,,0.000000,4.000000,4.000000,4.000000,4.000000,4.000000,4.000000,4.000000,4.000000,4.000000,4.000000,4.000000,4.000000,4.000000,4.000000,100.000000
1602006405.684733,87.000000,0.000000,4125.128418,4153.333496,4124.615234,4140.000000,4137.436035,4141.025879,4143.589844,4144.615234,4136.922852,4140.000000,4109.743652,4125.128418,4116.410156,4092.307617,838.000000,4.000000,,,,0.000000,4.000000,4.000000,4.000000,4.000000,4.000000,4.000000,4.000000,4.000000,4.000000,4.000000,4.000000,4.000000,4.000000,4.000000,100.000000
1602006405.692715,88.000000,0.000000,4122.051270,4147.179688,4125.641113,4138.461426,4138.461426,4142.563965,4137.436035,4132.820313,4126.666504,4138.974121,4103.589844,4124.615234,4110.256348,4089.743652,771.000000,4.000000,,,,0.000000,4.000000,4.000000,4.000000,4.000000,4.000000,4.000000,4.000000,4.000000,4.000000,4.000000,4.000000,4.000000,4.000000,4.000000,100.000000
1602006405.700596,89.000000,0.000000,4121.538574,4143.077148,4123.077148,4134.358887,4134.871582,4131.282227,4124.102539,4118.461426,4118.974121,4141.538574,4109.743652,4125.128418,4104.102539,4091.281982,738.000000,4.000000,,,,0.000000,4.000000,4.000000,4.000000,4.000000,4.000000,4.000000,4.000000,4.000000,4.000000,4.000000,4.000000,4.000000,4.000000,4.000000,100.000000
1602006405.708478,90.000000,0.000000,4117.436035,4141.025879,4125.641113,4135.384766,4137.436035,4131.794922,4126.153809,4119.487305,4123.589844,4137.436035,4115.897461,4133.846191,4108.205078,4091.281982,871.000000,4.000000,,,,0.000000,4.000000,4.000000,4.000000,4.000000,4.000000,4.000000,4.000000,4.000000,4.000000,4.000000,4.000000,4.000000,4.000000,4.000000,100.000000
1602006405.716359,91.000000,0.000000,4117.948730,4141.025879,4130.769043,4132.307617,4136.922852,4139.487305,4135.384766,4125.641113,4134.358887,4133.846191,4101.025879,4140.000000,4109.743652,4091.281982,838.000000,4.000000,,,,0.000000,4.000000,4.000000,4.000000,4.000000,4.000000,4.000000,4.000000,4.000000,4.000000,4.000000,4.000000,4.000000,4.000000,4.000000,100.000000
1602006405.724241,92.000000,0.000000,4122.051270,4133.333496,4126.666504,4123.077148,4128.717773,4135.384766,4132.307617,4131.282227,4133.846191,4126.153809,4091.794922,4133.846191,4100.000000,4092.820557,771.000000,4.000000,,,,0.000000,4.000000,4.000000,4.000000,4.000000,4.000000,4.000000,4.000000,4.000000,4.000000,4.000000,4.000000,4.000000,4.000000,4.000000,100.000000
1602006405.732123,93.000000,0.000000,4108.205078,4120.000000,4118.461426,4117.436035,4124.615234,4130.256348,4130.256348,4135.897461,4124.615234,4107.179688,4103.077148,4121.025879,4088.205078,4086.153809,738.000000,4.000000,,,,0.000000,4.000000,4.000000,4.000000,4.000000,4.000000,4.000000,4.000000,4.000000,4.000000,4.000000,4.000000,4.000000,4.000000,4.000000,100.000000
1602006405.740004,94.000000,0.000000,4087.179443,4115.384766,4119.487305,4118.974121,4127.692383,4132.820313,4142.563965,4142.051270,4122.051270,4106.666504,4094.871826,4117.948730,4081.538574,4078.461426,871.000000,4.000000,,,,0.000000,4.000000,4.000000,4.000000,4.000000,4.000000,4.000000,4.000000,4.000000,4.000000,4.000000,4.000000,4.000000,4.000000,4.000000,100.000000
1602006405.747886,95.000000,0.000000,4092.307617,4122.563965,4121.025879,4129.743652,4135.897461,4141.025879,4157.436035,4152.307617,4131.282227,4136.410156,4074.358887,4124.615234,4088.718018,4084.615479,838.000000,4.000000,,,,0.000000,4.000000,4.000000,4.000000,4.000000,4.000000,4.000000,4.000000,4.000000,4.000000,4.000000,4.000000,4.000000,4.000000,4.000000,100.000000
1602006405.755868,96.000000,0.000000,4114.871582,4133.846191,4120.512695,4138.461426,4137.436035,4149.743652,4158.974121,4162.563965,4150.769043,4169.743652,4095.384521,4128.717773,4106.153809,4094.871826,771.000000,4.000000,,,,0.000000,4.000000,4.000000,4.000000,4.000000,4.000000,4.000000,4.000000,4.000000,4.000000,4.000000,4.000000,4.000000,4.000000,4.000000,100.000000
1602006405.763749,97.000000,0.000000,4125.128418,4138.974121,4129.230957,4136.410156,4133.333496,4151.794922,4156.410156,4163.589844,4162.051270,4172.307617,4132.307617,4131.282227,4113.333496,4093.333252,738.000000,4.000000,,,,0.000000,4.000000,4.000000,4.000000,4.000000,4.000000,4.000000,4.000000,4.000000,4.000000,4.000000,4.000000,4.000000,4.000000,4.000000,100.000000
1602006405.771631,98.000000,0.000000,4121.538574,4137.948730,4141.538574,4134.358887,4133.846191,4144.102539,4157.948730,4150.769043,4144.615234,4150.769043,4121.025879,4135.897461,4107.692383,4092.820557,871.000000,4.000000,,,,0.000000,4.000000,4.000000,4.000000,4.000000,4.000000,4.000000,4.000000,4.000000,4.000000,4.000000,4.000000,4.000000,4.000000,4.000000,100.000000
1602006405.779512,99.000000,0.000000,4123.077148,4143.589844,4142.051270,4139.487305,4137.948730,4141.538574,4151.282227,4135.384766,4121.538574,4142.563965,4097.948730,4140.512695,4107.692383,4103.077148,838.000000,4.000000,,,,0.000000,4.000000,4.000000,4.000000,4.000000,4.000000,4.000000,4.000000,4.000000,4.000000,4.000000,4.000000,4.000000,4.000000,4.000000,100.000000
1602006405.787394,100.000000,0.000000,4136.410156,4155.384766,4131.794922,4143.077148,4138.974121,4143.077148,4133.333496,4124.102539,4119.487305,4141.538574,4112.820313,4141.538574,4114.358887,4105.641113,771.000000,4.000000,,,,0.000000,4.000000,4.000000,4.000000,4.000000,4.000000,4.000000,4.000000,4.000000,4.000000,4.000000,4.000000,4.000000,4.000000,4.000000,100.000000
1602006405.795276,101.000000,0.000000,4136.922852,4151.794922,4125.128418,4143.077148,4141.025879,4135.897461,4118.974121,4114.871582,4121.538574,4128.205078,4125.128418,4133.333496,4111.282227,4100.000000,738.000000,4.000000,,,,0.000000,4.000000,4.000000,4.000000,4.000000,4.000000,4.000000,4.000000,4.000000,4.000000,4.000000,4.000000,4.000000,4.000000,4.000000,100.000000
1602006405.803157,102.000000,0.000000,4121.025879,4139.487305,4115.384766,4140.000000,4142.563965,4123.589844,4111.282227,4112.820313,4111.794922,4122.563965,4105.641113,4113.846191,4104.102539,4094.871826,871.000000,4.000000,,,,0.000000,4.000000,4.000000,4.000000,4.000000,4.000000,4.000000,4.000000,4.000000,4.000000,4.000000,4.000000,4.000000,4.000000,4.000000,100.000000
1602006405.811039,103.000000,0.000000,4121.025879,4143.077148,4107.692383,4138.974121,4141.025879,4117.436035,4110.256348,4121.025879,4103.077148,4135.384766,4090.769287,4103.077148,4106.153809,4090.769287,838.000000,4.000000,,,,0.000000,4.000000,4.000000,4.000000,4.000000,4.000000,4.000000,4.000000,4.000000,4.000000,4.000000,4.000000,4.000000,4.000000,4.000000,100.000000
1602006405.819021,104.000000,0.000000,4137.948730,4154.871582,4122.051270,4141.025879,4145.641113,4126.666504,4118.974121,4125.641113,4108.717773,4141.538574,4097.948730,4116.410156,4107.692383,4096.410156,771.000000,4.000000,,,,0.000000,4.000000,4.000000,4.000000,4.000000,4.000000,4.000000,4.000000,4.000000,4.000000,4.000000,4.000000,4.000000,4.000000,4.000000,100.000000
1602006405.826902,105.000000,0.000000,4142.051270,4154.871582,4142.051270,4145.641113,4152.307617,4140.512695,4129.230957,4126.153809,4121.025879,4137.948730,4108.205078,4126.666504,4104.102539,4113.846191,738.000000,4.000000,,,,0.000000,4.000000,4.000000,4.000000,4.000000,4.000000,4.000000,4.000000,4.000000,4.000000,4.000000,4.000000,4.000000,4.000000,4.000000,100.000000
1602006405.834784,106.000000,0.000000,4137.948730,4151.282227,4149.743652,4152.307617,4146.153809,4142.563965,4136.410156,4135.897461,4133.333496,4139.487305,4115.384766,4122.563965,4111.794922,4125.128418,871.000000,4.000000,,,,0.000000,4.000000,4.000000,4.000000,4.000000,4.000000,4.000000,4.000000,4.000000,4.000000,4.000000,4.000000,4.000000,4.000000,4.000000,100.000000
1602006405.842665,107.000000,0.000000,4137.948730,4151.794922,4146.153809,4146.666504,4138.974121,4139.487305,4140.512695,4140.000000,4138.974121,4135.897461,4120.000000,4126.153809,4122.051270,4120.512695,838.000000,4.000000,,,,0.000000,4.000000,4.000000,4.000000,4.000000,4.000000,4.000000,4.000000,4.000000,4.000000,4.000000,4.000000,4.000000,4.000000,4.000000,100.000000
1602006405.850547,108.000000,0.000000,4130.769043,4147.692383,4140.000000,4135.384766,4141.025879,4133.333496,4140.512695,4133.333496,4136.922852,4134.871582,4125.641113,4137.436035,4120.000000,4115.384766,771.000000,4.000000,,,,0.000000,4.000000,4.000000,4.000000,4.000000,4.000000,4.000000,4.000000,4.000000,4.000000,4.000000,4.000000,4.000000,4.000000,4.000000,100.000000
1602006405.858429,109.000000,0.000000,4128.205078,4148.717773,4135.897461,4140.512695,4141.538574,4128.717773,4138.974121,4134.871582,4138.974121,4161.538574,4136.410156,4144.615234,4125.641113,4128.717773,738.000000,4.000000,,,,0.000000,4.000000,4.000000,4.000000,4.000000,4.000000,4.000000,4.000000,4.000000,4.000000,4.000000,4.000000,4.000000,4.000000,4.000000,100.000000
1602006405.866310,110.000000,0.000000,4133.846191,4151.794922,4129.743652,4145.128418,4137.436035,4134.871582,4134.871582,4139.487305,4140.512695,4176.922852,4139.487305,4145.128418,4136.410156,4140.512695,871.000000,4.000000,,,,0.000000,4.000000,4.000000,4.000000,4.000000,4.000000,4.000000,4.000000,4.000000,4.000000,4.000000,4.000000,4.000000,4.000000,4.000000,100.000000
1602006405.874192,111.000000,0.000000,4124.102539,4143.077148,4109.230957,4135.897461,4137.436035,4138.974121,4125.128418,4130.256348,4126.666504,4143.589844,4122.051270,4136.410156,4128.717773,4125.641113,838.000000,4.000000,,,,0.000000,4.000000,4.000000,4.000000,4.000000,4.000000,4.000000,4.000000,4.000000,4.000000,4.000000,4.000000,4.000000,4.000000,4.000000,100.000000
1602006405.882074,112.000000,0.000000,4108.717773,4134.358887,4089.743652,4133.846191,4141.538574,4137.436035,4116.922852,4117.948730,4112.307617,4118.461426,4103.077148,4121.538574,4112.307617,4105.128418,771.000000,4.000000,,,,0.000000,4.000000,4.000000,4.000000,4.000000,4.000000,4.000000,4.000000,4.000000,4.000000,4.000000,4.000000,4.000000,4.000000,4.000000,100.000000
1602006405.890055,113.000000,0.000000,4106.666504,4137.948730,4094.871826,4135.897461,4144.102539,4138.974121,4109.230957,4117.436035,4109.743652,4125.641113,4106.153809,4114.871582,4106.666504,4103.589844,738.000000,4.000000,,,,0.000000,4.000000,4.000000,4.000000,4.000000,4.000000,4.000000,4.000000,4.000000,4.000000,4.000000,4.000000,4.000000,4.000000,4.000000,100.000000
1602006405.897937,114.000000,0.000000,4108.717773,4137.948730,4112.820313,4129.230957,4142.563965,4132.307617,4105.641113,4118.974121,4098.974121,4121.538574,4114.358887,4123.589844,4106.666504,4112.307617,871.000000,4.000000,,,,0.000000,4.000000,4.000000,4.000000,4.000000,4.000000,4.000000,4.000000,4.000000,4.000000,4.000000,4.000000,4.000000,4.000000,4.000000,100.000000
1602006405.905819,115.000000,0.000000,4104.102539,4128.205078,4125.641113,4125.641113,4132.307617,4118.461426,4112.307617,4123.589844,4097.948730,4126.153809,4109.743652,4142.051270,4105.128418,4119.487305,838.000000,4.000000,,,,0.000000,4.000000,4.000000,4.000000,4.000000,4.000000,4.000000,4.000000,4.000000,4.000000,4.000000,4.000000,4.000000,4.000000,4.000000,100.000000
1602006405.913700,116.000000,0.000000,4109.230957,4126.153809,4130.769043,4127.179688,4123.077148,4116.410156,4126.666504,4134.871582,4124.102539,4157.948730,4103.589844,4156.410156,4104.615234,4121.538574,771.000000,4.000000,,,,0.000000,4.000000,4.000000,4.000000,4.000000,4.000000,4.000000,4.000000,4.000000,4.000000,4.000000,4.000000,4.000000,4.000000,4.000000,100.000000
1602006405.921582,117.000000,0.000000,4118.461426,4128.717773,4136.922852,4123.589844,4121.025879,4127.692383,4142.051270,4140.512695,4140.000000,4165.641113,4112.307617,4155.384766,4111.794922,4119.487305,738.000000,4.000000,,,,0.000000,4.000000,4.000000,4.000000,4.000000,4.000000,4.000000,4.000000,4.000000,4.000000,4.000000,4.000000,4.000000,4.000000,4.000000,100.000000
1602006405.929463,118.000000,0.000000,4114.871582,4122.563965,4143.589844,4121.538574,4117.436035,4144.102539,4153.333496,4142.051270,4136.922852,4150.256348,4132.307617,4151.794922,4122.563965,4122.563965,871.000000,4.000000,,,,0.000000,4.000000,4.000000,4.000000,4.000000,4.000000,4.000000,4.000000,4.000000,4.000000,4.000000,4.000000,4.000000,4.000000,4.000000,100.000000
1602006405.937345,119.000000,0.000000,4108.205078,4124.615234,4143.077148,4126.666504,4121.538574,4155.897461,4159.487305,4150.256348,4145.641113,4153.846191,4140.000000,4154.358887,4127.692383,4127.692383,838.000000,4.000000,,,,0.000000,4.000000,4.000000,4.000000,4.000000,4.000000,4.000000,4.000000,4.000000,4.000000,4.000000,4.000000,4.000000,4.000000,4.000000,100.000000
1602006405.945227,120.000000,0.000000,4108.717773,4136.922852,4133.846191,4128.717773,4133.846191,4159.487305,4159.487305,4157.436035,4162.563965,4165.128418,4136.922852,4145.641113,4128.717773,4126.153809,771.000000,4.000000,,,,0.000000,4.000000,4.000000,4.000000,4.000000,4.000000,4.000000,4.000000,4.000000,4.000000,4.000000,4.000000,4.000000,4.000000,4.000000,100.000000
1602006405.953108,121.000000,0.000000,4108.205078,4133.846191,4117.948730,4123.589844,4139.487305,4156.922852,4151.794922,4153.333496,4163.077148,4168.717773,4130.256348,4129.743652,4126.153809,4120.512695,738.000000,4.000000,,,,0.000000,4.000000,4.000000,4.000000,4.000000,4.000000,4.000000,4.000000,4.000000,4.000000,4.000000,4.000000,4.000000,4.000000,4.000000,100.000000
1602006405.961090,122.000000,0.000000,4103.077148,4124.102539,4106.153809,4120.512695,4138.974121,4152.307617,4138.461426,4144.102539,4149.743652,4167.179688,4116.410156,4121.025879,4120.000000,4111.282227,871.000000,4.000000,,,,0.000000,4.000000,4.000000,4.000000,4.000000,4.000000,4.000000,4.000000,4.000000,4.000000,4.000000,4.000000,4.000000,4.000000,4.000000,100.000000
1602006405.968972,123.000000,0.000000,4111.794922,4134.871582,4106.666504,4123.077148,4147.179688,4147.692383,4129.230957,4141.025879,4141.538574,4160.512695,4112.820313,4119.487305,4120.512695,4103.077148,838.000000,4.000000,,,,0.000000,4.000000,4.000000,4.000000,4.000000,4.000000,4.000000,4.000000,4.000000,4.000000,4.000000,4.000000,4.000000,4.000000,4.000000,100.000000
1602006405.976853,124.000000,0.000000,4123.077148,4141.538574,4108.205078,4128.205078,4156.410156,4141.538574,4125.128418,4138.974121,4144.102539,4157.948730,4121.538574,4125.641113,4122.051270,4106.153809,771.000000,4.000000,,,,0.000000,4.000000,4.000000,4.000000,4.000000,4.000000,4.000000,4.000000,4.000000,4.000000,4.000000,4.000000,4.000000,4.000000,4.000000,100.000000
1602006405.984735,125.000000,0.000000,4121.538574,4135.897461,4109.230957,4135.897461,4154.358887,4137.948730,4120.512695,4131.794922,4144.615234,4154.871582,4123.589844,4135.384766,4119.487305,4117.436035,738.000000,4.000000,,,,0.000000,4.000000,4.000000,4.000000,4.000000,4.000000,4.000000,4.000000,4.000000,4.000000,4.000000,4.000000,4.000000,4.000000,4.000000,100.000000
1602006405.992616,126.000000,0.000000,4124.102539,4142.563965,4123.589844,4143.077148,4152.820313,4135.384766,4123.077148,4126.153809,4133.333496,4135.384766,4120.000000,4138.974121,4119.487305,4118.974121,871.000000,4.000000,,,,0.000000,4.000000,4.000000,4.000000,4.000000,4.000000,4.000000,4.000000,4.000000,4.000000,4.000000,4.000000,4.000000,4.000000,4.000000,100.000000
1602006406.000498,127.000000,0.000000,4130.769043,4148.205078,4137.948730,4145.128418,4153.846191,4130.256348,4133.333496,4126.666504,4119.487305,4123.077148,4117.948730,4135.384766,4114.358887,4109.230957,838.000000,4.000000,,,,0.000000,4.000000,4.000000,4.000000,4.000000,4.000000,4.000000,4.000000,4.000000,4.000000,4.000000,4.000000,4.000000,4.000000,4.000000,100.000000
1602006406.008380,128.000000,0.000000,4122.563965,4140.000000,4133.846191,4136.922852,4147.692383,4131.794922,4138.461426,4125.128418,4115.897461,4135.384766,4111.794922,4134.358887,4104.102539,4104.615234,771.000000,4.000000,,,,0.000000,4.000000,4.000000,4.000000,4.000000,4.000000,4.000000,4.000000,4.000000,4.000000,4.000000,4.000000,4.000000,4.000000,4.000000,100.000000
1602006406.016261,0.000000,0.000000,4111.282227,4134.871582,4123.077148,4122.051270,4138.461426,4138.974121,4134.871582,4120.512695,4120.512695,4131.282227,4104.615234,4136.410156,4104.102539,4103.077148,793.000000,4.000000,,,,0.000000,4.000000,4.000000,4.000000,4.000000,4.000000,4.000000,4.000000,4.000000,4.000000,4.000000,4.000000,4.000000,4.000000,4.000000,100.000000
1602006406.024143,1.000000,0.000000,4127.692383,4138.974121,4121.538574,4122.051270,4136.410156,4134.358887,4131.794922,4122.563965,4116.922852,4111.794922,4104.102539,4142.051270,4115.897461,4108.205078,794.000000,4.000000,,,,0.000000,4.000000,4.000000,4.000000,4.000000,4.000000,4.000000,4.000000,4.000000,4.000000,4.000000,4.000000,4.000000,4.000000,4.000000,100.000000
1602006406.032125,2.000000,0.000000,4154.358887,4145.641113,4122.563965,4139.487305,4140.000000,4130.769043,4133.846191,4131.794922,4115.384766,4127.692383,4106.666504,4145.641113,4125.641113,4121.538574,850.000000,4.000000,,,,0.000000,4.000000,4.000000,4.000000,4.000000,4.000000,4.000000,4.000000,4.000000,4.000000,4.000000,4.000000,4.000000,4.000000,4.000000,100.000000
1602006406.040006,3.000000,0.000000,4140.000000,4137.436035,4115.897461,4138.974121,4139.487305,4135.384766,4129.743652,4133.333496,4130.256348,4153.846191,4111.282227,4133.846191,4117.436035,4110.769043,867.000000,4.000000,,,,0.000000,4.000000,4.000000,4.000000,4.000000,4.000000,4.000000,4.000000,4.000000,4.000000,4.000000,4.000000,4.000000,4.000000,4.000000,100.000000
1602006406.047888,4.000000,0.000000,4105.641113,4122.051270,4103.589844,4121.538574,4137.436035,4128.205078,4120.512695,4124.102539,4135.897461,4147.179688,4117.948730,4123.589844,4114.871582,4087.692383,809.000000,4.000000,,,,0.000000,4.000000,4.000000,4.000000,4.000000,4.000000,4.000000,4.000000,4.000000,4.000000,4.000000,4.000000,4.000000,4.000000,4.000000,100.000000
1602006406.055769,5.000000,0.000000,4108.205078,4124.102539,4098.974121,4123.077148,4138.461426,4117.948730,4115.897461,4120.000000,4127.179688,4145.641113,4131.282227,4138.461426,4144.615234,4100.000000,811.000000,4.000000,,,,0.000000,4.000000,4.000000,4.000000,4.000000,4.000000,4.000000,4.000000,4.000000,4.000000,4.000000,4.000000,4.000000,4.000000,4.000000,100.000000
1602006406.063651,6.000000,0.000000,4134.871582,4138.974121,4110.256348,4138.974121,4140.512695,4126.153809,4119.487305,4128.717773,4134.358887,4174.871582,4151.794922,4160.512695,4181.025879,4134.871582,761.000000,4.000000,,,,0.000000,4.000000,4.000000,4.000000,4.000000,4.000000,4.000000,4.000000,4.000000,4.000000,4.000000,4.000000,4.000000,4.000000,4.000000,100.000000
1602006406.071533,7.000000,0.000000,4141.025879,4140.000000,4134.871582,4141.538574,4144.615234,4136.922852,4128.717773,4135.897461,4158.461426,4200.512695,4169.743652,4180.000000,4197.948730,4164.615234,721.000000,4.000000,,,,0.000000,4.000000,4.000000,4.000000,4.000000,4.000000,4.000000,4.000000,4.000000,4.000000,4.000000,4.000000,4.000000,4.000000,4.000000,100.000000
1602006406.079414,8.000000,0.000000,4132.307617,4128.717773,4153.846191,4137.948730,4144.615234,4137.948730,4136.410156,4137.948730,4170.256348,4204.615234,4180.512695,4197.948730,4204.102539,4180.512695,812.000000,4.000000,,,,0.000000,4.000000,4.000000,4.000000,4.000000,4.000000,4.000000,4.000000,4.000000,4.000000,4.000000,4.000000,4.000000,4.000000,4.000000,100.000000
1602006406.087296,9.000000,0.000000,4128.205078,4125.128418,4156.922852,4142.563965,4144.102539,4139.487305,4141.025879,4146.666504,4167.179688,4197.436035,4180.512695,4201.538574,4207.692383,4178.974121,836.000000,4.000000,,,,0.000000,4.000000,4.000000,4.000000,4.000000,4.000000,4.000000,4.000000,4.000000,4.000000,4.000000,4.000000,4.000000,4.000000,4.000000,100.000000
1602006406.095178,10.000000,0.000000,4123.589844,4118.974121,4152.307617,4135.897461,4141.025879,4132.307617,4140.000000,4155.384766,4161.025879,4173.846191,4161.538574,4185.128418,4200.512695,4171.282227,871.000000,4.000000,,,,0.000000,4.000000,4.000000,4.000000,4.000000,4.000000,4.000000,4.000000,4.000000,4.000000,4.000000,4.000000,4.000000,4.000000,4.000000,100.000000
1602006406.103159,11.000000,0.000000,4122.563965,4107.179688,4150.769043,4118.974121,4125.128418,4120.512695,4136.922852,4152.307617,4148.717773,4149.230957,4132.307617,4169.230957,4181.025879,4164.615234,838.000000,4.000000,,,,0.000000,4.000000,4.000000,4.000000,4.000000,4.000000,4.000000,4.000000,4.000000,4.000000,4.000000,4.000000,4.000000,4.000000,4.000000,100.000000
1602006406.111041,12.000000,0.000000,4131.794922,4112.307617,4156.410156,4126.153809,4116.410156,4136.410156,4146.153809,4150.769043,4142.563965,4153.333496,4127.692383,4175.384766,4167.692383,4158.974121,771.000000,4.000000,,,,0.000000,4.000000,4.000000,4.000000,4.000000,4.000000,4.000000,4.000000,4.000000,4.000000,4.000000,4.000000,4.000000,4.000000,4.000000,100.000000
1602006406.118923,13.000000,0.000000,4135.897461,4122.563965,4162.563965,4139.487305,4129.743652,4157.948730,4160.512695,4152.820313,4147.179688,4167.179688,4147.692383,4185.128418,4172.307617,4163.589844,768.000000,4.000000,,,,0.000000,4.000000,4.000000,4.000000,4.000000,4.000000,4.000000,4.000000,4.000000,4.000000,4.000000,4.000000,4.000000,4.000000,4.000000,100.000000
1602006406.126804,14.000000,0.000000,4124.615234,4111.794922,4150.256348,4127.179688,4136.410156,4140.512695,4154.358887,4144.102539,4143.589844,4166.153809,4151.282227,4175.384766,4168.205078,4163.589844,871.000000,4.000000,,,,0.000000,4.000000,4.000000,4.000000,4.000000,4.000000,4.000000,4.000000,4.000000,4.000000,4.000000,4.000000,4.000000,4.000000,4.000000,100.000000
1602006406.134686,15.000000,0.000000,4115.897461,4098.974121,4133.846191,4113.846191,4129.230957,4117.436035,4137.948730,4135.384766,4132.307617,4163.589844,4134.871582,4162.051270,4151.282227,4149.230957,838.000000,4.000000,,,,0.000000,4.000000,4.000000,4.000000,4.000000,4.000000,4.000000,4.000000,4.000000,4.000000,4.000000,4.000000,4.000000,4.000000,4.000000,100.000000
1602006406.142567,16.000000,0.000000,4120.512695,4106.153809,4136.922852,4120.512695,4135.897461,4131.794922,4137.436035,4137.436035,4138.974121,4158.974121,4139.487305,4165.641113,4158.974121,4147.179688,0.000000,4.000000,,,,0.000000,4.000000,4.000000,4.000000,4.000000,4.000000,4.000000,4.000000,4.000000,4.000000,4.000000,4.000000,4.000000,4.000000,4.000000,100.000000
1602006406.150449,17.000000,0.000000,4126.666504,4111.282227,4143.589844,4126.153809,4150.256348,4150.769043,4142.563965,4138.461426,4156.922852,4148.717773,4160.512695,4173.846191,4177.948730,4157.948730,0.000000,4.000000,,,,0.000000,4.000000,4.000000,4.000000,4.000000,4.000000,4.000000,4.000000,4.000000,4.000000,4.000000,4.000000,4.000000,4.000000,4.000000,100.000000
1602006406.158331,18.000000,0.000000,4121.025879,4106.666504,4138.974121,4121.025879,4152.820313,4138.974121,4138.461426,4136.410156,4156.410156,4161.538574,4155.897461,4166.666504,4174.871582,4154.871582,0.000000,4.000000,,,,0.000000,4.000000,4.000000,4.000000,4.000000,4.000000,4.000000,4.000000,4.000000,4.000000,4.000000,4.000000,4.000000,4.000000,4.000000,100.000000
1602006406.166212,19.000000,0.000000,4113.846191,4107.179688,4137.436035,4121.025879,4153.846191,4121.025879,4131.282227,4137.436035,4151.282227,4185.641113,4135.384766,4156.922852,4168.717773,4147.692383,0.000000,4.000000,,,,0.000000,4.000000,4.000000,4.000000,4.000000,4.000000,4.000000,4.000000,4.000000,4.000000,4.000000,4.000000,4.000000,4.000000,4.000000,100.000000
1602006406.174194,20.000000,0.000000,4117.436035,4110.256348,4136.922852,4129.230957,4151.794922,4123.589844,4124.615234,4136.922852,4154.358887,4176.410156,4137.436035,4160.000000,4168.205078,4155.384766,0.000000,4.000000,,,,0.000000,4.000000,4.000000,4.000000,4.000000,4.000000,4.000000,4.000000,4.000000,4.000000,4.000000,4.000000,4.000000,4.000000,4.000000,100.000000
1602006406.182076,21.000000,0.000000,4121.025879,4111.282227,4127.692383,4127.179688,4142.051270,4129.230957,4120.512695,4129.230957,4151.794922,4152.307617,4144.102539,4167.692383,4153.333496,4153.846191,0.000000,4.000000,,,,0.000000,4.000000,4.000000,4.000000,4.000000,4.000000,4.000000,4.000000,4.000000,4.000000,4.000000,4.000000,4.000000,4.000000,4.000000,100.000000
1602006406.189957,22.000000,0.000000,4112.307617,4107.692383,4116.922852,4111.282227,4136.410156,4125.641113,4120.000000,4123.077148,4140.512695,4152.307617,4126.666504,4162.563965,4140.000000,4132.820313,0.000000,4.000000,,,,0.000000,4.000000,4.000000,4.000000,4.000000,4.000000,4.000000,4.000000,4.000000,4.000000,4.000000,4.000000,4.000000,4.000000,4.000000,100.000000
1602006406.197839,23.000000,0.000000,4102.051270,4101.538574,4107.179688,4103.589844,4133.846191,4124.615234,4125.128418,4129.230957,4137.436035,4151.794922,4117.948730,4153.333496,4146.666504,4125.128418,0.000000,4.000000,,,,0.000000,4.000000,4.000000,4.000000,4.000000,4.000000,4.000000,4.000000,4.000000,4.000000,4.000000,4.000000,4.000000,4.000000,4.000000,100.000000
1602006406.205720,24.000000,0.000000,4103.077148,4101.025879,4101.025879,4109.230957,4132.307617,4129.230957,4135.384766,4138.461426,4145.128418,4135.384766,4135.897461,4147.179688,4146.666504,4134.358887,0.000000,4.000000,,,,0.000000,4.000000,4.000000,4.000000,4.000000,4.000000,4.000000,4.000000,4.000000,4.000000,4.000000,4.000000,4.000000,4.000000,4.000000,100.000000
1602006406.213602,25.000000,0.000000,4110.769043,4104.615234,4102.563965,4107.692383,4133.846191,4133.846191,4139.487305,4140.000000,4151.282227,4132.307617,4142.563965,4138.974121,4134.871582,4136.410156,0.000000,4.000000,,,,0.000000,4.000000,4.000000,4.000000,4.000000,4.000000,4.000000,4.000000,4.000000,4.000000,4.000000,4.000000,4.000000,4.000000,4.000000,100.000000
1602006406.221484,26.000000,0.000000,4107.692383,4102.051270,4106.666504,4103.589844,4135.384766,4147.179688,4138.461426,4137.436035,4155.384766,4143.077148,4127.692383,4134.871582,4134.871582,4136.410156,0.000000,4.000000,,,,0.000000,4.000000,4.000000,4.000000,4.000000,4.000000,4.000000,4.000000,4.000000,4.000000,4.000000,4.000000,4.000000,4.000000,4.000000,100.000000
1602006406.229365,27.000000,0.000000,4095.897461,4091.794922,4108.717773,4106.666504,4133.846191,4153.333496,4138.974121,4132.307617,4153.333496,4145.128418,4118.974121,4135.384766,4141.538574,4133.846191,0.000000,4.000000,,,,0.000000,4.000000,4.000000,4.000000,4.000000,4.000000,4.000000,4.000000,4.000000,4.000000,4.000000,4.000000,4.000000,4.000000,4.000000,100.000000
1602006406.237346,28.000000,0.000000,4097.436035,4086.153809,4112.307617,4107.692383,4133.846191,4144.102539,4133.846191,4128.205078,4149.230957,4150.769043,4128.717773,4136.922852,4137.948730,4126.666504,0.000000,4.000000,,,,0.000000,4.000000,4.000000,4.000000,4.000000,4.000000,4.000000,4.000000,4.000000,4.000000,4.000000,4.000000,4.000000,4.000000,4.000000,100.000000
1602006406.245227,29.000000,0.000000,4110.769043,4092.307617,4120.512695,4107.692383,4136.922852,4138.974121,4126.666504,4127.692383,4155.897461,4164.102539,4142.051270,4140.512695,4142.563965,4133.333496,0.000000,4.000000,,,,0.000000,4.000000,4.000000,4.000000,4.000000,4.000000,4.000000,4.000000,4.000000,4.000000,4.000000,4.000000,4.000000,4.000000,4.000000,100.000000
1602006406.253208,30.000000,0.000000,4110.769043,4100.000000,4123.589844,4116.410156,4136.922852,4133.846191,4125.128418,4127.692383,4155.897461,4153.846191,4140.512695,4143.589844,4152.307617,4141.025879,0.000000,4.000000,,,,0.000000,4.000000,4.000000,4.000000,4.000000,4.000000,4.000000,4.000000,4.000000,4.000000,4.000000,4.000000,4.000000,4.000000,4.000000,100.000000
1602006406.261089,31.000000,0.000000,4114.358887,4110.769043,4123.077148,4125.128418,4138.461426,4131.282227,4123.589844,4124.102539,4140.512695,4138.461426,4134.358887,4148.717773,4155.384766,4143.077148,0.000000,4.000000,,,,0.000000,4.000000,4.000000,4.000000,4.000000,4.000000,4.000000,4.000000,4.000000,4.000000,4.000000,4.000000,4.000000,4.000000,4.000000,100.000000
1602006406.268971,32.000000,0.000000,4135.384766,4123.077148,4130.769043,4124.615234,4142.051270,4131.282227,4120.512695,4122.563965,4136.410156,4141.025879,4138.461426,4156.410156,4160.512695,4156.410156,0.000000,4.000000,,,,0.000000,4.000000,4.000000,4.000000,4.000000,4.000000,4.000000,4.000000,4.000000,4.000000,4.000000,4.000000,4.000000,4.000000,4.000000,100.000000
1602006406.276852,33.000000,0.000000,4140.512695,4128.717773,4138.461426,4128.717773,4141.025879,4124.615234,4122.051270,4127.692383,4143.589844,4138.461426,4138.974121,4160.000000,4168.717773,4164.102539,0.000000,4.000000,,,,0.000000,4.000000,4.000000,4.000000,4.000000,4.000000,4.000000,4.000000,4.000000,4.000000,4.000000,4.000000,4.000000,4.000000,4.000000,100.000000
1602006406.284833,34.000000,0.000000,4127.692383,4128.717773,4138.461426,4137.948730,4138.974121,4124.615234,4124.615234,4136.922852,4140.000000,4136.410156,4143.077148,4159.487305,4170.256348,4153.333496,0.000000,4.000000,,,,0.000000,4.000000,4.000000,4.000000,4.000000,4.000000,4.000000,4.000000,4.000000,4.000000,4.000000,4.000000,4.000000,4.000000,4.000000,100.000000
1602006406.292715,35.000000,0.000000,4121.538574,4124.615234,4134.358887,4131.794922,4138.974121,4132.820313,4123.589844,4137.436035,4131.282227,4158.974121,4152.307617,4160.000000,4160.512695,4150.769043,0.000000,4.000000,,,,0.000000,4.000000,4.000000,4.000000,4.000000,4.000000,4.000000,4.000000,4.000000,4.000000,4.000000,4.000000,4.000000,4.000000,4.000000,100.000000
1602006406.300597,36.000000,0.000000,4123.589844,4115.897461,4133.846191,4119.487305,4136.922852,4127.692383,4129.743652,4131.282227,4135.897461,4175.384766,4143.077148,4160.000000,4152.820313,4157.948730,0.000000,4.000000,,,,0.000000,4.000000,4.000000,4.000000,4.000000,4.000000,4.000000,4.000000,4.000000,4.000000,4.000000,4.000000,4.000000,4.000000,4.000000,100.000000
1602006406.308478,37.000000,0.000000,4120.512695,4109.743652,4134.871582,4121.538574,4133.846191,4120.000000,4134.358887,4131.282227,4145.641113,4157.436035,4135.384766,4157.948730,4153.333496,4155.384766,0.000000,4.000000,,,,0.000000,4.000000,4.000000,4.000000,4.000000,4.000000,4.000000,4.000000,4.000000,4.000000,4.000000,4.000000,4.000000,4.000000,4.000000,100.000000
1602006406.316360,38.000000,0.000000,4113.846191,4108.205078,4137.436035,4125.641113,4135.897461,4128.205078,4129.230957,4135.897461,4146.666504,4148.717773,4147.179688,4152.820313,4153.846191,4151.794922,0.000000,4.000000,,,,0.000000,4.000000,4.000000,4.000000,4.000000,4.000000,4.000000,4.000000,4.000000,4.000000,4.000000,4.000000,4.000000,4.000000,4.000000,100.000000
1602006406.324241,39.000000,0.000000,4122.051270,4108.717773,4138.461426,4123.589844,4137.436035,4133.333496,4130.256348,4136.410156,4141.025879,4158.461426,4149.230957,4154.871582,4157.948730,4154.358887,0.000000,4.000000,,,,0.000000,4.000000,4.000000,4.000000,4.000000,4.000000,4.000000,4.000000,4.000000,4.000000,4.000000,4.000000,4.000000,4.000000,4.000000,100.000000
1602006406.332123,40.000000,0.000000,4132.820313,4110.256348,4137.948730,4125.641113,4135.897461,4128.717773,4137.948730,4136.410156,4138.461426,4142.563965,4134.871582,4164.102539,4167.692383,4154.358887,0.000000,4.000000,,,,0.000000,4.000000,4.000000,4.000000,4.000000,4.000000,4.000000,4.000000,4.000000,4.000000,4.000000,4.000000,4.000000,4.000000,4.000000,100.000000
1602006406.340005,41.000000,0.000000,4128.717773,4114.358887,4139.487305,4127.692383,4138.974121,4129.743652,4137.948730,4134.358887,4134.871582,4117.948730,4140.000000,4164.615234,4168.205078,4153.846191,0.000000,4.000000,,,,0.000000,4.000000,4.000000,4.000000,4.000000,4.000000,4.000000,4.000000,4.000000,4.000000,4.000000,4.000000,4.000000,4.000000,4.000000,100.000000
1602006406.347886,42.000000,0.000000,4118.461426,4114.358887,4138.461426,4125.128418,4142.051270,4135.384766,4134.871582,4126.666504,4132.307617,4132.307617,4151.282227,4155.384766,4154.358887,4157.948730,0.000000,4.000000,,,,0.000000,4.000000,4.000000,4.000000,4.000000,4.000000,4.000000,4.000000,4.000000,4.000000,4.000000,4.000000,4.000000,4.000000,4.000000,100.000000
1602006406.355868,43.000000,0.000000,4120.512695,4109.743652,4129.230957,4123.077148,4142.051270,4135.897461,4133.846191,4123.589844,4143.589844,4158.974121,4146.666504,4152.307617,4144.615234,4152.820313,0.000000,4.000000,,,,0.000000,4.000000,4.000000,4.000000,4.000000,4.000000,4.000000,4.000000,4.000000,4.000000,4.000000,4.000000,4.000000,4.000000,4.000000,100.000000
1602006406.363749,44.000000,0.000000,4125.128418,4111.282227,4119.487305,4127.692383,4140.512695,4125.128418,4124.615234,4129.230957,4156.922852,4155.384766,4136.922852,4154.358887,4142.563965,4140.000000,0.000000,4.000000,,,,0.000000,4.000000,4.000000,4.000000,4.000000,4.000000,4.000000,4.000000,4.000000,4.000000,4.000000,4.000000,4.000000,4.000000,4.000000,100.000000
1602006406.371630,45.000000,0.000000,4123.589844,4122.563965,4124.102539,4134.871582,4140.000000,4121.025879,4121.025879,4133.846191,4156.410156,4151.794922,4135.897461,4154.871582,4145.641113,4139.487305,0.000000,4.000000,,,,0.000000,4.000000,4.000000,4.000000,4.000000,4.000000,4.000000,4.000000,4.000000,4.000000,4.000000,4.000000,4.000000,4.000000,4.000000,100.000000
1602006406.379512,46.000000,0.000000,4124.615234,4127.179688,4137.948730,4137.948730,4138.974121,4127.692383,4127.692383,4135.384766,4154.358887,4164.102539,4148.205078,4155.897461,4152.820313,4153.333496,0.000000,4.000000,,,,0.000000,4.000000,4.000000,4.000000,4.000000,4.000000,4.000000,4.000000,4.000000,4.000000,4.000000,4.000000,4.000000,4.000000,4.000000,100.000000
1602006406.387393,47.000000,0.000000,4126.153809,4114.871582,4143.077148,4135.897461,4136.922852,4128.205078,4129.230957,4136.410156,4157.436035,4168.205078,4155.897461,4155.897461,4153.846191,4160.512695,0.000000,4.000000,,,,0.000000,4.000000,4.000000,4.000000,4.000000,4.000000,4.000000,4.000000,4.000000,4.000000,4.000000,4.000000,4.000000,4.000000,4.000000,100.000000
1602006406.395275,48.000000,0.000000,4131.282227,4105.641113,4133.333496,4131.794922,4135.384766,4123.077148,4126.153809,4136.922852,4155.897461,4148.717773,4147.692383,4151.282227,4149.230957,4147.179688,0.000000,4.000000,,,,0.000000,4.000000,4.000000,4.000000,4.000000,4.000000,4.000000,4.000000,4.000000,4.000000,4.000000,4.000000,4.000000,4.000000,4.000000,100.000000
1602006406.403156,49.000000,0.000000,4137.436035,4110.769043,4122.563965,4130.256348,4135.897461,4124.102539,4127.692383,4137.436035,4150.256348,4128.717773,4137.436035,4150.769043,4149.743652,4134.871582,0.000000,4.000000,,,,0.000000,4.000000,4.000000,4.000000,4.000000,4.000000,4.000000,4.000000,4.000000,4.000000,4.000000,4.000000,4.000000,4.000000,4.000000,100.000000
1602006406.411138,50.000000,0.000000,4137.436035,4114.871582,4127.692383,4130.769043,4137.436035,4132.820313,4128.717773,4138.974121,4150.256348,4137.948730,4135.897461,4153.333496,4151.282227,4138.974121,0.000000,4.000000,,,,0.000000,4.000000,4.000000,4.000000,4.000000,4.000000,4.000000,4.000000,4.000000,4.000000,4.000000,4.000000,4.000000,4.000000,4.000000,100.000000
1602006406.419019,51.000000,0.000000,4129.743652,4109.743652,4137.436035,4127.179688,4137.948730,4133.846191,4124.615234,4139.487305,4150.769043,4156.410156,4135.384766,4148.205078,4145.128418,4142.051270,0.000000,4.000000,,,,0.000000,4.000000,4.000000,4.000000,4.000000,4.000000,4.000000,4.000000,4.000000,4.000000,4.000000,4.000000,4.000000,4.000000,4.000000,100.000000
1602006406.426901,52.000000,0.000000,4123.077148,4106.666504,4138.461426,4122.051270,4137.948730,4127.692383,4124.102539,4138.461426,4152.820313,4156.922852,4135.384766,4141.025879,4142.563965,4140.000000,0.000000,4.000000,,,,0.000000,4.000000,4.000000,4.000000,4.000000,4.000000,4.000000,4.000000,4.000000,4.000000,4.000000,4.000000,4.000000,4.000000,4.000000,100.000000
1602006406.434783,53.000000,0.000000,4123.077148,4108.205078,4132.820313,4121.538574,4139.487305,4126.666504,4126.153809,4138.974121,4153.846191,4150.256348,4132.820313,4136.922852,4141.025879,4142.051270,0.000000,4.000000,,,,0.000000,4.000000,4.000000,4.000000,4.000000,4.000000,4.000000,4.000000,4.000000,4.000000,4.000000,4.000000,4.000000,4.000000,4.000000,100.000000
1602006406.442664,54.000000,0.000000,4122.051270,4106.666504,4133.846191,4119.487305,4140.512695,4125.128418,4125.128418,4139.487305,4151.794922,4148.205078,4127.179688,4140.512695,4137.948730,4137.948730,0.000000,4.000000,,,,0.000000,4.000000,4.000000,4.000000,4.000000,4.000000,4.000000,4.000000,4.000000,4.000000,4.000000,4.000000,4.000000,4.000000,4.000000,100.000000
1602006406.450546,55.000000,0.000000,4120.512695,4111.282227,4146.666504,4119.487305,4140.000000,4123.077148,4123.077148,4137.948730,4152.307617,4155.384766,4132.307617,4150.256348,4146.153809,4139.487305,0.000000,4.000000,,,,0.000000,4.000000,4.000000,4.000000,4.000000,4.000000,4.000000,4.000000,4.000000,4.000000,4.000000,4.000000,4.000000,4.000000,4.000000,100.000000
1602006406.458427,56.000000,0.000000,4126.153809,4117.948730,4149.230957,4126.666504,4137.948730,4120.512695,4122.563965,4130.769043,4148.717773,4153.333496,4140.512695,4154.871582,4155.384766,4162.563965,0.000000,4.000000,,,,0.000000,4.000000,4.000000,4.000000,4.000000,4.000000,4.000000,4.000000,4.000000,4.000000,4.000000,4.000000,4.000000,4.000000,4.000000,100.000000
1602006406.466309,57.000000,0.000000,4135.384766,4120.000000,4142.051270,4128.205078,4135.897461,4120.512695,4126.153809,4129.230957,4140.512695,4137.948730,4147.179688,4163.589844,4155.384766,4175.384766,0.000000,4.000000,,,,0.000000,4.000000,4.000000,4.000000,4.000000,4.000000,4.000000,4.000000,4.000000,4.000000,4.000000,4.000000,4.000000,4.000000,4.000000,100.000000
1602006406.474291,58.000000,0.000000,4144.615234,4121.538574,4148.717773,4124.615234,4130.769043,4124.615234,4134.358887,4138.461426,4136.922852,4146.666504,4156.922852,4178.974121,4161.025879,4164.102539,0.000000,4.000000,,,,0.000000,4.000000,4.000000,4.000000,4.000000,4.000000,4.000000,4.000000,4.000000,4.000000,4.000000,4.000000,4.000000,4.000000,4.000000,100.000000
1602006406.482172,59.000000,0.000000,4143.589844,4120.000000,4160.512695,4128.717773,4122.563965,4126.153809,4137.948730,4142.563965,4142.051270,4176.410156,4152.820313,4180.512695,4159.487305,4152.820313,0.000000,4.000000,,,,0.000000,4.000000,4.000000,4.000000,4.000000,4.000000,4.000000,4.000000,4.000000,4.000000,4.000000,4.000000,4.000000,4.000000,4.000000,100.000000
1602006406.490054,60.000000,0.000000,4130.256348,4116.922852,4153.846191,4135.384766,4123.589844,4122.051270,4136.410156,4138.461426,4147.692383,4172.307617,4132.307617,4166.153809,4143.077148,4152.307617,0.000000,4.000000,,,,0.000000,4.000000,4.000000,4.000000,4.000000,4.000000,4.000000,4.000000,4.000000,4.000000,4.000000,4.000000,4.000000,4.000000,4.000000,100.000000
1602006406.497936,61.000000,0.000000,4127.179688,4121.538574,4143.589844,4138.974121,4135.384766,4125.128418,4135.897461,4135.897461,4146.153809,4151.282227,4132.307617,4157.948730,4141.025879,4151.282227,0.000000,4.000000,,,,0.000000,4.000000,4.000000,4.000000,4.000000,4.000000,4.000000,4.000000,4.000000,4.000000,4.000000,4.000000,4.000000,4.000000,4.000000,100.000000
1602006406.505817,62.000000,0.000000,4140.000000,4126.153809,4142.051270,4140.000000,4140.512695,4127.692383,4130.769043,4133.846191,4132.307617,4152.820313,4142.051270,4143.589844,4143.589844,4144.615234,0.000000,4.000000,,,,0.000000,4.000000,4.000000,4.000000,4.000000,4.000000,4.000000,4.000000,4.000000,4.000000,4.000000,4.000000,4.000000,4.000000,4.000000,100.000000
1602006406.513699,63.000000,0.000000,4135.384766,4120.000000,4136.922852,4131.794922,4135.384766,4119.487305,4123.077148,4127.692383,4117.948730,4140.512695,4122.563965,4124.102539,4128.717773,4136.922852,0.000000,4.000000,,,,0.000000,4.000000,4.000000,4.000000,4.000000,4.000000,4.000000,4.000000,4.000000,4.000000,4.000000,4.000000,4.000000,4.000000,4.000000,100.000000
1602006406.521581,64.000000,0.000000,4121.538574,4116.922852,4133.846191,4120.512695,4135.384766,4117.948730,4121.538574,4123.589844,4117.436035,4101.538574,4107.692383,4123.077148,4124.102539,4131.282227,793.000000,4.000000,,,,0.000000,4.000000,4.000000,4.000000,4.000000,4.000000,4.000000,4.000000,4.000000,4.000000,4.000000,4.000000,4.000000,4.000000,4.000000,100.000000
1602006406.529462,65.000000,0.000000,4130.769043,4122.051270,4134.871582,4122.051270,4141.025879,4124.102539,4123.589844,4126.666504,4122.051270,4098.974121,4133.846191,4137.948730,4135.384766,4140.512695,794.000000,4.000000,,,,0.000000,4.000000,4.000000,4.000000,4.000000,4.000000,4.000000,4.000000,4.000000,4.000000,4.000000,4.000000,4.000000,4.000000,4.000000,100.000000
1602006406.537344,66.000000,0.000000,4143.589844,4127.179688,4136.922852,4131.794922,4141.538574,4128.205078,4127.179688,4136.410156,4129.743652,4140.512695,4157.948730,4157.948730,4144.102539,4166.153809,850.000000,4.000000,,,,0.000000,4.000000,4.000000,4.000000,4.000000,4.000000,4.000000,4.000000,4.000000,4.000000,4.000000,4.000000,4.000000,4.000000,4.000000,100.000000
1602006406.545325,67.000000,0.000000,4142.051270,4126.153809,4138.461426,4130.769043,4137.948730,4128.717773,4126.666504,4135.897461,4138.461426,4164.102539,4145.641113,4169.230957,4146.153809,4176.922852,867.000000,4.000000,,,,0.000000,4.000000,4.000000,4.000000,4.000000,4.000000,4.000000,4.000000,4.000000,4.000000,4.000000,4.000000,4.000000,4.000000,4.000000,100.000000
1602006406.553207,68.000000,0.000000,4136.922852,4121.538574,4136.410156,4124.102539,4134.871582,4115.897461,4120.000000,4123.589844,4132.307617,4148.717773,4132.307617,4158.974121,4136.922852,4156.922852,809.000000,4.000000,,,,0.000000,4.000000,4.000000,4.000000,4.000000,4.000000,4.000000,4.000000,4.000000,4.000000,4.000000,4.000000,4.000000,4.000000,4.000000,100.000000
1602006406.561089,69.000000,0.000000,4135.384766,4126.666504,4142.051270,4130.769043,4134.871582,4108.205078,4117.948730,4125.128418,4130.769043,4144.615234,4144.102539,4148.717773,4134.358887,4146.666504,813.000000,4.000000,,,,0.000000,4.000000,4.000000,4.000000,4.000000,4.000000,4.000000,4.000000,4.000000,4.000000,4.000000,4.000000,4.000000,4.000000,4.000000,100.000000
1602006406.568970,70.000000,0.000000,4142.051270,4137.948730,4153.333496,4143.589844,4137.436035,4127.692383,4122.563965,4137.436035,4154.871582,4165.128418,4158.461426,4161.538574,4154.871582,4168.717773,761.000000,4.000000,,,,0.000000,4.000000,4.000000,4.000000,4.000000,4.000000,4.000000,4.000000,4.000000,4.000000,4.000000,4.000000,4.000000,4.000000,4.000000,100.000000
1602006406.576852,71.000000,0.000000,4148.205078,4141.538574,4155.384766,4144.102539,4139.487305,4136.922852,4127.179688,4138.461426,4170.769043,4168.205078,4157.436035,4170.769043,4167.692383,4175.897461,679.000000,4.000000,,,,0.000000,4.000000,4.000000,4.000000,4.000000,4.000000,4.000000,4.000000,4.000000,4.000000,4.000000,4.000000,4.000000,4.000000,4.000000,100.000000
1602006406.584734,72.000000,0.000000,4146.666504,4134.358887,4148.205078,4138.461426,4145.641113,4123.589844,4135.384766,4138.461426,4154.358887,4152.820313,4150.769043,4160.512695,4157.948730,4157.948730,793.000000,4.000000,,,,0.000000,4.000000,4.000000,4.000000,4.000000,4.000000,4.000000,4.000000,4.000000,4.000000,4.000000,4.000000,4.000000,4.000000,4.000000,100.000000
1602006406.592615,73.000000,0.000000,4145.641113,4127.179688,4145.128418,4132.820313,4149.743652,4126.153809,4137.948730,4142.051270,4137.948730,4153.333496,4156.410156,4154.871582,4154.358887,4158.974121,836.000000,4.000000,,,,0.000000,4.000000,4.000000,4.000000,4.000000,4.000000,4.000000,4.000000,4.000000,4.000000,4.000000,4.000000,4.000000,4.000000,4.000000,100.000000
1602006406.600497,74.000000,0.000000,4138.461426,4122.051270,4141.025879,4125.128418,4142.563965,4142.563965,4129.743652,4141.025879,4138.461426,4169.743652,4158.974121,4152.820313,4158.461426,4170.256348,871.000000,4.000000,,,,0.000000,4.000000,4.000000,4.000000,4.000000,4.000000,4.000000,4.000000,4.000000,4.000000,4.000000,4.000000,4.000000,4.000000,4.000000,100.000000
1602006406.608478,75.000000,0.000000,4122.563965,4112.820313,4128.717773,4121.025879,4135.897461,4136.922852,4124.615234,4138.461426,4144.102539,4174.871582,4147.692383,4145.641113,4150.769043,4158.461426,838.000000,4.000000,,,,0.000000,4.000000,4.000000,4.000000,4.000000,4.000000,4.000000,4.000000,4.000000,4.000000,4.000000,4.000000,4.000000,4.000000,4.000000,100.000000
1602006406.616360,76.000000,0.000000,4118.974121,4109.743652,4125.641113,4123.589844,4138.461426,4126.666504,4125.641113,4139.487305,4148.205078,4168.717773,4147.692383,4148.205078,4147.692383,4150.256348,771.000000,4.000000,,,,0.000000,4.000000,4.000000,4.000000,4.000000,4.000000,4.000000,4.000000,4.000000,4.000000,4.000000,4.000000,4.000000,4.000000,4.000000,100.000000
1602006406.624242,77.000000,0.000000,4126.153809,4116.410156,4136.922852,4126.666504,4140.000000,4136.410156,4125.641113,4141.538574,4152.307617,4170.769043,4154.358887,4157.948730,4158.461426,4153.846191,747.000000,4.000000,,,,0.000000,4.000000,4.000000,4.000000,4.000000,4.000000,4.000000,4.000000,4.000000,4.000000,4.000000,4.000000,4.000000,4.000000,4.000000,100.000000
1602006406.632123,78.000000,0.000000,4121.025879,4114.358887,4134.358887,4123.589844,4138.461426,4135.384766,4124.102539,4136.922852,4150.256348,4162.563965,4145.128418,4153.333496,4150.256348,4144.102539,871.000000,4.000000,,,,0.000000,4.000000,4.000000,4.000000,4.000000,4.000000,4.000000,4.000000,4.000000,4.000000,4.000000,4.000000,4.000000,4.000000,4.000000,100.000000
1602006406.640005,79.000000,0.000000,4109.743652,4102.563965,4115.384766,4118.974121,4136.922852,4118.974121,4117.436035,4125.641113,4141.025879,4129.230957,4134.871582,4137.436035,4128.205078,4135.384766,838.000000,4.000000,,,,0.000000,4.000000,4.000000,4.000000,4.000000,4.000000,4.000000,4.000000,4.000000,4.000000,4.000000,4.000000,4.000000,4.000000,4.000000,100.000000
1602006406.647887,80.000000,0.000000,4108.717773,4105.128418,4109.230957,4121.025879,4138.461426,4123.589844,4116.922852,4118.461426,4138.461426,4112.307617,4135.897461,4130.769043,4125.128418,4136.410156,771.000000,4.000000,,,,0.000000,4.000000,4.000000,4.000000,4.000000,4.000000,4.000000,4.000000,4.000000,4.000000,4.000000,4.000000,4.000000,4.000000,4.000000,100.000000
1602006406.655768,81.000000,0.000000,4122.051270,4120.000000,4120.512695,4123.589844,4147.692383,4148.717773,4130.769043,4125.128418,4147.692383,4141.538574,4136.410156,4135.897461,4135.897461,4137.436035,747.000000,4.000000,,,,0.000000,4.000000,4.000000,4.000000,4.000000,4.000000,4.000000,4.000000,4.000000,4.000000,4.000000,4.000000,4.000000,4.000000,4.000000,100.000000
1602006406.663650,82.000000,0.000000,4140.000000,4125.641113,4131.282227,4121.538574,4155.384766,4158.974121,4141.025879,4136.410156,4158.461426,4170.769043,4143.589844,4138.974121,4144.615234,4146.666504,871.000000,4.000000,,,,0.000000,4.000000,4.000000,4.000000,4.000000,4.000000,4.000000,4.000000,4.000000,4.000000,4.000000,4.000000,4.000000,4.000000,4.000000,100.000000
1602006406.671531,83.000000,0.000000,4138.461426,4124.615234,4136.922852,4125.641113,4152.820313,4146.666504,4137.948730,4143.077148,4160.000000,4157.948730,4150.256348,4136.922852,4149.743652,4157.436035,838.000000,4.000000,,,,0.000000,4.000000,4.000000,4.000000,4.000000,4.000000,4.000000,4.000000,4.000000,4.000000,4.000000,4.000000,4.000000,4.000000,4.000000,100.000000
1602006406.679513,84.000000,0.000000,4128.717773,4124.102539,4137.436035,4131.282227,4149.743652,4135.384766,4134.358887,4144.102539,4147.179688,4143.077148,4147.179688,4138.461426,4151.794922,4156.922852,771.000000,4.000000,,,,0.000000,4.000000,4.000000,4.000000,4.000000,4.000000,4.000000,4.000000,4.000000,4.000000,4.000000,4.000000,4.000000,4.000000,4.000000,100.000000
1602006406.687394,85.000000,0.000000,4131.282227,4124.615234,4133.846191,4127.179688,4152.307617,4134.871582,4135.897461,4140.000000,4137.948730,4147.692383,4149.230957,4136.410156,4153.846191,4147.692383,747.000000,4.000000,,,,0.000000,4.000000,4.000000,4.000000,4.000000,4.000000,4.000000,4.000000,4.000000,4.000000,4.000000,4.000000,4.000000,4.000000,4.000000,100.000000
1602006406.695276,86.000000,0.000000,4132.820313,4125.128418,4124.615234,4123.077148,4150.256348,4138.974121,4137.436035,4138.461426,4138.461426,4136.410156,4151.282227,4125.641113,4150.256348,4140.512695,871.000000,4.000000,,,,0.000000,4.000000,4.000000,4.000000,4.000000,4.000000,4.000000,4.000000,4.000000,4.000000,4.000000,4.000000,4.000000,4.000000,4.000000,100.000000
1602006406.703157,87.000000,0.000000,4122.563965,4124.102539,4119.487305,4124.615234,4141.538574,4136.922852,4135.897461,4135.384766,4129.743652,4118.974121,4141.025879,4118.461426,4137.948730,4141.538574,838.000000,4.000000,,,,0.000000,4.000000,4.000000,4.000000,4.000000,4.000000,4.000000,4.000000,4.000000,4.000000,4.000000,4.000000,4.000000,4.000000,4.000000,100.000000
1602006406.711038,88.000000,0.000000,4116.922852,4124.615234,4127.179688,4125.641113,4135.897461,4133.333496,4133.846191,4125.128418,4116.410156,4130.256348,4132.307617,4124.102539,4133.846191,4142.563965,771.000000,4.000000,,,,0.000000,4.000000,4.000000,4.000000,4.000000,4.000000,4.000000,4.000000,4.000000,4.000000,4.000000,4.000000,4.000000,4.000000,4.000000,100.000000
1602006406.719020,89.000000,0.000000,4128.717773,4129.230957,4141.538574,4129.743652,4139.487305,4136.922852,4134.871582,4121.538574,4118.461426,4147.179688,4137.436035,4132.820313,4140.000000,4139.487305,747.000000,4.000000,,,,0.000000,4.000000,4.000000,4.000000,4.000000,4.000000,4.000000,4.000000,4.000000,4.000000,4.000000,4.000000,4.000000,4.000000,4.000000,100.000000
1602006406.726902,90.000000,0.000000,4142.051270,4136.922852,4152.307617,4136.410156,4143.589844,4140.000000,4137.948730,4126.666504,4121.025879,4140.000000,4142.051270,4142.563965,4139.487305,4148.717773,871.000000,4.000000,,,,0.000000,4.000000,4.000000,4.000000,4.000000,4.000000,4.000000,4.000000,4.000000,4.000000,4.000000,4.000000,4.000000,4.000000,4.000000,100.000000
1602006406.734783,91.000000,0.000000,4145.128418,4137.948730,4157.436035,4138.974121,4137.948730,4132.307617,4136.410156,4126.666504,4115.384766,4136.410156,4139.487305,4151.282227,4139.487305,4161.538574,838.000000,4.000000,,,,0.000000,4.000000,4.000000,4.000000,4.000000,4.000000,4.000000,4.000000,4.000000,4.000000,4.000000,4.000000,4.000000,4.000000,4.000000,100.000000
1602006406.742665,92.000000,0.000000,4139.487305,4130.769043,4154.358887,4132.820313,4133.333496,4124.615234,4132.820313,4129.230957,4121.538574,4146.666504,4141.025879,4154.358887,4141.538574,4158.461426,771.000000,4.000000,,,,0.000000,4.000000,4.000000,4.000000,4.000000,4.000000,4.000000,4.000000,4.000000,4.000000,4.000000,4.000000,4.000000,4.000000,4.000000,100.000000
1602006406.750547,93.000000,0.000000,4132.307617,4124.615234,4148.205078,4122.563965,4135.897461,4132.820313,4137.436035,4137.948730,4132.820313,4141.538574,4147.692383,4155.897461,4141.025879,4152.820313,747.000000,4.000000,,,,0.000000,4.000000,4.000000,4.000000,4.000000,4.000000,4.000000,4.000000,4.000000,4.000000,4.000000,4.000000,4.000000,4.000000,4.000000,100.000000
1602006406.758428,94.000000,0.000000,4123.077148,4121.538574,4142.051270,4117.948730,4137.436035,4140.000000,4143.077148,4141.025879,4135.897461,4131.282227,4154.358887,4154.871582,4142.051270,4150.256348,871.000000,4.000000,,,,0.000000,4.000000,4.000000,4.000000,4.000000,4.000000,4.000000,4.000000,4.000000,4.000000,4.000000,4.000000,4.000000,4.000000,4.000000,100.000000
1602006406.766310,95.000000,0.000000,4118.974121,4120.512695,4136.922852,4126.153809,4135.897461,4137.436035,4143.589844,4145.641113,4145.641113,4143.589844,4154.358887,4150.769043,4140.000000,4150.769043,838.000000,4.000000,,,,0.000000,4.000000,4.000000,4.000000,4.000000,4.000000,4.000000,4.000000,4.000000,4.000000,4.000000,4.000000,4.000000,4.000000,4.000000,100.000000
1602006406.774191,96.000000,0.000000,4132.820313,4123.077148,4145.128418,4130.769043,4138.974121,4137.436035,4149.230957,4158.461426,4159.487305,4161.025879,4155.384766,4157.948730,4142.051270,4162.563965,771.000000,4.000000,,,,0.000000,4.000000,4.000000,4.000000,4.000000,4.000000,4.000000,4.000000,4.000000,4.000000,4.000000,4.000000,4.000000,4.000000,4.000000,100.000000
1602006406.782173,97.000000,0.000000,4143.589844,4129.743652,4158.461426,4124.615234,4142.051270,4140.000000,4150.256348,4159.487305,4154.358887,4154.358887,4158.974121,4174.358887,4154.358887,4170.256348,747.000000,4.000000,,,,0.000000,4.000000,4.000000,4.000000,4.000000,4.000000,4.000000,4.000000,4.000000,4.000000,4.000000,4.000000,4.000000,4.000000,4.000000,100.000000
1602006406.790054,98.000000,0.000000,4140.512695,4136.922852,4161.025879,4129.743652,4141.538574,4145.641113,4142.051270,4147.179688,4138.974121,4147.692383,4157.436035,4175.384766,4157.948730,4168.205078,871.000000,4.000000,,,,0.000000,4.000000,4.000000,4.000000,4.000000,4.000000,4.000000,4.000000,4.000000,4.000000,4.000000,4.000000,4.000000,4.000000,4.000000,100.000000
1602006406.797936,99.000000,0.000000,4141.025879,4137.948730,4156.922852,4142.051270,4142.051270,4150.769043,4136.922852,4138.461426,4135.897461,4157.436035,4149.743652,4160.512695,4146.666504,4167.179688,838.000000,4.000000,,,,0.000000,4.000000,4.000000,4.000000,4.000000,4.000000,4.000000,4.000000,4.000000,4.000000,4.000000,4.000000,4.000000,4.000000,4.000000,100.000000
1602006406.805817,100.000000,0.000000,4135.897461,4126.153809,4148.205078,4132.307617,4139.487305,4140.000000,4132.307617,4130.256348,4128.205078,4147.179688,4142.563965,4145.128418,4131.794922,4151.794922,771.000000,4.000000,,,,0.000000,4.000000,4.000000,4.000000,4.000000,4.000000,4.000000,4.000000,4.000000,4.000000,4.000000,4.000000,4.000000,4.000000,4.000000,100.000000
1602006406.813698,101.000000,0.000000,4120.000000,4114.871582,4135.384766,4114.871582,4135.384766,4127.692383,4124.102539,4122.051270,4111.282227,4123.589844,4133.333496,4133.333496,4120.512695,4122.051270,747.000000,4.000000,,,,0.000000,4.000000,4.000000,4.000000,4.000000,4.000000,4.000000,4.000000,4.000000,4.000000,4.000000,4.000000,4.000000,4.000000,4.000000,100.000000
1602006406.821580,102.000000,0.000000,4117.436035,4123.589844,4127.179688,4126.153809,4141.025879,4140.000000,4126.153809,4122.563965,4111.794922,4117.948730,4123.077148,4127.179688,4120.000000,4115.897461,871.000000,4.000000,,,,0.000000,4.000000,4.000000,4.000000,4.000000,4.000000,4.000000,4.000000,4.000000,4.000000,4.000000,4.000000,4.000000,4.000000,4.000000,100.000000
1602006406.829561,103.000000,0.000000,4121.025879,4131.794922,4123.589844,4141.538574,4144.102539,4143.077148,4129.743652,4125.128418,4123.077148,4121.538574,4120.000000,4125.128418,4125.128418,4125.641113,838.000000,4.000000,,,,0.000000,4.000000,4.000000,4.000000,4.000000,4.000000,4.000000,4.000000,4.000000,4.000000,4.000000,4.000000,4.000000,4.000000,4.000000,100.000000
1602006406.837443,104.000000,0.000000,4113.846191,4122.563965,4118.461426,4133.846191,4135.897461,4123.077148,4121.025879,4123.077148,4122.051270,4126.153809,4123.589844,4121.538574,4120.512695,4121.025879,771.000000,4.000000,,,,0.000000,4.000000,4.000000,4.000000,4.000000,4.000000,4.000000,4.000000,4.000000,4.000000,4.000000,4.000000,4.000000,4.000000,4.000000,100.000000
1602006406.845325,105.000000,0.000000,4115.384766,4123.589844,4125.128418,4128.717773,4133.846191,4120.512695,4118.974121,4131.282227,4129.743652,4137.436035,4126.153809,4118.974121,4120.000000,4120.000000,747.000000,4.000000,,,,0.000000,4.000000,4.000000,4.000000,4.000000,4.000000,4.000000,4.000000,4.000000,4.000000,4.000000,4.000000,4.000000,4.000000,4.000000,100.000000
1602006406.853206,106.000000,0.000000,4125.641113,4138.461426,4139.487305,4135.897461,4140.000000,4128.717773,4123.589844,4144.615234,4144.102539,4144.615234,4125.641113,4124.102539,4127.179688,4131.282227,871.000000,4.000000,,,,0.000000,4.000000,4.000000,4.000000,4.000000,4.000000,4.000000,4.000000,4.000000,4.000000,4.000000,4.000000,4.000000,4.000000,4.000000,100.000000
1602006406.861088,107.000000,0.000000,4132.820313,4143.589844,4143.077148,4141.025879,4138.461426,4123.589844,4120.512695,4138.461426,4127.179688,4131.794922,4130.769043,4130.769043,4125.641113,4136.922852,838.000000,4.000000,,,,0.000000,4.000000,4.000000,4.000000,4.000000,4.000000,4.000000,4.000000,4.000000,4.000000,4.000000,4.000000,4.000000,4.000000,4.000000,100.000000
1602006406.868969,108.000000,0.000000,4141.538574,4138.461426,4138.974121,4142.051270,4135.384766,4127.179688,4118.974121,4129.230957,4101.538574,4114.358887,4140.512695,4129.743652,4126.666504,4138.461426,771.000000,4.000000,,,,0.000000,4.000000,4.000000,4.000000,4.000000,4.000000,4.000000,4.000000,4.000000,4.000000,4.000000,4.000000,4.000000,4.000000,4.000000,100.000000
1602006406.876851,109.000000,0.000000,4139.487305,4138.461426,4136.922852,4143.077148,4139.487305,4138.974121,4127.179688,4135.897461,4107.692383,4113.333496,4149.230957,4133.333496,4140.512695,4144.102539,747.000000,4.000000,,,,0.000000,4.000000,4.000000,4.000000,4.000000,4.000000,4.000000,4.000000,4.000000,4.000000,4.000000,4.000000,4.000000,4.000000,4.000000,100.000000
1602006406.884733,110.000000,0.000000,4125.641113,4140.512695,4137.948730,4137.436035,4139.487305,4131.794922,4133.333496,4134.871582,4116.922852,4129.743652,4150.256348,4138.974121,4146.666504,4144.615234,871.000000,4.000000,,,,0.000000,4.000000,4.000000,4.000000,4.000000,4.000000,4.000000,4.000000,4.000000,4.000000,4.000000,4.000000,4.000000,4.000000,4.000000,100.000000
1602006406.892714,111.000000,0.000000,4123.077148,4137.948730,4134.358887,4134.358887,4134.358887,4120.000000,4130.769043,4123.077148,4103.077148,4133.333496,4149.230957,4139.487305,4143.077148,4142.051270,838.000000,4.000000,,,,0.000000,4.000000,4.000000,4.000000,4.000000,4.000000,4.000000,4.000000,4.000000,4.000000,4.000000,4.000000,4.000000,4.000000,4.000000,100.000000
1602006406.900595,112.000000,0.000000,4129.743652,4138.974121,4135.897461,4145.128418,4134.358887,4121.538574,4128.717773,4126.666504,4103.077148,4130.769043,4152.307617,4144.102539,4152.307617,4150.769043,771.000000,4.000000,,,,0.000000,4.000000,4.000000,4.000000,4.000000,4.000000,4.000000,4.000000,4.000000,4.000000,4.000000,4.000000,4.000000,4.000000,4.000000,100.000000
1602006406.908477,113.000000,0.000000,4131.282227,4148.717773,4147.692383,4155.897461,4137.948730,4124.102539,4128.205078,4138.974121,4130.256348,4152.307617,4160.000000,4156.922852,4165.128418,4169.743652,747.000000,4.000000,,,,0.000000,4.000000,4.000000,4.000000,4.000000,4.000000,4.000000,4.000000,4.000000,4.000000,4.000000,4.000000,4.000000,4.000000,4.000000,100.000000
1602006406.916358,114.000000,0.000000,4128.717773,4152.307617,4150.256348,4150.769043,4138.461426,4125.641113,4127.692383,4142.051270,4141.025879,4151.794922,4164.102539,4161.025879,4158.461426,4173.333496,871.000000,4.000000,,,,0.000000,4.000000,4.000000,4.000000,4.000000,4.000000,4.000000,4.000000,4.000000,4.000000,4.000000,4.000000,4.000000,4.000000,4.000000,100.000000
1602006406.924240,115.000000,0.000000,4123.589844,4137.436035,4135.384766,4133.846191,4135.384766,4124.102539,4122.051270,4134.358887,4124.615234,4117.948730,4143.589844,4144.102539,4138.461426,4154.871582,838.000000,4.000000,,,,0.000000,4.000000,4.000000,4.000000,4.000000,4.000000,4.000000,4.000000,4.000000,4.000000,4.000000,4.000000,4.000000,4.000000,4.000000,100.000000
1602006406.932121,116.000000,0.000000,4120.512695,4121.538574,4119.487305,4122.563965,4133.333496,4117.948730,4111.794922,4125.641113,4122.051270,4114.871582,4118.974121,4126.666504,4122.051270,4139.487305,771.000000,4.000000,,,,0.000000,4.000000,4.000000,4.000000,4.000000,4.000000,4.000000,4.000000,4.000000,4.000000,4.000000,4.000000,4.000000,4.000000,4.000000,100.000000
1602006406.940002,117.000000,0.000000,4121.025879,4122.563965,4120.000000,4123.077148,4134.871582,4126.153809,4111.794922,4124.615234,4139.487305,4148.205078,4126.153809,4129.743652,4123.589844,4138.461426,747.000000,4.000000,,,,0.000000,4.000000,4.000000,4.000000,4.000000,4.000000,4.000000,4.000000,4.000000,4.000000,4.000000,4.000000,4.000000,4.000000,4.000000,100.000000
1602006406.947984,118.000000,0.000000,4122.563965,4132.307617,4129.230957,4127.692383,4138.461426,4140.512695,4120.512695,4128.205078,4143.589844,4161.538574,4145.128418,4136.410156,4133.846191,4140.000000,871.000000,4.000000,,,,0.000000,4.000000,4.000000,4.000000,4.000000,4.000000,4.000000,4.000000,4.000000,4.000000,4.000000,4.000000,4.000000,4.000000,4.000000,100.000000
1602006406.955865,119.000000,0.000000,4130.769043,4138.974121,4137.436035,4134.871582,4139.487305,4135.897461,4121.538574,4129.743652,4134.358887,4145.128418,4142.563965,4126.666504,4135.897461,4139.487305,838.000000,4.000000,,,,0.000000,4.000000,4.000000,4.000000,4.000000,4.000000,4.000000,4.000000,4.000000,4.000000,4.000000,4.000000,4.000000,4.000000,4.000000,100.000000
1602006406.963747,120.000000,0.000000,4140.512695,4139.487305,4143.589844,4140.512695,4140.512695,4123.077148,4123.077148,4128.717773,4130.769043,4140.000000,4133.333496,4124.615234,4130.769043,4141.025879,771.000000,4.000000,,,,0.000000,4.000000,4.000000,4.000000,4.000000,4.000000,4.000000,4.000000,4.000000,4.000000,4.000000,4.000000,4.000000,4.000000,4.000000,100.000000
1602006406.971628,121.000000,0.000000,4141.025879,4138.461426,4144.102539,4140.512695,4142.051270,4124.102539,4135.384766,4128.205078,4127.692383,4140.512695,4134.871582,4138.461426,4125.128418,4139.487305,747.000000,4.000000,,,,0.000000,4.000000,4.000000,4.000000,4.000000,4.000000,4.000000,4.000000,4.000000,4.000000,4.000000,4.000000,4.000000,4.000000,4.000000,100.000000
1602006406.979509,122.000000,0.000000,4133.333496,4138.974121,4141.538574,4139.487305,4140.512695,4130.769043,4139.487305,4132.820313,4123.589844,4125.128418,4137.948730,4141.538574,4123.589844,4136.410156,871.000000,4.000000,,,,0.000000,4.000000,4.000000,4.000000,4.000000,4.000000,4.000000,4.000000,4.000000,4.000000,4.000000,4.000000,4.000000,4.000000,4.000000,100.000000
1602006406.987391,123.000000,0.000000,4124.102539,4137.948730,4134.358887,4140.000000,4142.563965,4137.436035,4135.897461,4138.974121,4129.743652,4109.230957,4139.487305,4136.922852,4130.769043,4137.948730,838.000000,4.000000,,,,0.000000,4.000000,4.000000,4.000000,4.000000,4.000000,4.000000,4.000000,4.000000,4.000000,4.000000,4.000000,4.000000,4.000000,4.000000,100.000000
1602006406.995372,124.000000,0.000000,4118.974121,4137.436035,4126.153809,4140.000000,4152.307617,4150.769043,4140.512695,4141.025879,4136.410156,4125.128418,4138.974121,4139.487305,4135.897461,4136.922852,771.000000,4.000000,,,,0.000000,4.000000,4.000000,4.000000,4.000000,4.000000,4.000000,4.000000,4.000000,4.000000,4.000000,4.000000,4.000000,4.000000,4.000000,100.000000
1602006407.003254,125.000000,0.000000,4119.487305,4132.820313,4117.948730,4137.436035,4151.282227,4157.948730,4143.077148,4137.436035,4130.256348,4152.307617,4128.717773,4137.436035,4125.641113,4127.692383,747.000000,4.000000,,,,0.000000,4.000000,4.000000,4.000000,4.000000,4.000000,4.000000,4.000000,4.000000,4.000000,4.000000,4.000000,4.000000,4.000000,4.000000,100.000000
1602006407.011136,126.000000,0.000000,4120.512695,4129.230957,4116.922852,4134.871582,4140.512695,4154.358887,4135.384766,4137.436035,4119.487305,4154.871582,4123.589844,4133.846191,4121.025879,4116.410156,871.000000,4.000000,,,,0.000000,4.000000,4.000000,4.000000,4.000000,4.000000,4.000000,4.000000,4.000000,4.000000,4.000000,4.000000,4.000000,4.000000,4.000000,100.000000
1602006407.019017,127.000000,0.000000,4125.641113,4136.922852,4130.256348,4136.922852,4144.615234,4155.384766,4134.358887,4139.487305,4125.641113,4151.282227,4141.025879,4148.205078,4134.358887,4125.641113,838.000000,4.000000,,,,0.000000,4.000000,4.000000,4.000000,4.000000,4.000000,4.000000,4.000000,4.000000,4.000000,4.000000,4.000000,4.000000,4.000000,4.000000,100.000000
1602006407.026899,128.000000,0.000000,4135.897461,4144.102539,4142.563965,4141.538574,4154.358887,4153.846191,4137.948730,4140.000000,4141.025879,4157.436035,4157.948730,4166.666504,4144.102539,4147.692383,771.000000,4.000000,,,,0.000000,4.000000,4.000000,4.000000,4.000000,4.000000,4.000000,4.000000,4.000000,4.000000,4.000000,4.000000,4.000000,4.000000,4.000000,100.000000
1602006407.034781,0.000000,0.000000,4143.589844,4144.615234,4142.051270,4140.512695,4152.820313,4141.538574,4132.820313,4140.000000,4138.974121,4155.384766,4154.358887,4172.820313,4148.717773,4155.384766,793.000000,4.000000,,,,0.000000,4.000000,4.000000,4.000000,4.000000,4.000000,4.000000,4.000000,4.000000,4.000000,4.000000,4.000000,4.000000,4.000000,4.000000,100.000000
1602006407.042662,1.000000,0.000000,4145.641113,4144.615234,4138.461426,4140.000000,4150.769043,4129.743652,4123.077148,4136.922852,4124.102539,4139.487305,4151.794922,4171.794922,4153.846191,4155.384766,794.000000,4.000000,,,,0.000000,4.000000,4.000000,4.000000,4.000000,4.000000,4.000000,4.000000,4.000000,4.000000,4.000000,4.000000,4.000000,4.000000,4.000000,100.000000
1602006407.050544,2.000000,0.000000,4146.666504,4142.563965,4138.974121,4141.025879,4151.282227,4126.666504,4120.000000,4128.717773,4116.410156,4131.794922,4158.461426,4171.794922,4150.256348,4152.820313,850.000000,4.000000,,,,0.000000,4.000000,4.000000,4.000000,4.000000,4.000000,4.000000,4.000000,4.000000,4.000000,4.000000,4.000000,4.000000,4.000000,4.000000,100.000000
1602006407.058425,3.000000,0.000000,4147.692383,4136.410156,4138.461426,4132.307617,4150.256348,4129.230957,4127.179688,4120.512695,4115.897461,4138.974121,4153.846191,4168.717773,4140.000000,4142.051270,867.000000,4.000000,,,,0.000000,4.000000,4.000000,4.000000,4.000000,4.000000,4.000000,4.000000,4.000000,4.000000,4.000000,4.000000,4.000000,4.000000,4.000000,100.000000
1602006407.066407,4.000000,0.000000,4142.563965,4133.846191,4138.461426,4131.794922,4151.282227,4136.410156,4136.410156,4123.589844,4120.000000,4138.461426,4140.000000,4168.205078,4135.384766,4135.897461,809.000000,4.000000,,,,0.000000,4.000000,4.000000,4.000000,4.000000,4.000000,4.000000,4.000000,4.000000,4.000000,4.000000,4.000000,4.000000,4.000000,4.000000,100.000000
1602006407.074289,5.000000,0.000000,4129.743652,4129.230957,4140.512695,4138.461426,4147.692383,4142.051270,4138.974121,4133.846191,4129.743652,4131.282227,4136.410156,4169.230957,4135.384766,4135.384766,816.000000,4.000000,,,,0.000000,4.000000,4.000000,4.000000,4.000000,4.000000,4.000000,4.000000,4.000000,4.000000,4.000000,4.000000,4.000000,4.000000,4.000000,100.000000
1602006407.082170,6.000000,0.000000,4126.153809,4121.538574,4137.948730,4129.743652,4138.461426,4144.102539,4136.922852,4140.000000,4136.410156,4136.922852,4139.487305,4166.153809,4134.358887,4136.410156,762.000000,4.000000,,,,0.000000,4.000000,4.000000,4.000000,4.000000,4.000000,4.000000,4.000000,4.000000,4.000000,4.000000,4.000000,4.000000,4.000000,4.000000,100.000000
1602006407.090052,7.000000,0.000000,4134.871582,4124.102539,4138.461426,4125.128418,4138.461426,4151.282227,4135.897461,4146.153809,4147.692383,4148.717773,4140.512695,4164.615234,4134.871582,4146.153809,676.000000,4.000000,,,,0.000000,4.000000,4.000000,4.000000,4.000000,4.000000,4.000000,4.000000,4.000000,4.000000,4.000000,4.000000,4.000000,4.000000,4.000000,100.000000
1602006407.097934,8.000000,0.000000,4139.487305,4131.282227,4140.512695,4136.922852,4145.128418,4156.410156,4131.282227,4146.666504,4158.461426,4142.051270,4145.128418,4166.153809,4138.974121,4147.692383,790.000000,4.000000,,,,0.000000,4.000000,4.000000,4.000000,4.000000,4.000000,4.000000,4.000000,4.000000,4.000000,4.000000,4.000000,4.000000,4.000000,4.000000,100.000000
1602006407.105815,9.000000,0.000000,4136.410156,4130.256348,4133.846191,4136.410156,4145.128418,4148.205078,4123.589844,4141.538574,4150.256348,4130.256348,4153.846191,4166.666504,4138.461426,4134.358887,836.000000,4.000000,,,,0.000000,4.000000,4.000000,4.000000,4.000000,4.000000,4.000000,4.000000,4.000000,4.000000,4.000000,4.000000,4.000000,4.000000,4.000000,100.000000
1602006407.113697,10.000000,0.000000,4133.333496,4124.615234,4125.641113,4121.025879,4140.000000,4135.897461,4122.563965,4140.000000,4143.589844,4144.615234,4155.384766,4165.128418,4135.384766,4136.922852,871.000000,4.000000,,,,0.000000,4.000000,4.000000,4.000000,4.000000,4.000000,4.000000,4.000000,4.000000,4.000000,4.000000,4.000000,4.000000,4.000000,4.000000,100.000000
1602006407.121579,11.000000,0.000000,4133.333496,4123.077148,4125.128418,4122.563965,4139.487305,4137.948730,4131.282227,4138.974121,4152.820313,4163.077148,4148.717773,4166.666504,4137.948730,4144.615234,838.000000,4.000000,,,,0.000000,4.000000,4.000000,4.000000,4.000000,4.000000,4.000000,4.000000,4.000000,4.000000,4.000000,4.000000,4.000000,4.000000,4.000000,100.000000
1602006407.129560,12.000000,0.000000,4133.846191,4125.128418,4126.153809,4136.410156,4143.589844,4143.077148,4134.871582,4127.692383,4145.128418,4142.051270,4141.025879,4166.153809,4134.358887,4129.230957,771.000000,4.000000,,,,0.000000,4.000000,4.000000,4.000000,4.000000,4.000000,4.000000,4.000000,4.000000,4.000000,4.000000,4.000000,4.000000,4.000000,4.000000,100.000000
1602006407.137441,13.000000,0.000000,4127.179688,4122.563965,4123.589844,4134.871582,4138.974121,4132.307617,4126.666504,4111.282227,4107.179688,4107.692383,4134.358887,4159.487305,4124.102539,4116.922852,741.000000,4.000000,,,,0.000000,4.000000,4.000000,4.000000,4.000000,4.000000,4.000000,4.000000,4.000000,4.000000,4.000000,4.000000,4.000000,4.000000,4.000000,100.000000
1602006407.145323,14.000000,0.000000,4117.948730,4118.974121,4121.538574,4126.666504,4134.358887,4125.641113,4120.000000,4104.102539,4090.256348,4109.230957,4134.358887,4151.794922,4129.230957,4122.563965,871.000000,4.000000,,,,0.000000,4.000000,4.000000,4.000000,4.000000,4.000000,4.000000,4.000000,4.000000,4.000000,4.000000,4.000000,4.000000,4.000000,4.000000,100.000000
1602006407.153204,15.000000,0.000000,4118.461426,4127.179688,4121.025879,4131.794922,4144.102539,4135.897461,4122.563965,4106.153809,4105.641113,4131.282227,4140.000000,4152.307617,4140.000000,4126.153809,838.000000,4.000000,,,,0.000000,4.000000,4.000000,4.000000,4.000000,4.000000,4.000000,4.000000,4.000000,4.000000,4.000000,4.000000,4.000000,4.000000,4.000000,100.000000
1602006407.161085,16.000000,0.000000,4122.051270,4138.461426,4123.077148,4140.512695,4150.769043,4143.589844,4123.589844,4112.820313,4114.871582,4136.922852,4141.538574,4154.358887,4137.436035,4122.563965,0.000000,4.000000,,,,0.000000,4.000000,4.000000,4.000000,4.000000,4.000000,4.000000,4.000000,4.000000,4.000000,4.000000,4.000000,4.000000,4.000000,4.000000,100.000000
1602006407.168967,17.000000,0.000000,4122.051270,4137.436035,4123.077148,4136.410156,4147.692383,4138.974121,4120.000000,4120.000000,4120.512695,4134.871582,4140.512695,4149.743652,4133.846191,4119.487305,0.000000,4.000000,,,,0.000000,4.000000,4.000000,4.000000,4.000000,4.000000,4.000000,4.000000,4.000000,4.000000,4.000000,4.000000,4.000000,4.000000,4.000000,100.000000
1602006407.176948,18.000000,0.000000,4122.563965,4132.307617,4122.051270,4131.794922,4148.717773,4134.871582,4119.487305,4133.846191,4144.615234,4147.692383,4142.051270,4152.820313,4138.461426,4125.641113,0.000000,4.000000,,,,0.000000,4.000000,4.000000,4.000000,4.000000,4.000000,4.000000,4.000000,4.000000,4.000000,4.000000,4.000000,4.000000,4.000000,4.000000,100.000000
1602006407.184830,19.000000,0.000000,4133.846191,4141.538574,4129.230957,4142.563965,4155.897461,4140.000000,4120.000000,4148.205078,4168.717773,4159.487305,4150.769043,4166.153809,4144.102539,4134.358887,0.000000,4.000000,,,,0.000000,4.000000,4.000000,4.000000,4.000000,4.000000,4.000000,4.000000,4.000000,4.000000,4.000000,4.000000,4.000000,4.000000,4.000000,100.000000
1602006407.192712,20.000000,0.000000,4153.846191,4157.948730,4140.512695,4157.948730,4161.538574,4140.512695,4122.563965,4151.282227,4172.820313,4146.666504,4160.000000,4175.897461,4153.333496,4141.025879,0.000000,4.000000,,,,0.000000,4.000000,4.000000,4.000000,4.000000,4.000000,4.000000,4.000000,4.000000,4.000000,4.000000,4.000000,4.000000,4.000000,4.000000,100.000000
1602006407.200593,21.000000,0.000000,4159.487305,4161.538574,4143.589844,4156.410156,4156.922852,4123.589844,4118.974121,4142.051270,4174.358887,4142.051270,4152.820313,4170.256348,4160.000000,4143.589844,0.000000,4.000000,,,,0.000000,4.000000,4.000000,4.000000,4.000000,4.000000,4.000000,4.000000,4.000000,4.000000,4.000000,4.000000,4.000000,4.000000,4.000000,100.000000
1602006407.208475,22.000000,0.000000,4145.641113,4147.692383,4138.974121,4141.538574,4142.051270,4101.538574,4109.230957,4129.743652,4169.743652,4155.384766,4136.922852,4155.384766,4151.282227,4136.922852,0.000000,4.000000,,,,0.000000,4.000000,4.000000,4.000000,4.000000,4.000000,4.000000,4.000000,4.000000,4.000000,4.000000,4.000000,4.000000,4.000000,4.000000,100.000000
1602006407.216357,23.000000,0.000000,4131.794922,4132.820313,4130.769043,4132.307617,4132.307617,4103.589844,4108.717773,4117.948730,4149.743652,4151.794922,4135.384766,4147.692383,4140.000000,4125.641113,0.000000,4.000000,,,,0.000000,4.000000,4.000000,4.000000,4.000000,4.000000,4.000000,4.000000,4.000000,4.000000,4.000000,4.000000,4.000000,4.000000,4.000000,100.000000
1602006407.224238,24.000000,0.000000,4124.102539,4128.717773,4124.615234,4130.769043,4136.410156,4127.692383,4122.051270,4110.256348,4132.307617,4134.358887,4137.948730,4148.205078,4134.871582,4123.589844,0.000000,4.000000,,,,0.000000,4.000000,4.000000,4.000000,4.000000,4.000000,4.000000,4.000000,4.000000,4.000000,4.000000,4.000000,4.000000,4.000000,4.000000,100.000000
1602006407.232120,25.000000,0.000000,4117.436035,4124.102539,4119.487305,4122.563965,4135.897461,4149.230957,4130.769043,4108.717773,4124.615234,4133.846191,4122.563965,4145.128418,4125.128418,4120.512695,0.000000,4.000000,,,,0.000000,4.000000,4.000000,4.000000,4.000000,4.000000,4.000000,4.000000,4.000000,4.000000,4.000000,4.000000,4.000000,4.000000,4.000000,100.000000
1602006407.240001,26.000000,0.000000,4104.615234,4110.769043,4104.102539,4109.743652,4127.692383,4155.897461,4126.666504,4111.282227,4116.922852,4135.384766,4110.769043,4136.410156,4109.230957,4102.051270,0.000000,4.000000,,,,0.000000,4.000000,4.000000,4.000000,4.000000,4.000000,4.000000,4.000000,4.000000,4.000000,4.000000,4.000000,4.000000,4.000000,4.000000,100.000000
1602006407.247982,27.000000,0.000000,4089.230713,4102.051270,4091.794922,4106.666504,4123.077148,4152.820313,4121.538574,4114.358887,4108.205078,4105.641113,4121.538574,4134.358887,4102.051270,4091.281982,0.000000,4.000000,,,,0.000000,4.000000,4.000000,4.000000,4.000000,4.000000,4.000000,4.000000,4.000000,4.000000,4.000000,4.000000,4.000000,4.000000,4.000000,100.000000
1602006407.255863,28.000000,0.000000,4092.820557,4109.230957,4097.436035,4117.948730,4123.077148,4147.179688,4123.589844,4117.436035,4106.666504,4083.076904,4122.563965,4136.410156,4106.666504,4101.538574,0.000000,4.000000,,,,0.000000,4.000000,4.000000,4.000000,4.000000,4.000000,4.000000,4.000000,4.000000,4.000000,4.000000,4.000000,4.000000,4.000000,4.000000,100.000000
1602006407.263844,29.000000,0.000000,4109.743652,4122.051270,4108.205078,4124.615234,4129.743652,4137.436035,4121.538574,4121.538574,4114.358887,4105.128418,4105.641113,4140.000000,4107.692383,4108.717773,0.000000,4.000000,,,,0.000000,4.000000,4.000000,4.000000,4.000000,4.000000,4.000000,4.000000,4.000000,4.000000,4.000000,4.000000,4.000000,4.000000,4.000000,100.000000
1602006407.271725,30.000000,0.000000,4115.897461,4123.077148,4116.410156,4121.025879,4133.333496,4127.179688,4109.743652,4122.563965,4119.487305,4121.025879,4106.153809,4147.179688,4107.179688,4108.205078,0.000000,4.000000,,,,0.000000,4.000000,4.000000,4.000000,4.000000,4.000000,4.000000,4.000000,4.000000,4.000000,4.000000,4.000000,4.000000,4.000000,4.000000,100.000000
1602006407.279607,31.000000,0.000000,4118.461426,4123.077148,4121.025879,4126.153809,4129.230957,4116.922852,4102.051270,4121.025879,4116.410156,4108.205078,4121.538574,4151.794922,4117.436035,4118.461426,0.000000,4.000000,,,,0.000000,4.000000,4.000000,4.000000,4.000000,4.000000,4.000000,4.000000,4.000000,4.000000,4.000000,4.000000,4.000000,4.000000,4.000000,100.000000
1602006407.287488,32.000000,0.000000,4132.307617,4131.794922,4123.077148,4136.922852,4129.230957,4106.153809,4106.666504,4121.025879,4123.589844,4119.487305,4124.615234,4158.461426,4131.282227,4135.897461,0.000000,4.000000,,,,0.000000,4.000000,4.000000,4.000000,4.000000,4.000000,4.000000,4.000000,4.000000,4.000000,4.000000,4.000000,4.000000,4.000000,4.000000,100.000000
1602006407.295369,33.000000,0.000000,4145.641113,4141.025879,4132.307617,4138.974121,4136.922852,4106.666504,4111.282227,4123.589844,4140.000000,4153.846191,4128.205078,4169.230957,4137.436035,4143.077148,0.000000,4.000000,,,,0.000000,4.000000,4.000000,4.000000,4.000000,4.000000,4.000000,4.000000,4.000000,4.000000,4.000000,4.000000,4.000000,4.000000,4.000000,100.000000
1602006407.303350,34.000000,0.000000,4150.256348,4142.563965,4142.563965,4137.436035,4139.487305,4118.974121,4112.820313,4124.615234,4141.538574,4144.615234,4141.025879,4175.384766,4147.692383,4138.974121,0.000000,4.000000,,,,0.000000,4.000000,4.000000,4.000000,4.000000,4.000000,4.000000,4.000000,4.000000,4.000000,4.000000,4.000000,4.000000,4.000000,4.000000,100.000000
1602006407.311232,35.000000,0.000000,4147.692383,4139.487305,4141.025879,4140.000000,4130.769043,4123.589844,4115.384766,4121.025879,4135.384766,4123.077148,4143.589844,4170.769043,4153.846191,4135.897461,0.000000,4.000000,,,,0.000000,4.000000,4.000000,4.000000,4.000000,4.000000,4.000000,4.000000,4.000000,4.000000,4.000000,4.000000,4.000000,4.000000,4.000000,100.000000
1602006407.319114,36.000000,0.000000,4141.538574,4134.871582,4138.461426,4141.025879,4121.538574,4119.487305,4120.000000,4120.000000,4142.051270,4145.641113,4137.948730,4164.102539,4146.666504,4138.461426,0.000000,4.000000,,,,0.000000,4.000000,4.000000,4.000000,4.000000,4.000000,4.000000,4.000000,4.000000,4.000000,4.000000,4.000000,4.000000,4.000000,4.000000,100.000000
1602006407.326995,37.000000,0.000000,4139.487305,4128.717773,4137.948730,4132.307617,4120.512695,4126.153809,4118.461426,4117.436035,4135.384766,4165.641113,4138.974121,4161.025879,4141.538574,4138.461426,0.000000,4.000000,,,,0.000000,4.000000,4.000000,4.000000,4.000000,4.000000,4.000000,4.000000,4.000000,4.000000,4.000000,4.000000,4.000000,4.000000,4.000000,100.000000
1602006407.334877,38.000000,0.000000,4130.769043,4122.051270,4129.743652,4122.051270,4122.563965,4133.333496,4110.769043,4111.282227,4111.282227,4137.436035,4131.282227,4151.794922,4135.897461,4125.128418,0.000000,4.000000,,,,0.000000,4.000000,4.000000,4.000000,4.000000,4.000000,4.000000,4.000000,4.000000,4.000000,4.000000,4.000000,4.000000,4.000000,4.000000,100.000000
1602006407.342759,39.000000,0.000000,4118.974121,4118.461426,4120.512695,4120.512695,4120.000000,4124.615234,4111.794922,4114.358887,4105.641113,4100.000000,4113.333496,4138.974121,4117.948730,4108.717773,0.000000,4.000000,,,,0.000000,4.000000,4.000000,4.000000,4.000000,4.000000,4.000000,4.000000,4.000000,4.000000,4.000000,4.000000,4.000000,4.000000,4.000000,100.000000
1602006407.350640,40.000000,0.000000,4121.538574,4118.974121,4118.974121,4122.563965,4120.512695,4120.512695,4123.589844,4125.128418,4121.025879,4103.589844,4109.230957,4135.384766,4112.307617,4106.666504,0.000000,4.000000,,,,0.000000,4.000000,4.000000,4.000000,4.000000,4.000000,4.000000,4.000000,4.000000,4.000000,4.000000,4.000000,4.000000,4.000000,4.000000,100.000000
1602006407.358522,41.000000,0.000000,4124.102539,4123.077148,4119.487305,4123.589844,4129.743652,4131.794922,4127.179688,4127.692383,4134.358887,4129.230957,4120.512695,4137.436035,4122.563965,4107.692383,0.000000,4.000000,,,,0.000000,4.000000,4.000000,4.000000,4.000000,4.000000,4.000000,4.000000,4.000000,4.000000,4.000000,4.000000,4.000000,4.000000,4.000000,100.000000
1602006407.366503,42.000000,0.000000,4121.538574,4125.641113,4118.461426,4129.230957,4137.436035,4134.871582,4121.025879,4124.102539,4138.461426,4132.820313,4125.128418,4136.922852,4124.615234,4103.589844,0.000000,4.000000,,,,0.000000,4.000000,4.000000,4.000000,4.000000,4.000000,4.000000,4.000000,4.000000,4.000000,4.000000,4.000000,4.000000,4.000000,4.000000,100.000000
1602006407.374385,43.000000,0.000000,4132.307617,4129.743652,4121.025879,4135.384766,4137.948730,4125.641113,4117.948730,4127.179688,4141.025879,4120.512695,4124.102539,4137.948730,4122.563965,4113.846191,0.000000,4.000000,,,,0.000000,4.000000,4.000000,4.000000,4.000000,4.000000,4.000000,4.000000,4.000000,4.000000,4.000000,4.000000,4.000000,4.000000,4.000000,100.000000
1602006407.382266,44.000000,0.000000,4137.948730,4134.358887,4122.563965,4135.897461,4136.922852,4118.974121,4120.000000,4128.717773,4135.384766,4125.128418,4128.717773,4136.922852,4125.128418,4124.615234,0.000000,4.000000,,,,0.000000,4.000000,4.000000,4.000000,4.000000,4.000000,4.000000,4.000000,4.000000,4.000000,4.000000,4.000000,4.000000,4.000000,4.000000,100.000000
1602006407.390147,45.000000,0.000000,4128.205078,4136.922852,4122.563965,4136.410156,4138.974121,4118.461426,4122.051270,4124.615234,4124.102539,4150.769043,4136.410156,4138.461426,4131.282227,4123.589844,0.000000,4.000000,,,,0.000000,4.000000,4.000000,4.000000,4.000000,4.000000,4.000000,4.000000,4.000000,4.000000,4.000000,4.000000,4.000000,4.000000,4.000000,100.000000
1602006407.398029,46.000000,0.000000,4131.282227,4138.974121,4129.230957,4140.000000,4143.077148,4126.666504,4125.128418,4128.205078,4126.153809,4166.153809,4141.025879,4149.743652,4140.000000,4128.717773,0.000000,4.000000,,,,0.000000,4.000000,4.000000,4.000000,4.000000,4.000000,4.000000,4.000000,4.000000,4.000000,4.000000,4.000000,4.000000,4.000000,4.000000,100.000000
1602006407.405910,47.000000,0.000000,4143.589844,4137.948730,4140.000000,4140.000000,4142.051270,4135.897461,4125.128418,4132.820313,4141.025879,4158.974121,4141.538574,4156.922852,4142.563965,4138.974121,0.000000,4.000000,,,,0.000000,4.000000,4.000000,4.000000,4.000000,4.000000,4.000000,4.000000,4.000000,4.000000,4.000000,4.000000,4.000000,4.000000,4.000000,100.000000
1602006407.413892,48.000000,0.000000,4140.000000,4137.436035,4143.077148,4138.461426,4136.410156,4128.717773,4121.538574,4129.743652,4141.538574,4139.487305,4138.461426,4153.333496,4137.948730,4134.358887,0.000000,4.000000,,,,0.000000,4.000000,4.000000,4.000000,4.000000,4.000000,4.000000,4.000000,4.000000,4.000000,4.000000,4.000000,4.000000,4.000000,4.000000,100.000000
1602006407.421773,49.000000,0.000000,4135.897461,4141.025879,4139.487305,4140.000000,4135.897461,4118.974121,4125.128418,4131.282227,4125.641113,4127.179688,4136.410156,4147.179688,4135.384766,4120.512695,0.000000,4.000000,,,,0.000000,4.000000,4.000000,4.000000,4.000000,4.000000,4.000000,4.000000,4.000000,4.000000,4.000000,4.000000,4.000000,4.000000,4.000000,100.000000
