Timestamp,EEG.Counter,EEG.Interpolated,EEG.AF3,EEG.F7,EEG.F3,EEG.FC5,EEG.T7,EEG.P7,EEG.O1,EEG.O2,EEG.P8,EEG.T8,EEG.FC6,EEG.F4,EEG.F8,EEG.AF4,EEG.RawCq,EEG.Battery,MarkerIndex,MarkerType,MarkerValueInt,EEG.MarkerHardware,CQ.AF3,CQ.F7,CQ.F3,CQ.FC5,CQ.T7,CQ.P7,CQ.O1,CQ.O2,CQ.P8,CQ.T8,CQ.FC6,CQ.F4,CQ.F8,CQ.AF4,CQ.Overall
1602006414.180206,3.000000,0.000000,4126.666504,4150.256348,4149.230957,4143.077148,4145.128418,4142.563965,4150.256348,4144.102539,4161.538574,4147.179688,4170.769043,4179.487305,4163.589844,4144.615234,867.000000,4.000000,,,,0.000000,4.000000,4.000000,4.000000,4.000000,4.000000,4.000000,4.000000,4.000000,4.000000,4.000000,4.000000,4.000000,4.000000,4.000000,100.000000
1602006414.188188,4.000000,0.000000,4120.512695,4144.102539,4143.077148,4142.051270,4138.461426,4127.179688,4146.153809,4140.512695,4154.358887,4145.641113,4156.922852,4169.230957,4156.410156,4138.974121,820.000000,4.000000,,,,0.000000,4.000000,4.000000,4.000000,4.000000,4.000000,4.000000,4.000000,4.000000,4.000000,4.000000,4.000000,4.000000,4.000000,4.000000,100.000000
1602006414.196069,5.000000,0.000000,4115.897461,4132.820313,4137.436035,4137.948730,4132.820313,4120.000000,4138.974121,4135.897461,4153.333496,4169.743652,4130.769043,4165.641113,4137.948730,4134.871582,818.000000,4.000000,,,,0.000000,4.000000,4.000000,4.000000,4.000000,4.000000,4.000000,4.000000,4.000000,4.000000,4.000000,4.000000,4.000000,4.000000,4.000000,100.000000
1602006414.203951,6.000000,0.000000,4122.051270,4136.922852,4139.487305,4137.948730,4136.410156,4136.922852,4144.615234,4145.641113,4160.000000,4180.000000,4141.538574,4169.743652,4136.922852,4139.487305,754.000000,4.000000,,,,0.000000,4.000000,4.000000,4.000000,4.000000,4.000000,4.000000,4.000000,4.000000,4.000000,4.000000,4.000000,4.000000,4.000000,4.000000,100.000000
1602006414.211833,7.000000,0.000000,4122.563965,4140.512695,4138.974121,4138.974121,4138.974121,4147.179688,4151.282227,4150.769043,4154.358887,4168.717773,4156.410156,4165.128418,4155.384766,4140.000000,655.000000,4.000000,,,,0.000000,4.000000,4.000000,4.000000,4.000000,4.000000,4.000000,4.000000,4.000000,4.000000,4.000000,4.000000,4.000000,4.000000,4.000000,100.000000
1602006414.219714,8.000000,0.000000,4112.307617,4132.307617,4130.256348,4133.846191,4137.948730,4141.025879,4146.153809,4143.589844,4151.282227,4165.128418,4143.589844,4152.820313,4159.487305,4127.179688,787.000000,4.000000,,,,0.000000,4.000000,4.000000,4.000000,4.000000,4.000000,4.000000,4.000000,4.000000,4.000000,4.000000,4.000000,4.000000,4.000000,4.000000,100.000000
1602006414.227596,9.000000,0.000000,4106.153809,4131.794922,4117.948730,4128.717773,4138.974121,4142.051270,4142.051270,4137.436035,4147.692383,4157.948730,4137.436035,4144.102539,4142.563965,4120.000000,836.000000,4.000000,,,,0.000000,4.000000,4.000000,4.000000,4.000000,4.000000,4.000000,4.000000,4.000000,4.000000,4.000000,4.000000,4.000000,4.000000,4.000000,100.000000
1602006414.235477,10.000000,0.000000,4107.179688,4135.384766,4105.128418,4127.179688,4137.436035,4145.128418,4141.025879,4130.769043,4124.102539,4130.256348,4133.846191,4133.333496,4127.179688,4122.563965,872.000000,4.000000,,,,0.000000,4.000000,4.000000,4.000000,4.000000,4.000000,4.000000,4.000000,4.000000,4.000000,4.000000,4.000000,4.000000,4.000000,4.000000,100.000000
1602006414.243359,11.000000,0.000000,4108.717773,4132.307617,4101.025879,4125.641113,4135.384766,4138.974121,4135.897461,4121.538574,4103.589844,4103.077148,4118.974121,4120.512695,4114.358887,4119.487305,838.000000,4.000000,,,,0.000000,4.000000,4.000000,4.000000,4.000000,4.000000,4.000000,4.000000,4.000000,4.000000,4.000000,4.000000,4.000000,4.000000,4.000000,100.000000
1602006414.251241,12.000000,0.000000,4108.205078,4132.820313,4113.846191,4130.769043,4137.436035,4138.974121,4132.820313,4125.128418,4109.230957,4101.025879,4127.179688,4126.666504,4119.487305,4120.512695,762.000000,4.000000,,,,0.000000,4.000000,4.000000,4.000000,4.000000,4.000000,4.000000,4.000000,4.000000,4.000000,4.000000,4.000000,4.000000,4.000000,4.000000,100.000000
1602006414.259222,13.000000,0.000000,4105.128418,4140.512695,4126.153809,4138.461426,4140.000000,4147.179688,4140.000000,4138.974121,4129.743652,4130.256348,4146.666504,4143.589844,4140.000000,4128.717773,739.000000,4.000000,,,,0.000000,4.000000,4.000000,4.000000,4.000000,4.000000,4.000000,4.000000,4.000000,4.000000,4.000000,4.000000,4.000000,4.000000,4.000000,100.000000
1602006414.267103,14.000000,0.000000,4103.589844,4142.051270,4124.615234,4140.512695,4138.974121,4148.205078,4145.641113,4147.179688,4143.589844,4159.487305,4140.512695,4144.102539,4138.974121,4119.487305,872.000000,4.000000,,,,0.000000,4.000000,4.000000,4.000000,4.000000,4.000000,4.000000,4.000000,4.000000,4.000000,4.000000,4.000000,4.000000,4.000000,4.000000,100.000000
1602006414.274984,15.000000,0.000000,4109.230957,4135.384766,4120.000000,4134.871582,4139.487305,4142.563965,4144.102539,4152.307617,4151.794922,4162.563965,4136.410156,4137.436035,4122.563965,4105.128418,838.000000,4.000000,,,,0.000000,4.000000,4.000000,4.000000,4.000000,4.000000,4.000000,4.000000,4.000000,4.000000,4.000000,4.000000,4.000000,4.000000,4.000000,100.000000
1602006414.282765,16.000000,0.000000,4103.589844,4127.179688,4115.897461,4127.179688,4139.487305,4136.922852,4144.102539,4150.256348,4157.436035,4149.743652,4145.128418,4131.794922,4119.487305,4104.102539,0.000000,4.000000,,,,0.000000,4.000000,4.000000,4.000000,4.000000,4.000000,4.000000,4.000000,4.000000,4.000000,4.000000,4.000000,4.000000,4.000000,4.000000,100.000000
1602006414.290746,17.000000,0.000000,4083.589844,4114.358887,4108.717773,4121.538574,4131.282227,4135.384766,4146.666504,4140.000000,4151.282227,4142.563965,4136.410156,4122.563965,4123.589844,4109.230957,0.000000,4.000000,,,,0.000000,4.000000,4.000000,4.000000,4.000000,4.000000,4.000000,4.000000,4.000000,4.000000,4.000000,4.000000,4.000000,4.000000,4.000000,100.000000
1602006414.298627,18.000000,0.000000,4074.871826,4105.128418,4105.641113,4120.000000,4126.153809,4139.487305,4143.077148,4134.358887,4136.922852,4140.000000,4122.563965,4124.102539,4114.358887,4108.205078,0.000000,4.000000,,,,0.000000,4.000000,4.000000,4.000000,4.000000,4.000000,4.000000,4.000000,4.000000,4.000000,4.000000,4.000000,4.000000,4.000000,4.000000,100.000000
1602006414.306509,19.000000,0.000000,4081.025635,4108.717773,4106.666504,4118.461426,4132.820313,4142.051270,4137.948730,4134.358887,4131.282227,4135.897461,4120.512695,4136.410156,4105.128418,4095.384521,0.000000,4.000000,,,,0.000000,4.000000,4.000000,4.000000,4.000000,4.000000,4.000000,4.000000,4.000000,4.000000,4.000000,4.000000,4.000000,4.000000,4.000000,100.000000
1602006414.314390,20.000000,0.000000,4086.666748,4118.974121,4106.153809,4120.000000,4137.436035,4140.000000,4140.512695,4135.384766,4129.230957,4135.897461,4127.692383,4139.487305,4112.307617,4089.743652,0.000000,4.000000,,,,0.000000,4.000000,4.000000,4.000000,4.000000,4.000000,4.000000,4.000000,4.000000,4.000000,4.000000,4.000000,4.000000,4.000000,4.000000,100.000000
1602006414.322371,21.000000,0.000000,4088.205078,4125.128418,4106.153809,4126.153809,4134.871582,4136.922852,4136.410156,4133.333496,4126.153809,4138.974121,4138.974121,4136.410156,4124.615234,4104.102539,0.000000,4.000000,,,,0.000000,4.000000,4.000000,4.000000,4.000000,4.000000,4.000000,4.000000,4.000000,4.000000,4.000000,4.000000,4.000000,4.000000,4.000000,100.000000
1602006414.330253,22.000000,0.000000,4093.333252,4126.153809,4111.794922,4126.153809,4134.871582,4134.871582,4123.589844,4125.641113,4129.743652,4135.897461,4144.102539,4134.358887,4125.641113,4110.769043,0.000000,4.000000,,,,0.000000,4.000000,4.000000,4.000000,4.000000,4.000000,4.000000,4.000000,4.000000,4.000000,4.000000,4.000000,4.000000,4.000000,4.000000,100.000000
1602006414.338135,23.000000,0.000000,4103.077148,4132.307617,4119.487305,4127.692383,4138.461426,4136.410156,4118.461426,4121.538574,4136.922852,4136.922852,4142.051270,4132.820313,4121.538574,4102.563965,0.000000,4.000000,,,,0.000000,4.000000,4.000000,4.000000,4.000000,4.000000,4.000000,4.000000,4.000000,4.000000,4.000000,4.000000,4.000000,4.000000,4.000000,100.000000
1602006414.346016,24.000000,0.000000,4108.205078,4137.948730,4120.512695,4134.871582,4138.974121,4138.461426,4121.025879,4123.077148,4137.436035,4144.615234,4143.589844,4130.769043,4125.128418,4113.846191,0.000000,4.000000,,,,0.000000,4.000000,4.000000,4.000000,4.000000,4.000000,4.000000,4.000000,4.000000,4.000000,4.000000,4.000000,4.000000,4.000000,4.000000,100.000000
1602006414.353898,25.000000,0.000000,4107.179688,4134.358887,4118.974121,4136.922852,4138.461426,4132.307617,4117.948730,4124.102539,4135.897461,4144.615234,4141.025879,4128.205078,4124.102539,4131.282227,0.000000,4.000000,,,,0.000000,4.000000,4.000000,4.000000,4.000000,4.000000,4.000000,4.000000,4.000000,4.000000,4.000000,4.000000,4.000000,4.000000,4.000000,100.000000
1602006414.361780,26.000000,0.000000,4113.846191,4134.871582,4130.769043,4136.922852,4138.974121,4128.717773,4120.000000,4129.743652,4136.410156,4144.615234,4134.358887,4131.794922,4122.563965,4128.717773,0.000000,4.000000,,,,0.000000,4.000000,4.000000,4.000000,4.000000,4.000000,4.000000,4.000000,4.000000,4.000000,4.000000,4.000000,4.000000,4.000000,4.000000,100.000000
1602006414.369661,27.000000,0.000000,4126.153809,4139.487305,4143.589844,4141.025879,4142.563965,4142.051270,4134.871582,4138.974121,4138.461426,4146.153809,4144.615234,4138.974121,4131.794922,4124.102539,0.000000,4.000000,,,,0.000000,4.000000,4.000000,4.000000,4.000000,4.000000,4.000000,4.000000,4.000000,4.000000,4.000000,4.000000,4.000000,4.000000,4.000000,100.000000
1602006414.377543,28.000000,0.000000,4126.153809,4136.922852,4142.563965,4137.436035,4143.589844,4153.333496,4144.102539,4144.615234,4141.025879,4135.384766,4160.512695,4138.974121,4140.000000,4129.230957,0.000000,4.000000,,,,0.000000,4.000000,4.000000,4.000000,4.000000,4.000000,4.000000,4.000000,4.000000,4.000000,4.000000,4.000000,4.000000,4.000000,4.000000,100.000000
1602006414.385424,29.000000,0.000000,4126.153809,4136.410156,4142.051270,4134.871582,4140.512695,4152.307617,4145.128418,4151.794922,4142.563965,4132.307617,4161.538574,4144.615234,4150.256348,4133.846191,0.000000,4.000000,,,,0.000000,4.000000,4.000000,4.000000,4.000000,4.000000,4.000000,4.000000,4.000000,4.000000,4.000000,4.000000,4.000000,4.000000,4.000000,100.000000
1602006414.393306,30.000000,0.000000,4124.615234,4139.487305,4140.000000,4140.512695,4139.487305,4147.692383,4144.615234,4156.922852,4143.589844,4148.717773,4159.487305,4152.820313,4151.794922,4140.000000,0.000000,4.000000,,,,0.000000,4.000000,4.000000,4.000000,4.000000,4.000000,4.000000,4.000000,4.000000,4.000000,4.000000,4.000000,4.000000,4.000000,4.000000,100.000000
1602006414.401088,31.000000,0.000000,4114.358887,4132.307617,4129.230957,4135.897461,4136.922852,4140.512695,4142.051270,4148.717773,4142.563965,4162.051270,4154.358887,4145.641113,4133.846191,4142.563965,0.000000,4.000000,,,,0.000000,4.000000,4.000000,4.000000,4.000000,4.000000,4.000000,4.000000,4.000000,4.000000,4.000000,4.000000,4.000000,4.000000,4.000000,100.000000
1602006414.408969,32.000000,0.000000,4110.256348,4124.102539,4119.487305,4124.102539,4128.717773,4138.461426,4136.410156,4138.461426,4130.769043,4154.871582,4136.922852,4135.384766,4121.025879,4128.717773,0.000000,4.000000,,,,0.000000,4.000000,4.000000,4.000000,4.000000,4.000000,4.000000,4.000000,4.000000,4.000000,4.000000,4.000000,4.000000,4.000000,4.000000,100.000000
1602006414.416851,33.000000,0.000000,4105.641113,4123.589844,4111.282227,4121.025879,4123.589844,4140.512695,4131.282227,4133.333496,4123.589844,4137.948730,4123.589844,4126.666504,4121.538574,4110.256348,0.000000,4.000000,,,,0.000000,4.000000,4.000000,4.000000,4.000000,4.000000,4.000000,4.000000,4.000000,4.000000,4.000000,4.000000,4.000000,4.000000,4.000000,100.000000
1602006414.424733,34.000000,0.000000,4091.794922,4121.025879,4102.051270,4120.000000,4123.589844,4135.897461,4125.641113,4124.102539,4119.487305,4126.153809,4123.077148,4113.846191,4114.358887,4104.615234,0.000000,4.000000,,,,0.000000,4.000000,4.000000,4.000000,4.000000,4.000000,4.000000,4.000000,4.000000,4.000000,4.000000,4.000000,4.000000,4.000000,4.000000,100.000000
1602006414.432614,35.000000,0.000000,4090.769287,4115.384766,4105.641113,4116.922852,4126.666504,4135.384766,4124.615234,4118.461426,4110.256348,4124.615234,4121.538574,4112.820313,4106.666504,4109.743652,0.000000,4.000000,,,,0.000000,4.000000,4.000000,4.000000,4.000000,4.000000,4.000000,4.000000,4.000000,4.000000,4.000000,4.000000,4.000000,4.000000,4.000000,100.000000
1602006414.440496,36.000000,0.000000,4108.205078,4122.051270,4120.000000,4122.051270,4134.358887,4146.666504,4130.769043,4126.153809,4109.230957,4125.128418,4126.666504,4126.666504,4114.358887,4120.000000,0.000000,4.000000,,,,0.000000,4.000000,4.000000,4.000000,4.000000,4.000000,4.000000,4.000000,4.000000,4.000000,4.000000,4.000000,4.000000,4.000000,4.000000,100.000000
1602006414.448378,37.000000,0.000000,4112.307617,4127.179688,4125.128418,4125.641113,4139.487305,4152.307617,4135.384766,4135.897461,4120.512695,4123.589844,4136.410156,4140.512695,4124.102539,4128.205078,0.000000,4.000000,,,,0.000000,4.000000,4.000000,4.000000,4.000000,4.000000,4.000000,4.000000,4.000000,4.000000,4.000000,4.000000,4.000000,4.000000,4.000000,100.000000
1602006414.456259,38.000000,0.000000,4102.563965,4114.871582,4122.051270,4115.897461,4134.358887,4151.794922,4138.461426,4142.051270,4130.769043,4131.794922,4138.461426,4151.282227,4130.256348,4124.615234,0.000000,4.000000,,,,0.000000,4.000000,4.000000,4.000000,4.000000,4.000000,4.000000,4.000000,4.000000,4.000000,4.000000,4.000000,4.000000,4.000000,4.000000,100.000000
1602006414.464141,39.000000,0.000000,4110.256348,4119.487305,4121.538574,4115.384766,4131.794922,4151.282227,4146.666504,4152.820313,4138.461426,4146.666504,4139.487305,4152.307617,4130.256348,4125.641113,0.000000,4.000000,,,,0.000000,4.000000,4.000000,4.000000,4.000000,4.000000,4.000000,4.000000,4.000000,4.000000,4.000000,4.000000,4.000000,4.000000,4.000000,100.000000
1602006414.471922,40.000000,0.000000,4128.717773,4146.153809,4123.077148,4129.230957,4134.871582,4141.538574,4154.871582,4160.000000,4142.563965,4154.358887,4144.615234,4142.563965,4124.615234,4134.358887,0.000000,4.000000,,,,0.000000,4.000000,4.000000,4.000000,4.000000,4.000000,4.000000,4.000000,4.000000,4.000000,4.000000,4.000000,4.000000,4.000000,4.000000,100.000000
1602006414.479803,41.000000,0.000000,4146.153809,4163.589844,4129.743652,4140.000000,4135.897461,4134.358887,4153.846191,4152.820313,4138.974121,4154.871582,4140.512695,4137.948730,4121.538574,4129.743652,0.000000,4.000000,,,,0.000000,4.000000,4.000000,4.000000,4.000000,4.000000,4.000000,4.000000,4.000000,4.000000,4.000000,4.000000,4.000000,4.000000,4.000000,100.000000
1602006414.487685,42.000000,0.000000,4162.563965,4168.717773,4137.948730,4147.179688,4136.922852,4148.205078,4151.794922,4141.538574,4133.333496,4153.846191,4128.205078,4138.461426,4116.410156,4121.025879,0.000000,4.000000,,,,0.000000,4.000000,4.000000,4.000000,4.000000,4.000000,4.000000,4.000000,4.000000,4.000000,4.000000,4.000000,4.000000,4.000000,4.000000,100.000000
1602006414.495566,43.000000,0.000000,4170.769043,4173.333496,4140.512695,4152.820313,4138.461426,4156.922852,4154.871582,4137.436035,4128.205078,4155.384766,4124.615234,4138.974121,4109.230957,4122.051270,0.000000,4.000000,,,,0.000000,4.000000,4.000000,4.000000,4.000000,4.000000,4.000000,4.000000,4.000000,4.000000,4.000000,4.000000,4.000000,4.000000,4.000000,100.000000
1602006414.503347,44.000000,0.000000,4169.230957,4172.307617,4141.025879,4153.846191,4136.922852,4141.025879,4151.282227,4140.000000,4122.563965,4143.077148,4128.717773,4138.974121,4102.051270,4115.384766,0.000000,4.000000,,,,0.000000,4.000000,4.000000,4.000000,4.000000,4.000000,4.000000,4.000000,4.000000,4.000000,4.000000,4.000000,4.000000,4.000000,4.000000,100.000000
1602006414.511228,45.000000,0.000000,4170.256348,4170.256348,4144.102539,4153.333496,4145.128418,4133.846191,4139.487305,4141.538574,4122.051270,4130.769043,4128.717773,4137.436035,4095.384521,4106.666504,0.000000,4.000000,,,,0.000000,4.000000,4.000000,4.000000,4.000000,4.000000,4.000000,4.000000,4.000000,4.000000,4.000000,4.000000,4.000000,4.000000,4.000000,100.000000
1602006414.519208,46.000000,0.000000,4170.256348,4173.846191,4143.077148,4154.358887,4153.846191,4142.563965,4133.846191,4132.307617,4122.563965,4133.846191,4115.384766,4135.897461,4091.281982,4112.307617,0.000000,4.000000,,,,0.000000,4.000000,4.000000,4.000000,4.000000,4.000000,4.000000,4.000000,4.000000,4.000000,4.000000,4.000000,4.000000,4.000000,4.000000,100.000000
1602006414.527089,47.000000,0.000000,4160.512695,4173.333496,4138.461426,4153.846191,4146.666504,4143.077148,4136.410156,4127.179688,4125.641113,4129.743652,4106.666504,4134.871582,4092.307617,4114.871582,0.000000,4.000000,,,,0.000000,4.000000,4.000000,4.000000,4.000000,4.000000,4.000000,4.000000,4.000000,4.000000,4.000000,4.000000,4.000000,4.000000,4.000000,100.000000
1602006414.535070,48.000000,0.000000,4151.794922,4169.743652,4132.307617,4150.769043,4137.948730,4140.000000,4137.436035,4134.358887,4135.897461,4120.512695,4113.846191,4130.256348,4089.743652,4104.615234,0.000000,4.000000,,,,0.000000,4.000000,4.000000,4.000000,4.000000,4.000000,4.000000,4.000000,4.000000,4.000000,4.000000,4.000000,4.000000,4.000000,4.000000,100.000000
1602006414.542951,49.000000,0.000000,4152.307617,4168.717773,4123.589844,4146.153809,4141.025879,4141.538574,4136.922852,4137.436035,4143.077148,4129.743652,4124.102539,4125.641113,4092.307617,4104.102539,0.000000,4.000000,,,,0.000000,4.000000,4.000000,4.000000,4.000000,4.000000,4.000000,4.000000,4.000000,4.000000,4.000000,4.000000,4.000000,4.000000,4.000000,100.000000
1602006414.550732,50.000000,0.000000,4157.436035,4172.820313,4121.025879,4146.666504,4145.128418,4141.538574,4143.077148,4132.820313,4137.948730,4143.589844,4122.563965,4126.153809,4107.692383,4117.436035,0.000000,4.000000,,,,0.000000,4.000000,4.000000,4.000000,4.000000,4.000000,4.000000,4.000000,4.000000,4.000000,4.000000,4.000000,4.000000,4.000000,4.000000,100.000000
1602006414.558713,51.000000,0.000000,4156.922852,4177.436035,4123.077148,4154.871582,4143.077148,4147.692383,4151.794922,4131.794922,4119.487305,4145.641113,4117.436035,4133.333496,4113.846191,4115.384766,0.000000,4.000000,,,,0.000000,4.000000,4.000000,4.000000,4.000000,4.000000,4.000000,4.000000,4.000000,4.000000,4.000000,4.000000,4.000000,4.000000,4.000000,100.000000
1602006414.566594,52.000000,0.000000,4152.820313,4169.743652,4124.615234,4151.282227,4141.025879,4152.820313,4156.410156,4131.794922,4105.128418,4141.025879,4121.538574,4138.974121,4101.025879,4096.922852,0.000000,4.000000,,,,0.000000,4.000000,4.000000,4.000000,4.000000,4.000000,4.000000,4.000000,4.000000,4.000000,4.000000,4.000000,4.000000,4.000000,4.000000,100.000000
1602006414.574575,53.000000,0.000000,4151.282227,4157.948730,4126.153809,4139.487305,4136.922852,4142.051270,4153.846191,4126.666504,4103.589844,4122.563965,4127.179688,4140.000000,4093.333252,4091.794922,0.000000,4.000000,,,,0.000000,4.000000,4.000000,4.000000,4.000000,4.000000,4.000000,4.000000,4.000000,4.000000,4.000000,4.000000,4.000000,4.000000,4.000000,100.000000
1602006414.582456,54.000000,0.000000,4141.538574,4147.692383,4126.666504,4135.384766,4129.230957,4133.846191,4146.153809,4127.179688,4104.102539,4105.128418,4120.512695,4139.487305,4089.743652,4090.256348,0.000000,4.000000,,,,0.000000,4.000000,4.000000,4.000000,4.000000,4.000000,4.000000,4.000000,4.000000,4.000000,4.000000,4.000000,4.000000,4.000000,4.000000,100.000000
1602006414.590337,55.000000,0.000000,4128.205078,4139.487305,4126.666504,4135.897461,4124.102539,4138.461426,4141.538574,4133.846191,4111.282227,4111.794922,4108.717773,4140.000000,4077.435791,4079.487061,0.000000,4.000000,,,,0.000000,4.000000,4.000000,4.000000,4.000000,4.000000,4.000000,4.000000,4.000000,4.000000,4.000000,4.000000,4.000000,4.000000,4.000000,100.000000
1602006414.598318,56.000000,0.000000,4124.615234,4137.436035,4127.692383,4136.410156,4124.102539,4138.461426,4140.512695,4138.461426,4127.179688,4109.743652,4105.641113,4130.256348,4068.718018,4076.410156,0.000000,4.000000,,,,0.000000,4.000000,4.000000,4.000000,4.000000,4.000000,4.000000,4.000000,4.000000,4.000000,4.000000,4.000000,4.000000,4.000000,4.000000,100.000000
1602006414.606199,57.000000,0.000000,4123.077148,4137.436035,4125.128418,4136.922852,4125.128418,4138.974121,4141.025879,4140.000000,4139.487305,4101.025879,4102.563965,4119.487305,4073.333252,4074.358887,0.000000,4.000000,,,,0.000000,4.000000,4.000000,4.000000,4.000000,4.000000,4.000000,4.000000,4.000000,4.000000,4.000000,4.000000,4.000000,4.000000,4.000000,100.000000
1602006414.614080,58.000000,0.000000,4118.461426,4135.897461,4114.871582,4128.717773,4122.563965,4136.922852,4137.948730,4135.897461,4144.615234,4124.102539,4091.281982,4118.974121,4072.820557,4066.153809,0.000000,4.000000,,,,0.000000,4.000000,4.000000,4.000000,4.000000,4.000000,4.000000,4.000000,4.000000,4.000000,4.000000,4.000000,4.000000,4.000000,4.000000,100.000000
1602006414.621861,59.000000,0.000000,4117.948730,4134.871582,4106.153809,4117.436035,4117.948730,4123.589844,4132.820313,4125.641113,4138.974121,4147.179688,4087.692383,4118.461426,4069.743652,4067.692383,0.000000,4.000000,,,,0.000000,4.000000,4.000000,4.000000,4.000000,4.000000,4.000000,4.000000,4.000000,4.000000,4.000000,4.000000,4.000000,4.000000,4.000000,100.000000
1602006414.629742,60.000000,0.000000,4123.589844,4136.410156,4110.769043,4123.589844,4121.025879,4121.538574,4131.282227,4120.000000,4126.666504,4137.948730,4099.487305,4122.563965,4081.025635,4077.435791,0.000000,4.000000,,,,0.000000,4.000000,4.000000,4.000000,4.000000,4.000000,4.000000,4.000000,4.000000,4.000000,4.000000,4.000000,4.000000,4.000000,4.000000,100.000000
1602006414.637624,61.000000,0.000000,4134.871582,4145.128418,4123.589844,4138.974121,4135.384766,4143.077148,4138.974121,4129.230957,4122.051270,4133.333496,4116.922852,4134.871582,4092.307617,4085.128174,0.000000,4.000000,,,,0.000000,4.000000,4.000000,4.000000,4.000000,4.000000,4.000000,4.000000,4.000000,4.000000,4.000000,4.000000,4.000000,4.000000,4.000000,100.000000
1602006414.645505,62.000000,0.000000,4142.563965,4154.358887,4124.102539,4140.000000,4143.589844,4156.922852,4145.641113,4138.461426,4124.615234,4136.410156,4124.102539,4140.000000,4096.410156,4092.820557,0.000000,4.000000,,,,0.000000,4.000000,4.000000,4.000000,4.000000,4.000000,4.000000,4.000000,4.000000,4.000000,4.000000,4.000000,4.000000,4.000000,4.000000,100.000000
1602006414.653286,63.000000,0.000000,4141.025879,4153.846191,4121.538574,4134.871582,4137.948730,4147.179688,4143.077148,4136.410156,4119.487305,4115.384766,4120.512695,4138.461426,4102.563965,4102.051270,0.000000,4.000000,,,,0.000000,4.000000,4.000000,4.000000,4.000000,4.000000,4.000000,4.000000,4.000000,4.000000,4.000000,4.000000,4.000000,4.000000,4.000000,100.000000
1602006414.661168,64.000000,0.000000,4144.102539,4149.743652,4132.820313,4137.948730,4142.563965,4144.102539,4141.538574,4136.410156,4117.948730,4106.153809,4119.487305,4148.205078,4108.205078,4116.410156,793.000000,4.000000,,,,0.000000,4.000000,4.000000,4.000000,4.000000,4.000000,4.000000,4.000000,4.000000,4.000000,4.000000,4.000000,4.000000,4.000000,4.000000,100.000000
1602006414.669049,65.000000,0.000000,4154.871582,4153.333496,4134.871582,4142.563965,4152.820313,4151.794922,4143.077148,4140.000000,4124.615234,4121.538574,4124.615234,4157.436035,4111.282227,4128.717773,786.000000,4.000000,,,,0.000000,4.000000,4.000000,4.000000,4.000000,4.000000,4.000000,4.000000,4.000000,4.000000,4.000000,4.000000,4.000000,4.000000,4.000000,100.000000
1602006414.676930,66.000000,0.000000,4154.358887,4157.948730,4123.077148,4142.563965,4146.153809,4147.179688,4139.487305,4136.922852,4123.589844,4121.025879,4131.282227,4149.230957,4112.820313,4123.589844,850.000000,4.000000,,,,0.000000,4.000000,4.000000,4.000000,4.000000,4.000000,4.000000,4.000000,4.000000,4.000000,4.000000,4.000000,4.000000,4.000000,4.000000,100.000000
1602006414.684812,67.000000,0.000000,4141.538574,4155.897461,4122.051270,4140.512695,4135.897461,4137.948730,4134.871582,4134.871582,4119.487305,4118.461426,4140.000000,4143.589844,4110.256348,4113.846191,867.000000,4.000000,,,,0.000000,4.000000,4.000000,4.000000,4.000000,4.000000,4.000000,4.000000,4.000000,4.000000,4.000000,4.000000,4.000000,4.000000,4.000000,100.000000
1602006414.692693,68.000000,0.000000,4138.974121,4152.820313,4126.153809,4138.461426,4137.436035,4138.461426,4134.358887,4134.358887,4122.051270,4134.871582,4137.436035,4149.743652,4106.666504,4111.794922,815.000000,4.000000,,,,0.000000,4.000000,4.000000,4.000000,4.000000,4.000000,4.000000,4.000000,4.000000,4.000000,4.000000,4.000000,4.000000,4.000000,4.000000,100.000000
1602006414.700575,69.000000,0.000000,4147.179688,4153.846191,4122.051270,4138.974121,4141.538574,4140.512695,4136.410156,4126.153809,4127.179688,4145.128418,4120.000000,4153.846191,4107.692383,4110.256348,818.000000,4.000000,,,,0.000000,4.000000,4.000000,4.000000,4.000000,4.000000,4.000000,4.000000,4.000000,4.000000,4.000000,4.000000,4.000000,4.000000,4.000000,100.000000
1602006414.708356,70.000000,0.000000,4141.538574,4154.871582,4117.436035,4140.512695,4140.512695,4144.102539,4137.436035,4123.589844,4129.743652,4137.948730,4122.051270,4148.717773,4106.666504,4110.256348,759.000000,4.000000,,,,0.000000,4.000000,4.000000,4.000000,4.000000,4.000000,4.000000,4.000000,4.000000,4.000000,4.000000,4.000000,4.000000,4.000000,4.000000,100.000000
1602006414.716238,71.000000,0.000000,4130.256348,4153.333496,4120.512695,4138.461426,4139.487305,4152.307617,4137.948730,4128.717773,4135.897461,4137.436035,4140.512695,4142.051270,4109.230957,4110.256348,665.000000,4.000000,,,,0.000000,4.000000,4.000000,4.000000,4.000000,4.000000,4.000000,4.000000,4.000000,4.000000,4.000000,4.000000,4.000000,4.000000,4.000000,100.000000
1602006414.724119,72.000000,0.000000,4133.333496,4152.307617,4119.487305,4135.897461,4137.436035,4141.025879,4135.897461,4125.128418,4139.487305,4137.948730,4128.717773,4135.384766,4106.153809,4101.025879,787.000000,4.000000,,,,0.000000,4.000000,4.000000,4.000000,4.000000,4.000000,4.000000,4.000000,4.000000,4.000000,4.000000,4.000000,4.000000,4.000000,4.000000,100.000000
1602006414.732000,73.000000,0.000000,4140.000000,4151.794922,4118.461426,4135.384766,4134.358887,4121.538574,4132.307617,4124.102539,4135.897461,4125.128418,4106.153809,4133.333496,4089.230713,4091.794922,836.000000,4.000000,,,,0.000000,4.000000,4.000000,4.000000,4.000000,4.000000,4.000000,4.000000,4.000000,4.000000,4.000000,4.000000,4.000000,4.000000,4.000000,100.000000
1602006414.739882,74.000000,0.000000,4144.615234,4152.307617,4130.769043,4137.948730,4136.922852,4128.717773,4134.871582,4140.512695,4141.025879,4118.461426,4114.871582,4146.153809,4090.256348,4103.077148,872.000000,4.000000,,,,0.000000,4.000000,4.000000,4.000000,4.000000,4.000000,4.000000,4.000000,4.000000,4.000000,4.000000,4.000000,4.000000,4.000000,4.000000,100.000000
1602006414.747763,75.000000,0.000000,4153.846191,4156.922852,4150.256348,4141.025879,4140.000000,4142.051270,4141.025879,4148.205078,4154.358887,4127.692383,4126.666504,4157.436035,4107.179688,4124.102539,838.000000,4.000000,,,,0.000000,4.000000,4.000000,4.000000,4.000000,4.000000,4.000000,4.000000,4.000000,4.000000,4.000000,4.000000,4.000000,4.000000,4.000000,100.000000
1602006414.755544,76.000000,0.000000,4158.974121,4157.948730,4153.333496,4138.461426,4139.487305,4141.538574,4140.000000,4140.000000,4147.692383,4130.769043,4120.000000,4154.871582,4107.692383,4122.563965,762.000000,4.000000,,,,0.000000,4.000000,4.000000,4.000000,4.000000,4.000000,4.000000,4.000000,4.000000,4.000000,4.000000,4.000000,4.000000,4.000000,4.000000,100.000000
1602006414.763426,77.000000,0.000000,4154.871582,4151.794922,4142.051270,4138.461426,4138.461426,4146.666504,4135.897461,4137.948730,4130.769043,4117.948730,4118.461426,4153.846191,4100.512695,4109.230957,739.000000,4.000000,,,,0.000000,4.000000,4.000000,4.000000,4.000000,4.000000,4.000000,4.000000,4.000000,4.000000,4.000000,4.000000,4.000000,4.000000,4.000000,100.000000
1602006414.771307,78.000000,0.000000,4145.641113,4146.153809,4135.384766,4142.563965,4136.410156,4152.307617,4135.897461,4137.436035,4133.846191,4121.025879,4124.102539,4156.922852,4107.692383,4111.282227,872.000000,4.000000,,,,0.000000,4.000000,4.000000,4.000000,4.000000,4.000000,4.000000,4.000000,4.000000,4.000000,4.000000,4.000000,4.000000,4.000000,4.000000,100.000000
1602006414.779188,79.000000,0.000000,4131.794922,4139.487305,4133.333496,4138.974121,4131.794922,4140.512695,4135.384766,4127.179688,4134.358887,4142.051270,4123.589844,4149.230957,4109.743652,4117.436035,838.000000,4.000000,,,,0.000000,4.000000,4.000000,4.000000,4.000000,4.000000,4.000000,4.000000,4.000000,4.000000,4.000000,4.000000,4.000000,4.000000,4.000000,100.000000
1602006414.786969,80.000000,0.000000,4124.615234,4142.051270,4135.384766,4135.384766,4136.410156,4133.846191,4134.871582,4122.563965,4118.461426,4142.563965,4124.615234,4145.641113,4102.051270,4112.820313,762.000000,4.000000,,,,0.000000,4.000000,4.000000,4.000000,4.000000,4.000000,4.000000,4.000000,4.000000,4.000000,4.000000,4.000000,4.000000,4.000000,4.000000,100.000000
1602006414.794850,81.000000,0.000000,4130.256348,4152.820313,4136.922852,4142.563965,4143.589844,4138.974121,4131.794922,4127.179688,4122.563965,4130.769043,4134.358887,4149.743652,4105.641113,4107.179688,739.000000,4.000000,,,,0.000000,4.000000,4.000000,4.000000,4.000000,4.000000,4.000000,4.000000,4.000000,4.000000,4.000000,4.000000,4.000000,4.000000,4.000000,100.000000
1602006414.802732,82.000000,0.000000,4130.769043,4149.230957,4126.666504,4139.487305,4139.487305,4137.948730,4123.077148,4127.179688,4134.871582,4126.153809,4136.410156,4144.102539,4109.230957,4106.666504,872.000000,4.000000,,,,0.000000,4.000000,4.000000,4.000000,4.000000,4.000000,4.000000,4.000000,4.000000,4.000000,4.000000,4.000000,4.000000,4.000000,4.000000,100.000000
1602006414.810712,83.000000,0.000000,4120.000000,4136.410156,4116.410156,4124.102539,4134.358887,4135.384766,4118.974121,4123.077148,4127.179688,4122.563965,4127.692383,4135.384766,4097.948730,4105.128418,838.000000,4.000000,,,,0.000000,4.000000,4.000000,4.000000,4.000000,4.000000,4.000000,4.000000,4.000000,4.000000,4.000000,4.000000,4.000000,4.000000,4.000000,100.000000
1602006414.818593,84.000000,0.000000,4113.846191,4135.384766,4117.436035,4118.461426,4130.769043,4131.794922,4127.179688,4124.615234,4115.897461,4118.974121,4117.436035,4132.820313,4084.102539,4105.641113,762.000000,4.000000,,,,0.000000,4.000000,4.000000,4.000000,4.000000,4.000000,4.000000,4.000000,4.000000,4.000000,4.000000,4.000000,4.000000,4.000000,4.000000,100.000000
1602006414.826375,85.000000,0.000000,4129.230957,4139.487305,4122.563965,4126.666504,4125.641113,4127.179688,4134.358887,4131.794922,4125.128418,4120.512695,4109.230957,4133.333496,4083.076904,4104.615234,739.000000,4.000000,,,,0.000000,4.000000,4.000000,4.000000,4.000000,4.000000,4.000000,4.000000,4.000000,4.000000,4.000000,4.000000,4.000000,4.000000,4.000000,100.000000
1602006414.834256,86.000000,0.000000,4141.538574,4138.974121,4122.563965,4134.871582,4129.230957,4133.846191,4136.922852,4140.000000,4145.641113,4125.641113,4107.179688,4139.487305,4091.794922,4104.615234,872.000000,4.000000,,,,0.000000,4.000000,4.000000,4.000000,4.000000,4.000000,4.000000,4.000000,4.000000,4.000000,4.000000,4.000000,4.000000,4.000000,4.000000,100.000000
1602006414.842137,87.000000,0.000000,4134.358887,4144.615234,4120.000000,4136.922852,4136.922852,4139.487305,4139.487305,4141.538574,4158.461426,4132.307617,4118.974121,4148.717773,4101.025879,4114.358887,838.000000,4.000000,,,,0.000000,4.000000,4.000000,4.000000,4.000000,4.000000,4.000000,4.000000,4.000000,4.000000,4.000000,4.000000,4.000000,4.000000,4.000000,100.000000
1602006414.850118,88.000000,0.000000,4138.974121,4154.358887,4126.666504,4137.948730,4137.948730,4137.436035,4140.000000,4141.025879,4157.948730,4145.641113,4136.410156,4154.871582,4107.692383,4127.179688,762.000000,4.000000,,,,0.000000,4.000000,4.000000,4.000000,4.000000,4.000000,4.000000,4.000000,4.000000,4.000000,4.000000,4.000000,4.000000,4.000000,4.000000,100.000000
1602006414.858000,89.000000,0.000000,4150.769043,4154.358887,4136.922852,4138.974121,4136.922852,4135.384766,4135.897461,4142.051270,4155.897461,4157.436035,4142.051270,4156.922852,4115.897461,4127.692383,739.000000,4.000000,,,,0.000000,4.000000,4.000000,4.000000,4.000000,4.000000,4.000000,4.000000,4.000000,4.000000,4.000000,4.000000,4.000000,4.000000,4.000000,100.000000
1602006414.865882,90.000000,0.000000,4143.077148,4149.230957,4137.436035,4135.897461,4135.897461,4131.794922,4134.871582,4137.436035,4155.384766,4152.820313,4142.051270,4152.307617,4120.512695,4124.102539,872.000000,4.000000,,,,0.000000,4.000000,4.000000,4.000000,4.000000,4.000000,4.000000,4.000000,4.000000,4.000000,4.000000,4.000000,4.000000,4.000000,4.000000,100.000000
1602006414.873763,91.000000,0.000000,4132.820313,4151.794922,4136.922852,4129.743652,4136.410156,4130.769043,4138.461426,4127.692383,4139.487305,4137.948730,4145.641113,4144.615234,4115.897461,4125.128418,838.000000,4.000000,,,,0.000000,4.000000,4.000000,4.000000,4.000000,4.000000,4.000000,4.000000,4.000000,4.000000,4.000000,4.000000,4.000000,4.000000,4.000000,100.000000
1602006414.881645,92.000000,0.000000,4136.410156,4150.769043,4138.461426,4126.153809,4136.410156,4136.922852,4134.871582,4122.563965,4122.563965,4127.692383,4140.000000,4139.487305,4108.717773,4116.922852,762.000000,4.000000,,,,0.000000,4.000000,4.000000,4.000000,4.000000,4.000000,4.000000,4.000000,4.000000,4.000000,4.000000,4.000000,4.000000,4.000000,4.000000,100.000000
1602006414.889527,93.000000,0.000000,4137.948730,4139.487305,4131.282227,4122.563965,4126.153809,4137.948730,4127.179688,4123.077148,4125.641113,4127.692383,4125.128418,4137.436035,4102.051270,4110.769043,739.000000,4.000000,,,,0.000000,4.000000,4.000000,4.000000,4.000000,4.000000,4.000000,4.000000,4.000000,4.000000,4.000000,4.000000,4.000000,4.000000,4.000000,100.000000
1602006414.897408,94.000000,0.000000,4137.948730,4141.538574,4130.769043,4126.666504,4123.077148,4138.974121,4126.666504,4123.589844,4136.922852,4121.538574,4121.538574,4138.461426,4096.922852,4118.974121,872.000000,4.000000,,,,0.000000,4.000000,4.000000,4.000000,4.000000,4.000000,4.000000,4.000000,4.000000,4.000000,4.000000,4.000000,4.000000,4.000000,4.000000,100.000000
1602006414.905290,95.000000,0.000000,4141.538574,4154.358887,4138.461426,4138.461426,4137.948730,4145.128418,4126.666504,4123.077148,4141.025879,4107.179688,4123.077148,4138.461426,4093.846191,4111.794922,838.000000,4.000000,,,,0.000000,4.000000,4.000000,4.000000,4.000000,4.000000,4.000000,4.000000,4.000000,4.000000,4.000000,4.000000,4.000000,4.000000,4.000000,100.000000
1602006414.913172,96.000000,0.000000,4138.974121,4153.333496,4132.820313,4140.512695,4136.922852,4132.307617,4119.487305,4118.974121,4129.230957,4101.025879,4108.717773,4132.820313,4089.743652,4093.333252,762.000000,4.000000,,,,0.000000,4.000000,4.000000,4.000000,4.000000,4.000000,4.000000,4.000000,4.000000,4.000000,4.000000,4.000000,4.000000,4.000000,4.000000,100.000000
1602006414.921053,97.000000,0.000000,4139.487305,4149.743652,4130.769043,4135.897461,4123.077148,4117.948730,4120.512695,4122.051270,4120.512695,4112.820313,4101.025879,4134.871582,4091.794922,4104.615234,739.000000,4.000000,,,,0.000000,4.000000,4.000000,4.000000,4.000000,4.000000,4.000000,4.000000,4.000000,4.000000,4.000000,4.000000,4.000000,4.000000,4.000000,100.000000
1602006414.928835,98.000000,0.000000,4140.512695,4155.897461,4142.563965,4138.461426,4123.589844,4129.743652,4135.897461,4137.436035,4126.153809,4126.153809,4119.487305,4143.589844,4104.615234,4127.692383,872.000000,4.000000,,,,0.000000,4.000000,4.000000,4.000000,4.000000,4.000000,4.000000,4.000000,4.000000,4.000000,4.000000,4.000000,4.000000,4.000000,4.000000,100.000000
1602006414.936717,99.000000,0.000000,4140.000000,4152.820313,4146.153809,4140.512695,4127.179688,4136.922852,4140.512695,4139.487305,4127.179688,4126.666504,4126.666504,4143.077148,4109.230957,4128.205078,838.000000,4.000000,,,,0.000000,4.000000,4.000000,4.000000,4.000000,4.000000,4.000000,4.000000,4.000000,4.000000,4.000000,4.000000,4.000000,4.000000,4.000000,100.000000
1602006414.944598,100.000000,0.000000,4147.692383,4139.487305,4139.487305,4136.410156,4118.461426,4121.538574,4130.769043,4124.102539,4117.948730,4117.436035,4117.436035,4141.538574,4102.051270,4127.692383,762.000000,4.000000,,,,0.000000,4.000000,4.000000,4.000000,4.000000,4.000000,4.000000,4.000000,4.000000,4.000000,4.000000,4.000000,4.000000,4.000000,4.000000,100.000000
1602006414.952480,101.000000,0.000000,4156.922852,4139.487305,4139.487305,4136.922852,4117.436035,4121.025879,4130.769043,4117.948730,4111.794922,4113.846191,4125.128418,4151.282227,4103.077148,4138.461426,739.000000,4.000000,,,,0.000000,4.000000,4.000000,4.000000,4.000000,4.000000,4.000000,4.000000,4.000000,4.000000,4.000000,4.000000,4.000000,4.000000,4.000000,100.000000
1602006414.960362,102.000000,0.000000,4153.333496,4150.769043,4143.077148,4142.051270,4125.641113,4139.487305,4136.410156,4124.102539,4109.743652,4131.794922,4141.025879,4158.461426,4116.922852,4143.589844,872.000000,4.000000,,,,0.000000,4.000000,4.000000,4.000000,4.000000,4.000000,4.000000,4.000000,4.000000,4.000000,4.000000,4.000000,4.000000,4.000000,4.000000,100.000000
1602006414.968243,103.000000,0.000000,4140.000000,4148.717773,4139.487305,4138.461426,4126.666504,4137.436035,4128.717773,4123.077148,4106.666504,4134.358887,4139.487305,4154.358887,4121.025879,4131.282227,838.000000,4.000000,,,,0.000000,4.000000,4.000000,4.000000,4.000000,4.000000,4.000000,4.000000,4.000000,4.000000,4.000000,4.000000,4.000000,4.000000,4.000000,100.000000
1602006414.976125,104.000000,0.000000,4125.641113,4137.436035,4130.769043,4127.692383,4122.051270,4116.922852,4116.922852,4120.512695,4108.205078,4108.205078,4131.794922,4150.769043,4110.256348,4117.436035,762.000000,4.000000,,,,0.000000,4.000000,4.000000,4.000000,4.000000,4.000000,4.000000,4.000000,4.000000,4.000000,4.000000,4.000000,4.000000,4.000000,4.000000,100.000000
1602006414.984006,105.000000,0.000000,4118.974121,4137.436035,4123.077148,4130.256348,4124.102539,4113.333496,4113.333496,4125.128418,4115.384766,4112.307617,4135.897461,4149.230957,4116.922852,4123.589844,739.000000,4.000000,,,,0.000000,4.000000,4.000000,4.000000,4.000000,4.000000,4.000000,4.000000,4.000000,4.000000,4.000000,4.000000,4.000000,4.000000,4.000000,100.000000
1602006414.991888,106.000000,0.000000,4123.077148,4142.563965,4119.487305,4135.384766,4129.230957,4124.102539,4110.256348,4127.692383,4126.666504,4139.487305,4135.897461,4143.077148,4127.179688,4131.282227,872.000000,4.000000,,,,0.000000,4.000000,4.000000,4.000000,4.000000,4.000000,4.000000,4.000000,4.000000,4.000000,4.000000,4.000000,4.000000,4.000000,4.000000,100.000000
1602006414.999869,107.000000,0.000000,4122.051270,4136.922852,4116.922852,4127.692383,4128.717773,4126.666504,4113.846191,4130.769043,4142.051270,4143.077148,4124.102539,4135.897461,4113.333496,4114.871582,838.000000,4.000000,,,,0.000000,4.000000,4.000000,4.000000,4.000000,4.000000,4.000000,4.000000,4.000000,4.000000,4.000000,4.000000,4.000000,4.000000,4.000000,100.000000
1602006415.007751,108.000000,0.000000,4120.000000,4133.333496,4117.948730,4126.666504,4125.128418,4124.615234,4120.512695,4135.897461,4156.410156,4147.692383,4124.102539,4136.410156,4114.871582,4118.461426,762.000000,4.000000,,,,0.000000,4.000000,4.000000,4.000000,4.000000,4.000000,4.000000,4.000000,4.000000,4.000000,4.000000,4.000000,4.000000,4.000000,4.000000,100.000000
1602006415.015632,109.000000,0.000000,4127.179688,4140.000000,4126.153809,4134.871582,4124.102539,4126.666504,4122.051270,4135.384766,4157.948730,4157.436035,4139.487305,4145.128418,4143.589844,4148.717773,739.000000,4.000000,,,,0.000000,4.000000,4.000000,4.000000,4.000000,4.000000,4.000000,4.000000,4.000000,4.000000,4.000000,4.000000,4.000000,4.000000,4.000000,100.000000
1602006415.023514,110.000000,0.000000,4129.743652,4136.922852,4134.358887,4130.256348,4124.615234,4127.179688,4129.743652,4128.205078,4140.000000,4139.487305,4150.256348,4151.282227,4153.846191,4157.436035,872.000000,4.000000,,,,0.000000,4.000000,4.000000,4.000000,4.000000,4.000000,4.000000,4.000000,4.000000,4.000000,4.000000,4.000000,4.000000,4.000000,4.000000,100.000000
1602006415.031395,111.000000,0.000000,4123.589844,4122.563965,4137.436035,4123.589844,4124.102539,4124.102539,4135.897461,4123.077148,4121.025879,4118.974121,4151.794922,4154.358887,4152.820313,4159.487305,838.000000,4.000000,,,,0.000000,4.000000,4.000000,4.000000,4.000000,4.000000,4.000000,4.000000,4.000000,4.000000,4.000000,4.000000,4.000000,4.000000,4.000000,100.000000
1602006415.039276,112.000000,0.000000,4123.077148,4118.461426,4142.563965,4131.282227,4124.102539,4121.538574,4130.769043,4122.563965,4120.512695,4122.563965,4155.384766,4161.025879,4171.794922,4179.487305,762.000000,4.000000,,,,0.000000,4.000000,4.000000,4.000000,4.000000,4.000000,4.000000,4.000000,4.000000,4.000000,4.000000,4.000000,4.000000,4.000000,4.000000,100.000000
1602006415.047158,113.000000,0.000000,4124.102539,4125.128418,4153.846191,4138.461426,4126.666504,4123.077148,4123.077148,4123.077148,4126.666504,4143.077148,4157.436035,4167.692383,4186.666504,4183.077148,739.000000,4.000000,,,,0.000000,4.000000,4.000000,4.000000,4.000000,4.000000,4.000000,4.000000,4.000000,4.000000,4.000000,4.000000,4.000000,4.000000,4.000000,100.000000
1602006415.054940,114.000000,0.000000,4121.538574,4126.153809,4158.974121,4138.974121,4132.307617,4123.077148,4123.077148,4123.077148,4125.128418,4166.666504,4156.922852,4171.794922,4186.153809,4173.333496,872.000000,4.000000,,,,0.000000,4.000000,4.000000,4.000000,4.000000,4.000000,4.000000,4.000000,4.000000,4.000000,4.000000,4.000000,4.000000,4.000000,4.000000,100.000000
1602006415.062821,115.000000,0.000000,4124.615234,4126.153809,4156.410156,4140.000000,4135.897461,4121.025879,4123.077148,4122.051270,4118.461426,4171.794922,4155.897461,4170.256348,4188.205078,4183.077148,838.000000,4.000000,,,,0.000000,4.000000,4.000000,4.000000,4.000000,4.000000,4.000000,4.000000,4.000000,4.000000,4.000000,4.000000,4.000000,4.000000,4.000000,100.000000
1602006415.070703,116.000000,0.000000,4126.666504,4126.153809,4151.794922,4140.512695,4136.410156,4127.692383,4119.487305,4129.230957,4121.538574,4169.230957,4155.384766,4161.025879,4187.179688,4191.282227,762.000000,4.000000,,,,0.000000,4.000000,4.000000,4.000000,4.000000,4.000000,4.000000,4.000000,4.000000,4.000000,4.000000,4.000000,4.000000,4.000000,4.000000,100.000000
1602006415.078584,117.000000,0.000000,4123.589844,4125.641113,4150.256348,4140.512695,4140.000000,4140.000000,4126.666504,4144.102539,4141.025879,4169.230957,4165.128418,4159.487305,4187.179688,4182.563965,739.000000,4.000000,,,,0.000000,4.000000,4.000000,4.000000,4.000000,4.000000,4.000000,4.000000,4.000000,4.000000,4.000000,4.000000,4.000000,4.000000,4.000000,100.000000
1602006415.086466,118.000000,0.000000,4124.615234,4128.205078,4153.333496,4136.922852,4143.077148,4144.102539,4140.512695,4152.820313,4165.641113,4154.871582,4168.205078,4168.205078,4190.769043,4181.538574,872.000000,4.000000,,,,0.000000,4.000000,4.000000,4.000000,4.000000,4.000000,4.000000,4.000000,4.000000,4.000000,4.000000,4.000000,4.000000,4.000000,4.000000,100.000000
1602006415.094348,119.000000,0.000000,4128.205078,4128.205078,4150.769043,4134.358887,4138.974121,4138.974121,4143.077148,4150.769043,4169.743652,4138.974121,4157.948730,4163.077148,4182.563965,4183.077148,838.000000,4.000000,,,,0.000000,4.000000,4.000000,4.000000,4.000000,4.000000,4.000000,4.000000,4.000000,4.000000,4.000000,4.000000,4.000000,4.000000,4.000000,100.000000
1602006415.102229,120.000000,0.000000,4128.205078,4124.102539,4139.487305,4136.922852,4135.897461,4132.307617,4136.922852,4151.282227,4168.205078,4151.794922,4160.000000,4152.307617,4169.743652,4174.871582,762.000000,4.000000,,,,0.000000,4.000000,4.000000,4.000000,4.000000,4.000000,4.000000,4.000000,4.000000,4.000000,4.000000,4.000000,4.000000,4.000000,4.000000,100.000000
1602006415.110111,121.000000,0.000000,4125.128418,4123.589844,4142.563965,4138.974121,4137.948730,4128.205078,4141.538574,4163.077148,4181.538574,4171.794922,4168.717773,4162.051270,4169.743652,4169.230957,739.000000,4.000000,,,,0.000000,4.000000,4.000000,4.000000,4.000000,4.000000,4.000000,4.000000,4.000000,4.000000,4.000000,4.000000,4.000000,4.000000,4.000000,100.000000
1602006415.118093,122.000000,0.000000,4123.077148,4124.615234,4155.384766,4132.820313,4132.820313,4126.666504,4148.205078,4170.769043,4180.000000,4173.846191,4160.512695,4175.384766,4175.384766,4172.307617,872.000000,4.000000,,,,0.000000,4.000000,4.000000,4.000000,4.000000,4.000000,4.000000,4.000000,4.000000,4.000000,4.000000,4.000000,4.000000,4.000000,4.000000,100.000000
1602006415.125974,123.000000,0.000000,4123.589844,4115.384766,4150.256348,4123.077148,4124.102539,4122.051270,4143.077148,4163.589844,4151.282227,4163.589844,4151.794922,4169.230957,4167.692383,4173.846191,838.000000,4.000000,,,,0.000000,4.000000,4.000000,4.000000,4.000000,4.000000,4.000000,4.000000,4.000000,4.000000,4.000000,4.000000,4.000000,4.000000,4.000000,100.000000
1602006415.133856,124.000000,0.000000,4124.102539,4105.641113,4137.948730,4121.025879,4121.538574,4116.922852,4135.897461,4152.820313,4136.922852,4154.871582,4157.436035,4157.948730,4159.487305,4171.282227,762.000000,4.000000,,,,0.000000,4.000000,4.000000,4.000000,4.000000,4.000000,4.000000,4.000000,4.000000,4.000000,4.000000,4.000000,4.000000,4.000000,4.000000,100.000000
1602006415.141738,125.000000,0.000000,4121.025879,4107.179688,4137.436035,4123.589844,4121.538574,4119.487305,4127.692383,4144.102539,4133.846191,4155.384766,4155.897461,4152.820313,4158.461426,4169.743652,739.000000,4.000000,,,,0.000000,4.000000,4.000000,4.000000,4.000000,4.000000,4.000000,4.000000,4.000000,4.000000,4.000000,4.000000,4.000000,4.000000,4.000000,100.000000
1602006415.149619,126.000000,0.000000,4118.974121,4111.794922,4138.974121,4123.589844,4118.974121,4125.128418,4125.641113,4137.436035,4118.461426,4147.179688,4149.230957,4153.846191,4153.846191,4169.230957,872.000000,4.000000,,,,0.000000,4.000000,4.000000,4.000000,4.000000,4.000000,4.000000,4.000000,4.000000,4.000000,4.000000,4.000000,4.000000,4.000000,4.000000,100.000000
1602006415.157501,127.000000,0.000000,4124.102539,4111.794922,4140.000000,4126.153809,4123.077148,4129.743652,4135.384766,4138.974121,4120.000000,4132.307617,4156.922852,4157.436035,4156.922852,4173.333496,838.000000,4.000000,,,,0.000000,4.000000,4.000000,4.000000,4.000000,4.000000,4.000000,4.000000,4.000000,4.000000,4.000000,4.000000,4.000000,4.000000,4.000000,100.000000
1602006415.165382,128.000000,0.000000,4123.077148,4110.769043,4137.948730,4128.717773,4130.256348,4133.846191,4141.538574,4140.512695,4138.461426,4144.615234,4156.922852,4154.358887,4166.666504,4172.307617,762.000000,4.000000,,,,0.000000,4.000000,4.000000,4.000000,4.000000,4.000000,4.000000,4.000000,4.000000,4.000000,4.000000,4.000000,4.000000,4.000000,4.000000,100.000000
1602006415.173264,0.000000,0.000000,4112.307617,4110.769043,4127.179688,4124.615234,4134.358887,4138.974121,4137.948730,4136.922852,4138.974121,4163.077148,4145.128418,4143.077148,4162.563965,4158.461426,793.000000,4.000000,,,,0.000000,4.000000,4.000000,4.000000,4.000000,4.000000,4.000000,4.000000,4.000000,4.000000,4.000000,4.000000,4.000000,4.000000,4.000000,100.000000
1602006415.181146,1.000000,0.000000,4109.743652,4113.333496,4128.205078,4124.102539,4139.487305,4147.179688,4140.512695,4140.000000,4135.384766,4147.692383,4148.205078,4138.974121,4154.871582,4150.769043,787.000000,4.000000,,,,0.000000,4.000000,4.000000,4.000000,4.000000,4.000000,4.000000,4.000000,4.000000,4.000000,4.000000,4.000000,4.000000,4.000000,4.000000,100.000000
1602006415.189027,2.000000,0.000000,4108.717773,4112.307617,4132.820313,4124.615234,4136.410156,4142.563965,4138.974121,4142.051270,4138.974121,4131.282227,4149.743652,4138.974121,4156.922852,4148.205078,850.000000,4.000000,,,,0.000000,4.000000,4.000000,4.000000,4.000000,4.000000,4.000000,4.000000,4.000000,4.000000,4.000000,4.000000,4.000000,4.000000,4.000000,100.000000
1602006415.196809,3.000000,0.000000,4101.538574,4107.692383,4124.102539,4119.487305,4124.615234,4122.563965,4127.179688,4137.948730,4137.436035,4149.230957,4135.384766,4134.871582,4154.871582,4149.230957,867.000000,4.000000,,,,0.000000,4.000000,4.000000,4.000000,4.000000,4.000000,4.000000,4.000000,4.000000,4.000000,4.000000,4.000000,4.000000,4.000000,4.000000,100.000000
1602006415.204691,4.000000,0.000000,4110.256348,4112.820313,4121.025879,4116.922852,4126.666504,4124.615234,4128.205078,4145.641113,4146.153809,4167.179688,4137.948730,4136.922852,4150.256348,4164.615234,815.000000,4.000000,,,,0.000000,4.000000,4.000000,4.000000,4.000000,4.000000,4.000000,4.000000,4.000000,4.000000,4.000000,4.000000,4.000000,4.000000,4.000000,100.000000
1602006415.212572,5.000000,0.000000,4120.000000,4119.487305,4127.692383,4121.025879,4140.512695,4145.641113,4137.948730,4154.871582,4161.025879,4165.128418,4158.974121,4149.230957,4156.410156,4177.948730,818.000000,4.000000,,,,0.000000,4.000000,4.000000,4.000000,4.000000,4.000000,4.000000,4.000000,4.000000,4.000000,4.000000,4.000000,4.000000,4.000000,4.000000,100.000000
1602006415.220454,6.000000,0.000000,4107.692383,4111.282227,4122.051270,4121.538574,4136.410156,4143.589844,4137.436035,4145.128418,4151.794922,4145.641113,4152.307617,4154.358887,4155.384766,4168.717773,760.000000,4.000000,,,,0.000000,4.000000,4.000000,4.000000,4.000000,4.000000,4.000000,4.000000,4.000000,4.000000,4.000000,4.000000,4.000000,4.000000,4.000000,100.000000
1602006415.228336,7.000000,0.000000,4103.589844,4103.589844,4124.615234,4118.461426,4122.563965,4131.794922,4132.307617,4134.358887,4133.846191,4126.153809,4135.384766,4152.820313,4149.230957,4160.000000,665.000000,4.000000,,,,0.000000,4.000000,4.000000,4.000000,4.000000,4.000000,4.000000,4.000000,4.000000,4.000000,4.000000,4.000000,4.000000,4.000000,4.000000,100.000000
1602006415.236217,8.000000,0.000000,4121.025879,4113.846191,4143.077148,4120.512695,4125.641113,4140.000000,4134.871582,4137.948730,4135.384766,4136.410156,4147.179688,4156.922852,4154.358887,4168.205078,787.000000,4.000000,,,,0.000000,4.000000,4.000000,4.000000,4.000000,4.000000,4.000000,4.000000,4.000000,4.000000,4.000000,4.000000,4.000000,4.000000,4.000000,100.000000
1602006415.244099,9.000000,0.000000,4125.128418,4121.025879,4146.153809,4124.102539,4129.743652,4140.000000,4136.410156,4141.025879,4145.128418,4156.922852,4154.871582,4160.000000,4162.051270,4173.846191,836.000000,4.000000,,,,0.000000,4.000000,4.000000,4.000000,4.000000,4.000000,4.000000,4.000000,4.000000,4.000000,4.000000,4.000000,4.000000,4.000000,4.000000,100.000000
1602006415.251981,10.000000,0.000000,4115.897461,4116.922852,4134.358887,4123.077148,4125.128418,4120.512695,4128.717773,4136.922852,4142.563965,4162.051270,4141.025879,4155.897461,4161.538574,4169.230957,872.000000,4.000000,,,,0.000000,4.000000,4.000000,4.000000,4.000000,4.000000,4.000000,4.000000,4.000000,4.000000,4.000000,4.000000,4.000000,4.000000,4.000000,100.000000
1602006415.259862,11.000000,0.000000,4119.487305,4118.974121,4132.307617,4122.051270,4130.256348,4121.538574,4118.974121,4136.410156,4139.487305,4164.615234,4138.974121,4153.846191,4156.922852,4165.641113,838.000000,4.000000,,,,0.000000,4.000000,4.000000,4.000000,4.000000,4.000000,4.000000,4.000000,4.000000,4.000000,4.000000,4.000000,4.000000,4.000000,4.000000,100.000000
1602006415.267644,12.000000,0.000000,4127.692383,4126.153809,4138.461426,4126.666504,4140.512695,4141.025879,4122.051270,4144.615234,4149.743652,4171.282227,4152.307617,4154.871582,4155.897461,4168.717773,762.000000,4.000000,,,,0.000000,4.000000,4.000000,4.000000,4.000000,4.000000,4.000000,4.000000,4.000000,4.000000,4.000000,4.000000,4.000000,4.000000,4.000000,100.000000
1602006415.275525,13.000000,0.000000,4126.153809,4127.692383,4137.948730,4129.743652,4135.384766,4140.512695,4133.846191,4154.358887,4158.974121,4173.846191,4146.666504,4155.384766,4157.436035,4170.256348,739.000000,4.000000,,,,0.000000,4.000000,4.000000,4.000000,4.000000,4.000000,4.000000,4.000000,4.000000,4.000000,4.000000,4.000000,4.000000,4.000000,4.000000,100.000000
1602006415.283406,14.000000,0.000000,4122.051270,4121.025879,4133.846191,4124.615234,4125.641113,4126.666504,4139.487305,4155.897461,4151.282227,4157.436035,4131.282227,4152.820313,4152.820313,4170.256348,872.000000,4.000000,,,,0.000000,4.000000,4.000000,4.000000,4.000000,4.000000,4.000000,4.000000,4.000000,4.000000,4.000000,4.000000,4.000000,4.000000,4.000000,100.000000
1602006415.291287,15.000000,0.000000,4118.461426,4112.820313,4135.384766,4120.000000,4122.563965,4125.641113,4138.974121,4150.769043,4137.436035,4122.563965,4128.205078,4144.102539,4140.512695,4167.692383,838.000000,4.000000,,,,0.000000,4.000000,4.000000,4.000000,4.000000,4.000000,4.000000,4.000000,4.000000,4.000000,4.000000,4.000000,4.000000,4.000000,4.000000,100.000000
1602006415.299269,16.000000,0.000000,4113.846191,4106.666504,4136.410156,4120.000000,4120.512695,4128.717773,4136.410156,4147.692383,4131.794922,4116.410156,4124.615234,4135.384766,4133.333496,4157.436035,0.000000,4.000000,,,,0.000000,4.000000,4.000000,4.000000,4.000000,4.000000,4.000000,4.000000,4.000000,4.000000,4.000000,4.000000,4.000000,4.000000,4.000000,100.000000
1602006415.307150,17.000000,0.000000,4118.974121,4109.743652,4136.410156,4121.538574,4121.025879,4130.256348,4136.922852,4150.769043,4141.025879,4150.256348,4118.461426,4136.922852,4139.487305,4149.230957,0.000000,4.000000,,,,0.000000,4.000000,4.000000,4.000000,4.000000,4.000000,4.000000,4.000000,4.000000,4.000000,4.000000,4.000000,4.000000,4.000000,4.000000,100.000000
1602006415.315032,18.000000,0.000000,4124.102539,4114.358887,4136.410156,4117.948730,4122.563965,4133.333496,4140.000000,4155.897461,4155.384766,4161.025879,4126.153809,4141.538574,4145.128418,4150.769043,0.000000,4.000000,,,,0.000000,4.000000,4.000000,4.000000,4.000000,4.000000,4.000000,4.000000,4.000000,4.000000,4.000000,4.000000,4.000000,4.000000,4.000000,100.000000
1602006415.322913,19.000000,0.000000,4112.307617,4110.256348,4128.205078,4112.820313,4120.000000,4127.692383,4135.897461,4154.358887,4160.000000,4154.358887,4135.897461,4138.461426,4140.512695,4154.871582,0.000000,4.000000,,,,0.000000,4.000000,4.000000,4.000000,4.000000,4.000000,4.000000,4.000000,4.000000,4.000000,4.000000,4.000000,4.000000,4.000000,4.000000,100.000000
1602006415.330795,20.000000,0.000000,4104.615234,4105.128418,4117.948730,4114.358887,4118.974121,4117.436035,4122.563965,4149.230957,4155.384766,4161.538574,4135.897461,4134.871582,4139.487305,4158.461426,0.000000,4.000000,,,,0.000000,4.000000,4.000000,4.000000,4.000000,4.000000,4.000000,4.000000,4.000000,4.000000,4.000000,4.000000,4.000000,4.000000,4.000000,100.000000
1602006415.338677,21.000000,0.000000,4121.025879,4107.692383,4127.692383,4121.025879,4121.025879,4119.487305,4121.025879,4151.794922,4154.871582,4164.615234,4142.563965,4144.615234,4150.769043,4167.692383,0.000000,4.000000,,,,0.000000,4.000000,4.000000,4.000000,4.000000,4.000000,4.000000,4.000000,4.000000,4.000000,4.000000,4.000000,4.000000,4.000000,4.000000,100.000000
1602006415.346558,22.000000,0.000000,4130.256348,4111.282227,4136.922852,4120.512695,4120.512695,4126.666504,4134.358887,4156.410156,4157.948730,4160.512695,4159.487305,4156.410156,4161.025879,4172.820313,0.000000,4.000000,,,,0.000000,4.000000,4.000000,4.000000,4.000000,4.000000,4.000000,4.000000,4.000000,4.000000,4.000000,4.000000,4.000000,4.000000,4.000000,100.000000
1602006415.354440,23.000000,0.000000,4110.769043,4102.051270,4122.563965,4110.256348,4119.487305,4126.153809,4134.871582,4153.333496,4150.769043,4151.282227,4155.897461,4147.692383,4156.410156,4165.128418,0.000000,4.000000,,,,0.000000,4.000000,4.000000,4.000000,4.000000,4.000000,4.000000,4.000000,4.000000,4.000000,4.000000,4.000000,4.000000,4.000000,4.000000,100.000000
1602006415.362322,24.000000,0.000000,4089.230713,4090.256348,4106.153809,4104.615234,4122.563965,4123.077148,4125.641113,4146.666504,4141.025879,4141.538574,4133.333496,4133.333496,4145.128418,4149.743652,0.000000,4.000000,,,,0.000000,4.000000,4.000000,4.000000,4.000000,4.000000,4.000000,4.000000,4.000000,4.000000,4.000000,4.000000,4.000000,4.000000,4.000000,100.000000
1602006415.370203,25.000000,0.000000,4089.230713,4092.820557,4106.153809,4106.666504,4121.538574,4121.025879,4128.717773,4143.589844,4134.871582,4144.102539,4124.102539,4132.820313,4138.461426,4140.000000,0.000000,4.000000,,,,0.000000,4.000000,4.000000,4.000000,4.000000,4.000000,4.000000,4.000000,4.000000,4.000000,4.000000,4.000000,4.000000,4.000000,4.000000,100.000000
1602006415.377985,26.000000,0.000000,4098.974121,4101.025879,4114.871582,4110.769043,4122.051270,4126.153809,4137.436035,4139.487305,4135.384766,4144.615234,4123.077148,4136.922852,4136.922852,4142.563965,0.000000,4.000000,,,,0.000000,4.000000,4.000000,4.000000,4.000000,4.000000,4.000000,4.000000,4.000000,4.000000,4.000000,4.000000,4.000000,4.000000,4.000000,100.000000
1602006415.385867,27.000000,0.000000,4102.563965,4106.153809,4120.000000,4113.846191,4133.846191,4133.846191,4135.897461,4136.410156,4142.563965,4144.615234,4125.128418,4142.051270,4140.512695,4145.128418,0.000000,4.000000,,,,0.000000,4.000000,4.000000,4.000000,4.000000,4.000000,4.000000,4.000000,4.000000,4.000000,4.000000,4.000000,4.000000,4.000000,4.000000,100.000000
1602006415.393748,28.000000,0.000000,4108.717773,4117.436035,4121.538574,4121.538574,4141.538574,4138.461426,4136.410156,4142.563965,4146.666504,4155.384766,4133.846191,4152.820313,4152.820313,4144.102539,0.000000,4.000000,,,,0.000000,4.000000,4.000000,4.000000,4.000000,4.000000,4.000000,4.000000,4.000000,4.000000,4.000000,4.000000,4.000000,4.000000,4.000000,100.000000
1602006415.401630,29.000000,0.000000,4118.461426,4128.717773,4129.743652,4135.384766,4141.025879,4137.948730,4141.025879,4145.128418,4138.974121,4153.333496,4138.461426,4157.948730,4157.948730,4154.358887,0.000000,4.000000,,,,0.000000,4.000000,4.000000,4.000000,4.000000,4.000000,4.000000,4.000000,4.000000,4.000000,4.000000,4.000000,4.000000,4.000000,4.000000,100.000000
1602006415.409512,30.000000,0.000000,4124.615234,4130.256348,4138.974121,4135.384766,4140.512695,4134.871582,4134.871582,4141.538574,4133.846191,4146.666504,4133.846191,4154.871582,4151.282227,4167.692383,0.000000,4.000000,,,,0.000000,4.000000,4.000000,4.000000,4.000000,4.000000,4.000000,4.000000,4.000000,4.000000,4.000000,4.000000,4.000000,4.000000,4.000000,100.000000
1602006415.417393,31.000000,0.000000,4131.282227,4134.871582,4141.025879,4127.179688,4142.051270,4132.820313,4132.307617,4148.205078,4142.563965,4159.487305,4138.461426,4162.051270,4159.487305,4171.794922,0.000000,4.000000,,,,0.000000,4.000000,4.000000,4.000000,4.000000,4.000000,4.000000,4.000000,4.000000,4.000000,4.000000,4.000000,4.000000,4.000000,4.000000,100.000000
1602006415.425275,32.000000,0.000000,4135.384766,4137.436035,4140.512695,4127.692383,4141.025879,4135.384766,4138.974121,4154.871582,4146.153809,4163.077148,4150.256348,4174.871582,4173.333496,4172.307617,0.000000,4.000000,,,,0.000000,4.000000,4.000000,4.000000,4.000000,4.000000,4.000000,4.000000,4.000000,4.000000,4.000000,4.000000,4.000000,4.000000,4.000000,100.000000
1602006415.433157,33.000000,0.000000,4127.179688,4123.589844,4137.948730,4127.179688,4136.410156,4136.922852,4138.974121,4145.641113,4140.512695,4152.820313,4140.000000,4168.717773,4156.410156,4164.615234,0.000000,4.000000,,,,0.000000,4.000000,4.000000,4.000000,4.000000,4.000000,4.000000,4.000000,4.000000,4.000000,4.000000,4.000000,4.000000,4.000000,4.000000,100.000000
1602006415.441038,34.000000,0.000000,4114.358887,4110.256348,4129.230957,4119.487305,4133.333496,4134.358887,4132.820313,4136.922852,4141.025879,4152.820313,4121.025879,4151.794922,4134.871582,4149.230957,0.000000,4.000000,,,,0.000000,4.000000,4.000000,4.000000,4.000000,4.000000,4.000000,4.000000,4.000000,4.000000,4.000000,4.000000,4.000000,4.000000,4.000000,100.000000
1602006415.448819,35.000000,0.000000,4111.282227,4108.717773,4126.153809,4117.948730,4132.820313,4136.410156,4134.871582,4137.948730,4138.461426,4142.563965,4116.410156,4146.666504,4134.871582,4135.897461,0.000000,4.000000,,,,0.000000,4.000000,4.000000,4.000000,4.000000,4.000000,4.000000,4.000000,4.000000,4.000000,4.000000,4.000000,4.000000,4.000000,4.000000,100.000000
1602006415.456701,36.000000,0.000000,4110.256348,4107.179688,4125.641113,4120.000000,4128.205078,4135.897461,4139.487305,4133.333496,4126.153809,4122.563965,4115.384766,4151.282227,4130.256348,4126.666504,0.000000,4.000000,,,,0.000000,4.000000,4.000000,4.000000,4.000000,4.000000,4.000000,4.000000,4.000000,4.000000,4.000000,4.000000,4.000000,4.000000,4.000000,100.000000
1602006415.464582,37.000000,0.000000,4108.717773,4109.230957,4122.051270,4116.410156,4121.025879,4123.077148,4132.820313,4123.589844,4116.410156,4120.000000,4111.794922,4150.769043,4120.000000,4123.077148,0.000000,4.000000,,,,0.000000,4.000000,4.000000,4.000000,4.000000,4.000000,4.000000,4.000000,4.000000,4.000000,4.000000,4.000000,4.000000,4.000000,4.000000,100.000000
1602006415.472463,38.000000,0.000000,4115.384766,4118.974121,4127.179688,4120.000000,4127.179688,4120.000000,4124.102539,4124.102539,4113.333496,4128.205078,4114.358887,4148.205078,4124.615234,4131.282227,0.000000,4.000000,,,,0.000000,4.000000,4.000000,4.000000,4.000000,4.000000,4.000000,4.000000,4.000000,4.000000,4.000000,4.000000,4.000000,4.000000,4.000000,100.000000
1602006415.480444,39.000000,0.000000,4131.794922,4126.153809,4136.922852,4132.820313,4140.000000,4136.410156,4131.794922,4133.333496,4115.897461,4136.410156,4127.692383,4156.410156,4135.897461,4149.743652,0.000000,4.000000,,,,0.000000,4.000000,4.000000,4.000000,4.000000,4.000000,4.000000,4.000000,4.000000,4.000000,4.000000,4.000000,4.000000,4.000000,4.000000,100.000000
1602006415.488326,40.000000,0.000000,4140.512695,4129.230957,4140.000000,4138.974121,4142.051270,4142.051270,4143.589844,4138.974121,4120.512695,4135.384766,4136.410156,4169.743652,4150.256348,4167.692383,0.000000,4.000000,,,,0.000000,4.000000,4.000000,4.000000,4.000000,4.000000,4.000000,4.000000,4.000000,4.000000,4.000000,4.000000,4.000000,4.000000,4.000000,100.000000
1602006415.496208,41.000000,0.000000,4134.871582,4132.820313,4139.487305,4134.871582,4135.897461,4127.179688,4132.307617,4135.897461,4125.128418,4128.717773,4137.948730,4175.384766,4165.641113,4172.820313,0.000000,4.000000,,,,0.000000,4.000000,4.000000,4.000000,4.000000,4.000000,4.000000,4.000000,4.000000,4.000000,4.000000,4.000000,4.000000,4.000000,4.000000,100.000000
1602006415.504089,42.000000,0.000000,4143.589844,4137.436035,4141.538574,4136.410156,4134.871582,4120.000000,4118.461426,4134.358887,4131.794922,4134.358887,4141.538574,4174.358887,4171.282227,4168.717773,0.000000,4.000000,,,,0.000000,4.000000,4.000000,4.000000,4.000000,4.000000,4.000000,4.000000,4.000000,4.000000,4.000000,4.000000,4.000000,4.000000,4.000000,100.000000
1602006415.511971,43.000000,0.000000,4153.846191,4140.000000,4141.025879,4143.077148,4136.410156,4120.000000,4116.922852,4137.948730,4134.358887,4139.487305,4147.179688,4171.282227,4170.256348,4164.615234,0.000000,4.000000,,,,0.000000,4.000000,4.000000,4.000000,4.000000,4.000000,4.000000,4.000000,4.000000,4.000000,4.000000,4.000000,4.000000,4.000000,4.000000,100.000000
1602006415.519853,44.000000,0.000000,4140.000000,4137.948730,4131.282227,4134.871582,4130.769043,4111.282227,4111.282227,4140.000000,4128.717773,4136.410156,4144.615234,4163.077148,4168.717773,4160.512695,0.000000,4.000000,,,,0.000000,4.000000,4.000000,4.000000,4.000000,4.000000,4.000000,4.000000,4.000000,4.000000,4.000000,4.000000,4.000000,4.000000,4.000000,100.000000
1602006415.527734,45.000000,0.000000,4125.641113,4129.743652,4120.512695,4123.077148,4124.615234,4107.179688,4107.179688,4134.871582,4127.179688,4146.153809,4133.333496,4149.743652,4157.948730,4151.794922,0.000000,4.000000,,,,0.000000,4.000000,4.000000,4.000000,4.000000,4.000000,4.000000,4.000000,4.000000,4.000000,4.000000,4.000000,4.000000,4.000000,4.000000,100.000000
1602006415.535616,46.000000,0.000000,4121.025879,4123.077148,4117.948730,4123.077148,4123.589844,4117.948730,4116.410156,4130.769043,4128.717773,4158.974121,4123.589844,4144.102539,4142.563965,4140.512695,0.000000,4.000000,,,,0.000000,4.000000,4.000000,4.000000,4.000000,4.000000,4.000000,4.000000,4.000000,4.000000,4.000000,4.000000,4.000000,4.000000,4.000000,100.000000
1602006415.543598,47.000000,0.000000,4106.666504,4121.538574,4121.025879,4121.025879,4123.077148,4125.641113,4127.179688,4133.333496,4124.102539,4145.641113,4118.974121,4147.179688,4135.897461,4130.769043,0.000000,4.000000,,,,0.000000,4.000000,4.000000,4.000000,4.000000,4.000000,4.000000,4.000000,4.000000,4.000000,4.000000,4.000000,4.000000,4.000000,4.000000,100.000000
1602006415.551479,48.000000,0.000000,4101.025879,4122.563965,4122.563965,4117.948730,4123.077148,4125.128418,4133.846191,4138.461426,4131.282227,4131.794922,4126.666504,4151.794922,4137.948730,4132.307617,0.000000,4.000000,,,,0.000000,4.000000,4.000000,4.000000,4.000000,4.000000,4.000000,4.000000,4.000000,4.000000,4.000000,4.000000,4.000000,4.000000,4.000000,100.000000
1602006415.559361,49.000000,0.000000,4114.871582,4123.589844,4122.563965,4123.589844,4126.666504,4124.615234,4139.487305,4138.974121,4142.563965,4138.461426,4140.512695,4158.974121,4145.128418,4142.563965,0.000000,4.000000,,,,0.000000,4.000000,4.000000,4.000000,4.000000,4.000000,4.000000,4.000000,4.000000,4.000000,4.000000,4.000000,4.000000,4.000000,4.000000,100.000000
1602006415.567242,50.000000,0.000000,4120.512695,4121.538574,4120.512695,4128.717773,4127.179688,4124.615234,4135.384766,4138.461426,4132.307617,4130.769043,4142.051270,4165.128418,4149.230957,4144.102539,0.000000,4.000000,,,,0.000000,4.000000,4.000000,4.000000,4.000000,4.000000,4.000000,4.000000,4.000000,4.000000,4.000000,4.000000,4.000000,4.000000,4.000000,100.000000
1602006415.575124,51.000000,0.000000,4120.512695,4121.538574,4121.538574,4128.717773,4125.128418,4125.128418,4126.666504,4138.461426,4120.512695,4109.230957,4138.461426,4161.025879,4145.128418,4143.077148,0.000000,4.000000,,,,0.000000,4.000000,4.000000,4.000000,4.000000,4.000000,4.000000,4.000000,4.000000,4.000000,4.000000,4.000000,4.000000,4.000000,4.000000,100.000000
1602006415.583006,52.000000,0.000000,4117.436035,4120.512695,4123.589844,4126.666504,4123.589844,4125.641113,4123.077148,4131.282227,4121.025879,4110.256348,4133.333496,4152.307617,4138.974121,4140.000000,0.000000,4.000000,,,,0.000000,4.000000,4.000000,4.000000,4.000000,4.000000,4.000000,4.000000,4.000000,4.000000,4.000000,4.000000,4.000000,4.000000,4.000000,100.000000
1602006415.590887,53.000000,0.000000,4106.666504,4119.487305,4120.512695,4126.666504,4122.051270,4120.000000,4122.563965,4127.179688,4124.615234,4131.794922,4128.717773,4149.743652,4137.948730,4135.384766,0.000000,4.000000,,,,0.000000,4.000000,4.000000,4.000000,4.000000,4.000000,4.000000,4.000000,4.000000,4.000000,4.000000,4.000000,4.000000,4.000000,4.000000,100.000000
1602006415.598769,54.000000,0.000000,4118.461426,4128.205078,4124.102539,4133.333496,4122.563965,4119.487305,4126.153809,4133.846191,4131.282227,4141.538574,4133.846191,4154.358887,4140.512695,4138.461426,0.000000,4.000000,,,,0.000000,4.000000,4.000000,4.000000,4.000000,4.000000,4.000000,4.000000,4.000000,4.000000,4.000000,4.000000,4.000000,4.000000,4.000000,100.000000
1602006415.606651,55.000000,0.000000,4144.102539,4136.922852,4136.922852,4141.025879,4125.128418,4129.230957,4127.179688,4140.000000,4131.794922,4131.794922,4139.487305,4161.538574,4137.436035,4142.051270,0.000000,4.000000,,,,0.000000,4.000000,4.000000,4.000000,4.000000,4.000000,4.000000,4.000000,4.000000,4.000000,4.000000,4.000000,4.000000,4.000000,4.000000,100.000000
1602006415.614432,56.000000,0.000000,4145.128418,4129.743652,4142.563965,4136.410156,4123.077148,4137.436035,4124.102539,4139.487305,4127.692383,4127.692383,4134.358887,4168.205078,4136.922852,4142.051270,0.000000,4.000000,,,,0.000000,4.000000,4.000000,4.000000,4.000000,4.000000,4.000000,4.000000,4.000000,4.000000,4.000000,4.000000,4.000000,4.000000,4.000000,100.000000
1602006415.622313,57.000000,0.000000,4134.871582,4122.051270,4140.512695,4130.256348,4121.025879,4137.948730,4127.179688,4137.436035,4134.358887,4125.641113,4132.307617,4168.717773,4148.205078,4147.692383,0.000000,4.000000,,,,0.000000,4.000000,4.000000,4.000000,4.000000,4.000000,4.000000,4.000000,4.000000,4.000000,4.000000,4.000000,4.000000,4.000000,4.000000,100.000000
1602006415.630194,58.000000,0.000000,4134.871582,4123.589844,4146.666504,4134.358887,4123.589844,4134.871582,4135.384766,4136.410156,4137.436035,4111.282227,4138.461426,4168.205078,4151.794922,4157.948730,0.000000,4.000000,,,,0.000000,4.000000,4.000000,4.000000,4.000000,4.000000,4.000000,4.000000,4.000000,4.000000,4.000000,4.000000,4.000000,4.000000,4.000000,100.000000
1602006415.638175,59.000000,0.000000,4132.307617,4124.102539,4152.307617,4138.461426,4119.487305,4129.743652,4136.410156,4135.897461,4128.205078,4107.179688,4142.051270,4172.307617,4141.025879,4154.358887,0.000000,4.000000,,,,0.000000,4.000000,4.000000,4.000000,4.000000,4.000000,4.000000,4.000000,4.000000,4.000000,4.000000,4.000000,4.000000,4.000000,4.000000,100.000000
1602006415.646056,60.000000,0.000000,4124.102539,4120.000000,4147.179688,4131.282227,4114.871582,4125.128418,4135.384766,4139.487305,4130.256348,4126.153809,4140.512695,4167.692383,4136.922852,4141.538574,0.000000,4.000000,,,,0.000000,4.000000,4.000000,4.000000,4.000000,4.000000,4.000000,4.000000,4.000000,4.000000,4.000000,4.000000,4.000000,4.000000,4.000000,100.000000
1602006415.653837,61.000000,0.000000,4122.563965,4115.384766,4138.461426,4123.589844,4119.487305,4125.128418,4136.410156,4141.538574,4136.922852,4140.000000,4131.282227,4154.358887,4135.897461,4137.436035,0.000000,4.000000,,,,0.000000,4.000000,4.000000,4.000000,4.000000,4.000000,4.000000,4.000000,4.000000,4.000000,4.000000,4.000000,4.000000,4.000000,4.000000,100.000000
1602006415.661718,62.000000,0.000000,4121.025879,4111.794922,4129.743652,4121.538574,4124.102539,4123.589844,4129.743652,4135.897461,4126.666504,4138.974121,4119.487305,4147.179688,4132.307617,4136.922852,0.000000,4.000000,,,,0.000000,4.000000,4.000000,4.000000,4.000000,4.000000,4.000000,4.000000,4.000000,4.000000,4.000000,4.000000,4.000000,4.000000,4.000000,100.000000
1602006415.669699,63.000000,0.000000,4122.051270,4120.000000,4123.589844,4125.128418,4128.717773,4118.974121,4121.538574,4129.230957,4122.051270,4134.358887,4125.641113,4151.794922,4136.922852,4136.922852,0.000000,4.000000,,,,0.000000,4.000000,4.000000,4.000000,4.000000,4.000000,4.000000,4.000000,4.000000,4.000000,4.000000,4.000000,4.000000,4.000000,4.000000,100.000000
1602006415.677680,64.000000,0.000000,4127.179688,4134.358887,4130.256348,4133.333496,4136.410156,4121.538574,4121.025879,4127.179688,4127.179688,4125.128418,4140.000000,4157.948730,4143.077148,4141.025879,793.000000,4.000000,,,,0.000000,4.000000,4.000000,4.000000,4.000000,4.000000,4.000000,4.000000,4.000000,4.000000,4.000000,4.000000,4.000000,4.000000,4.000000,100.000000
1602006415.685561,65.000000,0.000000,4126.666504,4137.948730,4137.948730,4140.000000,4142.051270,4132.820313,4122.563965,4126.666504,4126.666504,4122.563965,4138.461426,4152.307617,4138.461426,4140.000000,787.000000,4.000000,,,,0.000000,4.000000,4.000000,4.000000,4.000000,4.000000,4.000000,4.000000,4.000000,4.000000,4.000000,4.000000,4.000000,4.000000,4.000000,100.000000
1602006415.693542,66.000000,0.000000,4120.000000,4128.717773,4130.769043,4134.871582,4139.487305,4142.563965,4124.102539,4125.641113,4124.102539,4122.563965,4124.102539,4140.512695,4131.794922,4129.743652,850.000000,4.000000,,,,0.000000,4.000000,4.000000,4.000000,4.000000,4.000000,4.000000,4.000000,4.000000,4.000000,4.000000,4.000000,4.000000,4.000000,4.000000,100.000000
1602006415.701423,67.000000,0.000000,4114.871582,4116.410156,4121.538574,4121.538574,4128.717773,4136.410156,4124.615234,4124.615234,4122.563965,4101.538574,4109.230957,4135.384766,4118.461426,4119.487305,867.000000,4.000000,,,,0.000000,4.000000,4.000000,4.000000,4.000000,4.000000,4.000000,4.000000,4.000000,4.000000,4.000000,4.000000,4.000000,4.000000,4.000000,100.000000
1602006415.709305,68.000000,0.000000,4110.769043,4106.666504,4120.512695,4114.358887,4118.974121,4127.692383,4124.102539,4124.615234,4123.077148,4086.666748,4104.615234,4134.358887,4106.666504,4118.461426,815.000000,4.000000,,,,0.000000,4.000000,4.000000,4.000000,4.000000,4.000000,4.000000,4.000000,4.000000,4.000000,4.000000,4.000000,4.000000,4.000000,4.000000,100.000000
1602006415.717186,69.000000,0.000000,4106.153809,4103.077148,4126.153809,4116.922852,4119.487305,4132.307617,4130.256348,4129.230957,4133.846191,4109.230957,4114.871582,4134.871582,4114.358887,4128.717773,818.000000,4.000000,,,,0.000000,4.000000,4.000000,4.000000,4.000000,4.000000,4.000000,4.000000,4.000000,4.000000,4.000000,4.000000,4.000000,4.000000,4.000000,100.000000
1602006415.725067,70.000000,0.000000,4113.846191,4110.769043,4134.871582,4122.051270,4125.128418,4140.000000,4138.974121,4140.000000,4142.051270,4138.461426,4123.077148,4146.666504,4129.230957,4142.563965,760.000000,4.000000,,,,0.000000,4.000000,4.000000,4.000000,4.000000,4.000000,4.000000,4.000000,4.000000,4.000000,4.000000,4.000000,4.000000,4.000000,4.000000,100.000000
1602006415.732949,71.000000,0.000000,4124.615234,4121.025879,4140.512695,4124.615234,4124.102539,4132.820313,4134.358887,4143.077148,4139.487305,4141.025879,4126.666504,4156.410156,4133.333496,4138.974121,665.000000,4.000000,,,,0.000000,4.000000,4.000000,4.000000,4.000000,4.000000,4.000000,4.000000,4.000000,4.000000,4.000000,4.000000,4.000000,4.000000,4.000000,100.000000
1602006415.740730,72.000000,0.000000,4125.128418,4120.512695,4140.000000,4125.128418,4121.538574,4123.077148,4124.102539,4136.410156,4136.410156,4133.333496,4133.846191,4152.307617,4135.897461,4133.846191,787.000000,4.000000,,,,0.000000,4.000000,4.000000,4.000000,4.000000,4.000000,4.000000,4.000000,4.000000,4.000000,4.000000,4.000000,4.000000,4.000000,4.000000,100.000000
1602006415.748612,73.000000,0.000000,4129.743652,4127.179688,4139.487305,4125.128418,4123.077148,4132.307617,4125.641113,4136.410156,4137.948730,4140.000000,4143.077148,4156.410156,4146.666504,4149.230957,836.000000,4.000000,,,,0.000000,4.000000,4.000000,4.000000,4.000000,4.000000,4.000000,4.000000,4.000000,4.000000,4.000000,4.000000,4.000000,4.000000,4.000000,100.000000
1602006415.756493,74.000000,0.000000,4142.051270,4140.512695,4140.000000,4126.153809,4132.820313,4142.563965,4128.205078,4136.922852,4135.897461,4143.077148,4147.179688,4166.153809,4154.358887,4163.077148,872.000000,4.000000,,,,0.000000,4.000000,4.000000,4.000000,4.000000,4.000000,4.000000,4.000000,4.000000,4.000000,4.000000,4.000000,4.000000,4.000000,4.000000,100.000000
1602006415.764375,75.000000,0.000000,4142.051270,4137.948730,4139.487305,4128.205078,4140.512695,4138.974121,4120.512695,4127.179688,4135.384766,4126.666504,4145.128418,4162.563965,4151.282227,4154.871582,838.000000,4.000000,,,,0.000000,4.000000,4.000000,4.000000,4.000000,4.000000,4.000000,4.000000,4.000000,4.000000,4.000000,4.000000,4.000000,4.000000,4.000000,100.000000
1602006415.772256,76.000000,0.000000,4129.230957,4127.179688,4137.948730,4128.205078,4134.871582,4142.051270,4114.358887,4117.436035,4135.897461,4119.487305,4141.025879,4155.897461,4143.077148,4142.051270,762.000000,4.000000,,,,0.000000,4.000000,4.000000,4.000000,4.000000,4.000000,4.000000,4.000000,4.000000,4.000000,4.000000,4.000000,4.000000,4.000000,4.000000,100.000000
1602006415.780137,77.000000,0.000000,4116.922852,4121.025879,4127.179688,4123.589844,4126.153809,4142.563965,4113.333496,4110.256348,4128.717773,4125.128418,4127.692383,4146.153809,4131.282227,4133.846191,739.000000,4.000000,,,,0.000000,4.000000,4.000000,4.000000,4.000000,4.000000,4.000000,4.000000,4.000000,4.000000,4.000000,4.000000,4.000000,4.000000,4.000000,100.000000
1602006415.788019,78.000000,0.000000,4106.153809,4110.256348,4110.256348,4114.871582,4123.589844,4126.666504,4112.820313,4104.615234,4117.436035,4123.077148,4101.538574,4125.641113,4122.051270,4124.102539,872.000000,4.000000,,,,0.000000,4.000000,4.000000,4.000000,4.000000,4.000000,4.000000,4.000000,4.000000,4.000000,4.000000,4.000000,4.000000,4.000000,4.000000,100.000000
1602006415.796000,79.000000,0.000000,4099.487305,4104.102539,4109.230957,4115.897461,4124.102539,4121.025879,4117.948730,4110.256348,4121.025879,4126.153809,4088.205078,4114.358887,4114.871582,4114.871582,838.000000,4.000000,,,,0.000000,4.000000,4.000000,4.000000,4.000000,4.000000,4.000000,4.000000,4.000000,4.000000,4.000000,4.000000,4.000000,4.000000,4.000000,100.000000
1602006415.803882,80.000000,0.000000,4105.641113,4109.230957,4118.461426,4121.538574,4124.615234,4130.256348,4126.153809,4122.563965,4136.410156,4134.871582,4103.589844,4117.948730,4111.282227,4114.871582,762.000000,4.000000,,,,0.000000,4.000000,4.000000,4.000000,4.000000,4.000000,4.000000,4.000000,4.000000,4.000000,4.000000,4.000000,4.000000,4.000000,4.000000,100.000000
1602006415.811764,81.000000,0.000000,4117.948730,4111.794922,4121.025879,4116.410156,4123.589844,4122.563965,4125.641113,4130.769043,4134.358887,4124.615234,4117.436035,4121.538574,4114.358887,4120.512695,739.000000,4.000000,,,,0.000000,4.000000,4.000000,4.000000,4.000000,4.000000,4.000000,4.000000,4.000000,4.000000,4.000000,4.000000,4.000000,4.000000,4.000000,100.000000
1602006415.819645,82.000000,0.000000,4121.025879,4110.769043,4125.128418,4113.846191,4119.487305,4109.743652,4123.589844,4138.974121,4125.128418,4109.743652,4116.410156,4127.692383,4122.563965,4128.717773,872.000000,4.000000,,,,0.000000,4.000000,4.000000,4.000000,4.000000,4.000000,4.000000,4.000000,4.000000,4.000000,4.000000,4.000000,4.000000,4.000000,4.000000,100.000000
1602006415.827527,83.000000,0.000000,4120.512695,4119.487305,4137.436035,4128.717773,4118.974121,4117.436035,4125.128418,4144.102539,4134.871582,4117.948730,4125.128418,4140.512695,4130.769043,4140.512695,838.000000,4.000000,,,,0.000000,4.000000,4.000000,4.000000,4.000000,4.000000,4.000000,4.000000,4.000000,4.000000,4.000000,4.000000,4.000000,4.000000,4.000000,100.000000
1602006415.835408,84.000000,0.000000,4132.820313,4135.897461,4150.256348,4140.512695,4127.692383,4129.230957,4121.538574,4141.025879,4144.615234,4133.846191,4139.487305,4153.333496,4147.179688,4151.794922,762.000000,4.000000,,,,0.000000,4.000000,4.000000,4.000000,4.000000,4.000000,4.000000,4.000000,4.000000,4.000000,4.000000,4.000000,4.000000,4.000000,4.000000,100.000000
1602006415.843290,85.000000,0.000000,4145.128418,4141.025879,4157.948730,4138.974121,4133.846191,4125.641113,4108.717773,4137.436035,4139.487305,4142.563965,4141.538574,4157.948730,4161.538574,4157.948730,739.000000,4.000000,,,,0.000000,4.000000,4.000000,4.000000,4.000000,4.000000,4.000000,4.000000,4.000000,4.000000,4.000000,4.000000,4.000000,4.000000,4.000000,100.000000
1602006415.851172,86.000000,0.000000,4141.538574,4133.846191,4153.333496,4138.461426,4130.256348,4118.974121,4104.615234,4139.487305,4139.487305,4153.333496,4134.358887,4155.384766,4152.307617,4158.461426,872.000000,4.000000,,,,0.000000,4.000000,4.000000,4.000000,4.000000,4.000000,4.000000,4.000000,4.000000,4.000000,4.000000,4.000000,4.000000,4.000000,4.000000,100.000000
1602006415.859053,87.000000,0.000000,4132.307617,4127.692383,4141.538574,4134.871582,4124.615234,4130.256348,4115.384766,4136.922852,4142.051270,4158.461426,4127.692383,4150.769043,4141.025879,4152.820313,838.000000,4.000000,,,,0.000000,4.000000,4.000000,4.000000,4.000000,4.000000,4.000000,4.000000,4.000000,4.000000,4.000000,4.000000,4.000000,4.000000,4.000000,100.000000
1602006415.867035,88.000000,0.000000,4124.102539,4124.615234,4133.333496,4124.102539,4123.589844,4136.410156,4120.512695,4123.077148,4128.205078,4139.487305,4120.512695,4140.000000,4139.487305,4140.000000,762.000000,4.000000,,,,0.000000,4.000000,4.000000,4.000000,4.000000,4.000000,4.000000,4.000000,4.000000,4.000000,4.000000,4.000000,4.000000,4.000000,4.000000,100.000000
1602006415.874917,89.000000,0.000000,4116.922852,4119.487305,4127.179688,4117.948730,4121.025879,4121.538574,4118.974121,4112.820313,4113.333496,4113.333496,4118.461426,4126.153809,4129.743652,4132.307617,739.000000,4.000000,,,,0.000000,4.000000,4.000000,4.000000,4.000000,4.000000,4.000000,4.000000,4.000000,4.000000,4.000000,4.000000,4.000000,4.000000,4.000000,100.000000
1602006415.882798,90.000000,0.000000,4120.000000,4120.000000,4121.538574,4121.025879,4119.487305,4122.051270,4128.717773,4126.153809,4128.205078,4121.025879,4121.025879,4127.692383,4124.615234,4135.897461,872.000000,4.000000,,,,0.000000,4.000000,4.000000,4.000000,4.000000,4.000000,4.000000,4.000000,4.000000,4.000000,4.000000,4.000000,4.000000,4.000000,4.000000,100.000000
1602006415.890680,91.000000,0.000000,4122.051270,4122.051270,4122.051270,4122.563965,4122.563965,4141.025879,4142.563965,4148.205078,4150.256348,4144.615234,4124.615234,4137.948730,4135.897461,4136.922852,838.000000,4.000000,,,,0.000000,4.000000,4.000000,4.000000,4.000000,4.000000,4.000000,4.000000,4.000000,4.000000,4.000000,4.000000,4.000000,4.000000,4.000000,100.000000
1602006415.898562,92.000000,0.000000,4120.000000,4118.461426,4126.153809,4118.974121,4121.538574,4141.538574,4141.025879,4153.846191,4142.563965,4136.410156,4130.769043,4134.358887,4140.512695,4133.333496,762.000000,4.000000,,,,0.000000,4.000000,4.000000,4.000000,4.000000,4.000000,4.000000,4.000000,4.000000,4.000000,4.000000,4.000000,4.000000,4.000000,4.000000,100.000000
1602006415.906443,93.000000,0.000000,4130.256348,4125.641113,4134.358887,4125.641113,4120.000000,4126.153809,4131.282227,4149.743652,4129.230957,4125.128418,4136.922852,4133.846191,4136.922852,4141.025879,739.000000,4.000000,,,,0.000000,4.000000,4.000000,4.000000,4.000000,4.000000,4.000000,4.000000,4.000000,4.000000,4.000000,4.000000,4.000000,4.000000,4.000000,100.000000
1602006415.914325,94.000000,0.000000,4144.102539,4140.000000,4141.025879,4139.487305,4124.615234,4123.589844,4125.641113,4151.282227,4140.512695,4148.205078,4141.025879,4147.179688,4146.666504,4157.436035,872.000000,4.000000,,,,0.000000,4.000000,4.000000,4.000000,4.000000,4.000000,4.000000,4.000000,4.000000,4.000000,4.000000,4.000000,4.000000,4.000000,4.000000,100.000000
1602006415.922206,95.000000,0.000000,4144.102539,4141.538574,4139.487305,4141.025879,4127.179688,4123.077148,4122.563965,4151.794922,4150.256348,4163.077148,4142.051270,4148.205078,4155.384766,4160.000000,838.000000,4.000000,,,,0.000000,4.000000,4.000000,4.000000,4.000000,4.000000,4.000000,4.000000,4.000000,4.000000,4.000000,4.000000,4.000000,4.000000,4.000000,100.000000
1602006415.930088,96.000000,0.000000,4143.589844,4135.384766,4137.948730,4133.333496,4122.051270,4118.461426,4121.538574,4145.641113,4142.051270,4140.512695,4138.974121,4141.025879,4153.333496,4157.436035,762.000000,4.000000,,,,0.000000,4.000000,4.000000,4.000000,4.000000,4.000000,4.000000,4.000000,4.000000,4.000000,4.000000,4.000000,4.000000,4.000000,4.000000,100.000000
1602006415.938070,97.000000,0.000000,4151.282227,4137.948730,4143.589844,4137.948730,4121.025879,4127.692383,4124.615234,4142.051270,4137.948730,4132.307617,4141.025879,4151.794922,4155.897461,4166.666504,739.000000,4.000000,,,,0.000000,4.000000,4.000000,4.000000,4.000000,4.000000,4.000000,4.000000,4.000000,4.000000,4.000000,4.000000,4.000000,4.000000,4.000000,100.000000
1602006415.945951,98.000000,0.000000,4154.871582,4137.436035,4145.641113,4141.025879,4124.615234,4141.538574,4131.794922,4141.025879,4137.948730,4152.307617,4146.666504,4159.487305,4159.487305,4167.692383,872.000000,4.000000,,,,0.000000,4.000000,4.000000,4.000000,4.000000,4.000000,4.000000,4.000000,4.000000,4.000000,4.000000,4.000000,4.000000,4.000000,4.000000,100.000000
1602006415.953833,99.000000,0.000000,4142.563965,4126.666504,4135.897461,4127.179688,4123.077148,4144.102539,4136.922852,4138.461426,4131.282227,4150.769043,4144.102539,4145.128418,4152.820313,4150.769043,838.000000,4.000000,,,,0.000000,4.000000,4.000000,4.000000,4.000000,4.000000,4.000000,4.000000,4.000000,4.000000,4.000000,4.000000,4.000000,4.000000,4.000000,100.000000
1602006415.961715,100.000000,0.000000,4126.666504,4118.461426,4124.615234,4118.461426,4120.000000,4143.589844,4137.948730,4135.897461,4124.615234,4124.102539,4131.282227,4129.743652,4138.974121,4141.025879,762.000000,4.000000,,,,0.000000,4.000000,4.000000,4.000000,4.000000,4.000000,4.000000,4.000000,4.000000,4.000000,4.000000,4.000000,4.000000,4.000000,4.000000,100.000000
1602006415.969596,101.000000,0.000000,4115.384766,4112.820313,4121.025879,4122.051270,4122.563965,4140.512695,4133.333496,4135.384766,4121.538574,4110.769043,4121.538574,4121.025879,4125.641113,4132.307617,739.000000,4.000000,,,,0.000000,4.000000,4.000000,4.000000,4.000000,4.000000,4.000000,4.000000,4.000000,4.000000,4.000000,4.000000,4.000000,4.000000,4.000000,100.000000
1602006415.977478,102.000000,0.000000,4102.051270,4107.692383,4111.794922,4121.025879,4122.563965,4127.692383,4125.128418,4135.897461,4122.051270,4110.769043,4118.974121,4106.153809,4112.307617,4110.256348,872.000000,4.000000,,,,0.000000,4.000000,4.000000,4.000000,4.000000,4.000000,4.000000,4.000000,4.000000,4.000000,4.000000,4.000000,4.000000,4.000000,4.000000,100.000000
1602006415.985359,103.000000,0.000000,4094.358887,4105.128418,4102.051270,4115.897461,4117.948730,4117.436035,4120.000000,4135.897461,4130.769043,4104.615234,4117.948730,4097.436035,4106.666504,4108.205078,838.000000,4.000000,,,,0.000000,4.000000,4.000000,4.000000,4.000000,4.000000,4.000000,4.000000,4.000000,4.000000,4.000000,4.000000,4.000000,4.000000,4.000000,100.000000
1602006415.993241,104.000000,0.000000,4105.128418,4105.128418,4110.769043,4118.974121,4119.487305,4119.487305,4119.487305,4136.922852,4138.461426,4110.769043,4117.948730,4108.205078,4113.846191,4128.717773,762.000000,4.000000,,,,0.000000,4.000000,4.000000,4.000000,4.000000,4.000000,4.000000,4.000000,4.000000,4.000000,4.000000,4.000000,4.000000,4.000000,4.000000,100.000000
1602006416.001123,105.000000,0.000000,4121.025879,4110.769043,4130.769043,4128.205078,4125.641113,4123.589844,4121.025879,4143.077148,4133.846191,4138.974121,4128.205078,4129.743652,4127.179688,4137.948730,739.000000,4.000000,,,,0.000000,4.000000,4.000000,4.000000,4.000000,4.000000,4.000000,4.000000,4.000000,4.000000,4.000000,4.000000,4.000000,4.000000,4.000000,100.000000
1602006416.009104,106.000000,0.000000,4130.769043,4121.538574,4139.487305,4135.384766,4127.692383,4125.641113,4121.538574,4146.666504,4133.846191,4161.538574,4141.025879,4144.102539,4138.974121,4146.153809,872.000000,4.000000,,,,0.000000,4.000000,4.000000,4.000000,4.000000,4.000000,4.000000,4.000000,4.000000,4.000000,4.000000,4.000000,4.000000,4.000000,4.000000,100.000000
1602006416.016985,107.000000,0.000000,4138.461426,4128.717773,4132.307617,4136.922852,4124.102539,4123.077148,4122.563965,4141.025879,4144.615234,4160.000000,4144.102539,4144.102539,4147.692383,4158.974121,838.000000,4.000000,,,,0.000000,4.000000,4.000000,4.000000,4.000000,4.000000,4.000000,4.000000,4.000000,4.000000,4.000000,4.000000,4.000000,4.000000,4.000000,100.000000
1602006416.024867,108.000000,0.000000,4144.615234,4133.333496,4125.641113,4136.922852,4126.153809,4121.025879,4128.717773,4137.948730,4137.948730,4143.077148,4146.153809,4140.512695,4150.256348,4156.410156,762.000000,4.000000,,,,0.000000,4.000000,4.000000,4.000000,4.000000,4.000000,4.000000,4.000000,4.000000,4.000000,4.000000,4.000000,4.000000,4.000000,4.000000,100.000000
1602006416.032748,109.000000,0.000000,4145.641113,4140.512695,4133.333496,4138.461426,4135.384766,4126.666504,4137.948730,4142.051270,4119.487305,4129.743652,4155.384766,4148.717773,4152.820313,4153.846191,739.000000,4.000000,,,,0.000000,4.000000,4.000000,4.000000,4.000000,4.000000,4.000000,4.000000,4.000000,4.000000,4.000000,4.000000,4.000000,4.000000,4.000000,100.000000
1602006416.040630,110.000000,0.000000,4146.153809,4142.563965,4144.615234,4140.512695,4135.897461,4137.948730,4142.563965,4144.102539,4120.512695,4134.871582,4154.358887,4154.871582,4160.000000,4163.589844,872.000000,4.000000,,,,0.000000,4.000000,4.000000,4.000000,4.000000,4.000000,4.000000,4.000000,4.000000,4.000000,4.000000,4.000000,4.000000,4.000000,4.000000,100.000000
1602006416.048511,111.000000,0.000000,4142.051270,4134.871582,4141.025879,4135.384766,4126.153809,4138.974121,4138.461426,4137.948730,4126.666504,4140.000000,4140.512695,4143.589844,4154.871582,4156.922852,838.000000,4.000000,,,,0.000000,4.000000,4.000000,4.000000,4.000000,4.000000,4.000000,4.000000,4.000000,4.000000,4.000000,4.000000,4.000000,4.000000,4.000000,100.000000
1602006416.056392,112.000000,0.000000,4130.769043,4124.102539,4129.743652,4125.641113,4121.025879,4129.743652,4130.769043,4131.794922,4121.538574,4127.179688,4136.922852,4132.820313,4136.410156,4138.974121,762.000000,4.000000,,,,0.000000,4.000000,4.000000,4.000000,4.000000,4.000000,4.000000,4.000000,4.000000,4.000000,4.000000,4.000000,4.000000,4.000000,4.000000,100.000000
1602006416.064174,113.000000,0.000000,4114.871582,4114.358887,4119.487305,4120.512695,4121.538574,4118.461426,4124.102539,4128.205078,4120.000000,4118.974121,4134.358887,4128.205078,4121.025879,4133.846191,739.000000,4.000000,,,,0.000000,4.000000,4.000000,4.000000,4.000000,4.000000,4.000000,4.000000,4.000000,4.000000,4.000000,4.000000,4.000000,4.000000,4.000000,100.000000
1602006416.072055,114.000000,0.000000,4104.102539,4108.205078,4107.179688,4120.512695,4119.487305,4111.282227,4119.487305,4123.077148,4126.153809,4120.000000,4117.948730,4114.358887,4109.743652,4126.666504,872.000000,4.000000,,,,0.000000,4.000000,4.000000,4.000000,4.000000,4.000000,4.000000,4.000000,4.000000,4.000000,4.000000,4.000000,4.000000,4.000000,4.000000,100.000000
1602006416.079936,115.000000,0.000000,4105.641113,4110.256348,4101.025879,4121.025879,4118.974121,4114.358887,4116.922852,4124.615234,4125.128418,4113.846191,4106.666504,4102.563965,4102.563965,4115.897461,838.000000,4.000000,,,,0.000000,4.000000,4.000000,4.000000,4.000000,4.000000,4.000000,4.000000,4.000000,4.000000,4.000000,4.000000,4.000000,4.000000,4.000000,100.000000
1602006416.087917,116.000000,0.000000,4107.179688,4116.410156,4106.153809,4122.051270,4122.563965,4122.051270,4122.563965,4134.871582,4122.051270,4107.179688,4113.846191,4115.897461,4108.717773,4124.615234,762.000000,4.000000,,,,0.000000,4.000000,4.000000,4.000000,4.000000,4.000000,4.000000,4.000000,4.000000,4.000000,4.000000,4.000000,4.000000,4.000000,4.000000,100.000000
1602006416.095798,117.000000,0.000000,4112.307617,4120.000000,4118.461426,4123.589844,4125.641113,4128.205078,4135.897461,4141.025879,4124.102539,4108.717773,4127.692383,4136.922852,4128.205078,4139.487305,739.000000,4.000000,,,,0.000000,4.000000,4.000000,4.000000,4.000000,4.000000,4.000000,4.000000,4.000000,4.000000,4.000000,4.000000,4.000000,4.000000,4.000000,100.000000
1602006416.103779,118.000000,0.000000,4130.256348,4121.538574,4133.333496,4126.153809,4126.666504,4134.871582,4138.461426,4138.974121,4120.512695,4115.384766,4133.333496,4142.563965,4139.487305,4141.025879,872.000000,4.000000,,,,0.000000,4.000000,4.000000,4.000000,4.000000,4.000000,4.000000,4.000000,4.000000,4.000000,4.000000,4.000000,4.000000,4.000000,4.000000,100.000000
1602006416.111661,119.000000,0.000000,4137.436035,4122.563965,4142.563965,4127.179688,4124.615234,4134.358887,4131.794922,4134.871582,4108.205078,4120.000000,4138.461426,4140.000000,4136.922852,4144.615234,838.000000,4.000000,,,,0.000000,4.000000,4.000000,4.000000,4.000000,4.000000,4.000000,4.000000,4.000000,4.000000,4.000000,4.000000,4.000000,4.000000,4.000000,100.000000
1602006416.119542,120.000000,0.000000,4126.666504,4123.077148,4143.077148,4124.102539,4122.563965,4127.692383,4135.384766,4134.871582,4102.563965,4125.641113,4149.743652,4148.205078,4137.948730,4156.922852,762.000000,4.000000,,,,0.000000,4.000000,4.000000,4.000000,4.000000,4.000000,4.000000,4.000000,4.000000,4.000000,4.000000,4.000000,4.000000,4.000000,4.000000,100.000000
1602006416.127423,121.000000,0.000000,4122.051270,4125.641113,4142.563965,4128.205078,4130.256348,4131.794922,4139.487305,4136.922852,4109.230957,4136.410156,4151.282227,4157.436035,4143.589844,4162.563965,739.000000,4.000000,,,,0.000000,4.000000,4.000000,4.000000,4.000000,4.000000,4.000000,4.000000,4.000000,4.000000,4.000000,4.000000,4.000000,4.000000,4.000000,100.000000
1602006416.135305,122.000000,0.000000,4128.205078,4125.641113,4142.563965,4135.897461,4136.410156,4133.333496,4130.256348,4138.974121,4113.333496,4144.615234,4137.436035,4149.743652,4141.538574,4156.410156,872.000000,4.000000,,,,0.000000,4.000000,4.000000,4.000000,4.000000,4.000000,4.000000,4.000000,4.000000,4.000000,4.000000,4.000000,4.000000,4.000000,4.000000,100.000000
1602006416.143186,123.000000,0.000000,4129.230957,4121.538574,4135.384766,4132.307617,4127.179688,4122.051270,4124.102539,4133.846191,4110.769043,4130.769043,4134.871582,4138.461426,4137.436035,4154.358887,838.000000,4.000000,,,,0.000000,4.000000,4.000000,4.000000,4.000000,4.000000,4.000000,4.000000,4.000000,4.000000,4.000000,4.000000,4.000000,4.000000,4.000000,100.000000
1602006416.151068,124.000000,0.000000,4125.128418,4121.538574,4125.641113,4125.641113,4122.051270,4128.205078,4134.358887,4134.871582,4116.410156,4115.384766,4143.589844,4140.000000,4134.871582,4153.333496,762.000000,4.000000,,,,0.000000,4.000000,4.000000,4.000000,4.000000,4.000000,4.000000,4.000000,4.000000,4.000000,4.000000,4.000000,4.000000,4.000000,4.000000,100.000000
1602006416.158849,125.000000,0.000000,4121.538574,4124.615234,4120.000000,4123.589844,4131.282227,4138.461426,4142.563965,4144.615234,4124.615234,4118.974121,4133.846191,4136.410156,4126.153809,4141.025879,739.000000,4.000000,,,,0.000000,4.000000,4.000000,4.000000,4.000000,4.000000,4.000000,4.000000,4.000000,4.000000,4.000000,4.000000,4.000000,4.000000,4.000000,100.000000
1602006416.166731,126.000000,0.000000,4117.948730,4123.589844,4113.846191,4121.538574,4131.282227,4128.717773,4133.846191,4146.666504,4125.128418,4121.025879,4123.589844,4123.077148,4117.948730,4130.769043,872.000000,4.000000,,,,0.000000,4.000000,4.000000,4.000000,4.000000,4.000000,4.000000,4.000000,4.000000,4.000000,4.000000,4.000000,4.000000,4.000000,4.000000,100.000000
1602006416.174613,127.000000,0.000000,4121.538574,4124.102539,4113.846191,4123.589844,4124.102539,4121.025879,4125.128418,4140.000000,4123.077148,4118.461426,4135.384766,4120.512695,4121.538574,4133.846191,838.000000,4.000000,,,,0.000000,4.000000,4.000000,4.000000,4.000000,4.000000,4.000000,4.000000,4.000000,4.000000,4.000000,4.000000,4.000000,4.000000,4.000000,100.000000
1602006416.182494,128.000000,0.000000,4131.794922,4128.717773,4128.717773,4130.256348,4126.666504,4123.077148,4125.128418,4132.820313,4123.589844,4128.205078,4142.563965,4131.282227,4129.230957,4140.000000,762.000000,4.000000,,,,0.000000,4.000000,4.000000,4.000000,4.000000,4.000000,4.000000,4.000000,4.000000,4.000000,4.000000,4.000000,4.000000,4.000000,4.000000,100.000000
1602006416.190376,0.000000,0.000000,4138.974121,4130.769043,4141.538574,4129.230957,4129.230957,4124.102539,4124.615234,4127.692383,4121.538574,4138.974121,4138.974121,4138.974121,4129.230957,4140.000000,793.000000,4.000000,,,,0.000000,4.000000,4.000000,4.000000,4.000000,4.000000,4.000000,4.000000,4.000000,4.000000,4.000000,4.000000,4.000000,4.000000,4.000000,100.000000
1602006416.198257,1.000000,0.000000,4139.487305,4126.153809,4141.025879,4125.128418,4126.153809,4129.743652,4126.153809,4126.153809,4117.948730,4136.922852,4133.846191,4141.025879,4128.717773,4148.205078,787.000000,4.000000,,,,0.000000,4.000000,4.000000,4.000000,4.000000,4.000000,4.000000,4.000000,4.000000,4.000000,4.000000,4.000000,4.000000,4.000000,4.000000,100.000000
1602006416.206139,2.000000,0.000000,4142.563965,4125.128418,4138.461426,4125.128418,4126.666504,4141.025879,4134.871582,4131.794922,4120.000000,4138.974121,4136.410156,4143.589844,4136.410156,4157.948730,850.000000,4.000000,,,,0.000000,4.000000,4.000000,4.000000,4.000000,4.000000,4.000000,4.000000,4.000000,4.000000,4.000000,4.000000,4.000000,4.000000,4.000000,100.000000
1602006416.214021,3.000000,0.000000,4143.077148,4124.102539,4135.384766,4123.077148,4124.615234,4144.102539,4141.538574,4135.897461,4124.102539,4137.436035,4141.538574,4143.077148,4140.000000,4150.256348,867.000000,4.000000,,,,0.000000,4.000000,4.000000,4.000000,4.000000,4.000000,4.000000,4.000000,4.000000,4.000000,4.000000,4.000000,4.000000,4.000000,4.000000,100.000000
1602006416.221802,4.000000,0.000000,4126.666504,4110.769043,4124.615234,4111.282227,4117.436035,4132.820313,4140.000000,4133.333496,4121.538574,4110.769043,4133.333496,4136.922852,4127.179688,4136.922852,815.000000,4.000000,,,,0.000000,4.000000,4.000000,4.000000,4.000000,4.000000,4.000000,4.000000,4.000000,4.000000,4.000000,4.000000,4.000000,4.000000,4.000000,100.000000
1602006416.229683,5.000000,0.000000,4112.820313,4102.563965,4117.436035,4106.153809,4115.897461,4122.563965,4140.000000,4135.384766,4120.000000,4100.512695,4123.077148,4133.846191,4124.102539,4134.358887,818.000000,4.000000,,,,0.000000,4.000000,4.000000,4.000000,4.000000,4.000000,4.000000,4.000000,4.000000,4.000000,4.000000,4.000000,4.000000,4.000000,4.000000,100.000000
1602006416.237664,6.000000,0.000000,4118.461426,4112.307617,4120.000000,4120.000000,4122.563965,4124.615234,4144.102539,4142.563965,4132.820313,4129.230957,4132.820313,4135.897461,4132.820313,4130.769043,760.000000,4.000000,,,,0.000000,4.000000,4.000000,4.000000,4.000000,4.000000,4.000000,4.000000,4.000000,4.000000,4.000000,4.000000,4.000000,4.000000,4.000000,100.000000
1602006416.245545,7.000000,0.000000,4124.102539,4123.589844,4124.615234,4127.179688,4131.282227,4127.179688,4140.000000,4144.102539,4149.230957,4150.769043,4141.538574,4136.410156,4129.743652,4129.743652,665.000000,4.000000,,,,0.000000,4.000000,4.000000,4.000000,4.000000,4.000000,4.000000,4.000000,4.000000,4.000000,4.000000,4.000000,4.000000,4.000000,4.000000,100.000000
1602006416.253427,8.000000,0.000000,4119.487305,4128.717773,4124.102539,4122.051270,4137.436035,4120.000000,4125.641113,4140.000000,4148.717773,4144.615234,4133.846191,4135.384766,4128.205078,4134.871582,787.000000,4.000000,,,,0.000000,4.000000,4.000000,4.000000,4.000000,4.000000,4.000000,4.000000,4.000000,4.000000,4.000000,4.000000,4.000000,4.000000,4.000000,100.000000
1602006416.261308,9.000000,0.000000,4120.512695,4132.307617,4115.384766,4125.128418,4136.410156,4109.743652,4113.333496,4137.948730,4141.025879,4140.512695,4132.307617,4136.922852,4136.410156,4128.205078,836.000000,4.000000,,,,0.000000,4.000000,4.000000,4.000000,4.000000,4.000000,4.000000,4.000000,4.000000,4.000000,4.000000,4.000000,4.000000,4.000000,4.000000,100.000000
1602006416.269190,10.000000,0.000000,4133.846191,4140.000000,4109.230957,4134.358887,4135.897461,4111.282227,4113.846191,4137.948730,4139.487305,4143.589844,4139.487305,4143.589844,4143.589844,4124.615234,888.000000,4.000000,,,,0.000000,4.000000,4.000000,4.000000,4.000000,4.000000,4.000000,4.000000,4.000000,4.000000,4.000000,4.000000,4.000000,4.000000,4.000000,100.000000
1602006416.277071,11.000000,0.000000,4149.743652,4152.820313,4121.538574,4145.641113,4146.153809,4116.922852,4121.025879,4132.820313,4140.512695,4147.692383,4142.051270,4153.846191,4160.000000,4148.205078,838.000000,4.000000,,,,0.000000,4.000000,4.000000,4.000000,4.000000,4.000000,4.000000,4.000000,4.000000,4.000000,4.000000,4.000000,4.000000,4.000000,4.000000,100.000000
1602006416.284853,12.000000,0.000000,4162.051270,4164.615234,4140.000000,4154.871582,4150.256348,4120.512695,4129.230957,4127.692383,4135.384766,4145.128418,4144.615234,4158.461426,4171.282227,4166.666504,762.000000,4.000000,,,,0.000000,4.000000,4.000000,4.000000,4.000000,4.000000,4.000000,4.000000,4.000000,4.000000,4.000000,4.000000,4.000000,4.000000,4.000000,100.000000
1602006416.292734,13.000000,0.000000,4158.461426,4158.974121,4142.563965,4149.743652,4139.487305,4126.666504,4135.897461,4126.666504,4123.077148,4126.666504,4143.589844,4154.358887,4153.846191,4152.820313,739.000000,4.000000,,,,0.000000,4.000000,4.000000,4.000000,4.000000,4.000000,4.000000,4.000000,4.000000,4.000000,4.000000,4.000000,4.000000,4.000000,4.000000,100.000000
1602006416.300616,14.000000,0.000000,4143.077148,4142.563965,4131.282227,4135.897461,4133.333496,4137.436035,4141.025879,4125.641113,4116.410156,4119.487305,4140.000000,4151.282227,4133.846191,4135.384766,888.000000,4.000000,,,,0.000000,4.000000,4.000000,4.000000,4.000000,4.000000,4.000000,4.000000,4.000000,4.000000,4.000000,4.000000,4.000000,4.000000,4.000000,100.000000
1602006416.308498,15.000000,0.000000,4137.948730,4137.436035,4123.077148,4129.743652,4134.871582,4150.256348,4147.692383,4131.794922,4121.538574,4132.820313,4136.410156,4152.307617,4135.897461,4136.922852,838.000000,4.000000,,,,0.000000,4.000000,4.000000,4.000000,4.000000,4.000000,4.000000,4.000000,4.000000,4.000000,4.000000,4.000000,4.000000,4.000000,4.000000,100.000000
1602006416.316379,16.000000,0.000000,4134.871582,4135.384766,4120.000000,4125.128418,4129.743652,4154.358887,4148.205078,4136.410156,4129.230957,4136.410156,4130.256348,4149.230957,4137.436035,4136.922852,0.000000,4.000000,,,,0.000000,4.000000,4.000000,4.000000,4.000000,4.000000,4.000000,4.000000,4.000000,4.000000,4.000000,4.000000,4.000000,4.000000,4.000000,100.000000
1602006416.324261,17.000000,0.000000,4122.051270,4124.615234,4120.000000,4121.025879,4121.025879,4141.025879,4136.922852,4127.692383,4131.282227,4123.077148,4126.153809,4146.153809,4127.692383,4123.589844,0.000000,4.000000,,,,0.000000,4.000000,4.000000,4.000000,4.000000,4.000000,4.000000,4.000000,4.000000,4.000000,4.000000,4.000000,4.000000,4.000000,4.000000,100.000000
1602006416.332143,18.000000,0.000000,4124.615234,4116.922852,4120.512695,4121.025879,4120.000000,4126.153809,4122.563965,4120.512695,4135.897461,4120.512695,4131.794922,4148.717773,4125.641113,4120.512695,0.000000,4.000000,,,,0.000000,4.000000,4.000000,4.000000,4.000000,4.000000,4.000000,4.000000,4.000000,4.000000,4.000000,4.000000,4.000000,4.000000,4.000000,100.000000
1602006416.340024,19.000000,0.000000,4140.000000,4128.205078,4119.487305,4123.589844,4123.077148,4121.538574,4115.384766,4128.717773,4145.128418,4134.358887,4143.077148,4151.794922,4137.436035,4133.846191,0.000000,4.000000,,,,0.000000,4.000000,4.000000,4.000000,4.000000,4.000000,4.000000,4.000000,4.000000,4.000000,4.000000,4.000000,4.000000,4.000000,4.000000,100.000000
1602006416.347905,20.000000,0.000000,4141.538574,4138.974121,4123.589844,4129.743652,4129.230957,4112.820313,4108.205078,4131.282227,4143.077148,4142.051270,4143.077148,4151.794922,4142.051270,4138.974121,0.000000,4.000000,,,,0.000000,4.000000,4.000000,4.000000,4.000000,4.000000,4.000000,4.000000,4.000000,4.000000,4.000000,4.000000,4.000000,4.000000,4.000000,100.000000
1602006416.355787,21.000000,0.000000,4144.102539,4141.025879,4134.358887,4138.461426,4130.256348,4096.410156,4100.000000,4121.538574,4128.717773,4136.922852,4136.922852,4152.307617,4140.512695,4139.487305,0.000000,4.000000,,,,0.000000,4.000000,4.000000,4.000000,4.000000,4.000000,4.000000,4.000000,4.000000,4.000000,4.000000,4.000000,4.000000,4.000000,4.000000,100.000000
1602006416.363668,22.000000,0.000000,4158.461426,4149.743652,4140.000000,4146.666504,4128.717773,4089.230713,4105.641113,4124.615234,4120.512695,4133.333496,4145.128418,4155.384766,4147.179688,4145.641113,0.000000,4.000000,,,,0.000000,4.000000,4.000000,4.000000,4.000000,4.000000,4.000000,4.000000,4.000000,4.000000,4.000000,4.000000,4.000000,4.000000,4.000000,100.000000
1602006416.371549,23.000000,0.000000,4159.487305,4157.436035,4139.487305,4147.692383,4134.358887,4096.410156,4125.641113,4137.948730,4121.538574,4137.948730,4155.384766,4156.410156,4149.230957,4144.102539,0.000000,4.000000,,,,0.000000,4.000000,4.000000,4.000000,4.000000,4.000000,4.000000,4.000000,4.000000,4.000000,4.000000,4.000000,4.000000,4.000000,4.000000,100.000000
1602006416.379331,24.000000,0.000000,4154.358887,4150.769043,4139.487305,4141.538574,4139.487305,4110.769043,4141.538574,4139.487305,4122.051270,4142.051270,4147.179688,4153.846191,4141.538574,4137.948730,0.000000,4.000000,,,,0.000000,4.000000,4.000000,4.000000,4.000000,4.000000,4.000000,4.000000,4.000000,4.000000,4.000000,4.000000,4.000000,4.000000,4.000000,100.000000
1602006416.387212,25.000000,0.000000,4150.769043,4138.974121,4137.948730,4137.436035,4131.794922,4123.589844,4140.512695,4128.205078,4118.974121,4135.384766,4134.358887,4149.743652,4137.436035,4136.410156,0.000000,4.000000,,,,0.000000,4.000000,4.000000,4.000000,4.000000,4.000000,4.000000,4.000000,4.000000,4.000000,4.000000,4.000000,4.000000,4.000000,4.000000,100.000000
1602006416.395094,26.000000,0.000000,4141.538574,4137.948730,4136.410156,4136.922852,4120.512695,4133.333496,4136.410156,4119.487305,4110.769043,4122.051270,4136.922852,4149.230957,4135.897461,4136.922852,0.000000,4.000000,,,,0.000000,4.000000,4.000000,4.000000,4.000000,4.000000,4.000000,4.000000,4.000000,4.000000,4.000000,4.000000,4.000000,4.000000,4.000000,100.000000
1602006416.402976,27.000000,0.000000,4137.436035,4136.410156,4137.436035,4137.436035,4123.077148,4144.615234,4138.974121,4117.436035,4106.153809,4122.563965,4140.512695,4152.307617,4135.384766,4140.512695,0.000000,4.000000,,,,0.000000,4.000000,4.000000,4.000000,4.000000,4.000000,4.000000,4.000000,4.000000,4.000000,4.000000,4.000000,4.000000,4.000000,4.000000,100.000000
1602006416.410857,28.000000,0.000000,4139.487305,4126.666504,4128.717773,4134.358887,4127.692383,4148.717773,4135.384766,4111.282227,4114.871582,4134.871582,4135.384766,4151.794922,4134.358887,4135.384766,0.000000,4.000000,,,,0.000000,4.000000,4.000000,4.000000,4.000000,4.000000,4.000000,4.000000,4.000000,4.000000,4.000000,4.000000,4.000000,4.000000,4.000000,100.000000
1602006416.418739,29.000000,0.000000,4130.769043,4118.974121,4115.897461,4126.666504,4125.641113,4143.589844,4123.077148,4107.179688,4121.538574,4128.205078,4133.846191,4141.538574,4124.615234,4120.512695,0.000000,4.000000,,,,0.000000,4.000000,4.000000,4.000000,4.000000,4.000000,4.000000,4.000000,4.000000,4.000000,4.000000,4.000000,4.000000,4.000000,4.000000,100.000000
1602006416.426621,30.000000,0.000000,4124.102539,4119.487305,4114.871582,4123.589844,4129.230957,4135.897461,4111.282227,4110.769043,4126.153809,4112.820313,4136.922852,4133.333496,4118.974121,4114.871582,0.000000,4.000000,,,,0.000000,4.000000,4.000000,4.000000,4.000000,4.000000,4.000000,4.000000,4.000000,4.000000,4.000000,4.000000,4.000000,4.000000,4.000000,100.000000
1602006416.434502,31.000000,0.000000,4136.410156,4127.179688,4125.128418,4130.769043,4136.922852,4126.153809,4107.692383,4121.538574,4145.128418,4126.666504,4144.102539,4145.128418,4133.846191,4128.717773,0.000000,4.000000,,,,0.000000,4.000000,4.000000,4.000000,4.000000,4.000000,4.000000,4.000000,4.000000,4.000000,4.000000,4.000000,4.000000,4.000000,4.000000,100.000000
1602006416.442384,32.000000,0.000000,4152.307617,4136.922852,4140.512695,4137.436035,4138.461426,4111.794922,4110.256348,4137.436035,4158.461426,4154.871582,4153.333496,4165.641113,4151.282227,4142.563965,0.000000,4.000000,,,,0.000000,4.000000,4.000000,4.000000,4.000000,4.000000,4.000000,4.000000,4.000000,4.000000,4.000000,4.000000,4.000000,4.000000,4.000000,100.000000
1602006416.450165,33.000000,0.000000,4161.538574,4148.717773,4152.307617,4145.128418,4138.461426,4103.077148,4120.000000,4154.358887,4155.897461,4164.615234,4162.051270,4180.000000,4161.025879,4151.282227,0.000000,4.000000,,,,0.000000,4.000000,4.000000,4.000000,4.000000,4.000000,4.000000,4.000000,4.000000,4.000000,4.000000,4.000000,4.000000,4.000000,4.000000,100.000000
1602006416.458047,34.000000,0.000000,4172.820313,4158.974121,4157.948730,4158.461426,4143.589844,4110.769043,4135.897461,4164.102539,4157.948730,4172.307617,4172.307617,4188.717773,4173.333496,4168.717773,0.000000,4.000000,,,,0.000000,4.000000,4.000000,4.000000,4.000000,4.000000,4.000000,4.000000,4.000000,4.000000,4.000000,4.000000,4.000000,4.000000,4.000000,100.000000
1602006416.465928,35.000000,0.000000,4176.410156,4155.897461,4152.820313,4155.384766,4140.512695,4116.922852,4141.025879,4157.436035,4153.846191,4173.846191,4172.307617,4179.487305,4173.333496,4174.871582,0.000000,4.000000,,,,0.000000,4.000000,4.000000,4.000000,4.000000,4.000000,4.000000,4.000000,4.000000,4.000000,4.000000,4.000000,4.000000,4.000000,4.000000,100.000000
1602006416.473810,36.000000,0.000000,4162.051270,4145.128418,4138.974121,4138.974121,4127.692383,4111.794922,4137.948730,4143.077148,4127.692383,4152.820313,4156.922852,4158.974121,4153.333496,4159.487305,0.000000,4.000000,,,,0.000000,4.000000,4.000000,4.000000,4.000000,4.000000,4.000000,4.000000,4.000000,4.000000,4.000000,4.000000,4.000000,4.000000,4.000000,100.000000
1602006416.481691,37.000000,0.000000,4152.307617,4141.538574,4138.461426,4135.384766,4125.641113,4124.615234,4146.153809,4133.333496,4107.179688,4132.307617,4150.256348,4152.307617,4141.538574,4153.846191,0.000000,4.000000,,,,0.000000,4.000000,4.000000,4.000000,4.000000,4.000000,4.000000,4.000000,4.000000,4.000000,4.000000,4.000000,4.000000,4.000000,4.000000,100.000000
1602006416.489572,38.000000,0.000000,4154.358887,4142.563965,4143.077148,4142.051270,4133.846191,4150.769043,4157.436035,4121.025879,4110.769043,4136.410156,4155.897461,4152.820313,4142.051270,4155.384766,0.000000,4.000000,,,,0.000000,4.000000,4.000000,4.000000,4.000000,4.000000,4.000000,4.000000,4.000000,4.000000,4.000000,4.000000,4.000000,4.000000,4.000000,100.000000
1602006416.497554,39.000000,0.000000,4147.692383,4136.922852,4129.230957,4134.358887,4132.307617,4150.769043,4149.743652,4106.666504,4123.589844,4134.871582,4147.179688,4140.512695,4127.179688,4134.358887,0.000000,4.000000,,,,0.000000,4.000000,4.000000,4.000000,4.000000,4.000000,4.000000,4.000000,4.000000,4.000000,4.000000,4.000000,4.000000,4.000000,4.000000,100.000000
1602006416.505436,40.000000,0.000000,4133.846191,4132.820313,4115.384766,4124.102539,4121.538574,4137.948730,4134.871582,4107.692383,4130.769043,4117.948730,4131.794922,4130.256348,4114.871582,4113.846191,0.000000,4.000000,,,,0.000000,4.000000,4.000000,4.000000,4.000000,4.000000,4.000000,4.000000,4.000000,4.000000,4.000000,4.000000,4.000000,4.000000,4.000000,100.000000
1602006416.513317,41.000000,0.000000,4130.769043,4134.871582,4123.077148,4131.794922,4124.615234,4139.487305,4129.230957,4127.179688,4134.871582,4123.589844,4135.384766,4140.000000,4128.205078,4124.102539,0.000000,4.000000,,,,0.000000,4.000000,4.000000,4.000000,4.000000,4.000000,4.000000,4.000000,4.000000,4.000000,4.000000,4.000000,4.000000,4.000000,4.000000,100.000000
1602006416.521199,42.000000,0.000000,4140.000000,4135.897461,4133.846191,4140.000000,4135.384766,4138.974121,4124.615234,4138.974121,4146.153809,4149.230957,4147.179688,4151.282227,4142.563965,4142.051270,0.000000,4.000000,,,,0.000000,4.000000,4.000000,4.000000,4.000000,4.000000,4.000000,4.000000,4.000000,4.000000,4.000000,4.000000,4.000000,4.000000,4.000000,100.000000
1602006416.529080,43.000000,0.000000,4149.230957,4138.461426,4141.025879,4137.948730,4137.948730,4129.230957,4118.974121,4140.000000,4155.384766,4160.512695,4152.307617,4152.820313,4142.563965,4147.692383,0.000000,4.000000,,,,0.000000,4.000000,4.000000,4.000000,4.000000,4.000000,4.000000,4.000000,4.000000,4.000000,4.000000,4.000000,4.000000,4.000000,4.000000,100.000000
1602006416.536962,44.000000,0.000000,4154.358887,4146.153809,4152.307617,4143.077148,4138.461426,4120.512695,4117.948730,4140.512695,4149.230957,4151.282227,4151.282227,4160.512695,4141.025879,4150.769043,0.000000,4.000000,,,,0.000000,4.000000,4.000000,4.000000,4.000000,4.000000,4.000000,4.000000,4.000000,4.000000,4.000000,4.000000,4.000000,4.000000,4.000000,100.000000
1602006416.544844,45.000000,0.000000,4161.538574,4154.871582,4160.000000,4155.897461,4143.589844,4116.410156,4118.461426,4138.461426,4134.358887,4138.974121,4152.307617,4173.333496,4145.128418,4161.538574,0.000000,4.000000,,,,0.000000,4.000000,4.000000,4.000000,4.000000,4.000000,4.000000,4.000000,4.000000,4.000000,4.000000,4.000000,4.000000,4.000000,4.000000,100.000000
1602006416.552725,46.000000,0.000000,4169.230957,4157.948730,4160.512695,4153.846191,4144.102539,4125.128418,4124.615234,4134.871582,4124.615234,4134.358887,4163.589844,4175.384766,4152.820313,4170.769043,0.000000,4.000000,,,,0.000000,4.000000,4.000000,4.000000,4.000000,4.000000,4.000000,4.000000,4.000000,4.000000,4.000000,4.000000,4.000000,4.000000,4.000000,100.000000
1602006416.560607,47.000000,0.000000,4170.256348,4152.307617,4158.974121,4142.563965,4140.512695,4136.410156,4136.410156,4134.871582,4124.615234,4139.487305,4169.230957,4170.256348,4158.461426,4163.589844,0.000000,4.000000,,,,0.000000,4.000000,4.000000,4.000000,4.000000,4.000000,4.000000,4.000000,4.000000,4.000000,4.000000,4.000000,4.000000,4.000000,4.000000,100.000000
1602006416.568489,48.000000,0.000000,4158.461426,4141.025879,4153.846191,4136.922852,4138.974121,4137.948730,4147.179688,4135.384766,4128.205078,4142.563965,4161.538574,4164.615234,4153.333496,4153.333496,0.000000,4.000000,,,,0.000000,4.000000,4.000000,4.000000,4.000000,4.000000,4.000000,4.000000,4.000000,4.000000,4.000000,4.000000,4.000000,4.000000,4.000000,100.000000
1602006416.576270,49.000000,0.000000,4141.538574,4129.743652,4143.589844,4129.230957,4135.384766,4142.563965,4152.820313,4129.230957,4123.077148,4131.794922,4150.769043,4156.922852,4140.000000,4149.230957,0.000000,4.000000,,,,0.000000,4.000000,4.000000,4.000000,4.000000,4.000000,4.000000,4.000000,4.000000,4.000000,4.000000,4.000000,4.000000,4.000000,4.000000,100.000000
1602006416.584152,50.000000,0.000000,4134.358887,4123.589844,4137.948730,4121.025879,4127.692383,4156.410156,4157.436035,4123.077148,4114.871582,4126.153809,4148.205078,4151.794922,4132.820313,4144.102539,0.000000,4.000000,,,,0.000000,4.000000,4.000000,4.000000,4.000000,4.000000,4.000000,4.000000,4.000000,4.000000,4.000000,4.000000,4.000000,4.000000,4.000000,100.000000
1602006416.592034,51.000000,0.000000,4133.333496,4122.051270,4135.384766,4121.538574,4121.538574,4157.948730,4156.410156,4121.538574,4128.717773,4129.743652,4152.307617,4150.769043,4135.897461,4137.436035,0.000000,4.000000,,,,0.000000,4.000000,4.000000,4.000000,4.000000,4.000000,4.000000,4.000000,4.000000,4.000000,4.000000,4.000000,4.000000,4.000000,4.000000,100.000000
1602006416.599915,52.000000,0.000000,4127.179688,4120.000000,4128.205078,4124.102539,4120.512695,4144.102539,4148.205078,4127.692383,4152.820313,4134.358887,4148.205078,4151.282227,4133.333496,4133.846191,0.000000,4.000000,,,,0.000000,4.000000,4.000000,4.000000,4.000000,4.000000,4.000000,4.000000,4.000000,4.000000,4.000000,4.000000,4.000000,4.000000,4.000000,100.000000
1602006416.607797,53.000000,0.000000,4122.051270,4120.512695,4124.615234,4121.025879,4121.025879,4139.487305,4140.000000,4137.948730,4158.974121,4145.641113,4140.000000,4149.743652,4124.615234,4130.769043,0.000000,4.000000,,,,0.000000,4.000000,4.000000,4.000000,4.000000,4.000000,4.000000,4.000000,4.000000,4.000000,4.000000,4.000000,4.000000,4.000000,4.000000,100.000000
1602006416.615679,54.000000,0.000000,4132.307617,4128.205078,4130.769043,4126.666504,4124.102539,4137.948730,4130.256348,4141.025879,4155.897461,4158.974121,4140.512695,4145.641113,4129.743652,4134.871582,0.000000,4.000000,,,,0.000000,4.000000,4.000000,4.000000,4.000000,4.000000,4.000000,4.000000,4.000000,4.000000,4.000000,4.000000,4.000000,4.000000,4.000000,100.000000
1602006416.623560,55.000000,0.000000,4149.743652,4139.487305,4142.051270,4139.487305,4132.307617,4124.102539,4124.615234,4142.051270,4158.974121,4151.794922,4151.282227,4148.717773,4142.563965,4148.205078,0.000000,4.000000,,,,0.000000,4.000000,4.000000,4.000000,4.000000,4.000000,4.000000,4.000000,4.000000,4.000000,4.000000,4.000000,4.000000,4.000000,4.000000,100.000000
1602006416.631442,56.000000,0.000000,4157.436035,4141.538574,4152.307617,4142.051270,4138.974121,4121.538574,4130.256348,4145.128418,4154.358887,4141.025879,4156.922852,4158.974121,4143.589844,4155.897461,0.000000,4.000000,,,,0.000000,4.000000,4.000000,4.000000,4.000000,4.000000,4.000000,4.000000,4.000000,4.000000,4.000000,4.000000,4.000000,4.000000,4.000000,100.000000
1602006416.639324,57.000000,0.000000,4158.974121,4138.461426,4154.358887,4137.436035,4141.025879,4137.436035,4137.436035,4143.589844,4139.487305,4154.358887,4149.743652,4160.512695,4141.538574,4157.436035,0.000000,4.000000,,,,0.000000,4.000000,4.000000,4.000000,4.000000,4.000000,4.000000,4.000000,4.000000,4.000000,4.000000,4.000000,4.000000,4.000000,4.000000,100.000000
1602006416.647205,58.000000,0.000000,4155.384766,4133.333496,4147.692383,4132.307617,4138.974121,4141.025879,4140.000000,4135.384766,4127.179688,4146.666504,4142.563965,4159.487305,4138.974121,4153.846191,0.000000,4.000000,,,,0.000000,4.000000,4.000000,4.000000,4.000000,4.000000,4.000000,4.000000,4.000000,4.000000,4.000000,4.000000,4.000000,4.000000,4.000000,100.000000
1602006416.655087,59.000000,0.000000,4142.051270,4119.487305,4136.922852,4121.025879,4130.256348,4138.461426,4145.641113,4128.205078,4111.794922,4106.153809,4134.358887,4156.922852,4125.641113,4140.512695,0.000000,4.000000,,,,0.000000,4.000000,4.000000,4.000000,4.000000,4.000000,4.000000,4.000000,4.000000,4.000000,4.000000,4.000000,4.000000,4.000000,4.000000,100.000000
1602006416.662968,60.000000,0.000000,4127.179688,4104.615234,4122.563965,4106.666504,4119.487305,4152.820313,4152.820313,4129.230957,4110.769043,4098.461426,4127.692383,4145.128418,4111.282227,4126.666504,0.000000,4.000000,,,,0.000000,4.000000,4.000000,4.000000,4.000000,4.000000,4.000000,4.000000,4.000000,4.000000,4.000000,4.000000,4.000000,4.000000,4.000000,100.000000
1602006416.670850,61.000000,0.000000,4119.487305,4102.051270,4114.871582,4103.077148,4115.897461,4157.948730,4151.794922,4134.871582,4129.743652,4128.717773,4124.615234,4130.256348,4101.538574,4119.487305,0.000000,4.000000,,,,0.000000,4.000000,4.000000,4.000000,4.000000,4.000000,4.000000,4.000000,4.000000,4.000000,4.000000,4.000000,4.000000,4.000000,4.000000,100.000000
1602006416.678732,62.000000,0.000000,4115.897461,4105.128418,4116.922852,4110.256348,4115.384766,4143.589844,4145.641113,4135.897461,4131.282227,4140.512695,4122.051270,4127.179688,4095.897461,4107.179688,0.000000,4.000000,,,,0.000000,4.000000,4.000000,4.000000,4.000000,4.000000,4.000000,4.000000,4.000000,4.000000,4.000000,4.000000,4.000000,4.000000,4.000000,100.000000
1602006416.686613,63.000000,0.000000,4114.871582,4104.102539,4122.051270,4117.948730,4114.871582,4132.307617,4140.512695,4134.358887,4124.102539,4136.410156,4121.025879,4132.307617,4103.077148,4104.102539,0.000000,4.000000,,,,0.000000,4.000000,4.000000,4.000000,4.000000,4.000000,4.000000,4.000000,4.000000,4.000000,4.000000,4.000000,4.000000,4.000000,4.000000,100.000000
1602006416.694495,64.000000,0.000000,4120.512695,4107.692383,4131.282227,4119.487305,4118.974121,4125.128418,4137.436035,4138.974121,4135.897461,4135.384766,4129.743652,4141.025879,4120.000000,4127.692383,793.000000,4.000000,,,,0.000000,4.000000,4.000000,4.000000,4.000000,4.000000,4.000000,4.000000,4.000000,4.000000,4.000000,4.000000,4.000000,4.000000,4.000000,100.000000
