Timestamp,EEG.Counter,EEG.Interpolated,EEG.AF3,EEG.F7,EEG.F3,EEG.FC5,EEG.T7,EEG.P7,EEG.O1,EEG.O2,EEG.P8,EEG.T8,EEG.FC6,EEG.F4,EEG.F8,EEG.AF4,EEG.RawCq,EEG.Battery,MarkerIndex,MarkerType,MarkerValueInt,EEG.MarkerHardware,CQ.AF3,CQ.F7,CQ.F3,CQ.FC5,CQ.T7,CQ.P7,CQ.O1,CQ.O2,CQ.P8,CQ.T8,CQ.FC6,CQ.F4,CQ.F8,CQ.AF4,CQ.Overall
1602006428.538292,19.000000,0.000000,4128.717773,4126.153809,4114.871582,4120.000000,4137.948730,4143.077148,4130.769043,4128.205078,4142.563965,4122.563965,4143.077148,4136.410156,4108.717773,4105.641113,0.000000,4.000000,,,,0.000000,4.000000,4.000000,4.000000,4.000000,4.000000,4.000000,4.000000,4.000000,4.000000,4.000000,4.000000,4.000000,4.000000,4.000000,100.000000
1602006428.546274,20.000000,0.000000,4116.922852,4112.307617,4119.487305,4112.820313,4128.717773,4134.871582,4123.589844,4123.589844,4135.384766,4102.051270,4129.230957,4136.922852,4113.333496,4109.230957,0.000000,4.000000,,,,0.000000,4.000000,4.000000,4.000000,4.000000,4.000000,4.000000,4.000000,4.000000,4.000000,4.000000,4.000000,4.000000,4.000000,4.000000,100.000000
1602006428.554156,21.000000,0.000000,4109.230957,4104.615234,4117.948730,4113.333496,4123.589844,4122.563965,4120.512695,4112.820313,4124.102539,4117.948730,4117.436035,4133.846191,4109.230957,4108.205078,0.000000,4.000000,,,,0.000000,4.000000,4.000000,4.000000,4.000000,4.000000,4.000000,4.000000,4.000000,4.000000,4.000000,4.000000,4.000000,4.000000,4.000000,100.000000
1602006428.562037,22.000000,0.000000,4125.128418,4120.000000,4120.000000,4125.128418,4134.358887,4134.358887,4124.102539,4109.230957,4127.179688,4146.153809,4138.974121,4130.256348,4104.615234,4105.128418,0.000000,4.000000,,,,0.000000,4.000000,4.000000,4.000000,4.000000,4.000000,4.000000,4.000000,4.000000,4.000000,4.000000,4.000000,4.000000,4.000000,4.000000,100.000000
1602006428.569919,23.000000,0.000000,4131.794922,4126.153809,4123.077148,4127.692383,4140.512695,4140.512695,4123.077148,4108.717773,4131.794922,4136.410156,4140.512695,4133.333496,4113.333496,4107.692383,0.000000,4.000000,,,,0.000000,4.000000,4.000000,4.000000,4.000000,4.000000,4.000000,4.000000,4.000000,4.000000,4.000000,4.000000,4.000000,4.000000,4.000000,100.000000
1602006428.577801,24.000000,0.000000,4121.025879,4120.512695,4121.538574,4122.051270,4131.794922,4128.205078,4125.641113,4107.179688,4121.538574,4108.205078,4115.384766,4135.384766,4120.000000,4112.820313,0.000000,4.000000,,,,0.000000,4.000000,4.000000,4.000000,4.000000,4.000000,4.000000,4.000000,4.000000,4.000000,4.000000,4.000000,4.000000,4.000000,4.000000,100.000000
1602006428.585682,25.000000,0.000000,4123.589844,4125.641113,4118.974121,4122.563965,4131.794922,4131.794922,4135.897461,4114.358887,4122.051270,4103.589844,4118.974121,4136.410156,4110.256348,4116.922852,0.000000,4.000000,,,,0.000000,4.000000,4.000000,4.000000,4.000000,4.000000,4.000000,4.000000,4.000000,4.000000,4.000000,4.000000,4.000000,4.000000,4.000000,100.000000
1602006428.593564,26.000000,0.000000,4130.256348,4127.692383,4114.358887,4123.589844,4138.461426,4135.897461,4136.922852,4122.563965,4136.410156,4116.922852,4130.769043,4137.948730,4104.102539,4114.358887,0.000000,4.000000,,,,0.000000,4.000000,4.000000,4.000000,4.000000,4.000000,4.000000,4.000000,4.000000,4.000000,4.000000,4.000000,4.000000,4.000000,4.000000,100.000000
1602006428.601445,27.000000,0.000000,4123.077148,4120.000000,4110.769043,4121.025879,4134.358887,4123.589844,4129.230957,4123.077148,4137.948730,4128.717773,4118.974121,4134.871582,4116.922852,4108.717773,0.000000,4.000000,,,,0.000000,4.000000,4.000000,4.000000,4.000000,4.000000,4.000000,4.000000,4.000000,4.000000,4.000000,4.000000,4.000000,4.000000,4.000000,100.000000
1602006428.609427,28.000000,0.000000,4126.153809,4125.128418,4122.563965,4123.589844,4130.256348,4122.051270,4129.743652,4125.128418,4140.512695,4140.512695,4117.948730,4141.025879,4131.282227,4114.871582,0.000000,4.000000,,,,0.000000,4.000000,4.000000,4.000000,4.000000,4.000000,4.000000,4.000000,4.000000,4.000000,4.000000,4.000000,4.000000,4.000000,4.000000,100.000000
1602006428.617309,29.000000,0.000000,4143.589844,4139.487305,4137.948730,4135.897461,4137.436035,4136.922852,4136.922852,4129.743652,4156.922852,4165.128418,4149.230957,4157.948730,4141.538574,4133.846191,0.000000,4.000000,,,,0.000000,4.000000,4.000000,4.000000,4.000000,4.000000,4.000000,4.000000,4.000000,4.000000,4.000000,4.000000,4.000000,4.000000,4.000000,100.000000
1602006428.625190,30.000000,0.000000,4145.641113,4143.077148,4136.410156,4143.589844,4144.102539,4142.051270,4138.974121,4130.256348,4155.897461,4176.922852,4165.128418,4164.102539,4147.179688,4139.487305,0.000000,4.000000,,,,0.000000,4.000000,4.000000,4.000000,4.000000,4.000000,4.000000,4.000000,4.000000,4.000000,4.000000,4.000000,4.000000,4.000000,4.000000,100.000000
1602006428.633072,31.000000,0.000000,4136.410156,4134.871582,4124.102539,4133.846191,4141.538574,4131.282227,4134.871582,4123.589844,4131.794922,4140.000000,4141.025879,4155.897461,4140.512695,4129.230957,0.000000,4.000000,,,,0.000000,4.000000,4.000000,4.000000,4.000000,4.000000,4.000000,4.000000,4.000000,4.000000,4.000000,4.000000,4.000000,4.000000,4.000000,100.000000
1602006428.640954,32.000000,0.000000,4135.897461,4129.230957,4116.410156,4122.563965,4136.922852,4124.615234,4126.666504,4115.897461,4117.436035,4100.000000,4119.487305,4148.205078,4124.102539,4116.922852,0.000000,4.000000,,,,0.000000,4.000000,4.000000,4.000000,4.000000,4.000000,4.000000,4.000000,4.000000,4.000000,4.000000,4.000000,4.000000,4.000000,4.000000,100.000000
1602006428.648835,33.000000,0.000000,4129.743652,4126.666504,4113.846191,4121.538574,4135.897461,4131.282227,4123.589844,4115.897461,4111.794922,4100.512695,4122.563965,4140.512695,4108.205078,4103.077148,0.000000,4.000000,,,,0.000000,4.000000,4.000000,4.000000,4.000000,4.000000,4.000000,4.000000,4.000000,4.000000,4.000000,4.000000,4.000000,4.000000,4.000000,100.000000
1602006428.656717,34.000000,0.000000,4116.410156,4124.102539,4109.743652,4126.666504,4138.461426,4137.948730,4128.205078,4117.436035,4110.256348,4112.820313,4125.128418,4136.410156,4103.077148,4097.436035,0.000000,4.000000,,,,0.000000,4.000000,4.000000,4.000000,4.000000,4.000000,4.000000,4.000000,4.000000,4.000000,4.000000,4.000000,4.000000,4.000000,4.000000,100.000000
1602006428.664599,35.000000,0.000000,4119.487305,4130.256348,4113.846191,4126.666504,4141.538574,4137.436035,4130.769043,4112.820313,4115.384766,4116.410156,4117.948730,4137.436035,4107.179688,4106.666504,0.000000,4.000000,,,,0.000000,4.000000,4.000000,4.000000,4.000000,4.000000,4.000000,4.000000,4.000000,4.000000,4.000000,4.000000,4.000000,4.000000,4.000000,100.000000
1602006428.672480,36.000000,0.000000,4124.102539,4131.794922,4120.512695,4121.025879,4135.897461,4132.307617,4125.128418,4105.641113,4111.282227,4123.589844,4121.538574,4136.922852,4110.769043,4115.897461,0.000000,4.000000,,,,0.000000,4.000000,4.000000,4.000000,4.000000,4.000000,4.000000,4.000000,4.000000,4.000000,4.000000,4.000000,4.000000,4.000000,4.000000,100.000000
1602006428.680262,37.000000,0.000000,4123.077148,4126.666504,4120.512695,4125.641113,4128.717773,4126.666504,4120.512695,4103.589844,4107.692383,4133.333496,4134.871582,4141.025879,4112.820313,4118.461426,0.000000,4.000000,,,,0.000000,4.000000,4.000000,4.000000,4.000000,4.000000,4.000000,4.000000,4.000000,4.000000,4.000000,4.000000,4.000000,4.000000,4.000000,100.000000
1602006428.688144,38.000000,0.000000,4130.256348,4131.794922,4129.230957,4137.436035,4129.743652,4125.128418,4124.102539,4112.307617,4118.461426,4129.230957,4148.205078,4151.282227,4125.128418,4124.615234,0.000000,4.000000,,,,0.000000,4.000000,4.000000,4.000000,4.000000,4.000000,4.000000,4.000000,4.000000,4.000000,4.000000,4.000000,4.000000,4.000000,4.000000,100.000000
1602006428.696025,39.000000,0.000000,4140.512695,4140.000000,4141.538574,4135.897461,4130.769043,4116.410156,4131.282227,4121.538574,4127.179688,4116.410156,4155.897461,4155.384766,4137.436035,4132.820313,0.000000,4.000000,,,,0.000000,4.000000,4.000000,4.000000,4.000000,4.000000,4.000000,4.000000,4.000000,4.000000,4.000000,4.000000,4.000000,4.000000,4.000000,100.000000
1602006428.703907,40.000000,0.000000,4149.230957,4137.436035,4140.512695,4130.769043,4128.205078,4106.153809,4135.897461,4124.102539,4135.384766,4115.897461,4155.897461,4161.025879,4141.025879,4137.948730,0.000000,4.000000,,,,0.000000,4.000000,4.000000,4.000000,4.000000,4.000000,4.000000,4.000000,4.000000,4.000000,4.000000,4.000000,4.000000,4.000000,4.000000,100.000000
1602006428.711788,41.000000,0.000000,4159.487305,4139.487305,4138.974121,4140.000000,4135.897461,4122.051270,4137.948730,4131.282227,4156.410156,4144.102539,4160.000000,4170.769043,4146.666504,4145.641113,0.000000,4.000000,,,,0.000000,4.000000,4.000000,4.000000,4.000000,4.000000,4.000000,4.000000,4.000000,4.000000,4.000000,4.000000,4.000000,4.000000,4.000000,100.000000
1602006428.719670,42.000000,0.000000,4155.897461,4143.589844,4144.102539,4141.025879,4142.051270,4144.615234,4138.974121,4136.922852,4167.179688,4174.871582,4161.025879,4169.743652,4151.794922,4144.615234,0.000000,4.000000,,,,0.000000,4.000000,4.000000,4.000000,4.000000,4.000000,4.000000,4.000000,4.000000,4.000000,4.000000,4.000000,4.000000,4.000000,4.000000,100.000000
1602006428.727552,43.000000,0.000000,4135.384766,4128.205078,4135.897461,4122.563965,4128.205078,4138.461426,4131.794922,4128.717773,4149.743652,4169.743652,4143.589844,4154.871582,4138.461426,4130.769043,0.000000,4.000000,,,,0.000000,4.000000,4.000000,4.000000,4.000000,4.000000,4.000000,4.000000,4.000000,4.000000,4.000000,4.000000,4.000000,4.000000,4.000000,100.000000
1602006428.735433,44.000000,0.000000,4124.615234,4117.948730,4121.025879,4116.410156,4116.410156,4129.230957,4123.077148,4120.512695,4127.692383,4138.461426,4120.512695,4143.589844,4112.820313,4119.487305,0.000000,4.000000,,,,0.000000,4.000000,4.000000,4.000000,4.000000,4.000000,4.000000,4.000000,4.000000,4.000000,4.000000,4.000000,4.000000,4.000000,4.000000,100.000000
1602006428.743315,45.000000,0.000000,4128.205078,4123.077148,4119.487305,4122.563965,4120.512695,4139.487305,4122.563965,4114.871582,4109.743652,4108.717773,4117.436035,4141.538574,4103.077148,4120.000000,0.000000,4.000000,,,,0.000000,4.000000,4.000000,4.000000,4.000000,4.000000,4.000000,4.000000,4.000000,4.000000,4.000000,4.000000,4.000000,4.000000,4.000000,100.000000
1602006428.751096,46.000000,0.000000,4125.128418,4116.922852,4122.563965,4119.487305,4122.051270,4142.563965,4124.102539,4104.102539,4096.922852,4088.205078,4122.563965,4138.974121,4105.128418,4113.846191,0.000000,4.000000,,,,0.000000,4.000000,4.000000,4.000000,4.000000,4.000000,4.000000,4.000000,4.000000,4.000000,4.000000,4.000000,4.000000,4.000000,4.000000,100.000000
1602006428.758977,47.000000,0.000000,4117.436035,4108.717773,4119.487305,4114.358887,4118.974121,4131.282227,4123.077148,4100.000000,4095.897461,4077.435791,4118.461426,4133.333496,4105.128418,4100.000000,0.000000,4.000000,,,,0.000000,4.000000,4.000000,4.000000,4.000000,4.000000,4.000000,4.000000,4.000000,4.000000,4.000000,4.000000,4.000000,4.000000,4.000000,100.000000
1602006428.766859,48.000000,0.000000,4119.487305,4114.871582,4117.948730,4117.948730,4118.974121,4121.538574,4126.153809,4109.743652,4101.538574,4094.871826,4122.051270,4134.358887,4103.077148,4108.717773,0.000000,4.000000,,,,0.000000,4.000000,4.000000,4.000000,4.000000,4.000000,4.000000,4.000000,4.000000,4.000000,4.000000,4.000000,4.000000,4.000000,4.000000,100.000000
1602006428.774740,49.000000,0.000000,4123.589844,4122.051270,4122.563965,4123.589844,4121.538574,4115.897461,4124.615234,4117.436035,4110.769043,4126.153809,4136.922852,4138.461426,4104.615234,4127.179688,0.000000,4.000000,,,,0.000000,4.000000,4.000000,4.000000,4.000000,4.000000,4.000000,4.000000,4.000000,4.000000,4.000000,4.000000,4.000000,4.000000,4.000000,100.000000
1602006428.782621,50.000000,0.000000,4118.974121,4117.948730,4124.102539,4122.051270,4121.025879,4107.692383,4121.538574,4120.000000,4124.102539,4144.102539,4138.974121,4137.436035,4114.358887,4124.102539,0.000000,4.000000,,,,0.000000,4.000000,4.000000,4.000000,4.000000,4.000000,4.000000,4.000000,4.000000,4.000000,4.000000,4.000000,4.000000,4.000000,4.000000,100.000000
1602006428.790602,51.000000,0.000000,4121.025879,4119.487305,4125.128418,4120.000000,4121.538574,4101.025879,4131.794922,4128.205078,4143.077148,4150.256348,4131.282227,4144.102539,4122.563965,4120.512695,0.000000,4.000000,,,,0.000000,4.000000,4.000000,4.000000,4.000000,4.000000,4.000000,4.000000,4.000000,4.000000,4.000000,4.000000,4.000000,4.000000,4.000000,100.000000
1602006428.798484,52.000000,0.000000,4138.974121,4134.358887,4132.307617,4126.153809,4124.615234,4113.333496,4138.974121,4137.436035,4152.307617,4141.538574,4134.871582,4155.384766,4125.128418,4136.922852,0.000000,4.000000,,,,0.000000,4.000000,4.000000,4.000000,4.000000,4.000000,4.000000,4.000000,4.000000,4.000000,4.000000,4.000000,4.000000,4.000000,4.000000,100.000000
1602006428.806366,53.000000,0.000000,4145.128418,4140.000000,4131.794922,4129.743652,4126.666504,4136.410156,4129.230957,4131.794922,4146.153809,4127.179688,4141.538574,4149.743652,4123.589844,4143.589844,0.000000,4.000000,,,,0.000000,4.000000,4.000000,4.000000,4.000000,4.000000,4.000000,4.000000,4.000000,4.000000,4.000000,4.000000,4.000000,4.000000,4.000000,100.000000
1602006428.814247,54.000000,0.000000,4131.282227,4129.230957,4122.051270,4125.641113,4125.128418,4142.563965,4120.000000,4114.871582,4133.333496,4122.051270,4137.436035,4136.922852,4123.589844,4128.717773,0.000000,4.000000,,,,0.000000,4.000000,4.000000,4.000000,4.000000,4.000000,4.000000,4.000000,4.000000,4.000000,4.000000,4.000000,4.000000,4.000000,4.000000,100.000000
1602006428.822129,55.000000,0.000000,4128.717773,4128.717773,4117.948730,4128.205078,4125.641113,4136.922852,4120.512695,4107.692383,4125.641113,4114.358887,4137.948730,4135.384766,4121.538574,4122.051270,0.000000,4.000000,,,,0.000000,4.000000,4.000000,4.000000,4.000000,4.000000,4.000000,4.000000,4.000000,4.000000,4.000000,4.000000,4.000000,4.000000,4.000000,100.000000
1602006428.830011,56.000000,0.000000,4139.487305,4141.538574,4120.000000,4137.436035,4127.692383,4142.051270,4120.000000,4108.717773,4118.974121,4105.641113,4136.922852,4136.922852,4120.000000,4129.230957,0.000000,4.000000,,,,0.000000,4.000000,4.000000,4.000000,4.000000,4.000000,4.000000,4.000000,4.000000,4.000000,4.000000,4.000000,4.000000,4.000000,4.000000,100.000000
1602006428.837892,57.000000,0.000000,4139.487305,4139.487305,4120.000000,4138.461426,4125.128418,4143.589844,4118.974121,4106.666504,4104.102539,4114.871582,4126.153809,4133.333496,4123.589844,4125.128418,0.000000,4.000000,,,,0.000000,4.000000,4.000000,4.000000,4.000000,4.000000,4.000000,4.000000,4.000000,4.000000,4.000000,4.000000,4.000000,4.000000,4.000000,100.000000
1602006428.845774,58.000000,0.000000,4131.794922,4130.256348,4123.077148,4134.358887,4121.538574,4130.256348,4121.025879,4110.256348,4096.922852,4128.205078,4126.666504,4132.820313,4121.538574,4115.384766,0.000000,4.000000,,,,0.000000,4.000000,4.000000,4.000000,4.000000,4.000000,4.000000,4.000000,4.000000,4.000000,4.000000,4.000000,4.000000,4.000000,4.000000,100.000000
1602006428.853755,59.000000,0.000000,4138.461426,4138.461426,4127.179688,4137.436035,4124.615234,4123.589844,4122.051270,4118.461426,4100.000000,4122.563965,4133.333496,4143.589844,4118.461426,4117.436035,0.000000,4.000000,,,,0.000000,4.000000,4.000000,4.000000,4.000000,4.000000,4.000000,4.000000,4.000000,4.000000,4.000000,4.000000,4.000000,4.000000,4.000000,100.000000
1602006428.861636,60.000000,0.000000,4145.128418,4137.948730,4126.153809,4134.358887,4124.615234,4124.615234,4126.153809,4120.512695,4107.692383,4114.871582,4128.717773,4155.897461,4121.538574,4124.615234,0.000000,4.000000,,,,0.000000,4.000000,4.000000,4.000000,4.000000,4.000000,4.000000,4.000000,4.000000,4.000000,4.000000,4.000000,4.000000,4.000000,4.000000,100.000000
1602006428.869517,61.000000,0.000000,4130.256348,4115.384766,4130.256348,4118.974121,4117.948730,4124.102539,4135.897461,4126.666504,4123.589844,4128.205078,4129.230957,4155.897461,4124.102539,4124.102539,0.000000,4.000000,,,,0.000000,4.000000,4.000000,4.000000,4.000000,4.000000,4.000000,4.000000,4.000000,4.000000,4.000000,4.000000,4.000000,4.000000,4.000000,100.000000
1602006428.877498,62.000000,0.000000,4126.153809,4115.897461,4138.461426,4121.025879,4115.384766,4123.077148,4141.025879,4139.487305,4138.461426,4140.000000,4143.077148,4153.333496,4115.897461,4122.051270,0.000000,4.000000,,,,0.000000,4.000000,4.000000,4.000000,4.000000,4.000000,4.000000,4.000000,4.000000,4.000000,4.000000,4.000000,4.000000,4.000000,4.000000,100.000000
1602006428.885379,63.000000,0.000000,4150.256348,4145.128418,4140.000000,4137.948730,4116.922852,4116.922852,4133.333496,4135.384766,4140.000000,4122.051270,4147.692383,4153.333496,4108.205078,4129.743652,0.000000,4.000000,,,,0.000000,4.000000,4.000000,4.000000,4.000000,4.000000,4.000000,4.000000,4.000000,4.000000,4.000000,4.000000,4.000000,4.000000,4.000000,100.000000
1602006428.893260,64.000000,0.000000,4171.282227,4158.974121,4134.871582,4141.025879,4116.922852,4109.743652,4123.077148,4122.563965,4134.871582,4098.461426,4139.487305,4141.538574,4103.077148,4138.974121,791.000000,4.000000,,,,0.000000,4.000000,4.000000,4.000000,4.000000,4.000000,4.000000,4.000000,4.000000,4.000000,4.000000,4.000000,4.000000,4.000000,4.000000,100.000000
1602006428.901042,65.000000,0.000000,4181.025879,4156.410156,4134.358887,4138.974121,4118.974121,4116.410156,4119.487305,4122.563965,4128.717773,4100.512695,4129.743652,4125.128418,4092.820557,4136.922852,788.000000,4.000000,,,,0.000000,4.000000,4.000000,4.000000,4.000000,4.000000,4.000000,4.000000,4.000000,4.000000,4.000000,4.000000,4.000000,4.000000,4.000000,100.000000
1602006428.908923,66.000000,0.000000,4193.846191,4167.179688,4137.948730,4150.256348,4122.563965,4128.205078,4120.000000,4125.128418,4121.538574,4117.436035,4122.563965,4127.692383,4086.666748,4123.589844,874.000000,4.000000,,,,0.000000,4.000000,4.000000,4.000000,4.000000,4.000000,4.000000,4.000000,4.000000,4.000000,4.000000,4.000000,4.000000,4.000000,4.000000,100.000000
1602006428.916804,67.000000,0.000000,4197.948730,4180.000000,4142.051270,4157.948730,4123.589844,4129.743652,4120.000000,4125.641113,4123.077148,4125.128418,4122.051270,4140.512695,4090.256348,4116.922852,867.000000,4.000000,,,,0.000000,4.000000,4.000000,4.000000,4.000000,4.000000,4.000000,4.000000,4.000000,4.000000,4.000000,4.000000,4.000000,4.000000,4.000000,100.000000
1602006428.924686,68.000000,0.000000,4189.230957,4177.436035,4140.000000,4155.897461,4124.615234,4124.102539,4113.846191,4120.000000,4116.922852,4111.794922,4120.512695,4133.846191,4086.153809,4120.512695,813.000000,4.000000,,,,0.000000,4.000000,4.000000,4.000000,4.000000,4.000000,4.000000,4.000000,4.000000,4.000000,4.000000,4.000000,4.000000,4.000000,4.000000,100.000000
1602006428.932567,69.000000,0.000000,4180.000000,4168.205078,4128.717773,4149.230957,4124.615234,4115.897461,4106.153809,4107.179688,4096.410156,4094.358887,4117.436035,4117.948730,4076.410156,4116.410156,818.000000,4.000000,,,,0.000000,4.000000,4.000000,4.000000,4.000000,4.000000,4.000000,4.000000,4.000000,4.000000,4.000000,4.000000,4.000000,4.000000,4.000000,100.000000
1602006428.940449,70.000000,0.000000,4171.794922,4160.000000,4128.205078,4140.000000,4123.077148,4116.410156,4112.307617,4106.666504,4090.769287,4100.512695,4119.487305,4123.589844,4083.076904,4109.230957,770.000000,4.000000,,,,0.000000,4.000000,4.000000,4.000000,4.000000,4.000000,4.000000,4.000000,4.000000,4.000000,4.000000,4.000000,4.000000,4.000000,4.000000,100.000000
1602006428.948430,71.000000,0.000000,4170.769043,4157.436035,4140.512695,4144.102539,4125.641113,4128.205078,4125.641113,4114.358887,4102.051270,4103.589844,4122.563965,4137.948730,4092.820557,4113.846191,662.000000,4.000000,,,,0.000000,4.000000,4.000000,4.000000,4.000000,4.000000,4.000000,4.000000,4.000000,4.000000,4.000000,4.000000,4.000000,4.000000,4.000000,100.000000
1602006428.956311,72.000000,0.000000,4172.820313,4157.436035,4142.051270,4152.307617,4127.179688,4130.256348,4125.641113,4114.871582,4112.307617,4093.333252,4127.692383,4138.974121,4089.230713,4119.487305,787.000000,4.000000,,,,0.000000,4.000000,4.000000,4.000000,4.000000,4.000000,4.000000,4.000000,4.000000,4.000000,4.000000,4.000000,4.000000,4.000000,4.000000,100.000000
1602006428.964192,73.000000,0.000000,4175.897461,4157.948730,4137.436035,4146.153809,4127.179688,4124.615234,4121.025879,4116.410156,4118.974121,4107.179688,4134.871582,4132.820313,4088.205078,4113.846191,840.000000,4.000000,,,,0.000000,4.000000,4.000000,4.000000,4.000000,4.000000,4.000000,4.000000,4.000000,4.000000,4.000000,4.000000,4.000000,4.000000,4.000000,100.000000
1602006428.972073,74.000000,0.000000,4183.077148,4157.948730,4137.948730,4140.000000,4132.820313,4132.820313,4127.179688,4123.077148,4125.128418,4124.102539,4143.589844,4130.769043,4091.281982,4105.641113,870.000000,4.000000,,,,0.000000,4.000000,4.000000,4.000000,4.000000,4.000000,4.000000,4.000000,4.000000,4.000000,4.000000,4.000000,4.000000,4.000000,4.000000,100.000000
1602006428.979954,75.000000,0.000000,4182.051270,4156.410156,4133.333496,4140.512695,4137.436035,4143.077148,4137.436035,4125.641113,4129.230957,4115.384766,4138.974121,4127.692383,4086.153809,4107.692383,835.000000,4.000000,,,,0.000000,4.000000,4.000000,4.000000,4.000000,4.000000,4.000000,4.000000,4.000000,4.000000,4.000000,4.000000,4.000000,4.000000,4.000000,100.000000
1602006428.987936,76.000000,0.000000,4169.743652,4155.384766,4124.102539,4140.512695,4133.333496,4142.563965,4138.974121,4128.717773,4138.461426,4117.436035,4117.948730,4125.128418,4080.512939,4110.769043,767.000000,4.000000,,,,0.000000,4.000000,4.000000,4.000000,4.000000,4.000000,4.000000,4.000000,4.000000,4.000000,4.000000,4.000000,4.000000,4.000000,4.000000,100.000000
1602006428.995817,77.000000,0.000000,4161.538574,4151.794922,4118.974121,4137.948730,4126.666504,4140.000000,4132.307617,4131.282227,4142.051270,4127.692383,4108.205078,4121.025879,4076.410156,4110.256348,738.000000,4.000000,,,,0.000000,4.000000,4.000000,4.000000,4.000000,4.000000,4.000000,4.000000,4.000000,4.000000,4.000000,4.000000,4.000000,4.000000,4.000000,100.000000
1602006429.003699,78.000000,0.000000,4155.897461,4151.282227,4122.563965,4137.948730,4124.615234,4134.358887,4124.615234,4127.692383,4130.769043,4113.846191,4120.512695,4118.461426,4072.820557,4104.615234,870.000000,4.000000,,,,0.000000,4.000000,4.000000,4.000000,4.000000,4.000000,4.000000,4.000000,4.000000,4.000000,4.000000,4.000000,4.000000,4.000000,4.000000,100.000000
1602006429.011581,79.000000,0.000000,4160.512695,4162.563965,4134.871582,4147.179688,4126.666504,4131.794922,4125.128418,4129.230957,4124.615234,4102.051270,4128.717773,4125.641113,4080.512939,4103.077148,835.000000,4.000000,,,,0.000000,4.000000,4.000000,4.000000,4.000000,4.000000,4.000000,4.000000,4.000000,4.000000,4.000000,4.000000,4.000000,4.000000,4.000000,100.000000
1602006429.019462,80.000000,0.000000,4170.256348,4172.820313,4140.512695,4156.922852,4125.128418,4136.410156,4132.820313,4136.410156,4127.692383,4111.794922,4120.000000,4129.230957,4091.794922,4114.358887,767.000000,4.000000,,,,0.000000,4.000000,4.000000,4.000000,4.000000,4.000000,4.000000,4.000000,4.000000,4.000000,4.000000,4.000000,4.000000,4.000000,4.000000,100.000000
1602006429.027344,81.000000,0.000000,4170.769043,4171.282227,4134.358887,4154.871582,4120.000000,4131.794922,4138.974121,4137.436035,4125.128418,4111.794922,4119.487305,4127.179688,4095.897461,4124.102539,738.000000,4.000000,,,,0.000000,4.000000,4.000000,4.000000,4.000000,4.000000,4.000000,4.000000,4.000000,4.000000,4.000000,4.000000,4.000000,4.000000,4.000000,100.000000
1602006429.035226,82.000000,0.000000,4175.897461,4170.256348,4134.358887,4151.794922,4122.051270,4130.256348,4140.512695,4137.436035,4133.846191,4117.436035,4133.846191,4134.358887,4102.051270,4122.563965,870.000000,4.000000,,,,0.000000,4.000000,4.000000,4.000000,4.000000,4.000000,4.000000,4.000000,4.000000,4.000000,4.000000,4.000000,4.000000,4.000000,4.000000,100.000000
1602006429.043107,83.000000,0.000000,4184.102539,4172.820313,4141.025879,4155.384766,4128.717773,4143.077148,4140.512695,4143.589844,4153.333496,4149.743652,4144.615234,4141.538574,4113.333496,4122.563965,835.000000,4.000000,,,,0.000000,4.000000,4.000000,4.000000,4.000000,4.000000,4.000000,4.000000,4.000000,4.000000,4.000000,4.000000,4.000000,4.000000,4.000000,100.000000
1602006429.050989,84.000000,0.000000,4177.948730,4171.794922,4141.538574,4156.410156,4131.282227,4148.205078,4142.051270,4145.128418,4150.769043,4162.563965,4140.000000,4142.563965,4114.871582,4135.384766,767.000000,4.000000,,,,0.000000,4.000000,4.000000,4.000000,4.000000,4.000000,4.000000,4.000000,4.000000,4.000000,4.000000,4.000000,4.000000,4.000000,4.000000,100.000000
1602006429.058770,85.000000,0.000000,4166.153809,4166.666504,4138.974121,4151.282227,4128.717773,4139.487305,4137.948730,4131.794922,4132.307617,4132.820313,4118.974121,4140.512695,4097.436035,4134.358887,738.000000,4.000000,,,,0.000000,4.000000,4.000000,4.000000,4.000000,4.000000,4.000000,4.000000,4.000000,4.000000,4.000000,4.000000,4.000000,4.000000,4.000000,100.000000
1602006429.066651,86.000000,0.000000,4157.436035,4156.922852,4130.256348,4141.538574,4123.589844,4133.333496,4125.128418,4120.000000,4129.743652,4108.717773,4106.153809,4131.794922,4073.846191,4113.846191,870.000000,4.000000,,,,0.000000,4.000000,4.000000,4.000000,4.000000,4.000000,4.000000,4.000000,4.000000,4.000000,4.000000,4.000000,4.000000,4.000000,4.000000,100.000000
1602006429.074533,87.000000,0.000000,4149.230957,4151.282227,4122.051270,4134.871582,4122.563965,4136.922852,4121.025879,4121.025879,4131.282227,4109.230957,4109.743652,4125.128418,4071.794922,4104.615234,835.000000,4.000000,,,,0.000000,4.000000,4.000000,4.000000,4.000000,4.000000,4.000000,4.000000,4.000000,4.000000,4.000000,4.000000,4.000000,4.000000,4.000000,100.000000
1602006429.082414,88.000000,0.000000,4149.230957,4154.871582,4121.538574,4140.000000,4126.153809,4137.948730,4126.666504,4124.102539,4122.051270,4097.948730,4110.769043,4125.128418,4081.025635,4105.641113,767.000000,4.000000,,,,0.000000,4.000000,4.000000,4.000000,4.000000,4.000000,4.000000,4.000000,4.000000,4.000000,4.000000,4.000000,4.000000,4.000000,4.000000,100.000000
1602006429.090295,89.000000,0.000000,4149.743652,4150.769043,4120.512695,4142.051270,4124.102539,4126.153809,4125.641113,4122.051270,4116.922852,4075.897461,4108.205078,4113.846191,4072.307617,4105.641113,738.000000,4.000000,,,,0.000000,4.000000,4.000000,4.000000,4.000000,4.000000,4.000000,4.000000,4.000000,4.000000,4.000000,4.000000,4.000000,4.000000,4.000000,100.000000
1602006429.098076,90.000000,0.000000,4141.025879,4140.000000,4117.948730,4136.922852,4119.487305,4117.436035,4121.538574,4121.025879,4121.538574,4086.666748,4109.743652,4104.102539,4071.281982,4107.692383,870.000000,4.000000,,,,0.000000,4.000000,4.000000,4.000000,4.000000,4.000000,4.000000,4.000000,4.000000,4.000000,4.000000,4.000000,4.000000,4.000000,4.000000,100.000000
1602006429.105958,91.000000,0.000000,4134.871582,4138.974121,4119.487305,4134.358887,4122.051270,4124.102539,4124.615234,4125.128418,4124.102539,4115.897461,4112.307617,4114.358887,4087.692383,4107.179688,835.000000,4.000000,,,,0.000000,4.000000,4.000000,4.000000,4.000000,4.000000,4.000000,4.000000,4.000000,4.000000,4.000000,4.000000,4.000000,4.000000,4.000000,100.000000
1602006429.113839,92.000000,0.000000,4142.051270,4141.538574,4125.641113,4136.410156,4122.563965,4124.615234,4123.589844,4132.820313,4128.205078,4125.128418,4113.333496,4126.153809,4091.281982,4107.692383,767.000000,4.000000,,,,0.000000,4.000000,4.000000,4.000000,4.000000,4.000000,4.000000,4.000000,4.000000,4.000000,4.000000,4.000000,4.000000,4.000000,4.000000,100.000000
1602006429.121721,93.000000,0.000000,4154.358887,4143.589844,4133.333496,4135.897461,4120.000000,4121.538574,4124.615234,4140.000000,4133.846191,4126.153809,4123.589844,4133.333496,4090.256348,4116.922852,738.000000,4.000000,,,,0.000000,4.000000,4.000000,4.000000,4.000000,4.000000,4.000000,4.000000,4.000000,4.000000,4.000000,4.000000,4.000000,4.000000,4.000000,100.000000
1602006429.129602,94.000000,0.000000,4157.436035,4150.256348,4142.051270,4137.436035,4123.077148,4130.769043,4135.384766,4141.538574,4129.743652,4138.974121,4134.871582,4142.051270,4105.128418,4125.128418,870.000000,4.000000,,,,0.000000,4.000000,4.000000,4.000000,4.000000,4.000000,4.000000,4.000000,4.000000,4.000000,4.000000,4.000000,4.000000,4.000000,4.000000,100.000000
1602006429.137483,95.000000,0.000000,4155.897461,4155.897461,4144.102539,4148.205078,4126.666504,4138.974121,4142.051270,4141.538574,4120.512695,4137.948730,4131.794922,4143.589844,4111.794922,4129.743652,835.000000,4.000000,,,,0.000000,4.000000,4.000000,4.000000,4.000000,4.000000,4.000000,4.000000,4.000000,4.000000,4.000000,4.000000,4.000000,4.000000,4.000000,100.000000
1602006429.145365,96.000000,0.000000,4164.615234,4156.410156,4142.563965,4155.897461,4126.153809,4134.358887,4135.384766,4134.358887,4120.512695,4108.205078,4123.077148,4138.461426,4099.487305,4138.974121,767.000000,4.000000,,,,0.000000,4.000000,4.000000,4.000000,4.000000,4.000000,4.000000,4.000000,4.000000,4.000000,4.000000,4.000000,4.000000,4.000000,4.000000,100.000000
1602006429.153346,97.000000,0.000000,4168.205078,4155.384766,4137.948730,4150.769043,4123.589844,4126.666504,4130.256348,4123.589844,4123.589844,4095.897461,4122.563965,4135.897461,4097.948730,4134.358887,738.000000,4.000000,,,,0.000000,4.000000,4.000000,4.000000,4.000000,4.000000,4.000000,4.000000,4.000000,4.000000,4.000000,4.000000,4.000000,4.000000,4.000000,100.000000
1602006429.161228,98.000000,0.000000,4156.922852,4154.358887,4134.871582,4142.051270,4122.563965,4121.538574,4133.846191,4126.666504,4126.666504,4118.461426,4125.641113,4135.897461,4105.128418,4120.000000,870.000000,4.000000,,,,0.000000,4.000000,4.000000,4.000000,4.000000,4.000000,4.000000,4.000000,4.000000,4.000000,4.000000,4.000000,4.000000,4.000000,4.000000,100.000000
1602006429.169110,99.000000,0.000000,4152.820313,4154.871582,4145.128418,4147.179688,4129.230957,4128.717773,4137.948730,4138.974121,4141.538574,4142.051270,4125.641113,4138.461426,4106.666504,4128.717773,835.000000,4.000000,,,,0.000000,4.000000,4.000000,4.000000,4.000000,4.000000,4.000000,4.000000,4.000000,4.000000,4.000000,4.000000,4.000000,4.000000,4.000000,100.000000
1602006429.176991,100.000000,0.000000,4153.846191,4156.410156,4153.846191,4155.897461,4137.436035,4142.051270,4137.948730,4147.692383,4158.974121,4146.666504,4125.641113,4141.025879,4107.692383,4137.436035,767.000000,4.000000,,,,0.000000,4.000000,4.000000,4.000000,4.000000,4.000000,4.000000,4.000000,4.000000,4.000000,4.000000,4.000000,4.000000,4.000000,4.000000,100.000000
1602006429.184873,101.000000,0.000000,4151.282227,4154.871582,4144.102539,4149.230957,4134.358887,4138.461426,4138.974121,4151.794922,4155.897461,4143.077148,4121.025879,4138.974121,4102.563965,4126.666504,738.000000,4.000000,,,,0.000000,4.000000,4.000000,4.000000,4.000000,4.000000,4.000000,4.000000,4.000000,4.000000,4.000000,4.000000,4.000000,4.000000,4.000000,100.000000
1602006429.192755,102.000000,0.000000,4153.333496,4146.153809,4134.871582,4136.922852,4120.512695,4123.589844,4134.871582,4144.102539,4135.897461,4129.230957,4112.820313,4132.820313,4092.307617,4115.384766,870.000000,4.000000,,,,0.000000,4.000000,4.000000,4.000000,4.000000,4.000000,4.000000,4.000000,4.000000,4.000000,4.000000,4.000000,4.000000,4.000000,4.000000,100.000000
1602006429.200636,103.000000,0.000000,4151.282227,4137.436035,4137.436035,4134.871582,4112.820313,4118.974121,4123.589844,4125.641113,4120.000000,4108.717773,4115.384766,4125.128418,4088.718018,4114.871582,835.000000,4.000000,,,,0.000000,4.000000,4.000000,4.000000,4.000000,4.000000,4.000000,4.000000,4.000000,4.000000,4.000000,4.000000,4.000000,4.000000,4.000000,100.000000
1602006429.208518,104.000000,0.000000,4141.538574,4138.461426,4143.077148,4139.487305,4116.922852,4125.641113,4120.000000,4124.102539,4121.538574,4101.025879,4122.051270,4126.666504,4092.820557,4127.179688,767.000000,4.000000,,,,0.000000,4.000000,4.000000,4.000000,4.000000,4.000000,4.000000,4.000000,4.000000,4.000000,4.000000,4.000000,4.000000,4.000000,4.000000,100.000000
1602006429.216399,105.000000,0.000000,4146.153809,4147.179688,4149.230957,4140.512695,4123.077148,4126.153809,4123.589844,4134.871582,4130.769043,4101.025879,4123.077148,4134.871582,4098.974121,4139.487305,738.000000,4.000000,,,,0.000000,4.000000,4.000000,4.000000,4.000000,4.000000,4.000000,4.000000,4.000000,4.000000,4.000000,4.000000,4.000000,4.000000,4.000000,100.000000
1602006429.224381,106.000000,0.000000,4158.974121,4152.307617,4153.846191,4145.641113,4124.615234,4127.692383,4122.563965,4137.948730,4137.436035,4113.333496,4122.051270,4140.000000,4106.153809,4137.436035,870.000000,4.000000,,,,0.000000,4.000000,4.000000,4.000000,4.000000,4.000000,4.000000,4.000000,4.000000,4.000000,4.000000,4.000000,4.000000,4.000000,4.000000,100.000000
1602006429.232262,107.000000,0.000000,4156.922852,4152.820313,4146.666504,4148.205078,4124.102539,4132.820313,4121.538574,4137.948730,4139.487305,4139.487305,4124.102539,4142.051270,4101.538574,4132.307617,835.000000,4.000000,,,,0.000000,4.000000,4.000000,4.000000,4.000000,4.000000,4.000000,4.000000,4.000000,4.000000,4.000000,4.000000,4.000000,4.000000,4.000000,100.000000
1602006429.240143,108.000000,0.000000,4155.384766,4148.205078,4138.974121,4142.051270,4124.615234,4128.717773,4122.051270,4137.948730,4141.538574,4144.615234,4121.538574,4142.563965,4092.820557,4135.384766,767.000000,4.000000,,,,0.000000,4.000000,4.000000,4.000000,4.000000,4.000000,4.000000,4.000000,4.000000,4.000000,4.000000,4.000000,4.000000,4.000000,4.000000,100.000000
1602006429.247924,109.000000,0.000000,4155.897461,4143.589844,4138.974121,4140.000000,4122.051270,4127.179688,4123.589844,4137.436035,4141.025879,4131.794922,4111.794922,4137.436035,4095.897461,4128.205078,738.000000,4.000000,,,,0.000000,4.000000,4.000000,4.000000,4.000000,4.000000,4.000000,4.000000,4.000000,4.000000,4.000000,4.000000,4.000000,4.000000,4.000000,100.000000
1602006429.255805,110.000000,0.000000,4143.589844,4141.025879,4132.820313,4142.051270,4122.051270,4133.846191,4132.820313,4135.897461,4128.717773,4123.589844,4107.179688,4127.179688,4097.948730,4113.333496,870.000000,4.000000,,,,0.000000,4.000000,4.000000,4.000000,4.000000,4.000000,4.000000,4.000000,4.000000,4.000000,4.000000,4.000000,4.000000,4.000000,4.000000,100.000000
1602006429.263686,111.000000,0.000000,4134.358887,4137.948730,4117.436035,4137.948730,4121.538574,4126.153809,4135.897461,4128.205078,4108.205078,4101.025879,4098.974121,4116.410156,4088.205078,4106.153809,835.000000,4.000000,,,,0.000000,4.000000,4.000000,4.000000,4.000000,4.000000,4.000000,4.000000,4.000000,4.000000,4.000000,4.000000,4.000000,4.000000,4.000000,100.000000
1602006429.271568,112.000000,0.000000,4137.948730,4144.102539,4107.692383,4134.871582,4120.000000,4115.384766,4125.128418,4125.641113,4103.589844,4088.718018,4097.436035,4114.871582,4090.769287,4108.717773,767.000000,4.000000,,,,0.000000,4.000000,4.000000,4.000000,4.000000,4.000000,4.000000,4.000000,4.000000,4.000000,4.000000,4.000000,4.000000,4.000000,4.000000,100.000000
1602006429.279549,113.000000,0.000000,4138.461426,4153.333496,4114.358887,4139.487305,4129.743652,4126.666504,4120.000000,4134.871582,4120.512695,4123.589844,4116.410156,4121.538574,4106.153809,4117.436035,738.000000,4.000000,,,,0.000000,4.000000,4.000000,4.000000,4.000000,4.000000,4.000000,4.000000,4.000000,4.000000,4.000000,4.000000,4.000000,4.000000,4.000000,100.000000
1602006429.287430,114.000000,0.000000,4134.871582,4148.205078,4117.436035,4133.846191,4137.436035,4128.717773,4123.077148,4138.974121,4126.666504,4142.051270,4122.563965,4121.538574,4106.666504,4124.615234,870.000000,4.000000,,,,0.000000,4.000000,4.000000,4.000000,4.000000,4.000000,4.000000,4.000000,4.000000,4.000000,4.000000,4.000000,4.000000,4.000000,4.000000,100.000000
1602006429.295311,115.000000,0.000000,4135.897461,4136.410156,4112.820313,4125.128418,4131.282227,4111.794922,4119.487305,4134.871582,4121.025879,4121.538574,4108.717773,4121.538574,4100.512695,4124.615234,835.000000,4.000000,,,,0.000000,4.000000,4.000000,4.000000,4.000000,4.000000,4.000000,4.000000,4.000000,4.000000,4.000000,4.000000,4.000000,4.000000,4.000000,100.000000
1602006429.303192,116.000000,0.000000,4138.461426,4136.922852,4118.974121,4133.333496,4130.256348,4120.512695,4118.461426,4136.922852,4133.846191,4129.743652,4108.205078,4134.358887,4107.179688,4126.153809,767.000000,4.000000,,,,0.000000,4.000000,4.000000,4.000000,4.000000,4.000000,4.000000,4.000000,4.000000,4.000000,4.000000,4.000000,4.000000,4.000000,4.000000,100.000000
1602006429.311073,117.000000,0.000000,4136.922852,4141.538574,4125.641113,4138.974121,4138.974121,4141.538574,4123.589844,4133.846191,4146.666504,4150.769043,4114.358887,4140.512695,4109.230957,4125.128418,738.000000,4.000000,,,,0.000000,4.000000,4.000000,4.000000,4.000000,4.000000,4.000000,4.000000,4.000000,4.000000,4.000000,4.000000,4.000000,4.000000,4.000000,100.000000
1602006429.318855,118.000000,0.000000,4130.769043,4133.846191,4121.025879,4130.769043,4135.897461,4142.051270,4122.051270,4123.589844,4139.487305,4135.897461,4108.717773,4134.871582,4101.025879,4115.897461,870.000000,4.000000,,,,0.000000,4.000000,4.000000,4.000000,4.000000,4.000000,4.000000,4.000000,4.000000,4.000000,4.000000,4.000000,4.000000,4.000000,4.000000,100.000000
1602006429.326737,119.000000,0.000000,4122.051270,4127.179688,4117.948730,4129.230957,4128.205078,4135.384766,4118.974121,4121.538574,4134.871582,4121.025879,4107.179688,4133.846191,4101.025879,4107.692383,835.000000,4.000000,,,,0.000000,4.000000,4.000000,4.000000,4.000000,4.000000,4.000000,4.000000,4.000000,4.000000,4.000000,4.000000,4.000000,4.000000,4.000000,100.000000
1602006429.334618,120.000000,0.000000,4121.025879,4131.282227,4120.512695,4137.436035,4133.846191,4131.794922,4124.102539,4125.641113,4133.333496,4126.153809,4108.205078,4136.922852,4098.974121,4102.563965,767.000000,4.000000,,,,0.000000,4.000000,4.000000,4.000000,4.000000,4.000000,4.000000,4.000000,4.000000,4.000000,4.000000,4.000000,4.000000,4.000000,4.000000,100.000000
1602006429.342500,121.000000,0.000000,4129.743652,4137.948730,4127.179688,4138.461426,4138.974121,4123.589844,4125.641113,4129.743652,4122.051270,4121.538574,4107.692383,4136.410156,4087.692383,4107.692383,738.000000,4.000000,,,,0.000000,4.000000,4.000000,4.000000,4.000000,4.000000,4.000000,4.000000,4.000000,4.000000,4.000000,4.000000,4.000000,4.000000,4.000000,100.000000
1602006429.350382,122.000000,0.000000,4139.487305,4142.051270,4136.410156,4137.948730,4135.384766,4118.461426,4128.717773,4134.871582,4123.077148,4111.794922,4111.794922,4140.000000,4092.820557,4128.205078,870.000000,4.000000,,,,0.000000,4.000000,4.000000,4.000000,4.000000,4.000000,4.000000,4.000000,4.000000,4.000000,4.000000,4.000000,4.000000,4.000000,4.000000,100.000000
1602006429.358263,123.000000,0.000000,4144.102539,4151.282227,4139.487305,4140.000000,4133.333496,4122.563965,4137.436035,4140.000000,4140.512695,4127.179688,4108.205078,4149.230957,4110.769043,4137.436035,835.000000,4.000000,,,,0.000000,4.000000,4.000000,4.000000,4.000000,4.000000,4.000000,4.000000,4.000000,4.000000,4.000000,4.000000,4.000000,4.000000,4.000000,100.000000
1602006429.366145,124.000000,0.000000,4142.563965,4153.333496,4133.846191,4140.512695,4135.384766,4120.512695,4134.358887,4136.922852,4143.077148,4137.948730,4104.102539,4153.333496,4114.358887,4128.717773,767.000000,4.000000,,,,0.000000,4.000000,4.000000,4.000000,4.000000,4.000000,4.000000,4.000000,4.000000,4.000000,4.000000,4.000000,4.000000,4.000000,4.000000,100.000000
1602006429.374027,125.000000,0.000000,4139.487305,4142.051270,4129.743652,4137.948730,4135.384766,4118.461426,4122.563965,4133.333496,4133.333496,4121.538574,4114.871582,4153.333496,4114.358887,4124.102539,738.000000,4.000000,,,,0.000000,4.000000,4.000000,4.000000,4.000000,4.000000,4.000000,4.000000,4.000000,4.000000,4.000000,4.000000,4.000000,4.000000,4.000000,100.000000
1602006429.381908,126.000000,0.000000,4140.512695,4137.948730,4128.205078,4134.358887,4135.384766,4129.743652,4123.077148,4133.846191,4138.461426,4123.589844,4126.666504,4151.794922,4122.563965,4127.692383,870.000000,4.000000,,,,0.000000,4.000000,4.000000,4.000000,4.000000,4.000000,4.000000,4.000000,4.000000,4.000000,4.000000,4.000000,4.000000,4.000000,4.000000,100.000000
1602006429.389890,127.000000,0.000000,4141.538574,4140.512695,4123.077148,4135.897461,4130.256348,4137.948730,4120.000000,4128.205078,4147.179688,4136.922852,4123.077148,4142.051270,4116.410156,4122.051270,835.000000,4.000000,,,,0.000000,4.000000,4.000000,4.000000,4.000000,4.000000,4.000000,4.000000,4.000000,4.000000,4.000000,4.000000,4.000000,4.000000,4.000000,100.000000
1602006429.397771,128.000000,0.000000,4141.538574,4137.436035,4118.974121,4137.436035,4126.153809,4125.128418,4108.717773,4123.077148,4140.512695,4125.641113,4117.948730,4132.820313,4104.102539,4114.358887,767.000000,4.000000,,,,0.000000,4.000000,4.000000,4.000000,4.000000,4.000000,4.000000,4.000000,4.000000,4.000000,4.000000,4.000000,4.000000,4.000000,4.000000,100.000000
1602006429.405653,0.000000,0.000000,4144.102539,4139.487305,4124.615234,4130.256348,4135.384766,4113.846191,4114.871582,4133.846191,4143.589844,4130.769043,4131.282227,4147.179688,4114.871582,4125.641113,791.000000,4.000000,,,,0.000000,4.000000,4.000000,4.000000,4.000000,4.000000,4.000000,4.000000,4.000000,4.000000,4.000000,4.000000,4.000000,4.000000,4.000000,100.000000
1602006429.413535,1.000000,0.000000,4143.589844,4142.563965,4129.230957,4125.128418,4141.538574,4120.000000,4126.153809,4140.000000,4156.410156,4164.615234,4138.461426,4159.487305,4128.205078,4141.025879,788.000000,4.000000,,,,0.000000,4.000000,4.000000,4.000000,4.000000,4.000000,4.000000,4.000000,4.000000,4.000000,4.000000,4.000000,4.000000,4.000000,4.000000,100.000000
1602006429.421416,2.000000,0.000000,4135.384766,4137.436035,4121.025879,4129.743652,4134.871582,4123.589844,4120.512695,4129.743652,4149.743652,4148.205078,4123.077148,4143.589844,4123.589844,4136.410156,862.000000,4.000000,,,,0.000000,4.000000,4.000000,4.000000,4.000000,4.000000,4.000000,4.000000,4.000000,4.000000,4.000000,4.000000,4.000000,4.000000,4.000000,100.000000
1602006429.429298,3.000000,0.000000,4140.000000,4140.512695,4125.128418,4139.487305,4135.384766,4120.000000,4118.974121,4131.282227,4135.897461,4110.256348,4117.948730,4137.436035,4121.538574,4129.230957,867.000000,4.000000,,,,0.000000,4.000000,4.000000,4.000000,4.000000,4.000000,4.000000,4.000000,4.000000,4.000000,4.000000,4.000000,4.000000,4.000000,4.000000,100.000000
1602006429.437180,4.000000,0.000000,4155.384766,4150.769043,4141.025879,4144.615234,4144.102539,4124.102539,4127.692383,4136.410156,4137.948730,4127.692383,4127.179688,4152.307617,4123.589844,4136.410156,813.000000,4.000000,,,,0.000000,4.000000,4.000000,4.000000,4.000000,4.000000,4.000000,4.000000,4.000000,4.000000,4.000000,4.000000,4.000000,4.000000,4.000000,100.000000
1602006429.445061,5.000000,0.000000,4155.897461,4149.743652,4135.897461,4142.563965,4141.538574,4126.666504,4124.615234,4121.538574,4138.974121,4147.179688,4125.128418,4149.230957,4123.077148,4143.077148,818.000000,4.000000,,,,0.000000,4.000000,4.000000,4.000000,4.000000,4.000000,4.000000,4.000000,4.000000,4.000000,4.000000,4.000000,4.000000,4.000000,4.000000,100.000000
1602006429.452943,6.000000,0.000000,4146.153809,4142.563965,4122.051270,4138.974121,4135.384766,4122.051270,4117.948730,4116.410156,4135.897461,4121.538574,4120.512695,4137.948730,4118.461426,4133.333496,721.000000,4.000000,,,,0.000000,4.000000,4.000000,4.000000,4.000000,4.000000,4.000000,4.000000,4.000000,4.000000,4.000000,4.000000,4.000000,4.000000,4.000000,100.000000
1602006429.460924,7.000000,0.000000,4142.563965,4141.025879,4126.666504,4141.025879,4137.948730,4122.563965,4121.025879,4134.358887,4142.051270,4107.179688,4123.077148,4146.153809,4105.641113,4113.846191,664.000000,4.000000,,,,0.000000,4.000000,4.000000,4.000000,4.000000,4.000000,4.000000,4.000000,4.000000,4.000000,4.000000,4.000000,4.000000,4.000000,4.000000,100.000000
1602006429.468806,8.000000,0.000000,4147.692383,4141.025879,4131.794922,4141.025879,4138.974121,4122.563965,4120.000000,4134.358887,4141.538574,4133.846191,4123.077148,4154.871582,4108.205078,4114.871582,787.000000,4.000000,,,,0.000000,4.000000,4.000000,4.000000,4.000000,4.000000,4.000000,4.000000,4.000000,4.000000,4.000000,4.000000,4.000000,4.000000,4.000000,100.000000
1602006429.476688,9.000000,0.000000,4153.333496,4140.000000,4126.666504,4134.871582,4135.897461,4117.436035,4116.922852,4123.077148,4138.974121,4146.153809,4130.256348,4153.333496,4134.358887,4141.025879,813.000000,4.000000,,,,0.000000,4.000000,4.000000,4.000000,4.000000,4.000000,4.000000,4.000000,4.000000,4.000000,4.000000,4.000000,4.000000,4.000000,4.000000,100.000000
1602006429.484569,10.000000,0.000000,4144.102539,4135.384766,4123.077148,4129.230957,4136.410156,4123.589844,4121.538574,4134.358887,4151.282227,4134.358887,4150.256348,4155.384766,4153.846191,4152.820313,870.000000,4.000000,,,,0.000000,4.000000,4.000000,4.000000,4.000000,4.000000,4.000000,4.000000,4.000000,4.000000,4.000000,4.000000,4.000000,4.000000,4.000000,100.000000
1602006429.492451,11.000000,0.000000,4121.538574,4121.538574,4115.897461,4124.102539,4140.000000,4136.922852,4126.153809,4138.974121,4163.077148,4142.563965,4157.436035,4155.384766,4157.948730,4142.563965,835.000000,4.000000,,,,0.000000,4.000000,4.000000,4.000000,4.000000,4.000000,4.000000,4.000000,4.000000,4.000000,4.000000,4.000000,4.000000,4.000000,4.000000,100.000000
1602006429.500333,12.000000,0.000000,4107.692383,4106.666504,4105.128418,4115.897461,4140.512695,4136.922852,4124.615234,4124.102539,4152.820313,4160.512695,4143.589844,4149.743652,4158.461426,4145.641113,767.000000,4.000000,,,,0.000000,4.000000,4.000000,4.000000,4.000000,4.000000,4.000000,4.000000,4.000000,4.000000,4.000000,4.000000,4.000000,4.000000,4.000000,100.000000
1602006429.508214,13.000000,0.000000,4105.641113,4103.589844,4104.102539,4108.717773,4137.948730,4136.922852,4124.615234,4119.487305,4138.461426,4153.846191,4134.358887,4148.717773,4158.461426,4155.384766,738.000000,4.000000,,,,0.000000,4.000000,4.000000,4.000000,4.000000,4.000000,4.000000,4.000000,4.000000,4.000000,4.000000,4.000000,4.000000,4.000000,4.000000,100.000000
1602006429.516096,14.000000,0.000000,4099.487305,4106.153809,4109.230957,4111.794922,4136.922852,4143.077148,4125.128418,4119.487305,4133.846191,4140.000000,4136.410156,4152.307617,4157.948730,4150.769043,870.000000,4.000000,,,,0.000000,4.000000,4.000000,4.000000,4.000000,4.000000,4.000000,4.000000,4.000000,4.000000,4.000000,4.000000,4.000000,4.000000,4.000000,100.000000
1602006429.524077,15.000000,0.000000,4092.307617,4102.563965,4110.769043,4117.948730,4138.461426,4134.871582,4121.538574,4105.128418,4123.077148,4136.922852,4128.717773,4148.717773,4151.794922,4138.461426,835.000000,4.000000,,,,0.000000,4.000000,4.000000,4.000000,4.000000,4.000000,4.000000,4.000000,4.000000,4.000000,4.000000,4.000000,4.000000,4.000000,4.000000,100.000000
1602006429.531959,16.000000,0.000000,4091.281982,4100.000000,4113.333496,4116.922852,4135.384766,4120.512695,4117.948730,4100.512695,4106.666504,4117.948730,4120.512695,4142.051270,4141.538574,4129.230957,0.000000,4.000000,,,,0.000000,4.000000,4.000000,4.000000,4.000000,4.000000,4.000000,4.000000,4.000000,4.000000,4.000000,4.000000,4.000000,4.000000,4.000000,100.000000
1602006429.539840,17.000000,0.000000,4097.948730,4104.102539,4120.000000,4118.461426,4126.666504,4118.974121,4117.436035,4107.692383,4102.563965,4103.077148,4130.256348,4149.230957,4145.641113,4138.974121,0.000000,4.000000,,,,0.000000,4.000000,4.000000,4.000000,4.000000,4.000000,4.000000,4.000000,4.000000,4.000000,4.000000,4.000000,4.000000,4.000000,4.000000,100.000000
1602006429.547721,18.000000,0.000000,4112.307617,4107.179688,4130.256348,4124.615234,4121.538574,4118.974121,4118.461426,4111.282227,4106.666504,4122.051270,4139.487305,4164.615234,4162.051270,4152.307617,0.000000,4.000000,,,,0.000000,4.000000,4.000000,4.000000,4.000000,4.000000,4.000000,4.000000,4.000000,4.000000,4.000000,4.000000,4.000000,4.000000,4.000000,100.000000
1602006429.555603,19.000000,0.000000,4124.102539,4111.282227,4140.512695,4126.666504,4126.666504,4118.461426,4120.512695,4118.461426,4110.769043,4138.461426,4145.128418,4169.743652,4171.282227,4153.846191,0.000000,4.000000,,,,0.000000,4.000000,4.000000,4.000000,4.000000,4.000000,4.000000,4.000000,4.000000,4.000000,4.000000,4.000000,4.000000,4.000000,4.000000,100.000000
1602006429.563584,20.000000,0.000000,4124.615234,4120.512695,4141.538574,4123.589844,4129.743652,4122.563965,4126.666504,4131.282227,4121.538574,4142.051270,4154.871582,4168.205078,4172.820313,4159.487305,0.000000,4.000000,,,,0.000000,4.000000,4.000000,4.000000,4.000000,4.000000,4.000000,4.000000,4.000000,4.000000,4.000000,4.000000,4.000000,4.000000,4.000000,100.000000
1602006429.571466,21.000000,0.000000,4119.487305,4122.051270,4138.974121,4123.077148,4126.153809,4124.102539,4135.897461,4144.102539,4143.589844,4164.615234,4162.051270,4169.743652,4179.487305,4172.307617,0.000000,4.000000,,,,0.000000,4.000000,4.000000,4.000000,4.000000,4.000000,4.000000,4.000000,4.000000,4.000000,4.000000,4.000000,4.000000,4.000000,4.000000,100.000000
1602006429.579348,22.000000,0.000000,4125.641113,4113.333496,4139.487305,4124.102539,4127.179688,4126.666504,4141.025879,4152.820313,4163.077148,4174.871582,4161.025879,4171.794922,4184.102539,4175.384766,0.000000,4.000000,,,,0.000000,4.000000,4.000000,4.000000,4.000000,4.000000,4.000000,4.000000,4.000000,4.000000,4.000000,4.000000,4.000000,4.000000,4.000000,100.000000
1602006429.587229,23.000000,0.000000,4127.179688,4108.717773,4132.307617,4122.563965,4133.333496,4134.358887,4140.512695,4155.384766,4169.230957,4150.769043,4155.897461,4169.230957,4177.948730,4163.589844,0.000000,4.000000,,,,0.000000,4.000000,4.000000,4.000000,4.000000,4.000000,4.000000,4.000000,4.000000,4.000000,4.000000,4.000000,4.000000,4.000000,4.000000,100.000000
1602006429.595111,24.000000,0.000000,4109.743652,4108.717773,4120.512695,4121.025879,4136.922852,4138.461426,4138.974121,4153.846191,4175.384766,4152.307617,4154.871582,4162.563965,4165.128418,4156.410156,0.000000,4.000000,,,,0.000000,4.000000,4.000000,4.000000,4.000000,4.000000,4.000000,4.000000,4.000000,4.000000,4.000000,4.000000,4.000000,4.000000,4.000000,100.000000
1602006429.602993,25.000000,0.000000,4099.487305,4106.666504,4116.922852,4121.025879,4138.461426,4140.000000,4137.436035,4149.743652,4181.025879,4172.820313,4152.307617,4154.871582,4156.922852,4157.436035,0.000000,4.000000,,,,0.000000,4.000000,4.000000,4.000000,4.000000,4.000000,4.000000,4.000000,4.000000,4.000000,4.000000,4.000000,4.000000,4.000000,4.000000,100.000000
1602006429.610874,26.000000,0.000000,4106.666504,4102.563965,4112.820313,4118.974121,4139.487305,4143.077148,4134.871582,4141.025879,4170.256348,4161.538574,4143.077148,4151.282227,4152.307617,4150.256348,0.000000,4.000000,,,,0.000000,4.000000,4.000000,4.000000,4.000000,4.000000,4.000000,4.000000,4.000000,4.000000,4.000000,4.000000,4.000000,4.000000,4.000000,100.000000
1602006429.618756,27.000000,0.000000,4106.153809,4101.538574,4105.128418,4114.871582,4138.974121,4137.948730,4133.846191,4129.743652,4145.641113,4141.538574,4133.333496,4152.307617,4149.230957,4135.384766,0.000000,4.000000,,,,0.000000,4.000000,4.000000,4.000000,4.000000,4.000000,4.000000,4.000000,4.000000,4.000000,4.000000,4.000000,4.000000,4.000000,4.000000,100.000000
1602006429.626638,28.000000,0.000000,4096.922852,4103.589844,4104.615234,4111.282227,4138.461426,4131.794922,4133.846191,4124.615234,4134.358887,4138.974121,4131.794922,4150.769043,4151.282227,4134.358887,0.000000,4.000000,,,,0.000000,4.000000,4.000000,4.000000,4.000000,4.000000,4.000000,4.000000,4.000000,4.000000,4.000000,4.000000,4.000000,4.000000,4.000000,100.000000
1602006429.634419,29.000000,0.000000,4107.179688,4104.615234,4114.358887,4117.436035,4140.512695,4139.487305,4136.410156,4129.743652,4137.948730,4138.461426,4126.153809,4152.307617,4153.333496,4141.538574,0.000000,4.000000,,,,0.000000,4.000000,4.000000,4.000000,4.000000,4.000000,4.000000,4.000000,4.000000,4.000000,4.000000,4.000000,4.000000,4.000000,4.000000,100.000000
1602006429.642300,30.000000,0.000000,4123.077148,4111.794922,4127.692383,4125.641113,4139.487305,4145.641113,4141.025879,4134.358887,4135.384766,4131.282227,4125.641113,4154.871582,4152.307617,4145.128418,0.000000,4.000000,,,,0.000000,4.000000,4.000000,4.000000,4.000000,4.000000,4.000000,4.000000,4.000000,4.000000,4.000000,4.000000,4.000000,4.000000,4.000000,100.000000
1602006429.650182,31.000000,0.000000,4121.538574,4122.563965,4136.410156,4127.179688,4136.410156,4141.025879,4147.692383,4137.948730,4137.436035,4133.846191,4145.128418,4156.410156,4155.897461,4159.487305,0.000000,4.000000,,,,0.000000,4.000000,4.000000,4.000000,4.000000,4.000000,4.000000,4.000000,4.000000,4.000000,4.000000,4.000000,4.000000,4.000000,4.000000,100.000000
1602006429.658063,32.000000,0.000000,4119.487305,4126.153809,4140.512695,4125.641113,4138.974121,4138.974121,4150.769043,4143.589844,4145.128418,4142.051270,4155.384766,4158.974121,4166.153809,4168.717773,0.000000,4.000000,,,,0.000000,4.000000,4.000000,4.000000,4.000000,4.000000,4.000000,4.000000,4.000000,4.000000,4.000000,4.000000,4.000000,4.000000,4.000000,100.000000
1602006429.665945,33.000000,0.000000,4127.179688,4121.025879,4142.563965,4125.641113,4137.436035,4139.487305,4145.128418,4145.641113,4142.563965,4139.487305,4143.077148,4157.436035,4166.153809,4158.974121,0.000000,4.000000,,,,0.000000,4.000000,4.000000,4.000000,4.000000,4.000000,4.000000,4.000000,4.000000,4.000000,4.000000,4.000000,4.000000,4.000000,4.000000,100.000000
1602006429.673826,34.000000,0.000000,4130.769043,4115.384766,4142.563965,4125.641113,4129.743652,4136.410156,4136.922852,4142.563965,4141.538574,4135.384766,4135.384766,4155.897461,4158.974121,4154.358887,0.000000,4.000000,,,,0.000000,4.000000,4.000000,4.000000,4.000000,4.000000,4.000000,4.000000,4.000000,4.000000,4.000000,4.000000,4.000000,4.000000,4.000000,100.000000
1602006429.681707,35.000000,0.000000,4126.666504,4112.820313,4140.000000,4123.589844,4129.743652,4135.897461,4137.948730,4142.563965,4151.282227,4149.230957,4142.563965,4160.000000,4157.948730,4160.000000,0.000000,4.000000,,,,0.000000,4.000000,4.000000,4.000000,4.000000,4.000000,4.000000,4.000000,4.000000,4.000000,4.000000,4.000000,4.000000,4.000000,4.000000,100.000000
1602006429.689689,36.000000,0.000000,4123.589844,4109.230957,4134.358887,4117.948730,4136.410156,4133.846191,4140.000000,4140.000000,4148.205078,4160.000000,4143.589844,4160.000000,4151.282227,4152.307617,0.000000,4.000000,,,,0.000000,4.000000,4.000000,4.000000,4.000000,4.000000,4.000000,4.000000,4.000000,4.000000,4.000000,4.000000,4.000000,4.000000,4.000000,100.000000
1602006429.697570,37.000000,0.000000,4120.512695,4111.794922,4126.666504,4121.538574,4135.897461,4123.589844,4131.794922,4128.205078,4129.230957,4147.179688,4128.205078,4152.307617,4142.563965,4140.000000,0.000000,4.000000,,,,0.000000,4.000000,4.000000,4.000000,4.000000,4.000000,4.000000,4.000000,4.000000,4.000000,4.000000,4.000000,4.000000,4.000000,4.000000,100.000000
1602006429.705452,38.000000,0.000000,4120.512695,4118.974121,4128.717773,4135.384766,4135.384766,4121.025879,4123.589844,4118.461426,4116.922852,4133.333496,4125.641113,4147.179688,4148.717773,4148.205078,0.000000,4.000000,,,,0.000000,4.000000,4.000000,4.000000,4.000000,4.000000,4.000000,4.000000,4.000000,4.000000,4.000000,4.000000,4.000000,4.000000,4.000000,100.000000
1602006429.713333,39.000000,0.000000,4124.615234,4123.589844,4139.487305,4139.487305,4140.000000,4131.794922,4125.128418,4120.000000,4109.230957,4122.563965,4148.205078,4150.256348,4158.974121,4161.538574,0.000000,4.000000,,,,0.000000,4.000000,4.000000,4.000000,4.000000,4.000000,4.000000,4.000000,4.000000,4.000000,4.000000,4.000000,4.000000,4.000000,4.000000,100.000000
1602006429.721214,40.000000,0.000000,4126.153809,4122.563965,4139.487305,4133.846191,4139.487305,4136.922852,4129.230957,4120.000000,4103.077148,4112.820313,4156.410156,4150.769043,4155.897461,4159.487305,0.000000,4.000000,,,,0.000000,4.000000,4.000000,4.000000,4.000000,4.000000,4.000000,4.000000,4.000000,4.000000,4.000000,4.000000,4.000000,4.000000,4.000000,100.000000
1602006429.729096,41.000000,0.000000,4122.051270,4124.615234,4134.871582,4136.410156,4136.922852,4135.384766,4132.307617,4120.000000,4110.256348,4120.000000,4138.974121,4144.102539,4150.256348,4150.769043,0.000000,4.000000,,,,0.000000,4.000000,4.000000,4.000000,4.000000,4.000000,4.000000,4.000000,4.000000,4.000000,4.000000,4.000000,4.000000,4.000000,4.000000,100.000000
1602006429.736977,42.000000,0.000000,4121.025879,4126.153809,4138.974121,4139.487305,4134.358887,4134.871582,4136.922852,4128.717773,4121.538574,4131.282227,4137.436035,4138.461426,4153.333496,4151.794922,0.000000,4.000000,,,,0.000000,4.000000,4.000000,4.000000,4.000000,4.000000,4.000000,4.000000,4.000000,4.000000,4.000000,4.000000,4.000000,4.000000,4.000000,100.000000
1602006429.744759,43.000000,0.000000,4124.102539,4121.538574,4135.897461,4130.256348,4127.179688,4130.256348,4136.922852,4137.436035,4126.153809,4133.333496,4145.128418,4137.436035,4154.871582,4153.846191,0.000000,4.000000,,,,0.000000,4.000000,4.000000,4.000000,4.000000,4.000000,4.000000,4.000000,4.000000,4.000000,4.000000,4.000000,4.000000,4.000000,4.000000,100.000000
1602006429.752641,44.000000,0.000000,4121.025879,4120.000000,4128.717773,4127.692383,4123.077148,4124.102539,4134.358887,4138.461426,4131.282227,4143.077148,4135.897461,4138.461426,4154.358887,4152.307617,0.000000,4.000000,,,,0.000000,4.000000,4.000000,4.000000,4.000000,4.000000,4.000000,4.000000,4.000000,4.000000,4.000000,4.000000,4.000000,4.000000,4.000000,100.000000
1602006429.760522,45.000000,0.000000,4115.897461,4123.077148,4133.333496,4135.897461,4126.153809,4122.051270,4135.897461,4143.589844,4139.487305,4150.769043,4138.974121,4144.615234,4156.922852,4150.769043,0.000000,4.000000,,,,0.000000,4.000000,4.000000,4.000000,4.000000,4.000000,4.000000,4.000000,4.000000,4.000000,4.000000,4.000000,4.000000,4.000000,4.000000,100.000000
1602006429.768404,46.000000,0.000000,4118.461426,4124.102539,4141.025879,4137.436035,4131.794922,4127.692383,4140.000000,4153.333496,4144.615234,4139.487305,4156.922852,4152.820313,4157.948730,4151.794922,0.000000,4.000000,,,,0.000000,4.000000,4.000000,4.000000,4.000000,4.000000,4.000000,4.000000,4.000000,4.000000,4.000000,4.000000,4.000000,4.000000,4.000000,100.000000
1602006429.776285,47.000000,0.000000,4125.641113,4122.563965,4135.897461,4134.871582,4137.436035,4143.077148,4147.179688,4156.922852,4147.692383,4131.794922,4157.436035,4152.820313,4154.871582,4157.436035,0.000000,4.000000,,,,0.000000,4.000000,4.000000,4.000000,4.000000,4.000000,4.000000,4.000000,4.000000,4.000000,4.000000,4.000000,4.000000,4.000000,4.000000,100.000000
1602006429.784167,48.000000,0.000000,4128.717773,4123.077148,4125.128418,4134.871582,4143.077148,4155.384766,4154.358887,4156.410156,4155.897461,4149.743652,4153.333496,4149.230957,4155.897461,4153.333496,0.000000,4.000000,,,,0.000000,4.000000,4.000000,4.000000,4.000000,4.000000,4.000000,4.000000,4.000000,4.000000,4.000000,4.000000,4.000000,4.000000,4.000000,100.000000
1602006429.792049,49.000000,0.000000,4117.948730,4122.563965,4120.000000,4128.205078,4144.102539,4149.230957,4155.384766,4156.410156,4160.000000,4173.846191,4157.948730,4137.436035,4156.410156,4138.461426,0.000000,4.000000,,,,0.000000,4.000000,4.000000,4.000000,4.000000,4.000000,4.000000,4.000000,4.000000,4.000000,4.000000,4.000000,4.000000,4.000000,4.000000,100.000000
1602006429.799930,50.000000,0.000000,4101.538574,4117.436035,4117.436035,4121.538574,4141.025879,4136.410156,4146.153809,4152.820313,4148.717773,4167.179688,4147.692383,4121.538574,4147.179688,4135.897461,0.000000,4.000000,,,,0.000000,4.000000,4.000000,4.000000,4.000000,4.000000,4.000000,4.000000,4.000000,4.000000,4.000000,4.000000,4.000000,4.000000,4.000000,100.000000
1602006429.807912,51.000000,0.000000,4110.769043,4122.563965,4121.538574,4131.282227,4143.589844,4137.948730,4137.948730,4145.641113,4137.948730,4143.077148,4138.461426,4127.179688,4148.205078,4149.230957,0.000000,4.000000,,,,0.000000,4.000000,4.000000,4.000000,4.000000,4.000000,4.000000,4.000000,4.000000,4.000000,4.000000,4.000000,4.000000,4.000000,4.000000,100.000000
1602006429.815793,52.000000,0.000000,4135.897461,4136.410156,4129.230957,4140.000000,4154.358887,4150.256348,4137.948730,4141.538574,4143.077148,4147.179688,4158.461426,4147.692383,4166.153809,4157.436035,0.000000,4.000000,,,,0.000000,4.000000,4.000000,4.000000,4.000000,4.000000,4.000000,4.000000,4.000000,4.000000,4.000000,4.000000,4.000000,4.000000,4.000000,100.000000
1602006429.823674,53.000000,0.000000,4131.282227,4138.974121,4130.256348,4138.974121,4154.358887,4151.794922,4138.461426,4142.051270,4147.179688,4161.538574,4162.563965,4154.358887,4171.282227,4163.077148,0.000000,4.000000,,,,0.000000,4.000000,4.000000,4.000000,4.000000,4.000000,4.000000,4.000000,4.000000,4.000000,4.000000,4.000000,4.000000,4.000000,4.000000,100.000000
1602006429.831556,54.000000,0.000000,4117.436035,4134.358887,4129.743652,4140.000000,4141.538574,4142.563965,4136.922852,4141.025879,4137.436035,4145.128418,4137.948730,4150.256348,4159.487305,4169.230957,0.000000,4.000000,,,,0.000000,4.000000,4.000000,4.000000,4.000000,4.000000,4.000000,4.000000,4.000000,4.000000,4.000000,4.000000,4.000000,4.000000,4.000000,100.000000
1602006429.839437,55.000000,0.000000,4132.307617,4138.461426,4140.000000,4141.538574,4139.487305,4139.487305,4137.436035,4137.948730,4132.820313,4134.358887,4142.051270,4153.333496,4155.897461,4164.102539,0.000000,4.000000,,,,0.000000,4.000000,4.000000,4.000000,4.000000,4.000000,4.000000,4.000000,4.000000,4.000000,4.000000,4.000000,4.000000,4.000000,4.000000,100.000000
1602006429.847418,56.000000,0.000000,4140.512695,4137.948730,4147.692383,4137.948730,4140.000000,4140.000000,4140.512695,4137.948730,4140.000000,4154.871582,4168.717773,4157.436035,4158.974121,4155.897461,0.000000,4.000000,,,,0.000000,4.000000,4.000000,4.000000,4.000000,4.000000,4.000000,4.000000,4.000000,4.000000,4.000000,4.000000,4.000000,4.000000,4.000000,100.000000
1602006429.855299,57.000000,0.000000,4120.512695,4124.102539,4141.025879,4135.897461,4126.153809,4128.717773,4138.974121,4136.410156,4136.922852,4158.974121,4168.205078,4154.358887,4153.846191,4151.282227,0.000000,4.000000,,,,0.000000,4.000000,4.000000,4.000000,4.000000,4.000000,4.000000,4.000000,4.000000,4.000000,4.000000,4.000000,4.000000,4.000000,4.000000,100.000000
1602006429.863280,58.000000,0.000000,4119.487305,4118.974121,4142.051270,4136.922852,4121.538574,4120.000000,4136.922852,4137.436035,4133.846191,4144.615234,4163.077148,4158.461426,4150.769043,4149.230957,0.000000,4.000000,,,,0.000000,4.000000,4.000000,4.000000,4.000000,4.000000,4.000000,4.000000,4.000000,4.000000,4.000000,4.000000,4.000000,4.000000,4.000000,100.000000
1602006429.871162,59.000000,0.000000,4140.000000,4133.333496,4152.307617,4137.948730,4137.436035,4131.794922,4138.974121,4149.743652,4145.641113,4153.333496,4178.461426,4171.794922,4157.948730,4158.461426,0.000000,4.000000,,,,0.000000,4.000000,4.000000,4.000000,4.000000,4.000000,4.000000,4.000000,4.000000,4.000000,4.000000,4.000000,4.000000,4.000000,4.000000,100.000000
1602006429.879043,60.000000,0.000000,4135.384766,4138.974121,4148.205078,4137.436035,4142.051270,4140.000000,4140.512695,4155.897461,4148.205078,4156.410156,4179.487305,4170.769043,4157.948730,4163.077148,0.000000,4.000000,,,,0.000000,4.000000,4.000000,4.000000,4.000000,4.000000,4.000000,4.000000,4.000000,4.000000,4.000000,4.000000,4.000000,4.000000,4.000000,100.000000
1602006429.886925,61.000000,0.000000,4110.256348,4125.128418,4130.256348,4130.256348,4131.282227,4130.256348,4136.410156,4145.128418,4131.282227,4131.282227,4149.230957,4147.692383,4145.128418,4144.615234,0.000000,4.000000,,,,0.000000,4.000000,4.000000,4.000000,4.000000,4.000000,4.000000,4.000000,4.000000,4.000000,4.000000,4.000000,4.000000,4.000000,4.000000,100.000000
1602006429.894806,62.000000,0.000000,4101.025879,4116.410156,4114.358887,4121.025879,4130.769043,4120.512695,4126.666504,4136.922852,4117.948730,4122.051270,4125.641113,4130.256348,4132.820313,4132.820313,0.000000,4.000000,,,,0.000000,4.000000,4.000000,4.000000,4.000000,4.000000,4.000000,4.000000,4.000000,4.000000,4.000000,4.000000,4.000000,4.000000,4.000000,100.000000
1602006429.902687,63.000000,0.000000,4106.153809,4122.051270,4115.897461,4123.077148,4136.410156,4120.512695,4122.051270,4137.948730,4122.563965,4134.871582,4134.871582,4131.794922,4127.692383,4134.358887,0.000000,4.000000,,,,0.000000,4.000000,4.000000,4.000000,4.000000,4.000000,4.000000,4.000000,4.000000,4.000000,4.000000,4.000000,4.000000,4.000000,4.000000,100.000000
1602006429.910668,64.000000,0.000000,4106.666504,4119.487305,4123.589844,4126.153809,4129.230957,4123.589844,4127.179688,4138.974121,4132.820313,4141.538574,4143.077148,4134.871582,4124.102539,4129.743652,791.000000,4.000000,,,,0.000000,4.000000,4.000000,4.000000,4.000000,4.000000,4.000000,4.000000,4.000000,4.000000,4.000000,4.000000,4.000000,4.000000,4.000000,100.000000
1602006429.918549,65.000000,0.000000,4101.538574,4109.230957,4122.563965,4115.897461,4123.077148,4124.102539,4134.358887,4135.897461,4132.820313,4138.974121,4137.436035,4138.974121,4124.615234,4126.666504,788.000000,4.000000,,,,0.000000,4.000000,4.000000,4.000000,4.000000,4.000000,4.000000,4.000000,4.000000,4.000000,4.000000,4.000000,4.000000,4.000000,4.000000,100.000000
1602006429.926530,66.000000,0.000000,4103.077148,4114.358887,4123.077148,4112.820313,4130.769043,4126.666504,4137.436035,4138.461426,4133.846191,4134.871582,4152.307617,4148.205078,4137.948730,4141.025879,860.000000,4.000000,,,,0.000000,4.000000,4.000000,4.000000,4.000000,4.000000,4.000000,4.000000,4.000000,4.000000,4.000000,4.000000,4.000000,4.000000,4.000000,100.000000
1602006429.934411,67.000000,0.000000,4111.282227,4124.615234,4134.358887,4123.589844,4136.922852,4135.384766,4138.974121,4146.666504,4150.769043,4142.051270,4174.871582,4154.871582,4155.384766,4155.897461,867.000000,4.000000,,,,0.000000,4.000000,4.000000,4.000000,4.000000,4.000000,4.000000,4.000000,4.000000,4.000000,4.000000,4.000000,4.000000,4.000000,4.000000,100.000000
1602006429.942192,68.000000,0.000000,4115.384766,4122.563965,4138.974121,4126.153809,4130.256348,4138.974121,4140.000000,4153.333496,4166.666504,4163.077148,4171.282227,4155.384766,4161.025879,4160.000000,813.000000,4.000000,,,,0.000000,4.000000,4.000000,4.000000,4.000000,4.000000,4.000000,4.000000,4.000000,4.000000,4.000000,4.000000,4.000000,4.000000,4.000000,100.000000
1602006429.950073,69.000000,0.000000,4117.436035,4118.461426,4135.384766,4121.025879,4125.128418,4134.871582,4136.922852,4153.846191,4160.000000,4165.128418,4156.922852,4155.897461,4149.743652,4158.461426,818.000000,4.000000,,,,0.000000,4.000000,4.000000,4.000000,4.000000,4.000000,4.000000,4.000000,4.000000,4.000000,4.000000,4.000000,4.000000,4.000000,4.000000,100.000000
1602006429.957854,70.000000,0.000000,4123.589844,4120.000000,4135.384766,4121.538574,4127.692383,4135.384766,4135.384766,4149.230957,4152.820313,4150.769043,4155.897461,4156.922852,4145.128418,4157.436035,753.000000,4.000000,,,,0.000000,4.000000,4.000000,4.000000,4.000000,4.000000,4.000000,4.000000,4.000000,4.000000,4.000000,4.000000,4.000000,4.000000,4.000000,100.000000
1602006429.965736,71.000000,0.000000,4127.179688,4121.025879,4140.000000,4124.102539,4134.871582,4136.410156,4137.948730,4144.102539,4158.461426,4155.897461,4157.436035,4155.897461,4154.871582,4153.333496,664.000000,4.000000,,,,0.000000,4.000000,4.000000,4.000000,4.000000,4.000000,4.000000,4.000000,4.000000,4.000000,4.000000,4.000000,4.000000,4.000000,4.000000,100.000000
1602006429.973617,72.000000,0.000000,4118.461426,4121.025879,4146.153809,4125.641113,4138.974121,4129.230957,4131.794922,4141.025879,4154.358887,4158.974121,4154.871582,4161.538574,4151.282227,4144.615234,787.000000,4.000000,,,,0.000000,4.000000,4.000000,4.000000,4.000000,4.000000,4.000000,4.000000,4.000000,4.000000,4.000000,4.000000,4.000000,4.000000,4.000000,100.000000
1602006429.981499,73.000000,0.000000,4113.333496,4122.051270,4147.692383,4126.153809,4137.436035,4122.051270,4124.102539,4138.974121,4139.487305,4141.538574,4151.794922,4169.743652,4137.948730,4141.538574,831.000000,4.000000,,,,0.000000,4.000000,4.000000,4.000000,4.000000,4.000000,4.000000,4.000000,4.000000,4.000000,4.000000,4.000000,4.000000,4.000000,4.000000,100.000000
1602006429.989380,74.000000,0.000000,4116.922852,4122.051270,4141.538574,4122.563965,4134.871582,4120.512695,4129.743652,4138.461426,4136.922852,4140.512695,4152.307617,4166.666504,4135.897461,4140.512695,870.000000,4.000000,,,,0.000000,4.000000,4.000000,4.000000,4.000000,4.000000,4.000000,4.000000,4.000000,4.000000,4.000000,4.000000,4.000000,4.000000,4.000000,100.000000
1602006429.997261,75.000000,0.000000,4114.871582,4122.051270,4136.410156,4124.102539,4136.922852,4128.205078,4136.410156,4140.000000,4143.589844,4152.820313,4152.307617,4155.897461,4138.974121,4135.897461,835.000000,4.000000,,,,0.000000,4.000000,4.000000,4.000000,4.000000,4.000000,4.000000,4.000000,4.000000,4.000000,4.000000,4.000000,4.000000,4.000000,4.000000,100.000000
1602006430.005143,76.000000,0.000000,4103.077148,4121.538574,4133.333496,4129.743652,4136.922852,4137.436035,4128.717773,4140.000000,4135.384766,4146.153809,4146.666504,4151.794922,4136.922852,4136.410156,767.000000,4.000000,,,,0.000000,4.000000,4.000000,4.000000,4.000000,4.000000,4.000000,4.000000,4.000000,4.000000,4.000000,4.000000,4.000000,4.000000,4.000000,100.000000
1602006430.012924,77.000000,0.000000,4100.512695,4118.974121,4127.179688,4126.666504,4131.794922,4133.846191,4124.102539,4135.384766,4122.563965,4135.897461,4140.000000,4153.846191,4135.384766,4142.051270,738.000000,4.000000,,,,0.000000,4.000000,4.000000,4.000000,4.000000,4.000000,4.000000,4.000000,4.000000,4.000000,4.000000,4.000000,4.000000,4.000000,4.000000,100.000000
1602006430.020806,78.000000,0.000000,4115.897461,4120.000000,4128.717773,4121.025879,4131.282227,4126.153809,4133.333496,4134.871582,4127.179688,4134.871582,4136.410156,4153.846191,4133.333496,4140.512695,870.000000,4.000000,,,,0.000000,4.000000,4.000000,4.000000,4.000000,4.000000,4.000000,4.000000,4.000000,4.000000,4.000000,4.000000,4.000000,4.000000,4.000000,100.000000
1602006430.028687,79.000000,0.000000,4125.128418,4121.538574,4136.922852,4122.563965,4133.333496,4129.230957,4136.922852,4137.436035,4137.436035,4129.230957,4138.974121,4156.410156,4138.974121,4139.487305,835.000000,4.000000,,,,0.000000,4.000000,4.000000,4.000000,4.000000,4.000000,4.000000,4.000000,4.000000,4.000000,4.000000,4.000000,4.000000,4.000000,4.000000,100.000000
1602006430.036568,80.000000,0.000000,4118.461426,4121.025879,4136.922852,4126.153809,4132.307617,4126.666504,4129.743652,4138.974121,4145.128418,4138.974121,4154.358887,4162.563965,4154.358887,4155.384766,767.000000,4.000000,,,,0.000000,4.000000,4.000000,4.000000,4.000000,4.000000,4.000000,4.000000,4.000000,4.000000,4.000000,4.000000,4.000000,4.000000,4.000000,100.000000
1602006430.044450,81.000000,0.000000,4124.102539,4124.102539,4134.871582,4130.256348,4131.282227,4110.769043,4123.077148,4144.102539,4152.307617,4165.128418,4171.282227,4166.153809,4154.871582,4171.794922,738.000000,4.000000,,,,0.000000,4.000000,4.000000,4.000000,4.000000,4.000000,4.000000,4.000000,4.000000,4.000000,4.000000,4.000000,4.000000,4.000000,4.000000,100.000000
1602006430.052331,82.000000,0.000000,4150.256348,4136.410156,4147.692383,4138.461426,4136.922852,4108.205078,4121.025879,4152.820313,4157.436035,4172.820313,4173.846191,4172.820313,4156.410156,4175.897461,870.000000,4.000000,,,,0.000000,4.000000,4.000000,4.000000,4.000000,4.000000,4.000000,4.000000,4.000000,4.000000,4.000000,4.000000,4.000000,4.000000,4.000000,100.000000
1602006430.060113,83.000000,0.000000,4157.948730,4143.077148,4158.974121,4145.641113,4137.948730,4121.538574,4121.025879,4152.820313,4157.436035,4176.410156,4165.128418,4175.897461,4168.205078,4171.794922,835.000000,4.000000,,,,0.000000,4.000000,4.000000,4.000000,4.000000,4.000000,4.000000,4.000000,4.000000,4.000000,4.000000,4.000000,4.000000,4.000000,4.000000,100.000000
1602006430.067995,84.000000,0.000000,4137.948730,4132.307617,4146.153809,4143.077148,4129.743652,4121.025879,4122.563965,4143.077148,4148.205078,4169.230957,4157.948730,4163.589844,4164.102539,4162.563965,767.000000,4.000000,,,,0.000000,4.000000,4.000000,4.000000,4.000000,4.000000,4.000000,4.000000,4.000000,4.000000,4.000000,4.000000,4.000000,4.000000,4.000000,100.000000
1602006430.075876,85.000000,0.000000,4121.538574,4121.538574,4127.692383,4133.333496,4128.717773,4113.333496,4128.205078,4136.922852,4134.871582,4129.230957,4149.743652,4147.692383,4149.230957,4147.179688,738.000000,4.000000,,,,0.000000,4.000000,4.000000,4.000000,4.000000,4.000000,4.000000,4.000000,4.000000,4.000000,4.000000,4.000000,4.000000,4.000000,4.000000,100.000000
1602006430.083758,86.000000,0.000000,4112.820313,4120.512695,4124.102539,4122.563965,4135.897461,4126.666504,4138.974121,4141.538574,4136.410156,4121.538574,4146.666504,4142.563965,4148.717773,4137.436035,870.000000,4.000000,,,,0.000000,4.000000,4.000000,4.000000,4.000000,4.000000,4.000000,4.000000,4.000000,4.000000,4.000000,4.000000,4.000000,4.000000,4.000000,100.000000
1602006430.091640,87.000000,0.000000,4112.820313,4113.846191,4123.077148,4118.974121,4138.461426,4142.563965,4142.051270,4141.538574,4148.717773,4157.948730,4140.512695,4140.000000,4145.641113,4136.922852,835.000000,4.000000,,,,0.000000,4.000000,4.000000,4.000000,4.000000,4.000000,4.000000,4.000000,4.000000,4.000000,4.000000,4.000000,4.000000,4.000000,4.000000,100.000000
1602006430.099521,88.000000,0.000000,4121.025879,4110.769043,4125.128418,4121.025879,4135.897461,4138.461426,4131.282227,4130.769043,4136.922852,4157.436035,4128.205078,4134.871582,4128.717773,4136.410156,767.000000,4.000000,,,,0.000000,4.000000,4.000000,4.000000,4.000000,4.000000,4.000000,4.000000,4.000000,4.000000,4.000000,4.000000,4.000000,4.000000,4.000000,100.000000
1602006430.107403,89.000000,0.000000,4123.077148,4122.563965,4136.922852,4123.077148,4136.410156,4134.871582,4124.615234,4126.153809,4118.461426,4134.871582,4136.410156,4140.000000,4127.692383,4140.512695,738.000000,4.000000,,,,0.000000,4.000000,4.000000,4.000000,4.000000,4.000000,4.000000,4.000000,4.000000,4.000000,4.000000,4.000000,4.000000,4.000000,4.000000,100.000000
1602006430.115284,90.000000,0.000000,4121.538574,4128.717773,4141.538574,4129.230957,4140.000000,4140.000000,4127.179688,4132.820313,4127.692383,4147.692383,4159.487305,4151.282227,4142.051270,4150.769043,870.000000,4.000000,,,,0.000000,4.000000,4.000000,4.000000,4.000000,4.000000,4.000000,4.000000,4.000000,4.000000,4.000000,4.000000,4.000000,4.000000,4.000000,100.000000
1602006430.123166,91.000000,0.000000,4126.666504,4122.563965,4143.589844,4135.384766,4138.461426,4141.538574,4125.128418,4135.897461,4143.589844,4162.051270,4156.410156,4155.384766,4145.128418,4154.871582,835.000000,4.000000,,,,0.000000,4.000000,4.000000,4.000000,4.000000,4.000000,4.000000,4.000000,4.000000,4.000000,4.000000,4.000000,4.000000,4.000000,4.000000,100.000000
1602006430.130947,92.000000,0.000000,4126.666504,4122.563965,4150.769043,4132.307617,4131.794922,4133.846191,4114.871582,4133.333496,4140.512695,4144.102539,4141.538574,4152.820313,4138.974121,4152.307617,767.000000,4.000000,,,,0.000000,4.000000,4.000000,4.000000,4.000000,4.000000,4.000000,4.000000,4.000000,4.000000,4.000000,4.000000,4.000000,4.000000,4.000000,100.000000
1602006430.138829,93.000000,0.000000,4121.025879,4125.128418,4149.230957,4125.641113,4124.615234,4129.743652,4110.256348,4136.410156,4138.461426,4129.230957,4150.769043,4151.282227,4142.563965,4151.794922,738.000000,4.000000,,,,0.000000,4.000000,4.000000,4.000000,4.000000,4.000000,4.000000,4.000000,4.000000,4.000000,4.000000,4.000000,4.000000,4.000000,4.000000,100.000000
1602006430.146710,94.000000,0.000000,4122.051270,4122.563965,4140.512695,4123.077148,4125.641113,4134.871582,4118.974121,4134.871582,4141.025879,4142.051270,4155.897461,4151.794922,4147.179688,4151.794922,870.000000,4.000000,,,,0.000000,4.000000,4.000000,4.000000,4.000000,4.000000,4.000000,4.000000,4.000000,4.000000,4.000000,4.000000,4.000000,4.000000,4.000000,100.000000
1602006430.154591,95.000000,0.000000,4125.128418,4122.563965,4139.487305,4122.051270,4132.307617,4134.871582,4133.333496,4127.179688,4132.820313,4157.948730,4140.512695,4145.641113,4140.512695,4144.615234,835.000000,4.000000,,,,0.000000,4.000000,4.000000,4.000000,4.000000,4.000000,4.000000,4.000000,4.000000,4.000000,4.000000,4.000000,4.000000,4.000000,4.000000,100.000000
1602006430.162472,96.000000,0.000000,4123.077148,4123.077148,4137.436035,4121.538574,4133.846191,4123.077148,4138.974121,4125.641113,4129.743652,4156.922852,4132.820313,4140.000000,4137.436035,4137.948730,767.000000,4.000000,,,,0.000000,4.000000,4.000000,4.000000,4.000000,4.000000,4.000000,4.000000,4.000000,4.000000,4.000000,4.000000,4.000000,4.000000,4.000000,100.000000
1602006430.170254,97.000000,0.000000,4121.538574,4123.077148,4127.692383,4123.077148,4133.846191,4122.051270,4136.922852,4126.666504,4136.410156,4151.794922,4142.051270,4143.077148,4138.974121,4135.384766,738.000000,4.000000,,,,0.000000,4.000000,4.000000,4.000000,4.000000,4.000000,4.000000,4.000000,4.000000,4.000000,4.000000,4.000000,4.000000,4.000000,4.000000,100.000000
1602006430.178135,98.000000,0.000000,4121.538574,4123.077148,4125.641113,4128.717773,4137.948730,4135.897461,4137.948730,4130.256348,4129.743652,4144.615234,4147.692383,4146.666504,4134.358887,4131.794922,870.000000,4.000000,,,,0.000000,4.000000,4.000000,4.000000,4.000000,4.000000,4.000000,4.000000,4.000000,4.000000,4.000000,4.000000,4.000000,4.000000,4.000000,100.000000
1602006430.186016,99.000000,0.000000,4121.025879,4125.128418,4128.205078,4134.871582,4143.589844,4142.563965,4134.358887,4132.307617,4115.384766,4131.794922,4142.051270,4142.051270,4133.333496,4122.563965,835.000000,4.000000,,,,0.000000,4.000000,4.000000,4.000000,4.000000,4.000000,4.000000,4.000000,4.000000,4.000000,4.000000,4.000000,4.000000,4.000000,4.000000,100.000000
1602006430.193898,100.000000,0.000000,4121.025879,4131.282227,4131.282227,4137.436035,4144.615234,4140.512695,4128.205078,4130.769043,4123.077148,4132.307617,4144.615234,4141.538574,4140.512695,4116.410156,767.000000,4.000000,,,,0.000000,4.000000,4.000000,4.000000,4.000000,4.000000,4.000000,4.000000,4.000000,4.000000,4.000000,4.000000,4.000000,4.000000,4.000000,100.000000
1602006430.201779,101.000000,0.000000,4122.051270,4130.256348,4134.358887,4136.410156,4141.538574,4132.820313,4122.051270,4127.179688,4141.025879,4141.025879,4156.410156,4146.666504,4140.000000,4126.666504,738.000000,4.000000,,,,0.000000,4.000000,4.000000,4.000000,4.000000,4.000000,4.000000,4.000000,4.000000,4.000000,4.000000,4.000000,4.000000,4.000000,4.000000,100.000000
1602006430.209661,102.000000,0.000000,4124.102539,4124.102539,4135.384766,4133.333496,4144.615234,4125.128418,4113.333496,4126.666504,4142.051270,4148.717773,4158.461426,4152.820313,4136.410156,4139.487305,870.000000,4.000000,,,,0.000000,4.000000,4.000000,4.000000,4.000000,4.000000,4.000000,4.000000,4.000000,4.000000,4.000000,4.000000,4.000000,4.000000,4.000000,100.000000
1602006430.217642,103.000000,0.000000,4124.615234,4129.743652,4134.871582,4127.179688,4153.333496,4131.282227,4110.769043,4126.666504,4137.948730,4163.589844,4147.692383,4158.974121,4146.666504,4141.025879,835.000000,4.000000,,,,0.000000,4.000000,4.000000,4.000000,4.000000,4.000000,4.000000,4.000000,4.000000,4.000000,4.000000,4.000000,4.000000,4.000000,4.000000,100.000000
1602006430.225523,104.000000,0.000000,4125.128418,4135.384766,4137.436035,4125.128418,4156.410156,4142.051270,4119.487305,4124.615234,4142.563965,4163.589844,4144.615234,4160.512695,4152.820313,4139.487305,767.000000,4.000000,,,,0.000000,4.000000,4.000000,4.000000,4.000000,4.000000,4.000000,4.000000,4.000000,4.000000,4.000000,4.000000,4.000000,4.000000,4.000000,100.000000
1602006430.233404,105.000000,0.000000,4121.538574,4127.179688,4136.410156,4127.179688,4147.179688,4139.487305,4125.128418,4123.589844,4137.948730,4140.512695,4144.615234,4155.897461,4141.538574,4133.333496,738.000000,4.000000,,,,0.000000,4.000000,4.000000,4.000000,4.000000,4.000000,4.000000,4.000000,4.000000,4.000000,4.000000,4.000000,4.000000,4.000000,4.000000,100.000000
1602006430.241385,106.000000,0.000000,4113.846191,4120.512695,4127.179688,4125.128418,4138.461426,4135.384766,4122.051270,4121.025879,4124.615234,4133.846191,4136.922852,4147.179688,4129.230957,4123.077148,870.000000,4.000000,,,,0.000000,4.000000,4.000000,4.000000,4.000000,4.000000,4.000000,4.000000,4.000000,4.000000,4.000000,4.000000,4.000000,4.000000,4.000000,100.000000
1602006430.249266,107.000000,0.000000,4110.256348,4116.922852,4123.077148,4120.512695,4138.974121,4132.820313,4123.589844,4118.974121,4124.615234,4139.487305,4134.358887,4139.487305,4126.153809,4118.974121,835.000000,4.000000,,,,0.000000,4.000000,4.000000,4.000000,4.000000,4.000000,4.000000,4.000000,4.000000,4.000000,4.000000,4.000000,4.000000,4.000000,4.000000,100.000000
1602006430.257147,108.000000,0.000000,4107.179688,4107.692383,4124.102539,4118.461426,4135.384766,4123.077148,4126.153809,4117.948730,4124.615234,4128.205078,4135.384766,4143.077148,4120.000000,4114.871582,767.000000,4.000000,,,,0.000000,4.000000,4.000000,4.000000,4.000000,4.000000,4.000000,4.000000,4.000000,4.000000,4.000000,4.000000,4.000000,4.000000,4.000000,100.000000
1602006430.265029,109.000000,0.000000,4106.666504,4107.692383,4123.589844,4118.974121,4128.205078,4123.077148,4130.256348,4123.077148,4117.948730,4114.358887,4138.461426,4152.820313,4120.000000,4107.179688,738.000000,4.000000,,,,0.000000,4.000000,4.000000,4.000000,4.000000,4.000000,4.000000,4.000000,4.000000,4.000000,4.000000,4.000000,4.000000,4.000000,4.000000,100.000000
1602006430.272910,110.000000,0.000000,4117.436035,4121.025879,4123.589844,4121.538574,4132.820313,4136.410156,4138.974121,4134.358887,4126.153809,4118.974121,4138.974121,4156.410156,4132.820313,4114.358887,870.000000,4.000000,,,,0.000000,4.000000,4.000000,4.000000,4.000000,4.000000,4.000000,4.000000,4.000000,4.000000,4.000000,4.000000,4.000000,4.000000,4.000000,100.000000
1602006430.280691,111.000000,0.000000,4123.589844,4125.128418,4118.974121,4122.563965,4139.487305,4140.512695,4137.436035,4137.436035,4136.922852,4130.769043,4130.256348,4152.820313,4138.461426,4132.820313,835.000000,4.000000,,,,0.000000,4.000000,4.000000,4.000000,4.000000,4.000000,4.000000,4.000000,4.000000,4.000000,4.000000,4.000000,4.000000,4.000000,4.000000,100.000000
1602006430.288573,112.000000,0.000000,4120.000000,4122.563965,4118.974121,4123.077148,4137.948730,4132.820313,4128.205078,4129.743652,4137.948730,4146.153809,4127.692383,4154.871582,4134.358887,4140.000000,767.000000,4.000000,,,,0.000000,4.000000,4.000000,4.000000,4.000000,4.000000,4.000000,4.000000,4.000000,4.000000,4.000000,4.000000,4.000000,4.000000,4.000000,100.000000
1602006430.296455,113.000000,0.000000,4130.769043,4131.282227,4132.820313,4128.717773,4144.102539,4127.692383,4124.102539,4125.128418,4146.153809,4167.692383,4144.615234,4165.128418,4141.025879,4136.922852,738.000000,4.000000,,,,0.000000,4.000000,4.000000,4.000000,4.000000,4.000000,4.000000,4.000000,4.000000,4.000000,4.000000,4.000000,4.000000,4.000000,4.000000,100.000000
1602006430.304336,114.000000,0.000000,4144.615234,4141.538574,4144.102539,4137.436035,4153.846191,4126.666504,4118.974121,4125.128418,4155.897461,4169.230957,4154.358887,4172.307617,4154.871582,4138.974121,870.000000,4.000000,,,,0.000000,4.000000,4.000000,4.000000,4.000000,4.000000,4.000000,4.000000,4.000000,4.000000,4.000000,4.000000,4.000000,4.000000,4.000000,100.000000
1602006430.312218,115.000000,0.000000,4141.025879,4138.974121,4142.563965,4138.974121,4147.692383,4122.563965,4110.256348,4122.051270,4147.179688,4154.358887,4149.743652,4167.179688,4155.897461,4142.051270,835.000000,4.000000,,,,0.000000,4.000000,4.000000,4.000000,4.000000,4.000000,4.000000,4.000000,4.000000,4.000000,4.000000,4.000000,4.000000,4.000000,4.000000,100.000000
1602006430.320100,116.000000,0.000000,4138.461426,4137.436035,4141.025879,4137.948730,4137.948730,4119.487305,4113.846191,4126.153809,4137.436035,4146.153809,4153.846191,4166.153809,4152.307617,4140.000000,767.000000,4.000000,,,,0.000000,4.000000,4.000000,4.000000,4.000000,4.000000,4.000000,4.000000,4.000000,4.000000,4.000000,4.000000,4.000000,4.000000,4.000000,100.000000
1602006430.327981,117.000000,0.000000,4139.487305,4142.051270,4141.538574,4138.461426,4141.025879,4124.102539,4123.077148,4133.333496,4140.000000,4131.794922,4157.948730,4172.820313,4152.820313,4135.384766,738.000000,4.000000,,,,0.000000,4.000000,4.000000,4.000000,4.000000,4.000000,4.000000,4.000000,4.000000,4.000000,4.000000,4.000000,4.000000,4.000000,4.000000,100.000000
1602006430.335863,118.000000,0.000000,4126.666504,4131.282227,4138.461426,4131.794922,4141.025879,4126.666504,4121.538574,4128.717773,4142.563965,4120.512695,4142.563965,4168.205078,4140.000000,4130.256348,870.000000,4.000000,,,,0.000000,4.000000,4.000000,4.000000,4.000000,4.000000,4.000000,4.000000,4.000000,4.000000,4.000000,4.000000,4.000000,4.000000,4.000000,100.000000
1602006430.343745,119.000000,0.000000,4115.897461,4117.436035,4131.794922,4121.538574,4134.358887,4121.025879,4117.436035,4121.025879,4137.948730,4135.384766,4125.128418,4155.384766,4123.589844,4120.000000,835.000000,4.000000,,,,0.000000,4.000000,4.000000,4.000000,4.000000,4.000000,4.000000,4.000000,4.000000,4.000000,4.000000,4.000000,4.000000,4.000000,4.000000,100.000000
1602006430.351526,120.000000,0.000000,4118.461426,4118.461426,4128.205078,4120.000000,4135.384766,4117.948730,4120.000000,4121.538574,4130.256348,4149.743652,4124.615234,4150.769043,4120.512695,4106.153809,767.000000,4.000000,,,,0.000000,4.000000,4.000000,4.000000,4.000000,4.000000,4.000000,4.000000,4.000000,4.000000,4.000000,4.000000,4.000000,4.000000,4.000000,100.000000
1602006430.359408,121.000000,0.000000,4118.974121,4121.025879,4134.358887,4122.563965,4140.000000,4121.025879,4122.563965,4122.563965,4121.025879,4140.512695,4135.897461,4153.846191,4123.589844,4108.205078,738.000000,4.000000,,,,0.000000,4.000000,4.000000,4.000000,4.000000,4.000000,4.000000,4.000000,4.000000,4.000000,4.000000,4.000000,4.000000,4.000000,4.000000,100.000000
1602006430.367290,122.000000,0.000000,4122.051270,4127.179688,4138.974121,4129.743652,4142.051270,4126.666504,4121.538574,4122.051270,4122.051270,4138.974121,4142.051270,4155.384766,4131.794922,4125.128418,870.000000,4.000000,,,,0.000000,4.000000,4.000000,4.000000,4.000000,4.000000,4.000000,4.000000,4.000000,4.000000,4.000000,4.000000,4.000000,4.000000,4.000000,100.000000
1602006430.375171,123.000000,0.000000,4135.384766,4135.897461,4133.333496,4135.897461,4143.589844,4131.794922,4118.974121,4121.538574,4130.769043,4139.487305,4143.077148,4151.282227,4136.922852,4127.692383,835.000000,4.000000,,,,0.000000,4.000000,4.000000,4.000000,4.000000,4.000000,4.000000,4.000000,4.000000,4.000000,4.000000,4.000000,4.000000,4.000000,4.000000,100.000000
1602006430.383053,124.000000,0.000000,4141.538574,4130.769043,4132.307617,4134.871582,4142.051270,4137.948730,4119.487305,4121.538574,4134.871582,4122.051270,4147.179688,4153.846191,4139.487305,4123.077148,767.000000,4.000000,,,,0.000000,4.000000,4.000000,4.000000,4.000000,4.000000,4.000000,4.000000,4.000000,4.000000,4.000000,4.000000,4.000000,4.000000,4.000000,100.000000
1602006430.390935,125.000000,0.000000,4136.922852,4126.666504,4140.512695,4134.871582,4138.974121,4138.461426,4122.051270,4127.179688,4136.410156,4122.563965,4155.384766,4169.743652,4149.743652,4135.384766,738.000000,4.000000,,,,0.000000,4.000000,4.000000,4.000000,4.000000,4.000000,4.000000,4.000000,4.000000,4.000000,4.000000,4.000000,4.000000,4.000000,4.000000,100.000000
1602006430.398816,126.000000,0.000000,4134.871582,4129.743652,4141.025879,4135.384766,4133.333496,4128.717773,4122.563965,4127.179688,4140.000000,4145.641113,4157.436035,4172.820313,4149.743652,4138.461426,870.000000,4.000000,,,,0.000000,4.000000,4.000000,4.000000,4.000000,4.000000,4.000000,4.000000,4.000000,4.000000,4.000000,4.000000,4.000000,4.000000,4.000000,100.000000
1602006430.406698,127.000000,0.000000,4134.358887,4124.102539,4138.974121,4127.692383,4129.743652,4121.025879,4121.025879,4125.128418,4135.897461,4147.179688,4148.717773,4160.000000,4132.307617,4122.563965,835.000000,4.000000,,,,0.000000,4.000000,4.000000,4.000000,4.000000,4.000000,4.000000,4.000000,4.000000,4.000000,4.000000,4.000000,4.000000,4.000000,4.000000,100.000000
1602006430.414679,128.000000,0.000000,4136.922852,4126.153809,4150.769043,4125.641113,4132.820313,4118.461426,4119.487305,4134.358887,4131.282227,4134.871582,4143.077148,4163.077148,4133.846191,4129.230957,767.000000,4.000000,,,,0.000000,4.000000,4.000000,4.000000,4.000000,4.000000,4.000000,4.000000,4.000000,4.000000,4.000000,4.000000,4.000000,4.000000,4.000000,100.000000
1602006430.422561,0.000000,0.000000,4137.948730,4138.974121,4157.436035,4135.897461,4139.487305,4112.307617,4113.846191,4136.410156,4138.461426,4141.025879,4150.256348,4172.307617,4151.282227,4138.461426,791.000000,4.000000,,,,0.000000,4.000000,4.000000,4.000000,4.000000,4.000000,4.000000,4.000000,4.000000,4.000000,4.000000,4.000000,4.000000,4.000000,4.000000,100.000000
1602006430.430442,1.000000,0.000000,4129.230957,4135.384766,4143.077148,4137.436035,4138.974121,4103.589844,4105.128418,4124.615234,4136.922852,4133.846191,4156.410156,4160.000000,4141.025879,4126.153809,788.000000,4.000000,,,,0.000000,4.000000,4.000000,4.000000,4.000000,4.000000,4.000000,4.000000,4.000000,4.000000,4.000000,4.000000,4.000000,4.000000,4.000000,100.000000
1602006430.438323,2.000000,0.000000,4121.025879,4122.563965,4130.769043,4129.230957,4132.820313,4104.102539,4108.717773,4118.461426,4115.384766,4110.769043,4149.743652,4147.179688,4120.000000,4121.025879,860.000000,4.000000,,,,0.000000,4.000000,4.000000,4.000000,4.000000,4.000000,4.000000,4.000000,4.000000,4.000000,4.000000,4.000000,4.000000,4.000000,4.000000,100.000000
1602006430.446205,3.000000,0.000000,4124.615234,4123.077148,4135.384766,4131.282227,4132.820313,4118.461426,4129.230957,4122.563965,4102.563965,4115.384766,4140.512695,4152.307617,4120.512695,4125.641113,867.000000,4.000000,,,,0.000000,4.000000,4.000000,4.000000,4.000000,4.000000,4.000000,4.000000,4.000000,4.000000,4.000000,4.000000,4.000000,4.000000,4.000000,100.000000
1602006430.454086,4.000000,0.000000,4133.846191,4128.717773,4143.589844,4137.948730,4135.897461,4134.358887,4142.051270,4128.717773,4108.717773,4125.641113,4133.846191,4161.025879,4131.794922,4127.692383,813.000000,4.000000,,,,0.000000,4.000000,4.000000,4.000000,4.000000,4.000000,4.000000,4.000000,4.000000,4.000000,4.000000,4.000000,4.000000,4.000000,4.000000,100.000000
1602006430.461868,5.000000,0.000000,4141.538574,4135.384766,4151.282227,4136.922852,4137.436035,4140.000000,4140.000000,4135.897461,4119.487305,4126.153809,4137.948730,4167.692383,4138.974121,4137.948730,818.000000,4.000000,,,,0.000000,4.000000,4.000000,4.000000,4.000000,4.000000,4.000000,4.000000,4.000000,4.000000,4.000000,4.000000,4.000000,4.000000,4.000000,100.000000
1602006430.469749,6.000000,0.000000,4143.077148,4137.948730,4159.487305,4135.897461,4134.358887,4137.948730,4139.487305,4140.000000,4132.307617,4137.436035,4153.333496,4172.307617,4141.025879,4145.128418,760.000000,4.000000,,,,0.000000,4.000000,4.000000,4.000000,4.000000,4.000000,4.000000,4.000000,4.000000,4.000000,4.000000,4.000000,4.000000,4.000000,4.000000,100.000000
1602006430.477631,7.000000,0.000000,4135.897461,4132.820313,4153.846191,4139.487305,4133.333496,4140.512695,4136.410156,4134.871582,4140.512695,4135.384766,4156.410156,4166.153809,4137.436035,4132.307617,665.000000,4.000000,,,,0.000000,4.000000,4.000000,4.000000,4.000000,4.000000,4.000000,4.000000,4.000000,4.000000,4.000000,4.000000,4.000000,4.000000,4.000000,100.000000
1602006430.485513,8.000000,0.000000,4127.179688,4124.615234,4140.512695,4132.307617,4135.897461,4137.948730,4125.128418,4125.641113,4131.794922,4121.025879,4141.025879,4155.897461,4126.153809,4119.487305,787.000000,4.000000,,,,0.000000,4.000000,4.000000,4.000000,4.000000,4.000000,4.000000,4.000000,4.000000,4.000000,4.000000,4.000000,4.000000,4.000000,4.000000,100.000000
1602006430.493394,9.000000,0.000000,4126.153809,4120.000000,4135.897461,4121.538574,4135.897461,4125.128418,4111.282227,4117.948730,4120.512695,4131.282227,4130.769043,4151.282227,4118.974121,4120.000000,833.000000,4.000000,,,,0.000000,4.000000,4.000000,4.000000,4.000000,4.000000,4.000000,4.000000,4.000000,4.000000,4.000000,4.000000,4.000000,4.000000,4.000000,100.000000
1602006430.501276,10.000000,0.000000,4125.641113,4127.179688,4137.436035,4128.717773,4136.922852,4119.487305,4103.589844,4120.000000,4129.743652,4143.589844,4140.000000,4151.282227,4124.615234,4126.666504,870.000000,4.000000,,,,0.000000,4.000000,4.000000,4.000000,4.000000,4.000000,4.000000,4.000000,4.000000,4.000000,4.000000,4.000000,4.000000,4.000000,4.000000,100.000000
1602006430.509158,11.000000,0.000000,4122.051270,4133.846191,4137.948730,4135.384766,4139.487305,4124.102539,4107.179688,4132.307617,4136.410156,4132.307617,4150.769043,4153.333496,4136.922852,4129.230957,835.000000,4.000000,,,,0.000000,4.000000,4.000000,4.000000,4.000000,4.000000,4.000000,4.000000,4.000000,4.000000,4.000000,4.000000,4.000000,4.000000,4.000000,100.000000
1602006430.517039,12.000000,0.000000,4122.563965,4129.230957,4133.333496,4127.692383,4140.000000,4128.717773,4121.538574,4141.538574,4124.102539,4134.358887,4146.666504,4153.846191,4141.025879,4124.615234,767.000000,4.000000,,,,0.000000,4.000000,4.000000,4.000000,4.000000,4.000000,4.000000,4.000000,4.000000,4.000000,4.000000,4.000000,4.000000,4.000000,4.000000,100.000000
1602006430.524921,13.000000,0.000000,4127.692383,4122.563965,4125.641113,4121.538574,4133.846191,4126.666504,4133.846191,4142.563965,4121.538574,4146.153809,4136.922852,4152.820313,4140.512695,4122.563965,738.000000,4.000000,,,,0.000000,4.000000,4.000000,4.000000,4.000000,4.000000,4.000000,4.000000,4.000000,4.000000,4.000000,4.000000,4.000000,4.000000,4.000000,100.000000
1602006430.532702,14.000000,0.000000,4124.102539,4119.487305,4117.948730,4121.538574,4124.102539,4126.666504,4138.974121,4137.436035,4131.794922,4134.871582,4136.922852,4151.282227,4138.461426,4123.077148,870.000000,4.000000,,,,0.000000,4.000000,4.000000,4.000000,4.000000,4.000000,4.000000,4.000000,4.000000,4.000000,4.000000,4.000000,4.000000,4.000000,4.000000,100.000000
1602006430.540583,15.000000,0.000000,4122.563965,4121.025879,4125.128418,4122.051270,4125.128418,4142.563965,4148.205078,4143.589844,4136.922852,4118.461426,4138.974121,4149.230957,4129.743652,4123.589844,835.000000,4.000000,,,,0.000000,4.000000,4.000000,4.000000,4.000000,4.000000,4.000000,4.000000,4.000000,4.000000,4.000000,4.000000,4.000000,4.000000,4.000000,100.000000
1602006430.548465,16.000000,0.000000,4125.641113,4121.538574,4136.922852,4122.563965,4129.230957,4153.846191,4154.871582,4149.743652,4137.948730,4131.794922,4136.410156,4144.102539,4126.666504,4122.051270,0.000000,4.000000,,,,0.000000,4.000000,4.000000,4.000000,4.000000,4.000000,4.000000,4.000000,4.000000,4.000000,4.000000,4.000000,4.000000,4.000000,4.000000,100.000000
1602006430.556346,17.000000,0.000000,4115.384766,4115.384766,4127.692383,4121.538574,4127.179688,4142.563965,4146.666504,4143.589844,4138.974121,4153.846191,4138.974121,4136.922852,4134.358887,4118.461426,0.000000,4.000000,,,,0.000000,4.000000,4.000000,4.000000,4.000000,4.000000,4.000000,4.000000,4.000000,4.000000,4.000000,4.000000,4.000000,4.000000,4.000000,100.000000
1602006430.564227,18.000000,0.000000,4111.282227,4115.384766,4118.461426,4120.000000,4131.794922,4126.153809,4133.333496,4138.461426,4135.384766,4150.256348,4141.025879,4138.974121,4137.436035,4120.000000,0.000000,4.000000,,,,0.000000,4.000000,4.000000,4.000000,4.000000,4.000000,4.000000,4.000000,4.000000,4.000000,4.000000,4.000000,4.000000,4.000000,4.000000,100.000000
1602006430.572008,19.000000,0.000000,4122.051270,4123.589844,4128.717773,4125.128418,4136.410156,4124.615234,4118.974121,4132.307617,4132.820313,4145.641113,4139.487305,4149.230957,4135.384766,4125.128418,0.000000,4.000000,,,,0.000000,4.000000,4.000000,4.000000,4.000000,4.000000,4.000000,4.000000,4.000000,4.000000,4.000000,4.000000,4.000000,4.000000,4.000000,100.000000
1602006430.579890,20.000000,0.000000,4124.615234,4124.615234,4141.025879,4129.743652,4129.230957,4121.538574,4108.717773,4126.153809,4137.436035,4153.333496,4146.666504,4154.871582,4138.974121,4127.179688,0.000000,4.000000,,,,0.000000,4.000000,4.000000,4.000000,4.000000,4.000000,4.000000,4.000000,4.000000,4.000000,4.000000,4.000000,4.000000,4.000000,4.000000,100.000000
1602006430.587771,21.000000,0.000000,4126.153809,4122.563965,4146.153809,4126.666504,4128.717773,4116.922852,4111.794922,4130.769043,4138.974121,4137.948730,4156.410156,4161.025879,4143.077148,4133.846191,0.000000,4.000000,,,,0.000000,4.000000,4.000000,4.000000,4.000000,4.000000,4.000000,4.000000,4.000000,4.000000,4.000000,4.000000,4.000000,4.000000,4.000000,100.000000
1602006430.595653,22.000000,0.000000,4138.974121,4125.641113,4154.358887,4128.205078,4138.974121,4128.205078,4123.589844,4144.102539,4137.948730,4124.102539,4155.897461,4170.769043,4142.563965,4150.769043,0.000000,4.000000,,,,0.000000,4.000000,4.000000,4.000000,4.000000,4.000000,4.000000,4.000000,4.000000,4.000000,4.000000,4.000000,4.000000,4.000000,4.000000,100.000000
1602006430.603534,23.000000,0.000000,4143.589844,4124.615234,4158.974121,4136.922852,4140.512695,4141.538574,4126.666504,4145.641113,4138.974121,4143.589844,4152.820313,4168.205078,4144.615234,4150.256348,0.000000,4.000000,,,,0.000000,4.000000,4.000000,4.000000,4.000000,4.000000,4.000000,4.000000,4.000000,4.000000,4.000000,4.000000,4.000000,4.000000,4.000000,100.000000
1602006430.611415,24.000000,0.000000,4134.871582,4122.563965,4153.333496,4136.922852,4135.897461,4145.641113,4126.153809,4143.077148,4133.333496,4151.282227,4154.871582,4158.974121,4139.487305,4131.794922,0.000000,4.000000,,,,0.000000,4.000000,4.000000,4.000000,4.000000,4.000000,4.000000,4.000000,4.000000,4.000000,4.000000,4.000000,4.000000,4.000000,4.000000,100.000000
1602006430.619297,25.000000,0.000000,4124.615234,4120.512695,4145.128418,4123.077148,4133.333496,4142.051270,4127.692383,4138.974121,4123.589844,4136.922852,4151.794922,4154.358887,4128.205078,4125.128418,0.000000,4.000000,,,,0.000000,4.000000,4.000000,4.000000,4.000000,4.000000,4.000000,4.000000,4.000000,4.000000,4.000000,4.000000,4.000000,4.000000,4.000000,100.000000
1602006430.627278,26.000000,0.000000,4108.205078,4108.205078,4129.230957,4110.256348,4127.179688,4137.436035,4124.615234,4126.153809,4117.436035,4131.282227,4137.436035,4140.000000,4118.461426,4121.025879,0.000000,4.000000,,,,0.000000,4.000000,4.000000,4.000000,4.000000,4.000000,4.000000,4.000000,4.000000,4.000000,4.000000,4.000000,4.000000,4.000000,4.000000,100.000000
1602006430.635160,27.000000,0.000000,4100.000000,4103.589844,4112.307617,4113.333496,4124.102539,4141.538574,4123.589844,4117.948730,4116.410156,4115.384766,4128.205078,4121.025879,4110.769043,4105.641113,0.000000,4.000000,,,,0.000000,4.000000,4.000000,4.000000,4.000000,4.000000,4.000000,4.000000,4.000000,4.000000,4.000000,4.000000,4.000000,4.000000,4.000000,100.000000
1602006430.643041,28.000000,0.000000,4110.769043,4115.384766,4111.282227,4123.077148,4130.769043,4153.846191,4127.692383,4119.487305,4116.922852,4102.051270,4135.384766,4116.922852,4112.820313,4100.512695,0.000000,4.000000,,,,0.000000,4.000000,4.000000,4.000000,4.000000,4.000000,4.000000,4.000000,4.000000,4.000000,4.000000,4.000000,4.000000,4.000000,4.000000,100.000000
1602006430.650922,29.000000,0.000000,4118.461426,4124.615234,4119.487305,4123.077148,4138.461426,4150.769043,4131.794922,4120.512695,4117.948730,4120.000000,4146.666504,4122.051270,4124.615234,4109.743652,0.000000,4.000000,,,,0.000000,4.000000,4.000000,4.000000,4.000000,4.000000,4.000000,4.000000,4.000000,4.000000,4.000000,4.000000,4.000000,4.000000,4.000000,100.000000
1602006430.658804,30.000000,0.000000,4126.666504,4130.769043,4134.358887,4127.179688,4141.538574,4131.794922,4136.922852,4129.743652,4124.615234,4142.051270,4154.358887,4130.256348,4134.871582,4125.128418,0.000000,4.000000,,,,0.000000,4.000000,4.000000,4.000000,4.000000,4.000000,4.000000,4.000000,4.000000,4.000000,4.000000,4.000000,4.000000,4.000000,4.000000,100.000000
1602006430.666685,31.000000,0.000000,4142.563965,4141.538574,4150.256348,4144.615234,4142.563965,4128.205078,4141.025879,4146.666504,4129.743652,4149.230957,4164.102539,4145.641113,4147.179688,4149.230957,0.000000,4.000000,,,,0.000000,4.000000,4.000000,4.000000,4.000000,4.000000,4.000000,4.000000,4.000000,4.000000,4.000000,4.000000,4.000000,4.000000,4.000000,100.000000
1602006430.674467,32.000000,0.000000,4148.205078,4144.615234,4149.230957,4149.743652,4142.051270,4137.948730,4141.025879,4148.717773,4126.153809,4152.307617,4166.153809,4154.871582,4152.307617,4156.922852,0.000000,4.000000,,,,0.000000,4.000000,4.000000,4.000000,4.000000,4.000000,4.000000,4.000000,4.000000,4.000000,4.000000,4.000000,4.000000,4.000000,4.000000,100.000000
1602006430.682349,33.000000,0.000000,4140.000000,4138.461426,4136.922852,4139.487305,4140.000000,4141.025879,4140.000000,4141.538574,4123.077148,4147.692383,4155.897461,4154.358887,4141.538574,4145.128418,0.000000,4.000000,,,,0.000000,4.000000,4.000000,4.000000,4.000000,4.000000,4.000000,4.000000,4.000000,4.000000,4.000000,4.000000,4.000000,4.000000,4.000000,100.000000
1602006430.690230,34.000000,0.000000,4139.487305,4134.871582,4137.436035,4138.461426,4140.000000,4142.051270,4133.846191,4144.615234,4125.641113,4136.922852,4151.794922,4153.846191,4136.922852,4145.641113,0.000000,4.000000,,,,0.000000,4.000000,4.000000,4.000000,4.000000,4.000000,4.000000,4.000000,4.000000,4.000000,4.000000,4.000000,4.000000,4.000000,4.000000,100.000000
1602006430.698112,35.000000,0.000000,4138.461426,4131.282227,4142.051270,4140.000000,4133.846191,4140.000000,4122.563965,4144.615234,4125.128418,4128.717773,4160.512695,4151.282227,4142.051270,4149.230957,0.000000,4.000000,,,,0.000000,4.000000,4.000000,4.000000,4.000000,4.000000,4.000000,4.000000,4.000000,4.000000,4.000000,4.000000,4.000000,4.000000,4.000000,100.000000
1602006430.705993,36.000000,0.000000,4126.153809,4125.128418,4136.410156,4135.897461,4125.128418,4136.922852,4118.974121,4136.922852,4123.589844,4126.666504,4151.794922,4147.179688,4130.769043,4131.794922,0.000000,4.000000,,,,0.000000,4.000000,4.000000,4.000000,4.000000,4.000000,4.000000,4.000000,4.000000,4.000000,4.000000,4.000000,4.000000,4.000000,4.000000,100.000000
1602006430.713875,37.000000,0.000000,4120.000000,4122.563965,4133.846191,4131.282227,4131.794922,4140.000000,4127.692383,4133.333496,4125.128418,4135.384766,4121.538574,4149.230957,4117.436035,4116.922852,0.000000,4.000000,,,,0.000000,4.000000,4.000000,4.000000,4.000000,4.000000,4.000000,4.000000,4.000000,4.000000,4.000000,4.000000,4.000000,4.000000,4.000000,100.000000
1602006430.721757,38.000000,0.000000,4122.563965,4122.051270,4131.794922,4128.717773,4137.948730,4145.641113,4136.922852,4133.846191,4122.051270,4145.128418,4122.051270,4154.871582,4127.179688,4126.153809,0.000000,4.000000,,,,0.000000,4.000000,4.000000,4.000000,4.000000,4.000000,4.000000,4.000000,4.000000,4.000000,4.000000,4.000000,4.000000,4.000000,4.000000,100.000000
1602006430.729638,39.000000,0.000000,4124.102539,4123.589844,4126.153809,4125.641113,4129.230957,4143.589844,4140.512695,4133.846191,4125.128418,4136.410156,4150.256348,4153.846191,4136.922852,4138.974121,0.000000,4.000000,,,,0.000000,4.000000,4.000000,4.000000,4.000000,4.000000,4.000000,4.000000,4.000000,4.000000,4.000000,4.000000,4.000000,4.000000,4.000000,100.000000
1602006430.737520,40.000000,0.000000,4127.179688,4124.102539,4125.641113,4125.641113,4127.179688,4142.563965,4138.461426,4133.846191,4128.717773,4125.128418,4155.384766,4151.794922,4135.897461,4141.538574,0.000000,4.000000,,,,0.000000,4.000000,4.000000,4.000000,4.000000,4.000000,4.000000,4.000000,4.000000,4.000000,4.000000,4.000000,4.000000,4.000000,4.000000,100.000000
1602006430.745302,41.000000,0.000000,4132.820313,4128.205078,4132.307617,4133.333496,4135.384766,4137.948730,4137.436035,4135.384766,4121.538574,4133.333496,4144.102539,4157.948730,4143.077148,4144.102539,0.000000,4.000000,,,,0.000000,4.000000,4.000000,4.000000,4.000000,4.000000,4.000000,4.000000,4.000000,4.000000,4.000000,4.000000,4.000000,4.000000,4.000000,100.000000
1602006430.753183,42.000000,0.000000,4143.589844,4141.538574,4148.205078,4143.589844,4138.974121,4128.717773,4138.461426,4140.512695,4125.128418,4149.743652,4151.794922,4169.743652,4157.436035,4154.871582,0.000000,4.000000,,,,0.000000,4.000000,4.000000,4.000000,4.000000,4.000000,4.000000,4.000000,4.000000,4.000000,4.000000,4.000000,4.000000,4.000000,4.000000,100.000000
1602006430.761064,43.000000,0.000000,4152.307617,4150.256348,4161.025879,4144.615234,4137.948730,4129.743652,4129.743652,4144.102539,4138.461426,4159.487305,4160.512695,4175.384766,4160.512695,4163.589844,0.000000,4.000000,,,,0.000000,4.000000,4.000000,4.000000,4.000000,4.000000,4.000000,4.000000,4.000000,4.000000,4.000000,4.000000,4.000000,4.000000,4.000000,100.000000
1602006430.768946,44.000000,0.000000,4146.666504,4143.589844,4152.307617,4139.487305,4138.974121,4137.948730,4122.051270,4143.077148,4138.974121,4161.025879,4156.922852,4165.128418,4154.358887,4156.922852,0.000000,4.000000,,,,0.000000,4.000000,4.000000,4.000000,4.000000,4.000000,4.000000,4.000000,4.000000,4.000000,4.000000,4.000000,4.000000,4.000000,4.000000,100.000000
1602006430.776827,45.000000,0.000000,4136.410156,4138.974121,4137.948730,4139.487305,4141.025879,4137.436035,4128.717773,4142.563965,4138.461426,4161.538574,4154.871582,4154.358887,4154.871582,4145.128418,0.000000,4.000000,,,,0.000000,4.000000,4.000000,4.000000,4.000000,4.000000,4.000000,4.000000,4.000000,4.000000,4.000000,4.000000,4.000000,4.000000,4.000000,100.000000
1602006430.784809,46.000000,0.000000,4136.410156,4144.615234,4140.000000,4141.025879,4140.512695,4140.000000,4138.461426,4144.102539,4146.153809,4157.948730,4153.846191,4152.307617,4155.897461,4144.615234,0.000000,4.000000,,,,0.000000,4.000000,4.000000,4.000000,4.000000,4.000000,4.000000,4.000000,4.000000,4.000000,4.000000,4.000000,4.000000,4.000000,4.000000,100.000000
1602006430.792690,47.000000,0.000000,4137.436035,4138.461426,4136.410156,4137.436035,4136.410156,4151.794922,4142.563965,4143.077148,4143.589844,4138.461426,4145.641113,4144.102539,4149.230957,4134.871582,0.000000,4.000000,,,,0.000000,4.000000,4.000000,4.000000,4.000000,4.000000,4.000000,4.000000,4.000000,4.000000,4.000000,4.000000,4.000000,4.000000,4.000000,100.000000
1602006430.800572,48.000000,0.000000,4125.128418,4122.051270,4120.512695,4133.846191,4132.820313,4157.436035,4144.615234,4140.512695,4134.871582,4115.897461,4133.333496,4133.333496,4134.871582,4111.282227,0.000000,4.000000,,,,0.000000,4.000000,4.000000,4.000000,4.000000,4.000000,4.000000,4.000000,4.000000,4.000000,4.000000,4.000000,4.000000,4.000000,4.000000,100.000000
1602006430.808454,49.000000,0.000000,4116.922852,4124.615234,4121.025879,4134.871582,4135.897461,4155.384766,4145.128418,4139.487305,4135.384766,4123.589844,4130.769043,4133.846191,4122.563965,4110.256348,0.000000,4.000000,,,,0.000000,4.000000,4.000000,4.000000,4.000000,4.000000,4.000000,4.000000,4.000000,4.000000,4.000000,4.000000,4.000000,4.000000,4.000000,100.000000
1602006430.816335,50.000000,0.000000,4125.128418,4137.436035,4137.436035,4137.436035,4139.487305,4148.205078,4138.461426,4135.897461,4133.333496,4147.692383,4137.436035,4139.487305,4124.102539,4127.692383,0.000000,4.000000,,,,0.000000,4.000000,4.000000,4.000000,4.000000,4.000000,4.000000,4.000000,4.000000,4.000000,4.000000,4.000000,4.000000,4.000000,4.000000,100.000000
1602006430.824217,51.000000,0.000000,4139.487305,4141.025879,4144.102539,4138.974121,4138.461426,4141.025879,4128.205078,4126.153809,4127.692383,4155.384766,4141.025879,4138.974121,4134.358887,4133.333496,0.000000,4.000000,,,,0.000000,4.000000,4.000000,4.000000,4.000000,4.000000,4.000000,4.000000,4.000000,4.000000,4.000000,4.000000,4.000000,4.000000,4.000000,100.000000
1602006430.832099,52.000000,0.000000,4147.179688,4140.000000,4145.128418,4141.025879,4137.948730,4140.000000,4122.563965,4121.025879,4131.282227,4148.717773,4138.974121,4144.102539,4138.461426,4139.487305,0.000000,4.000000,,,,0.000000,4.000000,4.000000,4.000000,4.000000,4.000000,4.000000,4.000000,4.000000,4.000000,4.000000,4.000000,4.000000,4.000000,4.000000,100.000000
1602006430.839980,53.000000,0.000000,4144.102539,4143.077148,4150.256348,4139.487305,4138.461426,4130.256348,4126.153809,4128.717773,4138.974121,4145.128418,4137.948730,4152.820313,4133.846191,4150.256348,0.000000,4.000000,,,,0.000000,4.000000,4.000000,4.000000,4.000000,4.000000,4.000000,4.000000,4.000000,4.000000,4.000000,4.000000,4.000000,4.000000,4.000000,100.000000
1602006430.847862,54.000000,0.000000,4146.153809,4149.743652,4153.846191,4140.000000,4139.487305,4122.563965,4134.358887,4143.589844,4145.128418,4146.666504,4146.153809,4156.922852,4138.974121,4144.615234,0.000000,4.000000,,,,0.000000,4.000000,4.000000,4.000000,4.000000,4.000000,4.000000,4.000000,4.000000,4.000000,4.000000,4.000000,4.000000,4.000000,4.000000,100.000000
1602006430.855743,55.000000,0.000000,4153.846191,4155.384766,4153.846191,4149.230957,4141.538574,4135.897461,4138.461426,4155.897461,4152.820313,4150.256348,4156.410156,4156.922852,4151.282227,4137.436035,0.000000,4.000000,,,,0.000000,4.000000,4.000000,4.000000,4.000000,4.000000,4.000000,4.000000,4.000000,4.000000,4.000000,4.000000,4.000000,4.000000,4.000000,100.000000
1602006430.863525,56.000000,0.000000,4152.307617,4151.794922,4153.846191,4152.307617,4140.512695,4140.000000,4139.487305,4155.897461,4156.410156,4154.358887,4151.794922,4153.846191,4148.205078,4142.051270,0.000000,4.000000,,,,0.000000,4.000000,4.000000,4.000000,4.000000,4.000000,4.000000,4.000000,4.000000,4.000000,4.000000,4.000000,4.000000,4.000000,4.000000,100.000000
1602006430.871406,57.000000,0.000000,4139.487305,4140.512695,4145.641113,4142.051270,4136.922852,4124.615234,4134.358887,4144.615234,4150.256348,4155.897461,4139.487305,4150.769043,4137.948730,4142.051270,0.000000,4.000000,,,,0.000000,4.000000,4.000000,4.000000,4.000000,4.000000,4.000000,4.000000,4.000000,4.000000,4.000000,4.000000,4.000000,4.000000,4.000000,100.000000
1602006430.879287,58.000000,0.000000,4126.666504,4133.333496,4134.871582,4133.846191,4134.871582,4127.692383,4130.256348,4136.410156,4139.487305,4155.384766,4144.102539,4151.282227,4135.897461,4137.436035,0.000000,4.000000,,,,0.000000,4.000000,4.000000,4.000000,4.000000,4.000000,4.000000,4.000000,4.000000,4.000000,4.000000,4.000000,4.000000,4.000000,4.000000,100.000000
1602006430.887168,59.000000,0.000000,4124.102539,4134.358887,4133.846191,4130.256348,4134.358887,4147.179688,4132.820313,4136.410156,4131.282227,4150.256348,4154.358887,4150.769043,4138.461426,4135.384766,0.000000,4.000000,,,,0.000000,4.000000,4.000000,4.000000,4.000000,4.000000,4.000000,4.000000,4.000000,4.000000,4.000000,4.000000,4.000000,4.000000,4.000000,100.000000
1602006430.895049,60.000000,0.000000,4132.820313,4136.922852,4136.922852,4129.230957,4142.563965,4160.512695,4135.897461,4138.461426,4135.897461,4141.538574,4150.256348,4151.282227,4140.512695,4138.461426,0.000000,4.000000,,,,0.000000,4.000000,4.000000,4.000000,4.000000,4.000000,4.000000,4.000000,4.000000,4.000000,4.000000,4.000000,4.000000,4.000000,4.000000,100.000000
1602006430.903030,61.000000,0.000000,4143.589844,4139.487305,4137.436035,4134.871582,4151.794922,4169.743652,4145.641113,4142.563965,4145.128418,4135.384766,4148.205078,4154.871582,4143.589844,4148.205078,0.000000,4.000000,,,,0.000000,4.000000,4.000000,4.000000,4.000000,4.000000,4.000000,4.000000,4.000000,4.000000,4.000000,4.000000,4.000000,4.000000,4.000000,100.000000
1602006430.910912,62.000000,0.000000,4137.948730,4137.948730,4136.410156,4138.461426,4145.128418,4162.563965,4155.897461,4142.563965,4140.512695,4137.948730,4149.743652,4157.948730,4141.025879,4154.358887,0.000000,4.000000,,,,0.000000,4.000000,4.000000,4.000000,4.000000,4.000000,4.000000,4.000000,4.000000,4.000000,4.000000,4.000000,4.000000,4.000000,4.000000,100.000000
1602006430.918793,63.000000,0.000000,4135.897461,4136.410156,4138.461426,4136.410156,4136.410156,4148.205078,4149.230957,4140.512695,4135.384766,4150.769043,4148.717773,4164.615234,4137.948730,4151.794922,0.000000,4.000000,,,,0.000000,4.000000,4.000000,4.000000,4.000000,4.000000,4.000000,4.000000,4.000000,4.000000,4.000000,4.000000,4.000000,4.000000,4.000000,100.000000
1602006430.926674,64.000000,0.000000,4150.769043,4141.025879,4147.179688,4138.974121,4142.051270,4146.153809,4140.000000,4147.179688,4143.077148,4151.794922,4151.282227,4170.769043,4146.666504,4153.333496,792.000000,4.000000,,,,0.000000,4.000000,4.000000,4.000000,4.000000,4.000000,4.000000,4.000000,4.000000,4.000000,4.000000,4.000000,4.000000,4.000000,4.000000,100.000000
1602006430.934555,65.000000,0.000000,4159.487305,4145.128418,4155.897461,4142.051270,4145.641113,4143.077148,4140.000000,4154.358887,4153.333496,4150.769043,4157.436035,4171.794922,4156.410156,4165.641113,788.000000,4.000000,,,,0.000000,4.000000,4.000000,4.000000,4.000000,4.000000,4.000000,4.000000,4.000000,4.000000,4.000000,4.000000,4.000000,4.000000,4.000000,100.000000
1602006430.942337,66.000000,0.000000,4155.384766,4145.128418,4156.922852,4142.563965,4139.487305,4133.333496,4133.333496,4156.922852,4159.487305,4167.692383,4163.589844,4177.436035,4159.487305,4170.769043,858.000000,4.000000,,,,0.000000,4.000000,4.000000,4.000000,4.000000,4.000000,4.000000,4.000000,4.000000,4.000000,4.000000,4.000000,4.000000,4.000000,4.000000,100.000000
1602006430.950218,67.000000,0.000000,4143.077148,4138.974121,4150.769043,4138.974121,4134.871582,4131.282227,4120.512695,4157.436035,4156.922852,4173.333496,4158.461426,4175.897461,4153.333496,4157.948730,867.000000,4.000000,,,,0.000000,4.000000,4.000000,4.000000,4.000000,4.000000,4.000000,4.000000,4.000000,4.000000,4.000000,4.000000,4.000000,4.000000,4.000000,100.000000
1602006430.958100,68.000000,0.000000,4128.205078,4127.179688,4138.974121,4128.717773,4127.692383,4131.282227,4119.487305,4150.769043,4135.897461,4149.230957,4134.871582,4150.256348,4133.846191,4131.282227,813.000000,4.000000,,,,0.000000,4.000000,4.000000,4.000000,4.000000,4.000000,4.000000,4.000000,4.000000,4.000000,4.000000,4.000000,4.000000,4.000000,4.000000,100.000000
1602006430.965982,69.000000,0.000000,4120.000000,4118.974121,4129.230957,4122.051270,4125.128418,4133.333496,4128.205078,4137.948730,4122.051270,4131.282227,4114.871582,4125.641113,4115.897461,4112.820313,818.000000,4.000000,,,,0.000000,4.000000,4.000000,4.000000,4.000000,4.000000,4.000000,4.000000,4.000000,4.000000,4.000000,4.000000,4.000000,4.000000,4.000000,100.000000
1602006430.973863,70.000000,0.000000,4120.512695,4120.000000,4126.153809,4123.589844,4133.333496,4146.153809,4135.897461,4133.846191,4130.769043,4141.025879,4119.487305,4125.641113,4115.897461,4120.000000,760.000000,4.000000,,,,0.000000,4.000000,4.000000,4.000000,4.000000,4.000000,4.000000,4.000000,4.000000,4.000000,4.000000,4.000000,4.000000,4.000000,4.000000,100.000000
1602006430.981745,71.000000,0.000000,4119.487305,4119.487305,4126.153809,4120.512695,4138.461426,4152.820313,4138.974121,4136.410156,4139.487305,4155.897461,4126.666504,4132.820313,4125.641113,4128.717773,665.000000,4.000000,,,,0.000000,4.000000,4.000000,4.000000,4.000000,4.000000,4.000000,4.000000,4.000000,4.000000,4.000000,4.000000,4.000000,4.000000,4.000000,100.000000
1602006430.989627,72.000000,0.000000,4117.948730,4119.487305,4127.692383,4116.922852,4138.461426,4149.743652,4138.461426,4136.410156,4137.948730,4156.922852,4124.102539,4135.384766,4126.666504,4123.589844,787.000000,4.000000,,,,0.000000,4.000000,4.000000,4.000000,4.000000,4.000000,4.000000,4.000000,4.000000,4.000000,4.000000,4.000000,4.000000,4.000000,4.000000,100.000000
1602006430.997508,73.000000,0.000000,4124.102539,4123.589844,4134.871582,4121.538574,4140.000000,4149.230957,4140.512695,4131.794922,4131.794922,4147.179688,4128.717773,4136.922852,4123.077148,4123.589844,833.000000,4.000000,,,,0.000000,4.000000,4.000000,4.000000,4.000000,4.000000,4.000000,4.000000,4.000000,4.000000,4.000000,4.000000,4.000000,4.000000,4.000000,100.000000
1602006431.005490,74.000000,0.000000,4126.666504,4124.102539,4137.436035,4123.077148,4137.948730,4145.128418,4143.077148,4122.563965,4121.538574,4133.846191,4136.922852,4138.461426,4120.000000,4124.615234,870.000000,4.000000,,,,0.000000,4.000000,4.000000,4.000000,4.000000,4.000000,4.000000,4.000000,4.000000,4.000000,4.000000,4.000000,4.000000,4.000000,4.000000,100.000000
1602006431.013371,75.000000,0.000000,4125.641113,4127.179688,4134.358887,4125.128418,4136.410156,4138.461426,4134.871582,4119.487305,4118.461426,4124.615234,4137.948730,4140.000000,4120.000000,4122.563965,835.000000,4.000000,,,,0.000000,4.000000,4.000000,4.000000,4.000000,4.000000,4.000000,4.000000,4.000000,4.000000,4.000000,4.000000,4.000000,4.000000,4.000000,100.000000
1602006431.021252,76.000000,0.000000,4133.333496,4138.461426,4136.410156,4134.871582,4143.077148,4137.948730,4122.563965,4128.205078,4122.051270,4124.102539,4135.897461,4141.025879,4128.717773,4134.358887,767.000000,4.000000,,,,0.000000,4.000000,4.000000,4.000000,4.000000,4.000000,4.000000,4.000000,4.000000,4.000000,4.000000,4.000000,4.000000,4.000000,4.000000,100.000000
1602006431.029134,77.000000,0.000000,4143.589844,4145.641113,4141.538574,4140.000000,4144.615234,4141.025879,4119.487305,4135.897461,4125.128418,4135.384766,4135.897461,4146.666504,4138.974121,4144.615234,737.000000,4.000000,,,,0.000000,4.000000,4.000000,4.000000,4.000000,4.000000,4.000000,4.000000,4.000000,4.000000,4.000000,4.000000,4.000000,4.000000,4.000000,100.000000
1602006431.037015,78.000000,0.000000,4142.563965,4145.128418,4143.077148,4138.461426,4142.051270,4138.974121,4122.051270,4145.641113,4136.410156,4157.436035,4137.948730,4159.487305,4143.077148,4137.436035,870.000000,4.000000,,,,0.000000,4.000000,4.000000,4.000000,4.000000,4.000000,4.000000,4.000000,4.000000,4.000000,4.000000,4.000000,4.000000,4.000000,4.000000,100.000000
1602006431.044897,79.000000,0.000000,4138.461426,4144.102539,4144.102539,4140.000000,4146.666504,4138.461426,4115.384766,4154.358887,4143.077148,4166.153809,4144.102539,4167.179688,4149.230957,4143.077148,835.000000,4.000000,,,,0.000000,4.000000,4.000000,4.000000,4.000000,4.000000,4.000000,4.000000,4.000000,4.000000,4.000000,4.000000,4.000000,4.000000,4.000000,100.000000
1602006431.052778,80.000000,0.000000,4137.436035,4142.563965,4141.538574,4141.025879,4146.666504,4135.384766,4107.179688,4151.282227,4133.333496,4146.666504,4145.128418,4161.538574,4151.282227,4155.384766,767.000000,4.000000,,,,0.000000,4.000000,4.000000,4.000000,4.000000,4.000000,4.000000,4.000000,4.000000,4.000000,4.000000,4.000000,4.000000,4.000000,4.000000,100.000000
