Timestamp,EEG.Counter,EEG.Interpolated,EEG.AF3,EEG.F7,EEG.F3,EEG.FC5,EEG.T7,EEG.P7,EEG.O1,EEG.O2,EEG.P8,EEG.T8,EEG.FC6,EEG.F4,EEG.F8,EEG.AF4,EEG.RawCq,EEG.Battery,MarkerIndex,MarkerType,MarkerValueInt,EEG.MarkerHardware,CQ.AF3,CQ.F7,CQ.F3,CQ.FC5,CQ.T7,CQ.P7,CQ.O1,CQ.O2,CQ.P8,CQ.T8,CQ.FC6,CQ.F4,CQ.F8,CQ.AF4,CQ.Overall
1602006440.107562,68.000000,0.000000,4140.512695,4140.512695,4135.897461,4138.461426,4124.102539,4117.436035,4120.000000,4132.820313,4154.871582,4141.538574,4155.384766,4137.948730,4155.897461,4156.922852,813.000000,4.000000,,,,0.000000,4.000000,4.000000,4.000000,4.000000,4.000000,4.000000,4.000000,4.000000,4.000000,4.000000,4.000000,4.000000,4.000000,4.000000,100.000000
1602006440.115543,69.000000,0.000000,4140.000000,4140.512695,4141.538574,4143.077148,4129.230957,4128.205078,4127.692383,4137.948730,4156.410156,4153.333496,4161.538574,4143.077148,4153.846191,4159.487305,817.000000,4.000000,,,,0.000000,4.000000,4.000000,4.000000,4.000000,4.000000,4.000000,4.000000,4.000000,4.000000,4.000000,4.000000,4.000000,4.000000,4.000000,100.000000
1602006440.123425,70.000000,0.000000,4138.974121,4145.641113,4142.563965,4141.538574,4131.282227,4131.282227,4131.282227,4139.487305,4155.897461,4171.282227,4160.000000,4152.307617,4159.487305,4158.461426,769.000000,4.000000,,,,0.000000,4.000000,4.000000,4.000000,4.000000,4.000000,4.000000,4.000000,4.000000,4.000000,4.000000,4.000000,4.000000,4.000000,4.000000,100.000000
1602006440.131306,71.000000,0.000000,4136.922852,4153.846191,4142.563965,4138.461426,4128.717773,4131.282227,4129.743652,4129.230957,4148.717773,4167.179688,4154.871582,4145.641113,4160.512695,4151.794922,673.000000,4.000000,,,,0.000000,4.000000,4.000000,4.000000,4.000000,4.000000,4.000000,4.000000,4.000000,4.000000,4.000000,4.000000,4.000000,4.000000,4.000000,100.000000
1602006440.139188,72.000000,0.000000,4138.461426,4149.230957,4136.410156,4142.563965,4129.743652,4139.487305,4124.615234,4120.512695,4137.948730,4160.512695,4148.717773,4137.436035,4154.358887,4155.897461,787.000000,4.000000,,,,0.000000,4.000000,4.000000,4.000000,4.000000,4.000000,4.000000,4.000000,4.000000,4.000000,4.000000,4.000000,4.000000,4.000000,4.000000,100.000000
1602006440.147070,73.000000,0.000000,4129.743652,4138.974121,4124.102539,4134.871582,4128.205078,4142.051270,4122.051270,4120.000000,4123.077148,4141.538574,4144.615234,4136.922852,4145.641113,4160.000000,835.000000,4.000000,,,,0.000000,4.000000,4.000000,4.000000,4.000000,4.000000,4.000000,4.000000,4.000000,4.000000,4.000000,4.000000,4.000000,4.000000,4.000000,100.000000
1602006440.154951,74.000000,0.000000,4107.692383,4129.230957,4119.487305,4121.538574,4123.077148,4131.794922,4121.025879,4121.025879,4105.128418,4109.230957,4137.948730,4129.743652,4134.871582,4138.461426,871.000000,4.000000,,,,0.000000,4.000000,4.000000,4.000000,4.000000,4.000000,4.000000,4.000000,4.000000,4.000000,4.000000,4.000000,4.000000,4.000000,4.000000,100.000000
1602006440.162833,75.000000,0.000000,4098.974121,4122.563965,4117.948730,4127.692383,4121.025879,4125.128418,4118.974121,4120.000000,4103.589844,4107.179688,4126.153809,4118.461426,4127.179688,4114.871582,865.000000,4.000000,,,,0.000000,4.000000,4.000000,4.000000,4.000000,4.000000,4.000000,4.000000,4.000000,4.000000,4.000000,4.000000,4.000000,4.000000,4.000000,100.000000
1602006440.170715,76.000000,0.000000,4111.794922,4122.051270,4106.666504,4134.871582,4123.589844,4124.102539,4118.461426,4121.538574,4122.563965,4134.358887,4116.410156,4116.410156,4122.051270,4117.436035,755.000000,4.000000,,,,0.000000,4.000000,4.000000,4.000000,4.000000,4.000000,4.000000,4.000000,4.000000,4.000000,4.000000,4.000000,4.000000,4.000000,4.000000,100.000000
1602006440.178596,77.000000,0.000000,4122.051270,4124.615234,4102.563965,4129.743652,4124.102539,4122.051270,4121.025879,4129.230957,4136.922852,4141.025879,4119.487305,4122.563965,4118.461426,4129.743652,737.000000,4.000000,,,,0.000000,4.000000,4.000000,4.000000,4.000000,4.000000,4.000000,4.000000,4.000000,4.000000,4.000000,4.000000,4.000000,4.000000,4.000000,100.000000
1602006440.186378,78.000000,0.000000,4117.948730,4128.717773,4116.410156,4130.769043,4123.589844,4126.666504,4122.563965,4136.922852,4141.025879,4134.871582,4131.794922,4133.846191,4123.589844,4135.384766,871.000000,4.000000,,,,0.000000,4.000000,4.000000,4.000000,4.000000,4.000000,4.000000,4.000000,4.000000,4.000000,4.000000,4.000000,4.000000,4.000000,4.000000,100.000000
1602006440.194259,79.000000,0.000000,4115.897461,4136.410156,4123.589844,4138.974121,4129.230957,4134.871582,4122.051270,4138.974121,4149.743652,4144.615234,4140.000000,4146.666504,4136.410156,4136.410156,865.000000,4.000000,,,,0.000000,4.000000,4.000000,4.000000,4.000000,4.000000,4.000000,4.000000,4.000000,4.000000,4.000000,4.000000,4.000000,4.000000,4.000000,100.000000
1602006440.202140,80.000000,0.000000,4130.256348,4147.179688,4125.128418,4144.615234,4138.461426,4137.436035,4127.179688,4137.436035,4165.128418,4157.436035,4147.692383,4152.820313,4143.589844,4140.000000,755.000000,4.000000,,,,0.000000,4.000000,4.000000,4.000000,4.000000,4.000000,4.000000,4.000000,4.000000,4.000000,4.000000,4.000000,4.000000,4.000000,4.000000,100.000000
1602006440.210021,81.000000,0.000000,4145.641113,4155.384766,4135.384766,4146.153809,4140.000000,4135.897461,4136.410156,4137.948730,4170.256348,4159.487305,4157.436035,4154.358887,4142.051270,4154.358887,737.000000,4.000000,,,,0.000000,4.000000,4.000000,4.000000,4.000000,4.000000,4.000000,4.000000,4.000000,4.000000,4.000000,4.000000,4.000000,4.000000,4.000000,100.000000
1602006440.217902,82.000000,0.000000,4145.128418,4155.897461,4140.000000,4142.051270,4136.410156,4133.333496,4134.871582,4137.948730,4154.871582,4146.666504,4154.871582,4153.846191,4138.974121,4156.410156,871.000000,4.000000,,,,0.000000,4.000000,4.000000,4.000000,4.000000,4.000000,4.000000,4.000000,4.000000,4.000000,4.000000,4.000000,4.000000,4.000000,4.000000,100.000000
1602006440.225683,83.000000,0.000000,4136.922852,4150.769043,4136.922852,4138.461426,4135.384766,4132.307617,4130.256348,4135.384766,4134.871582,4134.358887,4141.538574,4154.871582,4144.102539,4140.000000,865.000000,4.000000,,,,0.000000,4.000000,4.000000,4.000000,4.000000,4.000000,4.000000,4.000000,4.000000,4.000000,4.000000,4.000000,4.000000,4.000000,4.000000,100.000000
1602006440.233564,84.000000,0.000000,4135.897461,4152.820313,4140.000000,4140.512695,4133.333496,4136.922852,4134.871582,4133.846191,4133.846191,4143.589844,4143.077148,4156.410156,4151.794922,4142.563965,755.000000,4.000000,,,,0.000000,4.000000,4.000000,4.000000,4.000000,4.000000,4.000000,4.000000,4.000000,4.000000,4.000000,4.000000,4.000000,4.000000,4.000000,100.000000
1602006440.241345,85.000000,0.000000,4139.487305,4154.871582,4136.410156,4142.051270,4133.846191,4140.512695,4138.974121,4135.384766,4140.512695,4158.974121,4156.922852,4154.358887,4154.358887,4157.948730,737.000000,4.000000,,,,0.000000,4.000000,4.000000,4.000000,4.000000,4.000000,4.000000,4.000000,4.000000,4.000000,4.000000,4.000000,4.000000,4.000000,4.000000,100.000000
1602006440.249227,86.000000,0.000000,4138.461426,4145.128418,4122.051270,4135.897461,4133.846191,4140.512695,4136.922852,4136.922852,4138.974121,4155.384766,4151.794922,4149.743652,4151.794922,4150.769043,871.000000,4.000000,,,,0.000000,4.000000,4.000000,4.000000,4.000000,4.000000,4.000000,4.000000,4.000000,4.000000,4.000000,4.000000,4.000000,4.000000,4.000000,100.000000
1602006440.257108,87.000000,0.000000,4135.384766,4137.436035,4124.102539,4126.666504,4127.179688,4142.051270,4134.871582,4135.384766,4137.436035,4145.128418,4135.384766,4145.641113,4146.666504,4137.436035,865.000000,4.000000,,,,0.000000,4.000000,4.000000,4.000000,4.000000,4.000000,4.000000,4.000000,4.000000,4.000000,4.000000,4.000000,4.000000,4.000000,4.000000,100.000000
1602006440.264989,88.000000,0.000000,4135.384766,4138.461426,4137.948730,4129.230957,4125.128418,4135.897461,4133.333496,4135.897461,4140.512695,4140.512695,4139.487305,4149.743652,4141.025879,4141.025879,755.000000,4.000000,,,,0.000000,4.000000,4.000000,4.000000,4.000000,4.000000,4.000000,4.000000,4.000000,4.000000,4.000000,4.000000,4.000000,4.000000,4.000000,100.000000
1602006440.272870,89.000000,0.000000,4136.922852,4138.461426,4140.512695,4136.410156,4125.641113,4125.641113,4132.820313,4138.974121,4144.615234,4134.358887,4151.282227,4154.358887,4139.487305,4140.512695,737.000000,4.000000,,,,0.000000,4.000000,4.000000,4.000000,4.000000,4.000000,4.000000,4.000000,4.000000,4.000000,4.000000,4.000000,4.000000,4.000000,4.000000,100.000000
1602006440.280652,90.000000,0.000000,4135.897461,4135.384766,4137.948730,4131.282227,4122.563965,4132.820313,4135.384766,4138.461426,4149.230957,4141.538574,4155.897461,4153.333496,4140.000000,4138.974121,871.000000,4.000000,,,,0.000000,4.000000,4.000000,4.000000,4.000000,4.000000,4.000000,4.000000,4.000000,4.000000,4.000000,4.000000,4.000000,4.000000,4.000000,100.000000
1602006440.288533,91.000000,0.000000,4134.358887,4134.358887,4138.461426,4125.128418,4123.589844,4144.615234,4135.897461,4136.922852,4156.922852,4156.922852,4151.794922,4150.256348,4138.974121,4147.692383,865.000000,4.000000,,,,0.000000,4.000000,4.000000,4.000000,4.000000,4.000000,4.000000,4.000000,4.000000,4.000000,4.000000,4.000000,4.000000,4.000000,4.000000,100.000000
1602006440.296415,92.000000,0.000000,4134.871582,4133.846191,4132.307617,4125.641113,4127.692383,4133.846191,4134.871582,4134.871582,4156.410156,4147.692383,4135.897461,4148.205078,4140.000000,4145.128418,755.000000,4.000000,,,,0.000000,4.000000,4.000000,4.000000,4.000000,4.000000,4.000000,4.000000,4.000000,4.000000,4.000000,4.000000,4.000000,4.000000,4.000000,100.000000
1602006440.304297,93.000000,0.000000,4138.461426,4134.358887,4123.077148,4128.205078,4128.717773,4124.615234,4135.897461,4129.230957,4141.538574,4129.230957,4127.179688,4149.230957,4140.512695,4134.358887,737.000000,4.000000,,,,0.000000,4.000000,4.000000,4.000000,4.000000,4.000000,4.000000,4.000000,4.000000,4.000000,4.000000,4.000000,4.000000,4.000000,4.000000,100.000000
1602006440.312178,94.000000,0.000000,4136.922852,4138.461426,4126.153809,4136.410156,4134.871582,4142.051270,4137.948730,4124.102539,4134.871582,4143.589844,4137.436035,4150.769043,4139.487305,4136.922852,871.000000,4.000000,,,,0.000000,4.000000,4.000000,4.000000,4.000000,4.000000,4.000000,4.000000,4.000000,4.000000,4.000000,4.000000,4.000000,4.000000,4.000000,100.000000
1602006440.320060,95.000000,0.000000,4129.230957,4142.051270,4128.717773,4142.563965,4142.051270,4160.000000,4138.974121,4124.615234,4144.102539,4158.461426,4145.641113,4144.615234,4142.563965,4142.051270,865.000000,4.000000,,,,0.000000,4.000000,4.000000,4.000000,4.000000,4.000000,4.000000,4.000000,4.000000,4.000000,4.000000,4.000000,4.000000,4.000000,4.000000,100.000000
1602006440.327942,96.000000,0.000000,4128.717773,4141.025879,4125.128418,4138.974121,4136.922852,4151.794922,4131.794922,4123.077148,4136.410156,4130.769043,4136.922852,4138.461426,4142.563965,4135.897461,755.000000,4.000000,,,,0.000000,4.000000,4.000000,4.000000,4.000000,4.000000,4.000000,4.000000,4.000000,4.000000,4.000000,4.000000,4.000000,4.000000,4.000000,100.000000
1602006440.335823,97.000000,0.000000,4138.461426,4140.000000,4129.230957,4139.487305,4129.230957,4133.333496,4122.563965,4118.974121,4116.922852,4114.358887,4132.307617,4145.641113,4137.948730,4134.871582,737.000000,4.000000,,,,0.000000,4.000000,4.000000,4.000000,4.000000,4.000000,4.000000,4.000000,4.000000,4.000000,4.000000,4.000000,4.000000,4.000000,4.000000,100.000000
1602006440.343705,98.000000,0.000000,4138.974121,4144.102539,4138.974121,4140.512695,4128.205078,4133.846191,4121.538574,4126.153809,4132.307617,4148.205078,4141.538574,4149.743652,4142.563965,4140.000000,871.000000,4.000000,,,,0.000000,4.000000,4.000000,4.000000,4.000000,4.000000,4.000000,4.000000,4.000000,4.000000,4.000000,4.000000,4.000000,4.000000,4.000000,100.000000
1602006440.351587,99.000000,0.000000,4127.179688,4143.077148,4140.000000,4137.436035,4126.153809,4142.051270,4126.666504,4135.384766,4161.538574,4173.846191,4144.102539,4142.051270,4151.282227,4141.538574,865.000000,4.000000,,,,0.000000,4.000000,4.000000,4.000000,4.000000,4.000000,4.000000,4.000000,4.000000,4.000000,4.000000,4.000000,4.000000,4.000000,4.000000,100.000000
1602006440.359468,100.000000,0.000000,4124.102539,4132.307617,4134.358887,4138.974121,4121.025879,4142.563965,4131.794922,4130.256348,4152.307617,4149.230957,4132.307617,4138.974121,4141.538574,4140.000000,755.000000,4.000000,,,,0.000000,4.000000,4.000000,4.000000,4.000000,4.000000,4.000000,4.000000,4.000000,4.000000,4.000000,4.000000,4.000000,4.000000,4.000000,100.000000
1602006440.367350,101.000000,0.000000,4129.230957,4124.102539,4125.128418,4135.897461,4117.948730,4143.077148,4132.307617,4122.051270,4133.333496,4112.307617,4119.487305,4137.948730,4117.948730,4126.153809,737.000000,4.000000,,,,0.000000,4.000000,4.000000,4.000000,4.000000,4.000000,4.000000,4.000000,4.000000,4.000000,4.000000,4.000000,4.000000,4.000000,4.000000,100.000000
1602006440.375232,102.000000,0.000000,4124.102539,4120.000000,4118.461426,4123.589844,4118.974121,4139.487305,4127.179688,4121.538574,4137.436035,4108.205078,4118.461426,4135.897461,4111.282227,4112.820313,871.000000,4.000000,,,,0.000000,4.000000,4.000000,4.000000,4.000000,4.000000,4.000000,4.000000,4.000000,4.000000,4.000000,4.000000,4.000000,4.000000,4.000000,100.000000
1602006440.383113,103.000000,0.000000,4117.436035,4118.461426,4126.666504,4118.974121,4118.461426,4126.666504,4125.641113,4124.102539,4141.538574,4122.563965,4129.743652,4143.589844,4126.666504,4117.436035,865.000000,4.000000,,,,0.000000,4.000000,4.000000,4.000000,4.000000,4.000000,4.000000,4.000000,4.000000,4.000000,4.000000,4.000000,4.000000,4.000000,4.000000,100.000000
1602006440.390995,104.000000,0.000000,4124.615234,4126.666504,4143.589844,4129.743652,4117.948730,4122.051270,4129.743652,4131.282227,4141.025879,4130.769043,4147.692383,4157.948730,4139.487305,4128.205078,755.000000,4.000000,,,,0.000000,4.000000,4.000000,4.000000,4.000000,4.000000,4.000000,4.000000,4.000000,4.000000,4.000000,4.000000,4.000000,4.000000,4.000000,100.000000
1602006440.398876,105.000000,0.000000,4135.897461,4137.948730,4141.538574,4137.436035,4120.512695,4126.153809,4126.153809,4137.436035,4149.743652,4138.974121,4149.230957,4158.974121,4140.000000,4132.307617,737.000000,4.000000,,,,0.000000,4.000000,4.000000,4.000000,4.000000,4.000000,4.000000,4.000000,4.000000,4.000000,4.000000,4.000000,4.000000,4.000000,4.000000,100.000000
1602006440.406758,106.000000,0.000000,4135.897461,4142.563965,4126.666504,4136.922852,4122.051270,4124.102539,4120.000000,4129.743652,4155.384766,4153.846191,4138.974121,4147.692383,4138.974121,4141.538574,871.000000,4.000000,,,,0.000000,4.000000,4.000000,4.000000,4.000000,4.000000,4.000000,4.000000,4.000000,4.000000,4.000000,4.000000,4.000000,4.000000,4.000000,100.000000
1602006440.414640,107.000000,0.000000,4123.589844,4132.307617,4127.179688,4137.948730,4122.563965,4123.077148,4124.615234,4127.179688,4153.846191,4160.000000,4137.436035,4141.538574,4142.563965,4142.563965,865.000000,4.000000,,,,0.000000,4.000000,4.000000,4.000000,4.000000,4.000000,4.000000,4.000000,4.000000,4.000000,4.000000,4.000000,4.000000,4.000000,4.000000,100.000000
1602006440.422422,108.000000,0.000000,4110.769043,4123.077148,4135.384766,4135.384766,4121.538574,4120.000000,4126.666504,4134.871582,4150.769043,4147.179688,4140.000000,4138.974121,4136.410156,4123.589844,755.000000,4.000000,,,,0.000000,4.000000,4.000000,4.000000,4.000000,4.000000,4.000000,4.000000,4.000000,4.000000,4.000000,4.000000,4.000000,4.000000,4.000000,100.000000
1602006440.430303,109.000000,0.000000,4123.077148,4139.487305,4135.897461,4135.897461,4122.051270,4119.487305,4127.179688,4138.461426,4140.512695,4143.077148,4134.871582,4136.922852,4125.128418,4114.871582,737.000000,4.000000,,,,0.000000,4.000000,4.000000,4.000000,4.000000,4.000000,4.000000,4.000000,4.000000,4.000000,4.000000,4.000000,4.000000,4.000000,4.000000,100.000000
1602006440.438185,110.000000,0.000000,4150.256348,4162.051270,4135.384766,4146.666504,4123.077148,4132.307617,4135.384766,4137.948730,4134.871582,4144.102539,4129.743652,4136.410156,4123.077148,4124.615234,871.000000,4.000000,,,,0.000000,4.000000,4.000000,4.000000,4.000000,4.000000,4.000000,4.000000,4.000000,4.000000,4.000000,4.000000,4.000000,4.000000,4.000000,100.000000
1602006440.446066,111.000000,0.000000,4162.563965,4165.128418,4138.461426,4154.358887,4123.589844,4130.769043,4135.897461,4140.000000,4141.025879,4131.794922,4126.666504,4137.436035,4117.948730,4125.641113,865.000000,4.000000,,,,0.000000,4.000000,4.000000,4.000000,4.000000,4.000000,4.000000,4.000000,4.000000,4.000000,4.000000,4.000000,4.000000,4.000000,4.000000,100.000000
1602006440.453948,112.000000,0.000000,4168.205078,4166.153809,4145.641113,4155.897461,4123.589844,4118.974121,4126.666504,4142.051270,4136.410156,4125.128418,4125.128418,4138.461426,4106.666504,4116.410156,755.000000,4.000000,,,,0.000000,4.000000,4.000000,4.000000,4.000000,4.000000,4.000000,4.000000,4.000000,4.000000,4.000000,4.000000,4.000000,4.000000,4.000000,100.000000
1602006440.461830,113.000000,0.000000,4175.384766,4173.846191,4149.230957,4153.846191,4122.563965,4128.717773,4124.615234,4141.025879,4121.538574,4133.846191,4124.102539,4138.461426,4101.025879,4111.282227,737.000000,4.000000,,,,0.000000,4.000000,4.000000,4.000000,4.000000,4.000000,4.000000,4.000000,4.000000,4.000000,4.000000,4.000000,4.000000,4.000000,4.000000,100.000000
1602006440.469711,114.000000,0.000000,4173.333496,4171.794922,4144.615234,4145.128418,4129.230957,4142.563965,4132.307617,4139.487305,4124.102539,4143.077148,4116.410156,4139.487305,4096.922852,4109.743652,871.000000,4.000000,,,,0.000000,4.000000,4.000000,4.000000,4.000000,4.000000,4.000000,4.000000,4.000000,4.000000,4.000000,4.000000,4.000000,4.000000,4.000000,100.000000
1602006440.477593,115.000000,0.000000,4171.794922,4164.615234,4137.436035,4141.025879,4140.512695,4144.102539,4137.436035,4140.000000,4140.000000,4133.846191,4115.897461,4134.358887,4091.281982,4109.230957,865.000000,4.000000,,,,0.000000,4.000000,4.000000,4.000000,4.000000,4.000000,4.000000,4.000000,4.000000,4.000000,4.000000,4.000000,4.000000,4.000000,4.000000,100.000000
1602006440.485475,116.000000,0.000000,4166.153809,4156.922852,4137.948730,4142.051270,4138.461426,4139.487305,4132.820313,4140.512695,4149.743652,4122.563965,4123.589844,4126.153809,4091.794922,4110.256348,755.000000,4.000000,,,,0.000000,4.000000,4.000000,4.000000,4.000000,4.000000,4.000000,4.000000,4.000000,4.000000,4.000000,4.000000,4.000000,4.000000,4.000000,100.000000
1602006440.493456,117.000000,0.000000,4155.384766,4148.717773,4138.461426,4137.436035,4127.692383,4132.307617,4122.051270,4140.512695,4152.820313,4128.205078,4116.410156,4131.282227,4093.333252,4109.230957,737.000000,4.000000,,,,0.000000,4.000000,4.000000,4.000000,4.000000,4.000000,4.000000,4.000000,4.000000,4.000000,4.000000,4.000000,4.000000,4.000000,4.000000,100.000000
1602006440.501337,118.000000,0.000000,4161.538574,4155.384766,4140.000000,4139.487305,4126.153809,4129.743652,4122.051270,4140.000000,4158.974121,4141.025879,4107.692383,4141.538574,4098.461426,4106.153809,871.000000,4.000000,,,,0.000000,4.000000,4.000000,4.000000,4.000000,4.000000,4.000000,4.000000,4.000000,4.000000,4.000000,4.000000,4.000000,4.000000,4.000000,100.000000
1602006440.509219,119.000000,0.000000,4170.256348,4169.230957,4142.051270,4153.846191,4132.307617,4141.025879,4133.333496,4137.436035,4160.000000,4140.512695,4121.025879,4142.563965,4104.615234,4106.666504,865.000000,4.000000,,,,0.000000,4.000000,4.000000,4.000000,4.000000,4.000000,4.000000,4.000000,4.000000,4.000000,4.000000,4.000000,4.000000,4.000000,4.000000,100.000000
1602006440.517100,120.000000,0.000000,4157.436035,4172.820313,4135.384766,4158.461426,4131.282227,4141.538574,4137.436035,4136.410156,4148.717773,4129.743652,4128.205078,4136.922852,4096.410156,4107.692383,755.000000,4.000000,,,,0.000000,4.000000,4.000000,4.000000,4.000000,4.000000,4.000000,4.000000,4.000000,4.000000,4.000000,4.000000,4.000000,4.000000,4.000000,100.000000
1602006440.524982,121.000000,0.000000,4147.692383,4168.717773,4127.179688,4154.358887,4125.641113,4129.230957,4135.897461,4135.384766,4136.410156,4129.230957,4110.769043,4129.743652,4087.179443,4103.077148,737.000000,4.000000,,,,0.000000,4.000000,4.000000,4.000000,4.000000,4.000000,4.000000,4.000000,4.000000,4.000000,4.000000,4.000000,4.000000,4.000000,4.000000,100.000000
1602006440.532863,122.000000,0.000000,4153.846191,4169.230957,4126.666504,4150.769043,4121.538574,4126.666504,4138.461426,4131.282227,4129.230957,4128.717773,4102.051270,4125.128418,4088.205078,4093.846191,871.000000,4.000000,,,,0.000000,4.000000,4.000000,4.000000,4.000000,4.000000,4.000000,4.000000,4.000000,4.000000,4.000000,4.000000,4.000000,4.000000,4.000000,100.000000
1602006440.540645,123.000000,0.000000,4154.358887,4166.153809,4130.256348,4145.641113,4121.025879,4127.692383,4140.000000,4132.820313,4122.051270,4121.538574,4109.743652,4129.230957,4083.076904,4087.692383,865.000000,4.000000,,,,0.000000,4.000000,4.000000,4.000000,4.000000,4.000000,4.000000,4.000000,4.000000,4.000000,4.000000,4.000000,4.000000,4.000000,4.000000,100.000000
1602006440.548526,124.000000,0.000000,4153.333496,4158.461426,4135.897461,4142.563965,4121.538574,4130.769043,4138.461426,4141.025879,4122.563965,4127.179688,4109.743652,4136.922852,4073.333252,4096.410156,755.000000,4.000000,,,,0.000000,4.000000,4.000000,4.000000,4.000000,4.000000,4.000000,4.000000,4.000000,4.000000,4.000000,4.000000,4.000000,4.000000,4.000000,100.000000
1602006440.556408,125.000000,0.000000,4156.410156,4152.307617,4137.948730,4138.461426,4122.563965,4136.922852,4137.436035,4142.051270,4135.897461,4128.205078,4109.743652,4140.512695,4076.923096,4109.230957,737.000000,4.000000,,,,0.000000,4.000000,4.000000,4.000000,4.000000,4.000000,4.000000,4.000000,4.000000,4.000000,4.000000,4.000000,4.000000,4.000000,4.000000,100.000000
1602006440.564290,126.000000,0.000000,4154.358887,4143.077148,4129.230957,4129.230957,4122.563965,4137.948730,4136.410156,4138.974121,4141.538574,4105.128418,4117.436035,4142.563965,4080.000000,4104.102539,871.000000,4.000000,,,,0.000000,4.000000,4.000000,4.000000,4.000000,4.000000,4.000000,4.000000,4.000000,4.000000,4.000000,4.000000,4.000000,4.000000,4.000000,100.000000
1602006440.572171,127.000000,0.000000,4154.358887,4135.384766,4124.615234,4121.538574,4121.025879,4134.871582,4137.436035,4138.974121,4135.897461,4098.461426,4112.820313,4137.948730,4079.487061,4096.410156,865.000000,4.000000,,,,0.000000,4.000000,4.000000,4.000000,4.000000,4.000000,4.000000,4.000000,4.000000,4.000000,4.000000,4.000000,4.000000,4.000000,4.000000,100.000000
1602006440.580053,128.000000,0.000000,4159.487305,4136.410156,4135.384766,4124.102539,4121.025879,4139.487305,4140.000000,4140.000000,4134.871582,4129.743652,4104.102539,4129.743652,4086.666748,4104.102539,755.000000,4.000000,,,,0.000000,4.000000,4.000000,4.000000,4.000000,4.000000,4.000000,4.000000,4.000000,4.000000,4.000000,4.000000,4.000000,4.000000,4.000000,100.000000
1602006440.587935,0.000000,0.000000,4154.871582,4138.974121,4138.974121,4129.230957,4125.128418,4145.641113,4141.025879,4140.512695,4135.384766,4137.436035,4106.666504,4129.230957,4088.205078,4107.179688,793.000000,4.000000,,,,0.000000,4.000000,4.000000,4.000000,4.000000,4.000000,4.000000,4.000000,4.000000,4.000000,4.000000,4.000000,4.000000,4.000000,4.000000,100.000000
1602006440.595816,1.000000,0.000000,4138.974121,4135.897461,4126.153809,4126.153809,4123.077148,4137.948730,4140.000000,4134.358887,4122.051270,4106.666504,4101.025879,4123.589844,4077.948730,4088.718018,788.000000,4.000000,,,,0.000000,4.000000,4.000000,4.000000,4.000000,4.000000,4.000000,4.000000,4.000000,4.000000,4.000000,4.000000,4.000000,4.000000,4.000000,100.000000
1602006440.603698,2.000000,0.000000,4130.256348,4133.333496,4117.948730,4117.436035,4115.897461,4128.717773,4137.436035,4123.077148,4106.666504,4094.358887,4089.743652,4113.846191,4069.743652,4075.897461,853.000000,4.000000,,,,0.000000,4.000000,4.000000,4.000000,4.000000,4.000000,4.000000,4.000000,4.000000,4.000000,4.000000,4.000000,4.000000,4.000000,4.000000,100.000000
1602006440.611479,3.000000,0.000000,4133.846191,4134.871582,4121.025879,4123.589844,4116.922852,4134.871582,4137.436035,4128.205078,4116.410156,4113.846191,4090.769287,4117.948730,4077.435791,4082.051270,867.000000,4.000000,,,,0.000000,4.000000,4.000000,4.000000,4.000000,4.000000,4.000000,4.000000,4.000000,4.000000,4.000000,4.000000,4.000000,4.000000,4.000000,100.000000
1602006440.619361,4.000000,0.000000,4132.307617,4138.461426,4116.410156,4135.384766,4124.615234,4143.077148,4139.487305,4141.538574,4137.948730,4125.641113,4095.897461,4126.153809,4082.564209,4090.256348,813.000000,4.000000,,,,0.000000,4.000000,4.000000,4.000000,4.000000,4.000000,4.000000,4.000000,4.000000,4.000000,4.000000,4.000000,4.000000,4.000000,4.000000,100.000000
1602006440.627242,5.000000,0.000000,4128.205078,4141.025879,4108.205078,4133.846191,4123.589844,4133.846191,4134.358887,4140.000000,4137.948730,4122.563965,4098.974121,4122.051270,4074.871826,4094.358887,817.000000,4.000000,,,,0.000000,4.000000,4.000000,4.000000,4.000000,4.000000,4.000000,4.000000,4.000000,4.000000,4.000000,4.000000,4.000000,4.000000,4.000000,100.000000
1602006440.635124,6.000000,0.000000,4134.358887,4144.102539,4110.256348,4129.230957,4117.436035,4122.051270,4124.615234,4133.333496,4129.230957,4122.563965,4104.102539,4118.974121,4074.358887,4094.871826,769.000000,4.000000,,,,0.000000,4.000000,4.000000,4.000000,4.000000,4.000000,4.000000,4.000000,4.000000,4.000000,4.000000,4.000000,4.000000,4.000000,4.000000,100.000000
1602006440.643005,7.000000,0.000000,4145.641113,4153.333496,4120.000000,4137.436035,4118.974121,4120.000000,4122.563965,4135.384766,4135.897461,4127.179688,4107.179688,4124.102539,4084.615479,4098.974121,673.000000,4.000000,,,,0.000000,4.000000,4.000000,4.000000,4.000000,4.000000,4.000000,4.000000,4.000000,4.000000,4.000000,4.000000,4.000000,4.000000,4.000000,100.000000
1602006440.650886,8.000000,0.000000,4151.282227,4166.666504,4132.307617,4148.205078,4124.102539,4121.025879,4127.179688,4137.948730,4145.641113,4125.128418,4102.563965,4132.820313,4092.307617,4114.358887,787.000000,4.000000,,,,0.000000,4.000000,4.000000,4.000000,4.000000,4.000000,4.000000,4.000000,4.000000,4.000000,4.000000,4.000000,4.000000,4.000000,4.000000,100.000000
1602006440.658768,9.000000,0.000000,4160.512695,4172.307617,4140.000000,4150.256348,4124.615234,4123.077148,4131.282227,4134.358887,4142.051270,4123.077148,4099.487305,4136.410156,4092.307617,4123.077148,835.000000,4.000000,,,,0.000000,4.000000,4.000000,4.000000,4.000000,4.000000,4.000000,4.000000,4.000000,4.000000,4.000000,4.000000,4.000000,4.000000,4.000000,100.000000
1602006440.666649,10.000000,0.000000,4168.205078,4165.641113,4142.563965,4151.282227,4122.563965,4127.692383,4135.384766,4131.794922,4130.769043,4130.769043,4102.051270,4132.307617,4091.794922,4114.358887,871.000000,4.000000,,,,0.000000,4.000000,4.000000,4.000000,4.000000,4.000000,4.000000,4.000000,4.000000,4.000000,4.000000,4.000000,4.000000,4.000000,4.000000,100.000000
1602006440.674431,11.000000,0.000000,4163.589844,4162.563965,4144.615234,4150.256348,4124.102539,4132.820313,4137.436035,4133.846191,4123.077148,4123.589844,4107.179688,4132.820313,4096.410156,4114.871582,849.000000,4.000000,,,,0.000000,4.000000,4.000000,4.000000,4.000000,4.000000,4.000000,4.000000,4.000000,4.000000,4.000000,4.000000,4.000000,4.000000,4.000000,100.000000
1602006440.682313,12.000000,0.000000,4151.794922,4163.077148,4144.102539,4143.077148,4128.717773,4135.384766,4140.512695,4137.948730,4125.128418,4103.077148,4108.717773,4141.538574,4103.077148,4126.666504,759.000000,4.000000,,,,0.000000,4.000000,4.000000,4.000000,4.000000,4.000000,4.000000,4.000000,4.000000,4.000000,4.000000,4.000000,4.000000,4.000000,4.000000,100.000000
1602006440.690194,13.000000,0.000000,4140.512695,4155.897461,4137.436035,4137.948730,4129.230957,4135.897461,4144.615234,4138.461426,4123.077148,4104.615234,4106.666504,4143.589844,4107.179688,4118.461426,737.000000,4.000000,,,,0.000000,4.000000,4.000000,4.000000,4.000000,4.000000,4.000000,4.000000,4.000000,4.000000,4.000000,4.000000,4.000000,4.000000,4.000000,100.000000
1602006440.698076,14.000000,0.000000,4137.436035,4152.307617,4134.358887,4137.436035,4126.153809,4136.410156,4143.077148,4137.436035,4122.051270,4122.563965,4108.717773,4135.897461,4104.615234,4105.641113,871.000000,4.000000,,,,0.000000,4.000000,4.000000,4.000000,4.000000,4.000000,4.000000,4.000000,4.000000,4.000000,4.000000,4.000000,4.000000,4.000000,4.000000,100.000000
1602006440.705957,15.000000,0.000000,4138.974121,4153.846191,4131.794922,4136.410156,4124.102539,4134.358887,4137.948730,4140.000000,4134.358887,4126.666504,4107.692383,4128.205078,4095.384521,4106.153809,849.000000,4.000000,,,,0.000000,4.000000,4.000000,4.000000,4.000000,4.000000,4.000000,4.000000,4.000000,4.000000,4.000000,4.000000,4.000000,4.000000,4.000000,100.000000
1602006440.713839,16.000000,0.000000,4137.948730,4145.641113,4121.538574,4132.820313,4121.538574,4122.051270,4133.333496,4140.512695,4140.512695,4118.461426,4105.641113,4121.538574,4087.692383,4104.615234,0.000000,4.000000,,,,0.000000,4.000000,4.000000,4.000000,4.000000,4.000000,4.000000,4.000000,4.000000,4.000000,4.000000,4.000000,4.000000,4.000000,4.000000,100.000000
1602006440.721721,17.000000,0.000000,4145.128418,4146.666504,4124.615234,4137.436035,4120.512695,4120.512695,4133.333496,4140.000000,4140.512695,4122.563965,4116.922852,4122.051270,4097.436035,4111.794922,0.000000,4.000000,,,,0.000000,4.000000,4.000000,4.000000,4.000000,4.000000,4.000000,4.000000,4.000000,4.000000,4.000000,4.000000,4.000000,4.000000,4.000000,100.000000
1602006440.729602,18.000000,0.000000,4157.436035,4156.922852,4140.512695,4141.538574,4124.615234,4138.974121,4136.922852,4142.051270,4145.641113,4131.282227,4124.615234,4128.205078,4109.743652,4124.102539,0.000000,4.000000,,,,0.000000,4.000000,4.000000,4.000000,4.000000,4.000000,4.000000,4.000000,4.000000,4.000000,4.000000,4.000000,4.000000,4.000000,4.000000,100.000000
1602006440.737484,19.000000,0.000000,4155.897461,4146.666504,4142.563965,4138.974121,4125.641113,4142.051270,4134.358887,4137.436035,4140.000000,4119.487305,4111.794922,4129.743652,4100.000000,4113.333496,0.000000,4.000000,,,,0.000000,4.000000,4.000000,4.000000,4.000000,4.000000,4.000000,4.000000,4.000000,4.000000,4.000000,4.000000,4.000000,4.000000,4.000000,100.000000
1602006440.745465,20.000000,0.000000,4143.589844,4133.846191,4141.025879,4137.436035,4121.025879,4125.128418,4128.717773,4126.153809,4126.153809,4105.641113,4108.717773,4131.794922,4086.666748,4100.000000,0.000000,4.000000,,,,0.000000,4.000000,4.000000,4.000000,4.000000,4.000000,4.000000,4.000000,4.000000,4.000000,4.000000,4.000000,4.000000,4.000000,4.000000,100.000000
1602006440.753346,21.000000,0.000000,4139.487305,4137.948730,4148.205078,4137.436035,4120.000000,4123.077148,4127.692383,4120.512695,4124.102539,4113.846191,4116.922852,4134.871582,4088.205078,4106.153809,0.000000,4.000000,,,,0.000000,4.000000,4.000000,4.000000,4.000000,4.000000,4.000000,4.000000,4.000000,4.000000,4.000000,4.000000,4.000000,4.000000,4.000000,100.000000
1602006440.761227,22.000000,0.000000,4145.641113,4141.538574,4146.153809,4135.384766,4121.025879,4134.358887,4131.794922,4122.051270,4123.589844,4126.666504,4110.256348,4137.948730,4097.436035,4115.384766,0.000000,4.000000,,,,0.000000,4.000000,4.000000,4.000000,4.000000,4.000000,4.000000,4.000000,4.000000,4.000000,4.000000,4.000000,4.000000,4.000000,4.000000,100.000000
1602006440.769208,23.000000,0.000000,4152.307617,4138.974121,4138.461426,4135.897461,4120.512695,4133.333496,4135.384766,4126.666504,4117.948730,4122.051270,4105.128418,4142.563965,4104.615234,4120.000000,0.000000,4.000000,,,,0.000000,4.000000,4.000000,4.000000,4.000000,4.000000,4.000000,4.000000,4.000000,4.000000,4.000000,4.000000,4.000000,4.000000,4.000000,100.000000
1602006440.777089,24.000000,0.000000,4153.846191,4140.512695,4142.563965,4134.871582,4117.948730,4122.051270,4136.410156,4136.922852,4126.153809,4119.487305,4118.974121,4145.641113,4107.692383,4124.615234,0.000000,4.000000,,,,0.000000,4.000000,4.000000,4.000000,4.000000,4.000000,4.000000,4.000000,4.000000,4.000000,4.000000,4.000000,4.000000,4.000000,4.000000,100.000000
1602006440.785070,25.000000,0.000000,4155.384766,4142.563965,4143.589844,4126.153809,4113.333496,4120.512695,4137.436035,4149.743652,4141.025879,4124.102539,4131.794922,4143.077148,4111.282227,4127.179688,0.000000,4.000000,,,,0.000000,4.000000,4.000000,4.000000,4.000000,4.000000,4.000000,4.000000,4.000000,4.000000,4.000000,4.000000,4.000000,4.000000,4.000000,100.000000
1602006440.792951,26.000000,0.000000,4150.256348,4134.358887,4130.769043,4120.000000,4109.743652,4125.641113,4134.871582,4150.256348,4143.589844,4118.461426,4125.641113,4135.384766,4106.666504,4122.563965,0.000000,4.000000,,,,0.000000,4.000000,4.000000,4.000000,4.000000,4.000000,4.000000,4.000000,4.000000,4.000000,4.000000,4.000000,4.000000,4.000000,4.000000,100.000000
1602006440.800833,27.000000,0.000000,4135.384766,4126.153809,4122.051270,4122.051270,4114.358887,4121.538574,4126.666504,4139.487305,4134.358887,4125.641113,4115.897461,4127.179688,4094.871826,4111.282227,0.000000,4.000000,,,,0.000000,4.000000,4.000000,4.000000,4.000000,4.000000,4.000000,4.000000,4.000000,4.000000,4.000000,4.000000,4.000000,4.000000,4.000000,100.000000
1602006440.808714,28.000000,0.000000,4132.820313,4131.794922,4124.102539,4125.128418,4124.615234,4126.666504,4120.000000,4129.743652,4134.871582,4148.205078,4118.461426,4121.025879,4100.000000,4107.692383,0.000000,4.000000,,,,0.000000,4.000000,4.000000,4.000000,4.000000,4.000000,4.000000,4.000000,4.000000,4.000000,4.000000,4.000000,4.000000,4.000000,4.000000,100.000000
1602006440.816695,29.000000,0.000000,4138.974121,4135.897461,4122.563965,4123.589844,4127.179688,4137.948730,4120.000000,4125.641113,4141.025879,4149.743652,4121.025879,4117.948730,4109.743652,4108.205078,0.000000,4.000000,,,,0.000000,4.000000,4.000000,4.000000,4.000000,4.000000,4.000000,4.000000,4.000000,4.000000,4.000000,4.000000,4.000000,4.000000,4.000000,100.000000
1602006440.824577,30.000000,0.000000,4132.307617,4125.128418,4116.922852,4118.974121,4121.538574,4127.179688,4121.025879,4120.512695,4129.743652,4125.641113,4116.410156,4115.384766,4097.436035,4103.589844,0.000000,4.000000,,,,0.000000,4.000000,4.000000,4.000000,4.000000,4.000000,4.000000,4.000000,4.000000,4.000000,4.000000,4.000000,4.000000,4.000000,4.000000,100.000000
1602006440.832459,31.000000,0.000000,4127.692383,4125.128418,4118.461426,4120.000000,4120.000000,4118.461426,4120.000000,4117.948730,4111.794922,4116.922852,4116.410156,4115.897461,4089.743652,4108.717773,0.000000,4.000000,,,,0.000000,4.000000,4.000000,4.000000,4.000000,4.000000,4.000000,4.000000,4.000000,4.000000,4.000000,4.000000,4.000000,4.000000,4.000000,100.000000
1602006440.840340,32.000000,0.000000,4138.461426,4138.974121,4130.256348,4131.794922,4123.589844,4135.897461,4124.102539,4120.512695,4121.025879,4130.256348,4121.025879,4126.153809,4104.615234,4121.538574,0.000000,4.000000,,,,0.000000,4.000000,4.000000,4.000000,4.000000,4.000000,4.000000,4.000000,4.000000,4.000000,4.000000,4.000000,4.000000,4.000000,4.000000,100.000000
1602006440.848222,33.000000,0.000000,4150.769043,4146.666504,4138.461426,4141.025879,4123.589844,4144.615234,4132.307617,4122.563965,4139.487305,4119.487305,4124.615234,4136.410156,4114.871582,4128.205078,0.000000,4.000000,,,,0.000000,4.000000,4.000000,4.000000,4.000000,4.000000,4.000000,4.000000,4.000000,4.000000,4.000000,4.000000,4.000000,4.000000,4.000000,100.000000
1602006440.856103,34.000000,0.000000,4154.871582,4151.794922,4137.436035,4140.512695,4122.051270,4135.897461,4136.410156,4129.230957,4132.307617,4105.641113,4136.410156,4141.538574,4117.436035,4135.384766,0.000000,4.000000,,,,0.000000,4.000000,4.000000,4.000000,4.000000,4.000000,4.000000,4.000000,4.000000,4.000000,4.000000,4.000000,4.000000,4.000000,4.000000,100.000000
1602006440.863985,35.000000,0.000000,4153.846191,4158.461426,4137.948730,4144.102539,4125.128418,4136.410156,4134.871582,4138.461426,4124.102539,4129.230957,4144.102539,4146.666504,4123.589844,4143.589844,0.000000,4.000000,,,,0.000000,4.000000,4.000000,4.000000,4.000000,4.000000,4.000000,4.000000,4.000000,4.000000,4.000000,4.000000,4.000000,4.000000,4.000000,100.000000
1602006440.871867,36.000000,0.000000,4158.461426,4155.897461,4144.102539,4152.820313,4126.666504,4137.948730,4136.410156,4142.051270,4135.897461,4166.153809,4137.436035,4154.358887,4127.692383,4144.615234,0.000000,4.000000,,,,0.000000,4.000000,4.000000,4.000000,4.000000,4.000000,4.000000,4.000000,4.000000,4.000000,4.000000,4.000000,4.000000,4.000000,4.000000,100.000000
1602006440.879748,37.000000,0.000000,4163.589844,4156.922852,4145.128418,4154.358887,4126.153809,4135.897461,4137.436035,4142.051270,4146.666504,4172.820313,4135.897461,4160.000000,4128.717773,4143.077148,0.000000,4.000000,,,,0.000000,4.000000,4.000000,4.000000,4.000000,4.000000,4.000000,4.000000,4.000000,4.000000,4.000000,4.000000,4.000000,4.000000,4.000000,100.000000
1602006440.887530,38.000000,0.000000,4149.743652,4154.358887,4131.282227,4141.538574,4124.615234,4128.717773,4127.692383,4138.974121,4142.051270,4152.307617,4135.384766,4149.743652,4123.589844,4133.333496,0.000000,4.000000,,,,0.000000,4.000000,4.000000,4.000000,4.000000,4.000000,4.000000,4.000000,4.000000,4.000000,4.000000,4.000000,4.000000,4.000000,4.000000,100.000000
1602006440.895411,39.000000,0.000000,4134.871582,4140.000000,4121.025879,4128.205078,4122.563965,4116.922852,4125.641113,4135.897461,4138.974121,4137.436035,4133.333496,4138.461426,4116.410156,4120.512695,0.000000,4.000000,,,,0.000000,4.000000,4.000000,4.000000,4.000000,4.000000,4.000000,4.000000,4.000000,4.000000,4.000000,4.000000,4.000000,4.000000,4.000000,100.000000
1602006440.903292,40.000000,0.000000,4145.128418,4138.974121,4122.563965,4131.282227,4127.692383,4126.153809,4136.410156,4136.922852,4144.615234,4134.358887,4135.384766,4139.487305,4119.487305,4125.128418,0.000000,4.000000,,,,0.000000,4.000000,4.000000,4.000000,4.000000,4.000000,4.000000,4.000000,4.000000,4.000000,4.000000,4.000000,4.000000,4.000000,4.000000,100.000000
1602006440.911173,41.000000,0.000000,4151.282227,4150.256348,4117.436035,4140.000000,4136.410156,4137.436035,4135.384766,4132.820313,4143.589844,4128.205078,4134.358887,4140.000000,4125.641113,4129.230957,0.000000,4.000000,,,,0.000000,4.000000,4.000000,4.000000,4.000000,4.000000,4.000000,4.000000,4.000000,4.000000,4.000000,4.000000,4.000000,4.000000,4.000000,100.000000
1602006440.918954,42.000000,0.000000,4142.563965,4151.794922,4110.256348,4138.974121,4136.410156,4125.128418,4123.077148,4122.563965,4137.948730,4119.487305,4127.692383,4132.820313,4121.538574,4116.410156,0.000000,4.000000,,,,0.000000,4.000000,4.000000,4.000000,4.000000,4.000000,4.000000,4.000000,4.000000,4.000000,4.000000,4.000000,4.000000,4.000000,4.000000,100.000000
1602006440.926835,43.000000,0.000000,4146.153809,4150.769043,4115.897461,4137.436035,4134.358887,4122.563965,4118.974121,4120.000000,4140.000000,4126.153809,4122.051270,4132.307617,4112.307617,4109.743652,0.000000,4.000000,,,,0.000000,4.000000,4.000000,4.000000,4.000000,4.000000,4.000000,4.000000,4.000000,4.000000,4.000000,4.000000,4.000000,4.000000,4.000000,100.000000
1602006440.934616,44.000000,0.000000,4152.820313,4154.871582,4124.615234,4142.051270,4137.436035,4136.410156,4122.563965,4124.102539,4146.153809,4141.025879,4124.615234,4135.897461,4110.769043,4122.051270,0.000000,4.000000,,,,0.000000,4.000000,4.000000,4.000000,4.000000,4.000000,4.000000,4.000000,4.000000,4.000000,4.000000,4.000000,4.000000,4.000000,4.000000,100.000000
1602006440.942498,45.000000,0.000000,4142.051270,4150.256348,4121.538574,4142.051270,4135.384766,4128.717773,4117.948730,4119.487305,4142.563965,4142.051270,4122.051270,4129.743652,4112.307617,4126.666504,0.000000,4.000000,,,,0.000000,4.000000,4.000000,4.000000,4.000000,4.000000,4.000000,4.000000,4.000000,4.000000,4.000000,4.000000,4.000000,4.000000,4.000000,100.000000
1602006440.950379,46.000000,0.000000,4135.897461,4145.641113,4120.512695,4140.000000,4128.717773,4118.974121,4109.230957,4112.820313,4131.282227,4133.846191,4108.205078,4124.102539,4108.717773,4114.358887,0.000000,4.000000,,,,0.000000,4.000000,4.000000,4.000000,4.000000,4.000000,4.000000,4.000000,4.000000,4.000000,4.000000,4.000000,4.000000,4.000000,4.000000,100.000000
1602006440.958260,47.000000,0.000000,4140.512695,4150.769043,4123.589844,4139.487305,4126.153809,4123.077148,4106.666504,4111.282227,4124.102539,4127.179688,4102.051270,4125.641113,4104.615234,4107.179688,0.000000,4.000000,,,,0.000000,4.000000,4.000000,4.000000,4.000000,4.000000,4.000000,4.000000,4.000000,4.000000,4.000000,4.000000,4.000000,4.000000,4.000000,100.000000
1602006440.966042,48.000000,0.000000,4141.025879,4151.794922,4123.077148,4138.974121,4123.077148,4111.794922,4110.256348,4112.820313,4116.922852,4116.922852,4108.717773,4129.743652,4106.666504,4105.641113,0.000000,4.000000,,,,0.000000,4.000000,4.000000,4.000000,4.000000,4.000000,4.000000,4.000000,4.000000,4.000000,4.000000,4.000000,4.000000,4.000000,4.000000,100.000000
1602006440.973923,49.000000,0.000000,4145.641113,4151.794922,4129.743652,4138.974121,4120.512695,4104.615234,4115.384766,4117.948730,4108.717773,4101.025879,4115.384766,4134.871582,4110.256348,4110.256348,0.000000,4.000000,,,,0.000000,4.000000,4.000000,4.000000,4.000000,4.000000,4.000000,4.000000,4.000000,4.000000,4.000000,4.000000,4.000000,4.000000,4.000000,100.000000
1602006440.981805,50.000000,0.000000,4151.282227,4154.871582,4141.025879,4143.077148,4127.692383,4119.487305,4121.538574,4123.589844,4113.333496,4110.769043,4122.563965,4142.051270,4114.871582,4126.666504,0.000000,4.000000,,,,0.000000,4.000000,4.000000,4.000000,4.000000,4.000000,4.000000,4.000000,4.000000,4.000000,4.000000,4.000000,4.000000,4.000000,4.000000,100.000000
1602006440.989687,51.000000,0.000000,4152.820313,4156.410156,4145.641113,4148.717773,4136.922852,4127.179688,4127.692383,4127.179688,4137.948730,4143.589844,4138.461426,4151.282227,4129.743652,4136.410156,0.000000,4.000000,,,,0.000000,4.000000,4.000000,4.000000,4.000000,4.000000,4.000000,4.000000,4.000000,4.000000,4.000000,4.000000,4.000000,4.000000,4.000000,100.000000
1602006440.997568,52.000000,0.000000,4150.256348,4156.410156,4137.948730,4145.128418,4139.487305,4122.563965,4125.641113,4128.205078,4156.922852,4149.230957,4145.641113,4156.922852,4138.974121,4129.230957,0.000000,4.000000,,,,0.000000,4.000000,4.000000,4.000000,4.000000,4.000000,4.000000,4.000000,4.000000,4.000000,4.000000,4.000000,4.000000,4.000000,4.000000,100.000000
1602006441.005450,53.000000,0.000000,4136.922852,4150.769043,4124.615234,4135.897461,4135.897461,4123.077148,4119.487305,4127.179688,4157.948730,4134.871582,4133.333496,4153.846191,4128.205078,4120.000000,0.000000,4.000000,,,,0.000000,4.000000,4.000000,4.000000,4.000000,4.000000,4.000000,4.000000,4.000000,4.000000,4.000000,4.000000,4.000000,4.000000,4.000000,100.000000
1602006441.013331,54.000000,0.000000,4125.641113,4142.051270,4120.512695,4134.871582,4129.743652,4123.077148,4120.512695,4125.128418,4156.922852,4138.974121,4113.333496,4146.666504,4115.384766,4122.563965,0.000000,4.000000,,,,0.000000,4.000000,4.000000,4.000000,4.000000,4.000000,4.000000,4.000000,4.000000,4.000000,4.000000,4.000000,4.000000,4.000000,4.000000,100.000000
1602006441.021213,55.000000,0.000000,4125.128418,4134.358887,4120.512695,4137.948730,4124.102539,4122.563965,4122.051270,4124.102539,4151.794922,4131.794922,4101.538574,4140.000000,4102.051270,4111.794922,0.000000,4.000000,,,,0.000000,4.000000,4.000000,4.000000,4.000000,4.000000,4.000000,4.000000,4.000000,4.000000,4.000000,4.000000,4.000000,4.000000,4.000000,100.000000
1602006441.029095,56.000000,0.000000,4121.538574,4123.077148,4113.846191,4129.743652,4118.461426,4125.128418,4120.000000,4121.025879,4143.077148,4113.846191,4104.102539,4136.922852,4087.692383,4088.718018,0.000000,4.000000,,,,0.000000,4.000000,4.000000,4.000000,4.000000,4.000000,4.000000,4.000000,4.000000,4.000000,4.000000,4.000000,4.000000,4.000000,4.000000,100.000000
1602006441.036876,57.000000,0.000000,4120.000000,4120.512695,4112.307617,4123.077148,4117.436035,4124.615234,4120.000000,4115.897461,4138.974121,4123.589844,4116.922852,4144.102539,4108.205078,4098.974121,0.000000,4.000000,,,,0.000000,4.000000,4.000000,4.000000,4.000000,4.000000,4.000000,4.000000,4.000000,4.000000,4.000000,4.000000,4.000000,4.000000,4.000000,100.000000
1602006441.044758,58.000000,0.000000,4125.128418,4124.102539,4116.922852,4125.641113,4120.512695,4123.077148,4124.102539,4118.461426,4145.641113,4143.589844,4132.307617,4153.333496,4146.666504,4134.871582,0.000000,4.000000,,,,0.000000,4.000000,4.000000,4.000000,4.000000,4.000000,4.000000,4.000000,4.000000,4.000000,4.000000,4.000000,4.000000,4.000000,4.000000,100.000000
1602006441.052639,59.000000,0.000000,4115.384766,4118.974121,4110.769043,4125.641113,4122.051270,4122.051270,4126.666504,4131.282227,4158.974121,4148.717773,4138.461426,4153.846191,4158.461426,4144.615234,0.000000,4.000000,,,,0.000000,4.000000,4.000000,4.000000,4.000000,4.000000,4.000000,4.000000,4.000000,4.000000,4.000000,4.000000,4.000000,4.000000,4.000000,100.000000
1602006441.060520,60.000000,0.000000,4093.846191,4105.641113,4102.563965,4116.922852,4122.051270,4123.589844,4131.794922,4141.025879,4162.051270,4142.051270,4137.436035,4150.769043,4162.051270,4137.436035,0.000000,4.000000,,,,0.000000,4.000000,4.000000,4.000000,4.000000,4.000000,4.000000,4.000000,4.000000,4.000000,4.000000,4.000000,4.000000,4.000000,4.000000,100.000000
1602006441.068402,61.000000,0.000000,4087.692383,4095.897461,4110.256348,4107.179688,4123.077148,4125.128418,4136.922852,4143.077148,4155.897461,4144.615234,4144.102539,4151.794922,4174.358887,4143.077148,0.000000,4.000000,,,,0.000000,4.000000,4.000000,4.000000,4.000000,4.000000,4.000000,4.000000,4.000000,4.000000,4.000000,4.000000,4.000000,4.000000,4.000000,100.000000
1602006441.076283,62.000000,0.000000,4091.281982,4097.948730,4122.563965,4110.769043,4124.102539,4126.153809,4137.436035,4144.102539,4158.461426,4155.897461,4157.436035,4157.948730,4183.589844,4149.743652,0.000000,4.000000,,,,0.000000,4.000000,4.000000,4.000000,4.000000,4.000000,4.000000,4.000000,4.000000,4.000000,4.000000,4.000000,4.000000,4.000000,4.000000,100.000000
1602006441.084165,63.000000,0.000000,4091.794922,4105.641113,4124.102539,4121.025879,4126.666504,4130.256348,4135.384766,4138.461426,4160.000000,4151.794922,4158.461426,4159.487305,4184.102539,4154.358887,0.000000,4.000000,,,,0.000000,4.000000,4.000000,4.000000,4.000000,4.000000,4.000000,4.000000,4.000000,4.000000,4.000000,4.000000,4.000000,4.000000,4.000000,100.000000
1602006441.092046,64.000000,0.000000,4092.307617,4102.563965,4110.769043,4118.974121,4130.769043,4136.922852,4135.384766,4129.743652,4142.051270,4137.436035,4144.615234,4150.256348,4175.897461,4155.897461,793.000000,4.000000,,,,0.000000,4.000000,4.000000,4.000000,4.000000,4.000000,4.000000,4.000000,4.000000,4.000000,4.000000,4.000000,4.000000,4.000000,4.000000,100.000000
1602006441.099827,65.000000,0.000000,4086.666748,4092.820557,4101.025879,4108.205078,4127.179688,4137.436035,4137.948730,4122.563965,4133.846191,4132.820313,4135.384766,4142.563965,4166.666504,4141.025879,788.000000,4.000000,,,,0.000000,4.000000,4.000000,4.000000,4.000000,4.000000,4.000000,4.000000,4.000000,4.000000,4.000000,4.000000,4.000000,4.000000,4.000000,100.000000
1602006441.107709,66.000000,0.000000,4081.538574,4099.487305,4114.358887,4113.846191,4123.077148,4134.358887,4136.922852,4114.871582,4141.538574,4118.461426,4140.000000,4149.230957,4167.179688,4132.820313,853.000000,4.000000,,,,0.000000,4.000000,4.000000,4.000000,4.000000,4.000000,4.000000,4.000000,4.000000,4.000000,4.000000,4.000000,4.000000,4.000000,4.000000,100.000000
1602006441.115590,67.000000,0.000000,4086.666748,4107.692383,4128.205078,4123.589844,4130.256348,4134.358887,4128.717773,4109.743652,4138.974121,4108.717773,4143.077148,4156.410156,4163.077148,4142.051270,867.000000,4.000000,,,,0.000000,4.000000,4.000000,4.000000,4.000000,4.000000,4.000000,4.000000,4.000000,4.000000,4.000000,4.000000,4.000000,4.000000,4.000000,100.000000
1602006441.123471,68.000000,0.000000,4085.128174,4104.102539,4118.974121,4118.461426,4135.384766,4138.461426,4124.615234,4118.461426,4138.461426,4131.282227,4138.974121,4147.692383,4155.384766,4144.102539,813.000000,4.000000,,,,0.000000,4.000000,4.000000,4.000000,4.000000,4.000000,4.000000,4.000000,4.000000,4.000000,4.000000,4.000000,4.000000,4.000000,4.000000,100.000000
1602006441.131352,69.000000,0.000000,4074.358887,4101.025879,4108.717773,4112.307617,4129.743652,4141.025879,4125.641113,4133.333496,4151.794922,4150.769043,4136.410156,4141.025879,4156.922852,4129.743652,817.000000,4.000000,,,,0.000000,4.000000,4.000000,4.000000,4.000000,4.000000,4.000000,4.000000,4.000000,4.000000,4.000000,4.000000,4.000000,4.000000,4.000000,100.000000
1602006441.139334,70.000000,0.000000,4072.307617,4100.512695,4115.897461,4117.436035,4123.589844,4136.410156,4126.666504,4144.615234,4159.487305,4150.769043,4132.820313,4145.128418,4157.436035,4118.974121,769.000000,4.000000,,,,0.000000,4.000000,4.000000,4.000000,4.000000,4.000000,4.000000,4.000000,4.000000,4.000000,4.000000,4.000000,4.000000,4.000000,4.000000,100.000000
1602006441.147215,71.000000,0.000000,4081.538574,4101.538574,4124.102539,4123.077148,4124.615234,4124.615234,4125.641113,4151.794922,4153.846191,4152.820313,4130.256348,4149.743652,4150.769043,4121.025879,673.000000,4.000000,,,,0.000000,4.000000,4.000000,4.000000,4.000000,4.000000,4.000000,4.000000,4.000000,4.000000,4.000000,4.000000,4.000000,4.000000,4.000000,100.000000
1602006441.155097,72.000000,0.000000,4090.769287,4106.153809,4125.641113,4119.487305,4122.563965,4113.846191,4125.128418,4153.333496,4150.769043,4156.410156,4132.820313,4151.282227,4152.307617,4132.820313,787.000000,4.000000,,,,0.000000,4.000000,4.000000,4.000000,4.000000,4.000000,4.000000,4.000000,4.000000,4.000000,4.000000,4.000000,4.000000,4.000000,4.000000,100.000000
1602006441.162978,73.000000,0.000000,4094.358887,4108.717773,4130.769043,4120.000000,4122.051270,4113.333496,4129.230957,4152.820313,4155.897461,4153.333496,4137.948730,4155.384766,4165.128418,4151.794922,835.000000,4.000000,,,,0.000000,4.000000,4.000000,4.000000,4.000000,4.000000,4.000000,4.000000,4.000000,4.000000,4.000000,4.000000,4.000000,4.000000,4.000000,100.000000
1602006441.170860,74.000000,0.000000,4084.615479,4101.538574,4126.153809,4120.512695,4124.615234,4126.666504,4136.922852,4152.307617,4158.461426,4148.205078,4141.025879,4158.974121,4168.205078,4155.897461,871.000000,4.000000,,,,0.000000,4.000000,4.000000,4.000000,4.000000,4.000000,4.000000,4.000000,4.000000,4.000000,4.000000,4.000000,4.000000,4.000000,4.000000,100.000000
1602006441.178742,75.000000,0.000000,4072.307617,4090.256348,4105.128418,4107.692383,4123.077148,4142.563965,4144.102539,4149.230957,4151.282227,4137.436035,4134.871582,4148.717773,4151.282227,4134.358887,846.000000,4.000000,,,,0.000000,4.000000,4.000000,4.000000,4.000000,4.000000,4.000000,4.000000,4.000000,4.000000,4.000000,4.000000,4.000000,4.000000,4.000000,100.000000
1602006441.186623,76.000000,0.000000,4071.794922,4086.666748,4095.897461,4097.948730,4124.615234,4153.846191,4153.846191,4148.717773,4152.820313,4130.256348,4127.692383,4137.948730,4141.538574,4125.641113,761.000000,4.000000,,,,0.000000,4.000000,4.000000,4.000000,4.000000,4.000000,4.000000,4.000000,4.000000,4.000000,4.000000,4.000000,4.000000,4.000000,4.000000,100.000000
1602006441.194505,77.000000,0.000000,4075.897461,4095.897461,4104.102539,4105.128418,4136.922852,4166.666504,4162.051270,4153.846191,4170.256348,4141.538574,4134.358887,4141.025879,4151.794922,4138.461426,737.000000,4.000000,,,,0.000000,4.000000,4.000000,4.000000,4.000000,4.000000,4.000000,4.000000,4.000000,4.000000,4.000000,4.000000,4.000000,4.000000,4.000000,100.000000
1602006441.202387,78.000000,0.000000,4077.948730,4104.615234,4108.717773,4110.256348,4138.974121,4169.743652,4158.461426,4156.410156,4182.563965,4159.487305,4139.487305,4144.102539,4157.436035,4131.794922,871.000000,4.000000,,,,0.000000,4.000000,4.000000,4.000000,4.000000,4.000000,4.000000,4.000000,4.000000,4.000000,4.000000,4.000000,4.000000,4.000000,4.000000,100.000000
1602006441.210168,79.000000,0.000000,4079.487061,4104.615234,4106.666504,4104.615234,4128.205078,4162.563965,4153.846191,4155.384766,4184.102539,4156.410156,4136.410156,4138.974121,4154.871582,4118.461426,846.000000,4.000000,,,,0.000000,4.000000,4.000000,4.000000,4.000000,4.000000,4.000000,4.000000,4.000000,4.000000,4.000000,4.000000,4.000000,4.000000,4.000000,100.000000
1602006441.218049,80.000000,0.000000,4077.948730,4096.410156,4100.512695,4103.077148,4126.153809,4160.512695,4153.846191,4157.436035,4184.102539,4138.461426,4137.948730,4132.820313,4151.282227,4124.615234,761.000000,4.000000,,,,0.000000,4.000000,4.000000,4.000000,4.000000,4.000000,4.000000,4.000000,4.000000,4.000000,4.000000,4.000000,4.000000,4.000000,4.000000,100.000000
1602006441.225930,81.000000,0.000000,4075.384521,4093.846191,4092.820557,4109.230957,4129.743652,4153.846191,4145.128418,4155.897461,4172.307617,4144.615234,4132.307617,4127.179688,4142.563965,4120.512695,737.000000,4.000000,,,,0.000000,4.000000,4.000000,4.000000,4.000000,4.000000,4.000000,4.000000,4.000000,4.000000,4.000000,4.000000,4.000000,4.000000,4.000000,100.000000
1602006441.233711,82.000000,0.000000,4071.794922,4102.563965,4089.743652,4113.333496,4125.641113,4138.461426,4129.743652,4142.563965,4152.307617,4158.974121,4119.487305,4118.974121,4135.897461,4108.717773,871.000000,4.000000,,,,0.000000,4.000000,4.000000,4.000000,4.000000,4.000000,4.000000,4.000000,4.000000,4.000000,4.000000,4.000000,4.000000,4.000000,4.000000,100.000000
1602006441.241592,83.000000,0.000000,4072.307617,4105.128418,4089.743652,4108.205078,4125.641113,4135.897461,4126.153809,4132.820313,4143.077148,4144.615234,4120.000000,4114.871582,4135.897461,4114.358887,846.000000,4.000000,,,,0.000000,4.000000,4.000000,4.000000,4.000000,4.000000,4.000000,4.000000,4.000000,4.000000,4.000000,4.000000,4.000000,4.000000,4.000000,100.000000
1602006441.249473,84.000000,0.000000,4083.076904,4099.487305,4092.820557,4107.692383,4129.230957,4142.051270,4135.897461,4141.025879,4149.743652,4132.307617,4130.769043,4121.025879,4138.974121,4125.128418,761.000000,4.000000,,,,0.000000,4.000000,4.000000,4.000000,4.000000,4.000000,4.000000,4.000000,4.000000,4.000000,4.000000,4.000000,4.000000,4.000000,4.000000,100.000000
1602006441.257354,85.000000,0.000000,4098.974121,4103.077148,4112.307617,4120.512695,4126.666504,4144.615234,4141.538574,4153.846191,4165.641113,4157.948730,4145.641113,4139.487305,4153.333496,4134.358887,737.000000,4.000000,,,,0.000000,4.000000,4.000000,4.000000,4.000000,4.000000,4.000000,4.000000,4.000000,4.000000,4.000000,4.000000,4.000000,4.000000,4.000000,100.000000
1602006441.265235,86.000000,0.000000,4108.717773,4113.333496,4139.487305,4124.615234,4125.641113,4151.794922,4140.512695,4153.846191,4171.282227,4175.897461,4157.948730,4159.487305,4169.743652,4146.666504,871.000000,4.000000,,,,0.000000,4.000000,4.000000,4.000000,4.000000,4.000000,4.000000,4.000000,4.000000,4.000000,4.000000,4.000000,4.000000,4.000000,4.000000,100.000000
1602006441.273017,87.000000,0.000000,4105.641113,4109.230957,4147.179688,4115.384766,4129.230957,4150.769043,4138.461426,4143.589844,4151.794922,4143.589844,4144.615234,4159.487305,4157.948730,4138.974121,846.000000,4.000000,,,,0.000000,4.000000,4.000000,4.000000,4.000000,4.000000,4.000000,4.000000,4.000000,4.000000,4.000000,4.000000,4.000000,4.000000,4.000000,100.000000
1602006441.280898,88.000000,0.000000,4095.384521,4101.538574,4132.307617,4113.846191,4126.666504,4132.820313,4135.384766,4135.897461,4133.333496,4111.282227,4120.512695,4145.641113,4136.922852,4124.615234,761.000000,4.000000,,,,0.000000,4.000000,4.000000,4.000000,4.000000,4.000000,4.000000,4.000000,4.000000,4.000000,4.000000,4.000000,4.000000,4.000000,4.000000,100.000000
1602006441.288779,89.000000,0.000000,4098.974121,4103.589844,4123.077148,4118.974121,4120.512695,4124.615234,4134.871582,4138.461426,4141.025879,4124.615234,4122.563965,4141.538574,4137.948730,4137.436035,737.000000,4.000000,,,,0.000000,4.000000,4.000000,4.000000,4.000000,4.000000,4.000000,4.000000,4.000000,4.000000,4.000000,4.000000,4.000000,4.000000,4.000000,100.000000
1602006441.296660,90.000000,0.000000,4105.128418,4104.615234,4124.102539,4113.846191,4118.974121,4129.230957,4137.948730,4147.179688,4153.846191,4148.717773,4136.922852,4145.641113,4142.563965,4145.128418,871.000000,4.000000,,,,0.000000,4.000000,4.000000,4.000000,4.000000,4.000000,4.000000,4.000000,4.000000,4.000000,4.000000,4.000000,4.000000,4.000000,4.000000,100.000000
1602006441.304541,91.000000,0.000000,4094.358887,4102.563965,4115.897461,4106.153809,4121.538574,4130.256348,4140.000000,4152.307617,4152.820313,4152.820313,4133.333496,4144.615234,4135.384766,4126.666504,846.000000,4.000000,,,,0.000000,4.000000,4.000000,4.000000,4.000000,4.000000,4.000000,4.000000,4.000000,4.000000,4.000000,4.000000,4.000000,4.000000,4.000000,100.000000
1602006441.312523,92.000000,0.000000,4085.128174,4102.051270,4105.128418,4103.589844,4122.563965,4137.948730,4145.641113,4153.846191,4151.282227,4151.282227,4121.025879,4138.974121,4137.436035,4117.948730,761.000000,4.000000,,,,0.000000,4.000000,4.000000,4.000000,4.000000,4.000000,4.000000,4.000000,4.000000,4.000000,4.000000,4.000000,4.000000,4.000000,4.000000,100.000000
1602006441.320404,93.000000,0.000000,4091.794922,4108.717773,4112.307617,4112.307617,4121.538574,4154.871582,4155.384766,4153.333496,4152.820313,4140.512695,4123.589844,4135.897461,4149.743652,4130.769043,737.000000,4.000000,,,,0.000000,4.000000,4.000000,4.000000,4.000000,4.000000,4.000000,4.000000,4.000000,4.000000,4.000000,4.000000,4.000000,4.000000,4.000000,100.000000
1602006441.328286,94.000000,0.000000,4092.820557,4118.974121,4123.077148,4124.615234,4128.205078,4160.000000,4156.922852,4151.282227,4153.333496,4133.333496,4144.102539,4143.077148,4153.846191,4140.512695,871.000000,4.000000,,,,0.000000,4.000000,4.000000,4.000000,4.000000,4.000000,4.000000,4.000000,4.000000,4.000000,4.000000,4.000000,4.000000,4.000000,4.000000,100.000000
1602006441.336167,95.000000,0.000000,4095.384521,4124.615234,4122.563965,4126.666504,4141.025879,4151.794922,4148.205078,4148.205078,4151.282227,4148.205078,4154.358887,4152.307617,4151.794922,4141.025879,846.000000,4.000000,,,,0.000000,4.000000,4.000000,4.000000,4.000000,4.000000,4.000000,4.000000,4.000000,4.000000,4.000000,4.000000,4.000000,4.000000,4.000000,100.000000
1602006441.344048,96.000000,0.000000,4106.666504,4125.641113,4122.563965,4123.589844,4140.512695,4144.102539,4140.000000,4144.102539,4144.102539,4150.769043,4137.948730,4149.743652,4145.128418,4133.846191,761.000000,4.000000,,,,0.000000,4.000000,4.000000,4.000000,4.000000,4.000000,4.000000,4.000000,4.000000,4.000000,4.000000,4.000000,4.000000,4.000000,4.000000,100.000000
1602006441.351930,97.000000,0.000000,4101.025879,4121.025879,4124.102539,4124.102539,4125.128418,4130.256348,4132.820313,4138.974121,4133.333496,4137.948730,4122.051270,4134.871582,4136.922852,4126.153809,737.000000,4.000000,,,,0.000000,4.000000,4.000000,4.000000,4.000000,4.000000,4.000000,4.000000,4.000000,4.000000,4.000000,4.000000,4.000000,4.000000,4.000000,100.000000
1602006441.359911,98.000000,0.000000,4092.820557,4114.358887,4122.563965,4125.128418,4119.487305,4122.563965,4126.666504,4136.410156,4133.333496,4148.205078,4135.897461,4135.897461,4140.512695,4131.794922,871.000000,4.000000,,,,0.000000,4.000000,4.000000,4.000000,4.000000,4.000000,4.000000,4.000000,4.000000,4.000000,4.000000,4.000000,4.000000,4.000000,4.000000,100.000000
1602006441.367793,99.000000,0.000000,4102.563965,4115.384766,4125.641113,4122.051270,4128.717773,4128.717773,4124.615234,4142.563965,4143.077148,4163.077148,4151.282227,4153.333496,4154.358887,4141.025879,846.000000,4.000000,,,,0.000000,4.000000,4.000000,4.000000,4.000000,4.000000,4.000000,4.000000,4.000000,4.000000,4.000000,4.000000,4.000000,4.000000,4.000000,100.000000
1602006441.375675,100.000000,0.000000,4106.153809,4122.563965,4126.666504,4121.025879,4135.384766,4127.692383,4123.589844,4150.769043,4151.794922,4149.743652,4142.051270,4149.230957,4157.436035,4140.000000,761.000000,4.000000,,,,0.000000,4.000000,4.000000,4.000000,4.000000,4.000000,4.000000,4.000000,4.000000,4.000000,4.000000,4.000000,4.000000,4.000000,4.000000,100.000000
1602006441.383556,101.000000,0.000000,4107.692383,4126.666504,4122.563965,4122.051270,4136.922852,4130.256348,4130.256348,4153.846191,4156.410156,4144.615234,4141.538574,4138.461426,4155.384766,4144.102539,737.000000,4.000000,,,,0.000000,4.000000,4.000000,4.000000,4.000000,4.000000,4.000000,4.000000,4.000000,4.000000,4.000000,4.000000,4.000000,4.000000,4.000000,100.000000
1602006441.391438,102.000000,0.000000,4120.512695,4127.179688,4127.179688,4127.692383,4139.487305,4150.769043,4141.538574,4153.846191,4156.410156,4151.282227,4155.897461,4147.692383,4158.461426,4155.384766,871.000000,4.000000,,,,0.000000,4.000000,4.000000,4.000000,4.000000,4.000000,4.000000,4.000000,4.000000,4.000000,4.000000,4.000000,4.000000,4.000000,4.000000,100.000000
1602006441.399319,103.000000,0.000000,4117.436035,4125.128418,4136.410156,4133.846191,4142.051270,4160.000000,4145.128418,4155.897461,4155.384766,4145.128418,4156.410156,4159.487305,4157.436035,4154.871582,846.000000,4.000000,,,,0.000000,4.000000,4.000000,4.000000,4.000000,4.000000,4.000000,4.000000,4.000000,4.000000,4.000000,4.000000,4.000000,4.000000,4.000000,100.000000
1602006441.407201,104.000000,0.000000,4109.230957,4128.205078,4138.974121,4134.358887,4140.512695,4150.769043,4142.563965,4155.384766,4158.461426,4147.179688,4152.820313,4155.897461,4156.410156,4151.282227,761.000000,4.000000,,,,0.000000,4.000000,4.000000,4.000000,4.000000,4.000000,4.000000,4.000000,4.000000,4.000000,4.000000,4.000000,4.000000,4.000000,4.000000,100.000000
1602006441.415083,105.000000,0.000000,4121.538574,4137.948730,4137.948730,4138.974121,4140.000000,4152.307617,4141.538574,4145.128418,4149.743652,4160.512695,4150.256348,4148.717773,4160.000000,4154.871582,737.000000,4.000000,,,,0.000000,4.000000,4.000000,4.000000,4.000000,4.000000,4.000000,4.000000,4.000000,4.000000,4.000000,4.000000,4.000000,4.000000,4.000000,100.000000
1602006441.422964,106.000000,0.000000,4117.948730,4136.410156,4131.794922,4140.512695,4140.000000,4153.846191,4134.358887,4131.794922,4127.692383,4154.358887,4143.077148,4143.077148,4156.922852,4145.128418,871.000000,4.000000,,,,0.000000,4.000000,4.000000,4.000000,4.000000,4.000000,4.000000,4.000000,4.000000,4.000000,4.000000,4.000000,4.000000,4.000000,4.000000,100.000000
1602006441.430946,107.000000,0.000000,4093.333252,4123.589844,4121.025879,4129.230957,4133.846191,4140.512695,4123.589844,4126.153809,4125.128418,4132.820313,4136.922852,4132.307617,4143.589844,4122.051270,846.000000,4.000000,,,,0.000000,4.000000,4.000000,4.000000,4.000000,4.000000,4.000000,4.000000,4.000000,4.000000,4.000000,4.000000,4.000000,4.000000,4.000000,100.000000
1602006441.438828,108.000000,0.000000,4088.718018,4120.000000,4118.461426,4120.000000,4130.769043,4135.384766,4121.025879,4130.256348,4140.512695,4141.025879,4136.410156,4126.666504,4136.922852,4120.512695,761.000000,4.000000,,,,0.000000,4.000000,4.000000,4.000000,4.000000,4.000000,4.000000,4.000000,4.000000,4.000000,4.000000,4.000000,4.000000,4.000000,4.000000,100.000000
1602006441.446709,109.000000,0.000000,4102.563965,4124.102539,4122.051270,4121.538574,4134.871582,4142.051270,4126.153809,4141.025879,4147.179688,4165.641113,4137.436035,4133.846191,4146.153809,4138.461426,737.000000,4.000000,,,,0.000000,4.000000,4.000000,4.000000,4.000000,4.000000,4.000000,4.000000,4.000000,4.000000,4.000000,4.000000,4.000000,4.000000,4.000000,100.000000
1602006441.454591,110.000000,0.000000,4106.666504,4124.615234,4120.512695,4123.077148,4133.846191,4142.051270,4133.333496,4151.794922,4149.230957,4164.102539,4138.974121,4145.641113,4155.384766,4142.563965,871.000000,4.000000,,,,0.000000,4.000000,4.000000,4.000000,4.000000,4.000000,4.000000,4.000000,4.000000,4.000000,4.000000,4.000000,4.000000,4.000000,4.000000,100.000000
1602006441.462472,111.000000,0.000000,4104.615234,4119.487305,4117.948730,4123.077148,4126.153809,4138.461426,4136.410156,4155.897461,4154.871582,4147.179688,4141.025879,4147.692383,4151.282227,4133.846191,846.000000,4.000000,,,,0.000000,4.000000,4.000000,4.000000,4.000000,4.000000,4.000000,4.000000,4.000000,4.000000,4.000000,4.000000,4.000000,4.000000,4.000000,100.000000
1602006441.470354,112.000000,0.000000,4105.641113,4113.333496,4122.051270,4124.615234,4121.538574,4136.922852,4137.436035,4155.384766,4147.179688,4140.512695,4147.179688,4149.230957,4149.743652,4135.384766,761.000000,4.000000,,,,0.000000,4.000000,4.000000,4.000000,4.000000,4.000000,4.000000,4.000000,4.000000,4.000000,4.000000,4.000000,4.000000,4.000000,4.000000,100.000000
1602006441.478236,113.000000,0.000000,4109.743652,4114.358887,4131.282227,4122.563965,4127.692383,4140.512695,4141.025879,4156.410156,4136.410156,4127.692383,4153.333496,4156.922852,4156.922852,4140.512695,737.000000,4.000000,,,,0.000000,4.000000,4.000000,4.000000,4.000000,4.000000,4.000000,4.000000,4.000000,4.000000,4.000000,4.000000,4.000000,4.000000,4.000000,100.000000
1602006441.486117,114.000000,0.000000,4104.615234,4115.384766,4132.307617,4118.974121,4137.948730,4149.230957,4143.077148,4158.461426,4146.666504,4120.000000,4144.102539,4153.333496,4152.307617,4132.820313,871.000000,4.000000,,,,0.000000,4.000000,4.000000,4.000000,4.000000,4.000000,4.000000,4.000000,4.000000,4.000000,4.000000,4.000000,4.000000,4.000000,4.000000,100.000000
1602006441.493999,115.000000,0.000000,4090.769287,4108.205078,4121.538574,4118.461426,4135.897461,4151.282227,4142.051270,4152.307617,4157.436035,4140.512695,4127.179688,4140.000000,4140.000000,4121.025879,846.000000,4.000000,,,,0.000000,4.000000,4.000000,4.000000,4.000000,4.000000,4.000000,4.000000,4.000000,4.000000,4.000000,4.000000,4.000000,4.000000,4.000000,100.000000
1602006441.501981,116.000000,0.000000,4091.794922,4105.641113,4114.871582,4120.000000,4125.641113,4138.461426,4138.461426,4139.487305,4143.589844,4154.358887,4122.051270,4133.846191,4136.922852,4118.974121,761.000000,4.000000,,,,0.000000,4.000000,4.000000,4.000000,4.000000,4.000000,4.000000,4.000000,4.000000,4.000000,4.000000,4.000000,4.000000,4.000000,4.000000,100.000000
1602006441.509862,117.000000,0.000000,4096.410156,4114.871582,4120.000000,4121.538574,4122.563965,4127.179688,4128.717773,4132.820313,4131.282227,4145.641113,4121.025879,4137.436035,4137.948730,4125.641113,737.000000,4.000000,,,,0.000000,4.000000,4.000000,4.000000,4.000000,4.000000,4.000000,4.000000,4.000000,4.000000,4.000000,4.000000,4.000000,4.000000,4.000000,100.000000
1602006441.517744,118.000000,0.000000,4088.718018,4122.051270,4125.128418,4120.512695,4127.179688,4128.205078,4119.487305,4135.384766,4136.922852,4136.410156,4121.538574,4142.051270,4138.974121,4127.179688,871.000000,4.000000,,,,0.000000,4.000000,4.000000,4.000000,4.000000,4.000000,4.000000,4.000000,4.000000,4.000000,4.000000,4.000000,4.000000,4.000000,4.000000,100.000000
1602006441.525626,119.000000,0.000000,4090.256348,4121.538574,4122.563965,4120.512695,4131.282227,4127.179688,4117.436035,4140.512695,4140.512695,4134.871582,4131.282227,4140.000000,4138.461426,4121.025879,846.000000,4.000000,,,,0.000000,4.000000,4.000000,4.000000,4.000000,4.000000,4.000000,4.000000,4.000000,4.000000,4.000000,4.000000,4.000000,4.000000,4.000000,100.000000
1602006441.533507,120.000000,0.000000,4102.051270,4121.025879,4119.487305,4123.077148,4131.282227,4126.153809,4120.000000,4148.205078,4142.051270,4145.128418,4139.487305,4134.358887,4138.461426,4122.563965,761.000000,4.000000,,,,0.000000,4.000000,4.000000,4.000000,4.000000,4.000000,4.000000,4.000000,4.000000,4.000000,4.000000,4.000000,4.000000,4.000000,4.000000,100.000000
1602006441.541389,121.000000,0.000000,4107.692383,4124.102539,4124.615234,4125.128418,4132.820313,4133.333496,4122.051270,4154.358887,4151.794922,4157.948730,4140.512695,4135.384766,4145.641113,4135.897461,737.000000,4.000000,,,,0.000000,4.000000,4.000000,4.000000,4.000000,4.000000,4.000000,4.000000,4.000000,4.000000,4.000000,4.000000,4.000000,4.000000,4.000000,100.000000
1602006441.549270,122.000000,0.000000,4110.256348,4128.717773,4128.717773,4124.615234,4135.897461,4141.538574,4123.589844,4153.333496,4156.922852,4154.871582,4139.487305,4140.000000,4156.410156,4144.102539,871.000000,4.000000,,,,0.000000,4.000000,4.000000,4.000000,4.000000,4.000000,4.000000,4.000000,4.000000,4.000000,4.000000,4.000000,4.000000,4.000000,4.000000,100.000000
1602006441.557152,123.000000,0.000000,4111.282227,4127.692383,4124.615234,4123.589844,4135.897461,4141.538574,4130.256348,4152.820313,4156.410156,4140.000000,4137.948730,4137.948730,4156.922852,4141.025879,846.000000,4.000000,,,,0.000000,4.000000,4.000000,4.000000,4.000000,4.000000,4.000000,4.000000,4.000000,4.000000,4.000000,4.000000,4.000000,4.000000,4.000000,100.000000
1602006441.565034,124.000000,0.000000,4111.794922,4124.102539,4128.205078,4124.102539,4135.384766,4140.000000,4140.512695,4152.307617,4158.461426,4132.307617,4131.282227,4140.512695,4155.384766,4137.436035,761.000000,4.000000,,,,0.000000,4.000000,4.000000,4.000000,4.000000,4.000000,4.000000,4.000000,4.000000,4.000000,4.000000,4.000000,4.000000,4.000000,4.000000,100.000000
1602006441.573015,125.000000,0.000000,4120.512695,4124.102539,4139.487305,4124.615234,4133.333496,4137.436035,4141.538574,4145.128418,4149.743652,4127.692383,4125.128418,4151.794922,4154.871582,4137.948730,737.000000,4.000000,,,,0.000000,4.000000,4.000000,4.000000,4.000000,4.000000,4.000000,4.000000,4.000000,4.000000,4.000000,4.000000,4.000000,4.000000,4.000000,100.000000
1602006441.580897,126.000000,0.000000,4121.538574,4126.666504,4142.563965,4124.615234,4127.692383,4128.717773,4131.794922,4137.948730,4135.384766,4123.077148,4129.230957,4156.410156,4146.153809,4136.922852,871.000000,4.000000,,,,0.000000,4.000000,4.000000,4.000000,4.000000,4.000000,4.000000,4.000000,4.000000,4.000000,4.000000,4.000000,4.000000,4.000000,4.000000,100.000000
1602006441.588779,127.000000,0.000000,4108.717773,4120.000000,4136.410156,4122.563965,4121.538574,4122.563965,4121.538574,4138.461426,4133.846191,4131.794922,4135.897461,4149.743652,4137.436035,4128.717773,846.000000,4.000000,,,,0.000000,4.000000,4.000000,4.000000,4.000000,4.000000,4.000000,4.000000,4.000000,4.000000,4.000000,4.000000,4.000000,4.000000,4.000000,100.000000
1602006441.596660,128.000000,0.000000,4105.641113,4107.692383,4129.743652,4119.487305,4123.589844,4121.538574,4117.436035,4141.025879,4140.512695,4140.000000,4131.794922,4141.538574,4134.871582,4122.051270,761.000000,4.000000,,,,0.000000,4.000000,4.000000,4.000000,4.000000,4.000000,4.000000,4.000000,4.000000,4.000000,4.000000,4.000000,4.000000,4.000000,4.000000,100.000000
1602006441.604542,0.000000,0.000000,4107.692383,4111.794922,4124.102539,4118.974121,4129.743652,4117.436035,4116.922852,4138.974121,4134.871582,4129.230957,4122.051270,4137.436035,4135.384766,4123.077148,793.000000,4.000000,,,,0.000000,4.000000,4.000000,4.000000,4.000000,4.000000,4.000000,4.000000,4.000000,4.000000,4.000000,4.000000,4.000000,4.000000,4.000000,100.000000
1602006441.612423,1.000000,0.000000,4097.948730,4120.512695,4121.538574,4119.487305,4134.358887,4116.922852,4115.897461,4134.871582,4123.077148,4117.436035,4120.000000,4136.410156,4135.897461,4121.538574,788.000000,4.000000,,,,0.000000,4.000000,4.000000,4.000000,4.000000,4.000000,4.000000,4.000000,4.000000,4.000000,4.000000,4.000000,4.000000,4.000000,4.000000,100.000000
1602006441.620305,2.000000,0.000000,4093.846191,4121.025879,4123.077148,4121.538574,4136.922852,4124.102539,4116.410156,4135.384766,4127.692383,4122.563965,4124.102539,4134.871582,4136.410156,4127.692383,853.000000,4.000000,,,,0.000000,4.000000,4.000000,4.000000,4.000000,4.000000,4.000000,4.000000,4.000000,4.000000,4.000000,4.000000,4.000000,4.000000,4.000000,100.000000
1602006441.628187,3.000000,0.000000,4105.128418,4128.717773,4118.461426,4131.794922,4136.922852,4128.717773,4121.025879,4136.410156,4132.820313,4114.871582,4128.717773,4134.358887,4142.051270,4136.410156,867.000000,4.000000,,,,0.000000,4.000000,4.000000,4.000000,4.000000,4.000000,4.000000,4.000000,4.000000,4.000000,4.000000,4.000000,4.000000,4.000000,4.000000,100.000000
1602006441.636068,4.000000,0.000000,4113.846191,4140.000000,4108.717773,4138.974121,4137.436035,4129.230957,4123.589844,4134.871582,4129.743652,4102.563965,4132.820313,4135.384766,4153.846191,4126.666504,813.000000,4.000000,,,,0.000000,4.000000,4.000000,4.000000,4.000000,4.000000,4.000000,4.000000,4.000000,4.000000,4.000000,4.000000,4.000000,4.000000,4.000000,100.000000
1602006441.643950,5.000000,0.000000,4110.256348,4137.948730,4104.615234,4132.820313,4137.436035,4134.871582,4122.563965,4135.897461,4133.846191,4125.641113,4138.461426,4136.922852,4155.897461,4124.615234,844.000000,4.000000,,,,0.000000,4.000000,4.000000,4.000000,4.000000,4.000000,4.000000,4.000000,4.000000,4.000000,4.000000,4.000000,4.000000,4.000000,4.000000,100.000000
1602006441.651732,6.000000,0.000000,4104.102539,4134.871582,4112.307617,4130.256348,4138.974121,4137.948730,4120.512695,4135.897461,4136.410156,4154.871582,4138.461426,4146.153809,4150.769043,4140.000000,769.000000,4.000000,,,,0.000000,4.000000,4.000000,4.000000,4.000000,4.000000,4.000000,4.000000,4.000000,4.000000,4.000000,4.000000,4.000000,4.000000,4.000000,100.000000
1602006441.659613,7.000000,0.000000,4106.666504,4142.563965,4122.051270,4137.436035,4142.563965,4135.384766,4121.025879,4133.333496,4137.436035,4156.410156,4137.948730,4160.512695,4160.000000,4144.615234,672.000000,4.000000,,,,0.000000,4.000000,4.000000,4.000000,4.000000,4.000000,4.000000,4.000000,4.000000,4.000000,4.000000,4.000000,4.000000,4.000000,4.000000,100.000000
1602006441.667495,8.000000,0.000000,4118.974121,4145.641113,4126.666504,4137.948730,4144.615234,4137.436035,4125.128418,4140.512695,4152.820313,4153.333496,4149.743652,4164.615234,4174.358887,4145.641113,787.000000,4.000000,,,,0.000000,4.000000,4.000000,4.000000,4.000000,4.000000,4.000000,4.000000,4.000000,4.000000,4.000000,4.000000,4.000000,4.000000,4.000000,100.000000
1602006441.675377,9.000000,0.000000,4124.102539,4142.051270,4127.692383,4130.256348,4144.615234,4141.538574,4127.179688,4151.282227,4160.000000,4158.461426,4158.974121,4157.948730,4168.205078,4153.846191,835.000000,4.000000,,,,0.000000,4.000000,4.000000,4.000000,4.000000,4.000000,4.000000,4.000000,4.000000,4.000000,4.000000,4.000000,4.000000,4.000000,4.000000,100.000000
1602006441.683258,10.000000,0.000000,4114.871582,4137.948730,4125.641113,4126.153809,4142.051270,4141.025879,4126.153809,4153.846191,4143.589844,4146.153809,4148.205078,4153.333496,4155.384766,4141.538574,871.000000,4.000000,,,,0.000000,4.000000,4.000000,4.000000,4.000000,4.000000,4.000000,4.000000,4.000000,4.000000,4.000000,4.000000,4.000000,4.000000,4.000000,100.000000
1602006441.691140,11.000000,0.000000,4110.769043,4131.794922,4124.615234,4124.615234,4138.974121,4140.512695,4132.307617,4150.769043,4133.333496,4120.512695,4129.230957,4157.948730,4152.307617,4124.102539,844.000000,4.000000,,,,0.000000,4.000000,4.000000,4.000000,4.000000,4.000000,4.000000,4.000000,4.000000,4.000000,4.000000,4.000000,4.000000,4.000000,4.000000,100.000000
1602006441.699022,12.000000,0.000000,4112.307617,4123.589844,4117.436035,4117.436035,4132.820313,4142.563965,4139.487305,4146.153809,4130.256348,4110.769043,4123.077148,4155.384766,4143.589844,4121.025879,761.000000,4.000000,,,,0.000000,4.000000,4.000000,4.000000,4.000000,4.000000,4.000000,4.000000,4.000000,4.000000,4.000000,4.000000,4.000000,4.000000,4.000000,100.000000
1602006441.706903,13.000000,0.000000,4104.102539,4111.794922,4109.230957,4107.692383,4122.051270,4142.051270,4137.436035,4141.538574,4122.563965,4120.512695,4129.230957,4139.487305,4132.820313,4115.897461,737.000000,4.000000,,,,0.000000,4.000000,4.000000,4.000000,4.000000,4.000000,4.000000,4.000000,4.000000,4.000000,4.000000,4.000000,4.000000,4.000000,4.000000,100.000000
1602006441.714785,14.000000,0.000000,4106.666504,4107.692383,4115.384766,4113.333496,4119.487305,4138.461426,4136.410156,4140.000000,4126.153809,4133.333496,4137.436035,4137.948730,4141.538574,4115.897461,871.000000,4.000000,,,,0.000000,4.000000,4.000000,4.000000,4.000000,4.000000,4.000000,4.000000,4.000000,4.000000,4.000000,4.000000,4.000000,4.000000,4.000000,100.000000
1602006441.722766,15.000000,0.000000,4121.025879,4117.948730,4126.666504,4125.641113,4125.641113,4137.948730,4135.897461,4135.897461,4136.922852,4138.461426,4139.487305,4158.461426,4155.897461,4124.615234,844.000000,4.000000,,,,0.000000,4.000000,4.000000,4.000000,4.000000,4.000000,4.000000,4.000000,4.000000,4.000000,4.000000,4.000000,4.000000,4.000000,4.000000,100.000000
1602006441.730648,16.000000,0.000000,4116.410156,4124.615234,4128.205078,4125.641113,4125.641113,4141.025879,4125.641113,4124.615234,4138.461426,4142.563965,4134.871582,4169.743652,4156.410156,4131.794922,0.000000,4.000000,,,,0.000000,4.000000,4.000000,4.000000,4.000000,4.000000,4.000000,4.000000,4.000000,4.000000,4.000000,4.000000,4.000000,4.000000,4.000000,100.000000
1602006441.738529,17.000000,0.000000,4104.615234,4121.538574,4125.128418,4121.025879,4121.538574,4134.871582,4113.846191,4117.948730,4135.897461,4141.025879,4135.384766,4165.641113,4148.205078,4135.384766,0.000000,4.000000,,,,0.000000,4.000000,4.000000,4.000000,4.000000,4.000000,4.000000,4.000000,4.000000,4.000000,4.000000,4.000000,4.000000,4.000000,4.000000,100.000000
1602006441.746410,18.000000,0.000000,4113.846191,4123.589844,4125.641113,4122.051270,4129.230957,4122.563965,4107.179688,4118.461426,4137.436035,4123.077148,4144.615234,4164.102539,4145.128418,4134.358887,0.000000,4.000000,,,,0.000000,4.000000,4.000000,4.000000,4.000000,4.000000,4.000000,4.000000,4.000000,4.000000,4.000000,4.000000,4.000000,4.000000,4.000000,100.000000
1602006441.754292,19.000000,0.000000,4123.589844,4135.897461,4125.641113,4129.230957,4141.538574,4126.666504,4105.641113,4121.538574,4139.487305,4115.384766,4152.820313,4167.692383,4152.307617,4133.846191,0.000000,4.000000,,,,0.000000,4.000000,4.000000,4.000000,4.000000,4.000000,4.000000,4.000000,4.000000,4.000000,4.000000,4.000000,4.000000,4.000000,4.000000,100.000000
1602006441.762173,20.000000,0.000000,4123.077148,4141.538574,4124.102539,4136.410156,4145.641113,4141.025879,4108.717773,4123.589844,4140.000000,4141.025879,4154.358887,4170.769043,4160.512695,4138.974121,0.000000,4.000000,,,,0.000000,4.000000,4.000000,4.000000,4.000000,4.000000,4.000000,4.000000,4.000000,4.000000,4.000000,4.000000,4.000000,4.000000,4.000000,100.000000
1602006441.770055,21.000000,0.000000,4130.256348,4139.487305,4124.615234,4137.436035,4140.512695,4143.589844,4111.794922,4123.077148,4138.461426,4146.666504,4150.256348,4174.871582,4158.974121,4142.051270,0.000000,4.000000,,,,0.000000,4.000000,4.000000,4.000000,4.000000,4.000000,4.000000,4.000000,4.000000,4.000000,4.000000,4.000000,4.000000,4.000000,4.000000,100.000000
1602006441.777936,22.000000,0.000000,4138.461426,4138.974121,4131.794922,4134.358887,4138.974121,4138.974121,4114.358887,4129.743652,4141.025879,4119.487305,4146.666504,4175.897461,4154.871582,4140.000000,0.000000,4.000000,,,,0.000000,4.000000,4.000000,4.000000,4.000000,4.000000,4.000000,4.000000,4.000000,4.000000,4.000000,4.000000,4.000000,4.000000,4.000000,100.000000
1602006441.785718,23.000000,0.000000,4136.410156,4137.436035,4135.897461,4129.230957,4140.512695,4141.538574,4125.128418,4148.205078,4148.717773,4125.128418,4144.615234,4174.871582,4156.922852,4138.974121,0.000000,4.000000,,,,0.000000,4.000000,4.000000,4.000000,4.000000,4.000000,4.000000,4.000000,4.000000,4.000000,4.000000,4.000000,4.000000,4.000000,4.000000,100.000000
1602006441.793599,24.000000,0.000000,4129.230957,4123.077148,4124.615234,4116.922852,4133.333496,4143.589844,4137.948730,4156.922852,4149.743652,4140.000000,4143.077148,4173.846191,4154.358887,4130.256348,0.000000,4.000000,,,,0.000000,4.000000,4.000000,4.000000,4.000000,4.000000,4.000000,4.000000,4.000000,4.000000,4.000000,4.000000,4.000000,4.000000,4.000000,100.000000
1602006441.801481,25.000000,0.000000,4113.846191,4105.641113,4109.743652,4104.615234,4120.512695,4135.897461,4140.000000,4147.179688,4147.692383,4121.538574,4132.307617,4164.102539,4143.077148,4121.025879,0.000000,4.000000,,,,0.000000,4.000000,4.000000,4.000000,4.000000,4.000000,4.000000,4.000000,4.000000,4.000000,4.000000,4.000000,4.000000,4.000000,4.000000,100.000000
1602006441.809363,26.000000,0.000000,4101.538574,4104.615234,4108.205078,4106.666504,4117.436035,4130.769043,4137.436035,4136.410156,4147.692383,4117.948730,4124.102539,4153.333496,4135.384766,4121.538574,0.000000,4.000000,,,,0.000000,4.000000,4.000000,4.000000,4.000000,4.000000,4.000000,4.000000,4.000000,4.000000,4.000000,4.000000,4.000000,4.000000,4.000000,100.000000
1602006441.817244,27.000000,0.000000,4112.820313,4111.282227,4117.436035,4114.358887,4122.563965,4137.436035,4139.487305,4131.794922,4144.102539,4138.974121,4132.307617,4153.333496,4138.974121,4124.615234,0.000000,4.000000,,,,0.000000,4.000000,4.000000,4.000000,4.000000,4.000000,4.000000,4.000000,4.000000,4.000000,4.000000,4.000000,4.000000,4.000000,4.000000,100.000000
1602006441.825126,28.000000,0.000000,4122.563965,4107.692383,4124.102539,4113.846191,4123.589844,4141.025879,4140.000000,4125.641113,4135.897461,4142.051270,4139.487305,4159.487305,4143.077148,4127.692383,0.000000,4.000000,,,,0.000000,4.000000,4.000000,4.000000,4.000000,4.000000,4.000000,4.000000,4.000000,4.000000,4.000000,4.000000,4.000000,4.000000,4.000000,100.000000
1602006441.833008,29.000000,0.000000,4106.153809,4102.051270,4118.461426,4108.205078,4124.102539,4137.436035,4133.333496,4118.974121,4130.769043,4130.256348,4135.384766,4155.384766,4141.538574,4128.717773,0.000000,4.000000,,,,0.000000,4.000000,4.000000,4.000000,4.000000,4.000000,4.000000,4.000000,4.000000,4.000000,4.000000,4.000000,4.000000,4.000000,4.000000,100.000000
1602006441.840889,30.000000,0.000000,4105.128418,4110.256348,4117.436035,4113.333496,4131.794922,4144.102539,4134.358887,4127.179688,4141.538574,4129.743652,4136.410156,4151.794922,4145.641113,4132.307617,0.000000,4.000000,,,,0.000000,4.000000,4.000000,4.000000,4.000000,4.000000,4.000000,4.000000,4.000000,4.000000,4.000000,4.000000,4.000000,4.000000,4.000000,100.000000
1602006441.848871,31.000000,0.000000,4133.846191,4127.179688,4132.820313,4131.282227,4141.025879,4156.410156,4148.205078,4140.512695,4157.948730,4136.410156,4143.077148,4162.051270,4154.871582,4141.538574,0.000000,4.000000,,,,0.000000,4.000000,4.000000,4.000000,4.000000,4.000000,4.000000,4.000000,4.000000,4.000000,4.000000,4.000000,4.000000,4.000000,4.000000,100.000000
1602006441.856752,32.000000,0.000000,4145.128418,4136.410156,4141.025879,4140.000000,4145.128418,4155.384766,4152.307617,4143.077148,4161.025879,4137.436035,4142.563965,4167.692383,4157.948730,4143.077148,0.000000,4.000000,,,,0.000000,4.000000,4.000000,4.000000,4.000000,4.000000,4.000000,4.000000,4.000000,4.000000,4.000000,4.000000,4.000000,4.000000,4.000000,100.000000
1602006441.864634,33.000000,0.000000,4136.922852,4136.922852,4136.922852,4135.384766,4143.077148,4153.846191,4142.563965,4145.641113,4162.563965,4135.897461,4142.051270,4162.563965,4157.948730,4137.948730,0.000000,4.000000,,,,0.000000,4.000000,4.000000,4.000000,4.000000,4.000000,4.000000,4.000000,4.000000,4.000000,4.000000,4.000000,4.000000,4.000000,4.000000,100.000000
1602006441.872516,34.000000,0.000000,4137.948730,4143.589844,4141.538574,4142.051270,4141.538574,4154.358887,4137.948730,4150.769043,4169.743652,4148.205078,4145.128418,4161.538574,4156.410156,4139.487305,0.000000,4.000000,,,,0.000000,4.000000,4.000000,4.000000,4.000000,4.000000,4.000000,4.000000,4.000000,4.000000,4.000000,4.000000,4.000000,4.000000,4.000000,100.000000
1602006441.880397,35.000000,0.000000,4145.641113,4152.820313,4154.358887,4153.846191,4141.025879,4146.153809,4142.051270,4148.205078,4162.563965,4155.897461,4143.589844,4166.153809,4155.384766,4141.538574,0.000000,4.000000,,,,0.000000,4.000000,4.000000,4.000000,4.000000,4.000000,4.000000,4.000000,4.000000,4.000000,4.000000,4.000000,4.000000,4.000000,4.000000,100.000000
1602006441.888279,36.000000,0.000000,4150.256348,4148.717773,4157.948730,4148.717773,4140.512695,4135.384766,4140.000000,4141.025879,4139.487305,4133.333496,4142.563965,4164.102539,4155.897461,4139.487305,0.000000,4.000000,,,,0.000000,4.000000,4.000000,4.000000,4.000000,4.000000,4.000000,4.000000,4.000000,4.000000,4.000000,4.000000,4.000000,4.000000,4.000000,100.000000
1602006441.896161,37.000000,0.000000,4145.641113,4137.948730,4149.230957,4136.922852,4133.333496,4133.846191,4130.256348,4132.307617,4117.436035,4117.436035,4139.487305,4157.436035,4144.102539,4138.461426,0.000000,4.000000,,,,0.000000,4.000000,4.000000,4.000000,4.000000,4.000000,4.000000,4.000000,4.000000,4.000000,4.000000,4.000000,4.000000,4.000000,4.000000,100.000000
1602006441.904042,38.000000,0.000000,4130.769043,4134.358887,4138.461426,4136.922852,4124.615234,4135.384766,4127.692383,4116.922852,4102.563965,4105.128418,4129.230957,4149.743652,4124.102539,4130.256348,0.000000,4.000000,,,,0.000000,4.000000,4.000000,4.000000,4.000000,4.000000,4.000000,4.000000,4.000000,4.000000,4.000000,4.000000,4.000000,4.000000,4.000000,100.000000
1602006441.911924,39.000000,0.000000,4119.487305,4129.230957,4133.846191,4138.974121,4122.051270,4136.922852,4132.307617,4109.230957,4100.000000,4074.871826,4119.487305,4138.974121,4117.948730,4110.256348,0.000000,4.000000,,,,0.000000,4.000000,4.000000,4.000000,4.000000,4.000000,4.000000,4.000000,4.000000,4.000000,4.000000,4.000000,4.000000,4.000000,4.000000,100.000000
1602006441.919705,40.000000,0.000000,4122.563965,4123.589844,4135.897461,4136.922852,4123.077148,4140.512695,4135.897461,4116.410156,4107.692383,4082.051270,4117.436035,4134.871582,4120.000000,4101.538574,0.000000,4.000000,,,,0.000000,4.000000,4.000000,4.000000,4.000000,4.000000,4.000000,4.000000,4.000000,4.000000,4.000000,4.000000,4.000000,4.000000,4.000000,100.000000
1602006441.927586,41.000000,0.000000,4129.230957,4129.230957,4136.410156,4138.461426,4124.102539,4142.051270,4129.743652,4122.563965,4124.102539,4125.128418,4121.025879,4138.974121,4122.563965,4115.384766,0.000000,4.000000,,,,0.000000,4.000000,4.000000,4.000000,4.000000,4.000000,4.000000,4.000000,4.000000,4.000000,4.000000,4.000000,4.000000,4.000000,4.000000,100.000000
1602006441.935468,42.000000,0.000000,4129.743652,4136.410156,4135.384766,4140.000000,4129.743652,4140.512695,4121.538574,4126.666504,4145.641113,4132.820313,4127.692383,4141.025879,4124.102539,4128.205078,0.000000,4.000000,,,,0.000000,4.000000,4.000000,4.000000,4.000000,4.000000,4.000000,4.000000,4.000000,4.000000,4.000000,4.000000,4.000000,4.000000,4.000000,100.000000
1602006441.943349,43.000000,0.000000,4122.563965,4136.410156,4137.436035,4138.974121,4135.897461,4140.000000,4124.615234,4134.358887,4156.922852,4123.589844,4120.512695,4142.563965,4126.153809,4127.179688,0.000000,4.000000,,,,0.000000,4.000000,4.000000,4.000000,4.000000,4.000000,4.000000,4.000000,4.000000,4.000000,4.000000,4.000000,4.000000,4.000000,4.000000,100.000000
1602006441.951230,44.000000,0.000000,4122.051270,4137.436035,4140.512695,4139.487305,4138.461426,4141.025879,4131.794922,4140.000000,4155.384766,4130.256348,4109.743652,4143.589844,4134.871582,4123.077148,0.000000,4.000000,,,,0.000000,4.000000,4.000000,4.000000,4.000000,4.000000,4.000000,4.000000,4.000000,4.000000,4.000000,4.000000,4.000000,4.000000,4.000000,100.000000
1602006441.959011,45.000000,0.000000,4135.384766,4141.538574,4141.025879,4142.051270,4136.922852,4136.410156,4130.256348,4138.974121,4145.128418,4114.358887,4119.487305,4139.487305,4140.000000,4123.589844,0.000000,4.000000,,,,0.000000,4.000000,4.000000,4.000000,4.000000,4.000000,4.000000,4.000000,4.000000,4.000000,4.000000,4.000000,4.000000,4.000000,4.000000,100.000000
1602006441.966893,46.000000,0.000000,4142.563965,4141.538574,4139.487305,4144.102539,4128.717773,4124.615234,4121.025879,4133.333496,4129.743652,4094.871826,4130.769043,4138.974121,4127.179688,4129.230957,0.000000,4.000000,,,,0.000000,4.000000,4.000000,4.000000,4.000000,4.000000,4.000000,4.000000,4.000000,4.000000,4.000000,4.000000,4.000000,4.000000,4.000000,100.000000
1602006441.974774,47.000000,0.000000,4142.051270,4141.538574,4141.538574,4144.102539,4129.230957,4122.563965,4121.538574,4127.692383,4125.641113,4106.666504,4126.153809,4149.743652,4126.666504,4138.974121,0.000000,4.000000,,,,0.000000,4.000000,4.000000,4.000000,4.000000,4.000000,4.000000,4.000000,4.000000,4.000000,4.000000,4.000000,4.000000,4.000000,4.000000,100.000000
1602006441.982656,48.000000,0.000000,4142.051270,4142.563965,4146.153809,4143.589844,4134.871582,4128.717773,4129.230957,4124.102539,4122.051270,4109.743652,4126.153809,4157.948730,4140.000000,4136.922852,0.000000,4.000000,,,,0.000000,4.000000,4.000000,4.000000,4.000000,4.000000,4.000000,4.000000,4.000000,4.000000,4.000000,4.000000,4.000000,4.000000,4.000000,100.000000
1602006441.990537,49.000000,0.000000,4141.025879,4138.974121,4142.563965,4140.512695,4127.692383,4127.692383,4129.743652,4122.563965,4111.282227,4102.563965,4124.615234,4155.897461,4135.384766,4128.205078,0.000000,4.000000,,,,0.000000,4.000000,4.000000,4.000000,4.000000,4.000000,4.000000,4.000000,4.000000,4.000000,4.000000,4.000000,4.000000,4.000000,4.000000,100.000000
1602006441.998418,50.000000,0.000000,4136.410156,4135.384766,4135.897461,4137.436035,4120.512695,4127.692383,4125.128418,4118.974121,4109.230957,4107.179688,4111.282227,4147.179688,4123.589844,4127.692383,0.000000,4.000000,,,,0.000000,4.000000,4.000000,4.000000,4.000000,4.000000,4.000000,4.000000,4.000000,4.000000,4.000000,4.000000,4.000000,4.000000,4.000000,100.000000
1602006442.006300,51.000000,0.000000,4135.384766,4135.897461,4136.410156,4135.897461,4127.179688,4135.897461,4128.205078,4122.563965,4118.974121,4103.077148,4110.256348,4136.410156,4123.077148,4123.589844,0.000000,4.000000,,,,0.000000,4.000000,4.000000,4.000000,4.000000,4.000000,4.000000,4.000000,4.000000,4.000000,4.000000,4.000000,4.000000,4.000000,4.000000,100.000000
1602006442.014281,52.000000,0.000000,4138.461426,4136.410156,4135.897461,4137.436035,4128.717773,4140.512695,4136.922852,4135.384766,4134.358887,4099.487305,4120.512695,4134.358887,4122.563965,4122.051270,0.000000,4.000000,,,,0.000000,4.000000,4.000000,4.000000,4.000000,4.000000,4.000000,4.000000,4.000000,4.000000,4.000000,4.000000,4.000000,4.000000,4.000000,100.000000
1602006442.022162,53.000000,0.000000,4136.922852,4138.461426,4128.717773,4140.512695,4126.153809,4141.025879,4138.461426,4143.589844,4146.153809,4117.436035,4125.641113,4143.077148,4125.641113,4130.769043,0.000000,4.000000,,,,0.000000,4.000000,4.000000,4.000000,4.000000,4.000000,4.000000,4.000000,4.000000,4.000000,4.000000,4.000000,4.000000,4.000000,4.000000,100.000000
1602006442.030044,54.000000,0.000000,4128.205078,4136.922852,4122.563965,4140.000000,4126.153809,4134.871582,4130.256348,4139.487305,4147.692383,4127.692383,4125.128418,4145.128418,4126.666504,4122.051270,0.000000,4.000000,,,,0.000000,4.000000,4.000000,4.000000,4.000000,4.000000,4.000000,4.000000,4.000000,4.000000,4.000000,4.000000,4.000000,4.000000,4.000000,100.000000
1602006442.037925,55.000000,0.000000,4122.563965,4126.666504,4117.436035,4134.358887,4121.538574,4122.563965,4123.589844,4135.384766,4150.256348,4128.205078,4116.410156,4131.794922,4120.512695,4103.589844,0.000000,4.000000,,,,0.000000,4.000000,4.000000,4.000000,4.000000,4.000000,4.000000,4.000000,4.000000,4.000000,4.000000,4.000000,4.000000,4.000000,4.000000,100.000000
1602006442.045807,56.000000,0.000000,4130.256348,4128.717773,4120.000000,4134.358887,4126.666504,4124.615234,4121.025879,4135.897461,4152.820313,4124.615234,4115.897461,4124.615234,4127.179688,4113.333496,0.000000,4.000000,,,,0.000000,4.000000,4.000000,4.000000,4.000000,4.000000,4.000000,4.000000,4.000000,4.000000,4.000000,4.000000,4.000000,4.000000,4.000000,100.000000
1602006442.053688,57.000000,0.000000,4136.410156,4146.666504,4131.794922,4140.000000,4140.000000,4135.897461,4122.563965,4132.307617,4143.589844,4107.179688,4135.897461,4133.846191,4141.538574,4133.846191,0.000000,4.000000,,,,0.000000,4.000000,4.000000,4.000000,4.000000,4.000000,4.000000,4.000000,4.000000,4.000000,4.000000,4.000000,4.000000,4.000000,4.000000,100.000000
1602006442.061570,58.000000,0.000000,4135.897461,4156.410156,4140.512695,4144.615234,4137.948730,4136.922852,4121.025879,4124.615234,4135.897461,4106.666504,4134.358887,4139.487305,4141.025879,4139.487305,0.000000,4.000000,,,,0.000000,4.000000,4.000000,4.000000,4.000000,4.000000,4.000000,4.000000,4.000000,4.000000,4.000000,4.000000,4.000000,4.000000,4.000000,100.000000
1602006442.069351,59.000000,0.000000,4144.615234,4150.769043,4147.179688,4144.615234,4129.230957,4133.846191,4115.384766,4119.487305,4130.769043,4127.692383,4106.153809,4133.846191,4136.922852,4140.000000,0.000000,4.000000,,,,0.000000,4.000000,4.000000,4.000000,4.000000,4.000000,4.000000,4.000000,4.000000,4.000000,4.000000,4.000000,4.000000,4.000000,4.000000,100.000000
1602006442.077233,60.000000,0.000000,4155.384766,4144.615234,4154.871582,4143.077148,4127.179688,4134.358887,4118.461426,4118.461426,4115.897461,4120.000000,4107.692383,4133.846191,4136.922852,4136.410156,0.000000,4.000000,,,,0.000000,4.000000,4.000000,4.000000,4.000000,4.000000,4.000000,4.000000,4.000000,4.000000,4.000000,4.000000,4.000000,4.000000,4.000000,100.000000
1602006442.085115,61.000000,0.000000,4153.333496,4143.077148,4151.794922,4141.538574,4125.641113,4133.333496,4125.128418,4119.487305,4106.666504,4101.538574,4132.307617,4141.025879,4130.256348,4126.153809,0.000000,4.000000,,,,0.000000,4.000000,4.000000,4.000000,4.000000,4.000000,4.000000,4.000000,4.000000,4.000000,4.000000,4.000000,4.000000,4.000000,4.000000,100.000000
1602006442.092996,62.000000,0.000000,4142.051270,4141.025879,4141.025879,4140.000000,4120.512695,4130.769043,4124.102539,4119.487305,4108.717773,4109.230957,4130.256348,4137.436035,4119.487305,4125.128418,0.000000,4.000000,,,,0.000000,4.000000,4.000000,4.000000,4.000000,4.000000,4.000000,4.000000,4.000000,4.000000,4.000000,4.000000,4.000000,4.000000,4.000000,100.000000
1602006442.100878,63.000000,0.000000,4130.769043,4137.436035,4136.922852,4135.897461,4118.461426,4125.128418,4125.128418,4122.051270,4107.692383,4105.128418,4111.794922,4126.666504,4113.846191,4124.615234,0.000000,4.000000,,,,0.000000,4.000000,4.000000,4.000000,4.000000,4.000000,4.000000,4.000000,4.000000,4.000000,4.000000,4.000000,4.000000,4.000000,4.000000,100.000000
1602006442.108759,64.000000,0.000000,4124.102539,4132.820313,4134.871582,4131.282227,4118.461426,4119.487305,4131.282227,4128.717773,4106.666504,4076.410156,4111.282227,4126.153809,4114.358887,4108.205078,793.000000,4.000000,,,,0.000000,4.000000,4.000000,4.000000,4.000000,4.000000,4.000000,4.000000,4.000000,4.000000,4.000000,4.000000,4.000000,4.000000,4.000000,100.000000
1602006442.116641,65.000000,0.000000,4131.282227,4135.384766,4136.922852,4134.358887,4121.538574,4121.538574,4131.282227,4137.948730,4117.948730,4078.461426,4125.128418,4137.436035,4122.051270,4106.153809,788.000000,4.000000,,,,0.000000,4.000000,4.000000,4.000000,4.000000,4.000000,4.000000,4.000000,4.000000,4.000000,4.000000,4.000000,4.000000,4.000000,4.000000,100.000000
1602006442.124523,66.000000,0.000000,4135.384766,4140.000000,4143.077148,4139.487305,4124.102539,4121.025879,4124.102539,4140.512695,4131.794922,4109.743652,4129.743652,4143.077148,4127.179688,4130.769043,853.000000,4.000000,,,,0.000000,4.000000,4.000000,4.000000,4.000000,4.000000,4.000000,4.000000,4.000000,4.000000,4.000000,4.000000,4.000000,4.000000,4.000000,100.000000
1602006442.132504,67.000000,0.000000,4126.666504,4136.410156,4140.000000,4138.461426,4123.077148,4118.974121,4120.000000,4132.820313,4135.897461,4127.179688,4123.589844,4140.000000,4129.230957,4145.641113,867.000000,4.000000,,,,0.000000,4.000000,4.000000,4.000000,4.000000,4.000000,4.000000,4.000000,4.000000,4.000000,4.000000,4.000000,4.000000,4.000000,4.000000,100.000000
1602006442.140385,68.000000,0.000000,4128.205078,4137.436035,4134.358887,4137.436035,4126.153809,4125.128418,4121.025879,4122.563965,4138.974121,4130.769043,4127.179688,4142.051270,4135.384766,4140.512695,813.000000,4.000000,,,,0.000000,4.000000,4.000000,4.000000,4.000000,4.000000,4.000000,4.000000,4.000000,4.000000,4.000000,4.000000,4.000000,4.000000,4.000000,100.000000
1602006442.148266,69.000000,0.000000,4134.871582,4142.051270,4132.820313,4140.512695,4129.743652,4127.692383,4117.948730,4115.897461,4138.974121,4128.717773,4137.948730,4142.051270,4134.871582,4135.384766,826.000000,4.000000,,,,0.000000,4.000000,4.000000,4.000000,4.000000,4.000000,4.000000,4.000000,4.000000,4.000000,4.000000,4.000000,4.000000,4.000000,4.000000,100.000000
1602006442.156147,70.000000,0.000000,4125.128418,4131.794922,4130.256348,4137.436035,4125.128418,4120.512695,4112.820313,4110.769043,4128.717773,4122.051270,4126.153809,4137.436035,4122.563965,4123.589844,769.000000,4.000000,,,,0.000000,4.000000,4.000000,4.000000,4.000000,4.000000,4.000000,4.000000,4.000000,4.000000,4.000000,4.000000,4.000000,4.000000,4.000000,100.000000
1602006442.164028,71.000000,0.000000,4115.897461,4122.563965,4124.615234,4127.179688,4118.974121,4120.512695,4115.897461,4111.794922,4126.153809,4122.563965,4104.615234,4132.820313,4115.897461,4111.794922,1002.000000,4.000000,,,,0.000000,4.000000,4.000000,4.000000,4.000000,4.000000,4.000000,4.000000,4.000000,4.000000,4.000000,4.000000,4.000000,4.000000,4.000000,100.000000
1602006442.171810,72.000000,0.000000,4127.179688,4131.794922,4123.589844,4128.205078,4121.538574,4134.358887,4125.641113,4125.641113,4138.974121,4132.307617,4111.282227,4134.358887,4124.615234,4124.102539,733.000000,4.000000,,,,0.000000,4.000000,4.000000,4.000000,4.000000,4.000000,4.000000,4.000000,4.000000,4.000000,4.000000,4.000000,4.000000,4.000000,4.000000,100.000000
1602006442.179692,73.000000,0.000000,4140.000000,4140.512695,4130.769043,4136.410156,4124.102539,4136.410156,4127.179688,4140.512695,4143.077148,4129.230957,4136.922852,4144.102539,4138.974121,4138.974121,835.000000,4.000000,,,,0.000000,4.000000,4.000000,4.000000,4.000000,4.000000,4.000000,4.000000,4.000000,4.000000,4.000000,4.000000,4.000000,4.000000,4.000000,100.000000
1602006442.187573,74.000000,0.000000,4141.025879,4137.948730,4140.000000,4137.436035,4120.512695,4125.128418,4123.077148,4143.077148,4136.410156,4113.846191,4142.563965,4148.717773,4144.102539,4137.948730,845.000000,4.000000,,,,0.000000,4.000000,4.000000,4.000000,4.000000,4.000000,4.000000,4.000000,4.000000,4.000000,4.000000,4.000000,4.000000,4.000000,4.000000,100.000000
1602006442.195455,75.000000,0.000000,4133.333496,4133.333496,4140.512695,4133.333496,4121.025879,4120.512695,4122.051270,4141.538574,4141.025879,4111.282227,4134.358887,4141.538574,4136.922852,4135.384766,844.000000,4.000000,,,,0.000000,4.000000,4.000000,4.000000,4.000000,4.000000,4.000000,4.000000,4.000000,4.000000,4.000000,4.000000,4.000000,4.000000,4.000000,100.000000
1602006442.203337,76.000000,0.000000,4126.666504,4126.666504,4131.282227,4129.230957,4122.563965,4117.948730,4117.436035,4134.871582,4141.538574,4118.461426,4130.769043,4135.384766,4126.153809,4132.307617,761.000000,4.000000,,,,0.000000,4.000000,4.000000,4.000000,4.000000,4.000000,4.000000,4.000000,4.000000,4.000000,4.000000,4.000000,4.000000,4.000000,4.000000,100.000000
1602006442.211218,77.000000,0.000000,4121.538574,4121.025879,4123.077148,4122.563965,4113.846191,4107.179688,4108.205078,4124.615234,4123.077148,4117.436035,4123.077148,4133.846191,4119.487305,4121.025879,737.000000,4.000000,,,,0.000000,4.000000,4.000000,4.000000,4.000000,4.000000,4.000000,4.000000,4.000000,4.000000,4.000000,4.000000,4.000000,4.000000,4.000000,100.000000
1602006442.219100,78.000000,0.000000,4112.820313,4121.538574,4120.512695,4121.538574,4110.256348,4103.589844,4107.179688,4122.051270,4118.461426,4111.794922,4106.666504,4125.641113,4111.282227,4106.666504,845.000000,4.000000,,,,0.000000,4.000000,4.000000,4.000000,4.000000,4.000000,4.000000,4.000000,4.000000,4.000000,4.000000,4.000000,4.000000,4.000000,4.000000,100.000000
1602006442.226982,79.000000,0.000000,4111.282227,4120.512695,4120.512695,4122.051270,4120.000000,4113.333496,4109.743652,4120.512695,4126.153809,4110.256348,4100.512695,4121.538574,4106.153809,4102.051270,844.000000,4.000000,,,,0.000000,4.000000,4.000000,4.000000,4.000000,4.000000,4.000000,4.000000,4.000000,4.000000,4.000000,4.000000,4.000000,4.000000,4.000000,100.000000
1602006442.234963,80.000000,0.000000,4124.102539,4122.051270,4125.128418,4121.025879,4124.102539,4122.563965,4110.256348,4111.282227,4120.000000,4108.717773,4110.256348,4131.794922,4112.820313,4113.846191,761.000000,4.000000,,,,0.000000,4.000000,4.000000,4.000000,4.000000,4.000000,4.000000,4.000000,4.000000,4.000000,4.000000,4.000000,4.000000,4.000000,4.000000,100.000000
1602006442.242843,81.000000,0.000000,4130.769043,4131.282227,4132.820313,4128.717773,4121.538574,4131.794922,4114.871582,4109.230957,4112.820313,4110.769043,4116.922852,4139.487305,4124.102539,4123.589844,737.000000,4.000000,,,,0.000000,4.000000,4.000000,4.000000,4.000000,4.000000,4.000000,4.000000,4.000000,4.000000,4.000000,4.000000,4.000000,4.000000,4.000000,100.000000
1602006442.250724,82.000000,0.000000,4124.615234,4136.410156,4136.922852,4135.384766,4125.641113,4138.974121,4122.563965,4115.897461,4118.974121,4108.205078,4114.358887,4140.512695,4122.563965,4120.512695,845.000000,4.000000,,,,0.000000,4.000000,4.000000,4.000000,4.000000,4.000000,4.000000,4.000000,4.000000,4.000000,4.000000,4.000000,4.000000,4.000000,4.000000,100.000000
1602006442.258506,83.000000,0.000000,4132.820313,4138.461426,4137.948730,4134.358887,4130.769043,4139.487305,4125.128418,4124.615234,4130.769043,4104.102539,4117.948730,4149.743652,4126.666504,4134.358887,844.000000,4.000000,,,,0.000000,4.000000,4.000000,4.000000,4.000000,4.000000,4.000000,4.000000,4.000000,4.000000,4.000000,4.000000,4.000000,4.000000,4.000000,100.000000
1602006442.266387,84.000000,0.000000,4152.820313,4142.563965,4144.102539,4137.436035,4130.256348,4141.025879,4126.666504,4136.922852,4140.000000,4125.641113,4128.205078,4165.641113,4142.051270,4158.461426,761.000000,4.000000,,,,0.000000,4.000000,4.000000,4.000000,4.000000,4.000000,4.000000,4.000000,4.000000,4.000000,4.000000,4.000000,4.000000,4.000000,4.000000,100.000000
1602006442.274269,85.000000,0.000000,4152.820313,4142.051270,4144.615234,4140.000000,4126.153809,4143.589844,4128.205078,4141.025879,4134.871582,4146.153809,4129.743652,4163.589844,4141.538574,4151.282227,737.000000,4.000000,,,,0.000000,4.000000,4.000000,4.000000,4.000000,4.000000,4.000000,4.000000,4.000000,4.000000,4.000000,4.000000,4.000000,4.000000,4.000000,100.000000
1602006442.282150,86.000000,0.000000,4133.846191,4135.897461,4134.358887,4129.230957,4120.000000,4134.358887,4123.589844,4134.358887,4122.563965,4133.846191,4120.000000,4143.589844,4121.538574,4127.692383,845.000000,4.000000,,,,0.000000,4.000000,4.000000,4.000000,4.000000,4.000000,4.000000,4.000000,4.000000,4.000000,4.000000,4.000000,4.000000,4.000000,4.000000,100.000000
1602006442.290031,87.000000,0.000000,4126.666504,4134.358887,4127.179688,4125.641113,4117.948730,4123.589844,4119.487305,4133.846191,4128.717773,4117.436035,4111.282227,4133.846191,4112.307617,4123.589844,844.000000,4.000000,,,,0.000000,4.000000,4.000000,4.000000,4.000000,4.000000,4.000000,4.000000,4.000000,4.000000,4.000000,4.000000,4.000000,4.000000,4.000000,100.000000
1602006442.297913,88.000000,0.000000,4128.717773,4135.897461,4124.615234,4132.307617,4120.512695,4130.256348,4124.615234,4138.461426,4137.948730,4114.871582,4108.205078,4135.897461,4117.948730,4125.641113,761.000000,4.000000,,,,0.000000,4.000000,4.000000,4.000000,4.000000,4.000000,4.000000,4.000000,4.000000,4.000000,4.000000,4.000000,4.000000,4.000000,4.000000,100.000000
1602006442.305894,89.000000,0.000000,4125.641113,4134.358887,4122.051270,4130.769043,4122.563965,4136.922852,4128.205078,4135.897461,4136.410156,4107.692383,4107.179688,4135.384766,4118.974121,4121.538574,737.000000,4.000000,,,,0.000000,4.000000,4.000000,4.000000,4.000000,4.000000,4.000000,4.000000,4.000000,4.000000,4.000000,4.000000,4.000000,4.000000,4.000000,100.000000
1602006442.313776,90.000000,0.000000,4131.282227,4134.358887,4121.025879,4128.205078,4126.153809,4134.358887,4127.179688,4130.256348,4137.436035,4096.410156,4105.128418,4133.333496,4118.461426,4127.179688,845.000000,4.000000,,,,0.000000,4.000000,4.000000,4.000000,4.000000,4.000000,4.000000,4.000000,4.000000,4.000000,4.000000,4.000000,4.000000,4.000000,4.000000,100.000000
1602006442.321658,91.000000,0.000000,4138.461426,4135.384766,4118.974121,4133.846191,4131.794922,4134.871582,4130.256348,4124.102539,4131.794922,4093.846191,4102.563965,4133.846191,4122.051270,4133.333496,844.000000,4.000000,,,,0.000000,4.000000,4.000000,4.000000,4.000000,4.000000,4.000000,4.000000,4.000000,4.000000,4.000000,4.000000,4.000000,4.000000,4.000000,100.000000
1602006442.329539,92.000000,0.000000,4138.461426,4136.922852,4122.051270,4140.512695,4138.974121,4147.692383,4137.436035,4128.717773,4127.179688,4110.256348,4106.153809,4136.922852,4124.102539,4129.230957,761.000000,4.000000,,,,0.000000,4.000000,4.000000,4.000000,4.000000,4.000000,4.000000,4.000000,4.000000,4.000000,4.000000,4.000000,4.000000,4.000000,4.000000,100.000000
1602006442.337421,93.000000,0.000000,4142.563965,4139.487305,4134.871582,4131.794922,4140.512695,4153.333496,4141.025879,4137.948730,4135.384766,4131.282227,4116.922852,4146.666504,4124.102539,4122.563965,737.000000,4.000000,,,,0.000000,4.000000,4.000000,4.000000,4.000000,4.000000,4.000000,4.000000,4.000000,4.000000,4.000000,4.000000,4.000000,4.000000,4.000000,100.000000
1602006442.345303,94.000000,0.000000,4140.512695,4137.948730,4142.563965,4123.077148,4132.307617,4142.563965,4138.974121,4136.922852,4140.512695,4132.820313,4126.153809,4151.794922,4131.794922,4125.641113,845.000000,4.000000,,,,0.000000,4.000000,4.000000,4.000000,4.000000,4.000000,4.000000,4.000000,4.000000,4.000000,4.000000,4.000000,4.000000,4.000000,4.000000,100.000000
1602006442.353184,95.000000,0.000000,4132.307617,4133.846191,4140.000000,4127.692383,4125.128418,4133.846191,4136.922852,4133.333496,4133.333496,4122.051270,4118.974121,4148.205078,4138.461426,4133.333496,844.000000,4.000000,,,,0.000000,4.000000,4.000000,4.000000,4.000000,4.000000,4.000000,4.000000,4.000000,4.000000,4.000000,4.000000,4.000000,4.000000,4.000000,100.000000
1602006442.361066,96.000000,0.000000,4133.333496,4135.384766,4134.358887,4131.282227,4126.666504,4135.384766,4138.461426,4136.922852,4137.948730,4125.128418,4106.666504,4140.512695,4128.205078,4133.846191,761.000000,4.000000,,,,0.000000,4.000000,4.000000,4.000000,4.000000,4.000000,4.000000,4.000000,4.000000,4.000000,4.000000,4.000000,4.000000,4.000000,4.000000,100.000000
1602006442.368948,97.000000,0.000000,4134.358887,4135.897461,4126.666504,4128.205078,4126.153809,4137.948730,4136.922852,4137.948730,4153.333496,4137.436035,4107.179688,4130.256348,4116.922852,4127.692383,737.000000,4.000000,,,,0.000000,4.000000,4.000000,4.000000,4.000000,4.000000,4.000000,4.000000,4.000000,4.000000,4.000000,4.000000,4.000000,4.000000,4.000000,100.000000
1602006442.376829,98.000000,0.000000,4119.487305,4129.230957,4121.025879,4125.128418,4118.974121,4137.436035,4128.205078,4136.922852,4148.205078,4136.410156,4106.153809,4126.666504,4117.948730,4116.922852,845.000000,4.000000,,,,0.000000,4.000000,4.000000,4.000000,4.000000,4.000000,4.000000,4.000000,4.000000,4.000000,4.000000,4.000000,4.000000,4.000000,4.000000,100.000000
1602006442.384611,99.000000,0.000000,4115.384766,4125.128418,4121.025879,4125.128418,4121.538574,4140.000000,4125.128418,4138.461426,4136.410156,4123.589844,4093.333252,4133.846191,4122.563965,4112.307617,844.000000,4.000000,,,,0.000000,4.000000,4.000000,4.000000,4.000000,4.000000,4.000000,4.000000,4.000000,4.000000,4.000000,4.000000,4.000000,4.000000,4.000000,100.000000
1602006442.392492,100.000000,0.000000,4130.256348,4125.128418,4123.589844,4124.102539,4130.769043,4140.512695,4127.179688,4133.846191,4141.538574,4114.871582,4094.871826,4137.948730,4123.589844,4114.871582,761.000000,4.000000,,,,0.000000,4.000000,4.000000,4.000000,4.000000,4.000000,4.000000,4.000000,4.000000,4.000000,4.000000,4.000000,4.000000,4.000000,4.000000,100.000000
1602006442.400374,101.000000,0.000000,4138.461426,4123.589844,4125.128418,4122.563965,4131.282227,4138.974121,4124.102539,4127.692383,4144.615234,4109.230957,4111.282227,4138.974121,4124.102539,4120.512695,737.000000,4.000000,,,,0.000000,4.000000,4.000000,4.000000,4.000000,4.000000,4.000000,4.000000,4.000000,4.000000,4.000000,4.000000,4.000000,4.000000,4.000000,100.000000
1602006442.408255,102.000000,0.000000,4135.897461,4121.025879,4123.077148,4122.051270,4130.769043,4138.974121,4129.743652,4127.179688,4135.384766,4100.512695,4116.410156,4147.179688,4123.589844,4124.102539,845.000000,4.000000,,,,0.000000,4.000000,4.000000,4.000000,4.000000,4.000000,4.000000,4.000000,4.000000,4.000000,4.000000,4.000000,4.000000,4.000000,4.000000,100.000000
1602006442.416136,103.000000,0.000000,4135.897461,4125.128418,4122.563965,4128.205078,4135.897461,4138.974121,4138.974121,4129.230957,4133.333496,4105.641113,4115.897461,4153.846191,4122.563965,4124.615234,844.000000,4.000000,,,,0.000000,4.000000,4.000000,4.000000,4.000000,4.000000,4.000000,4.000000,4.000000,4.000000,4.000000,4.000000,4.000000,4.000000,4.000000,100.000000
1602006442.424018,104.000000,0.000000,4143.589844,4135.384766,4134.871582,4136.922852,4138.974121,4136.922852,4132.820313,4133.846191,4139.487305,4132.307617,4122.563965,4159.487305,4128.205078,4132.307617,761.000000,4.000000,,,,0.000000,4.000000,4.000000,4.000000,4.000000,4.000000,4.000000,4.000000,4.000000,4.000000,4.000000,4.000000,4.000000,4.000000,4.000000,100.000000
1602006442.431999,105.000000,0.000000,4144.615234,4141.025879,4147.179688,4139.487305,4136.922852,4133.846191,4130.769043,4137.948730,4140.000000,4154.358887,4124.615234,4170.256348,4135.897461,4138.974121,737.000000,4.000000,,,,0.000000,4.000000,4.000000,4.000000,4.000000,4.000000,4.000000,4.000000,4.000000,4.000000,4.000000,4.000000,4.000000,4.000000,4.000000,100.000000
1602006442.439881,106.000000,0.000000,4136.922852,4138.974121,4141.538574,4139.487305,4134.871582,4133.846191,4137.436035,4132.820313,4133.846191,4148.717773,4123.589844,4167.179688,4138.974121,4137.948730,845.000000,4.000000,,,,0.000000,4.000000,4.000000,4.000000,4.000000,4.000000,4.000000,4.000000,4.000000,4.000000,4.000000,4.000000,4.000000,4.000000,4.000000,100.000000
1602006442.447763,107.000000,0.000000,4140.000000,4140.000000,4135.384766,4139.487305,4137.436035,4136.922852,4132.820313,4123.589844,4123.589844,4133.333496,4124.615234,4157.948730,4137.436035,4132.307617,844.000000,4.000000,,,,0.000000,4.000000,4.000000,4.000000,4.000000,4.000000,4.000000,4.000000,4.000000,4.000000,4.000000,4.000000,4.000000,4.000000,4.000000,100.000000
1602006442.455644,108.000000,0.000000,4143.077148,4142.051270,4138.461426,4135.897461,4137.436035,4138.974121,4124.615234,4120.000000,4118.461426,4123.077148,4117.436035,4154.358887,4133.333496,4118.461426,761.000000,4.000000,,,,0.000000,4.000000,4.000000,4.000000,4.000000,4.000000,4.000000,4.000000,4.000000,4.000000,4.000000,4.000000,4.000000,4.000000,4.000000,100.000000
1602006442.463526,109.000000,0.000000,4126.666504,4126.666504,4132.820313,4124.615234,4126.153809,4136.410156,4120.512695,4117.948730,4120.000000,4105.128418,4107.179688,4145.128418,4123.077148,4102.563965,737.000000,4.000000,,,,0.000000,4.000000,4.000000,4.000000,4.000000,4.000000,4.000000,4.000000,4.000000,4.000000,4.000000,4.000000,4.000000,4.000000,4.000000,100.000000
1602006442.471407,110.000000,0.000000,4118.461426,4114.358887,4127.179688,4121.025879,4116.922852,4134.358887,4120.512695,4119.487305,4117.948730,4103.077148,4110.769043,4138.461426,4119.487305,4106.666504,845.000000,4.000000,,,,0.000000,4.000000,4.000000,4.000000,4.000000,4.000000,4.000000,4.000000,4.000000,4.000000,4.000000,4.000000,4.000000,4.000000,4.000000,100.000000
1602006442.479289,111.000000,0.000000,4136.922852,4129.743652,4135.897461,4131.282227,4124.102539,4138.974121,4135.897461,4137.948730,4123.077148,4131.282227,4121.538574,4156.410156,4129.743652,4124.102539,844.000000,4.000000,,,,0.000000,4.000000,4.000000,4.000000,4.000000,4.000000,4.000000,4.000000,4.000000,4.000000,4.000000,4.000000,4.000000,4.000000,4.000000,100.000000
1602006442.487171,112.000000,0.000000,4145.641113,4137.948730,4139.487305,4138.974121,4127.179688,4143.077148,4155.897461,4155.384766,4135.384766,4139.487305,4123.589844,4174.358887,4130.769043,4127.179688,761.000000,4.000000,,,,0.000000,4.000000,4.000000,4.000000,4.000000,4.000000,4.000000,4.000000,4.000000,4.000000,4.000000,4.000000,4.000000,4.000000,4.000000,100.000000
1602006442.495052,113.000000,0.000000,4134.871582,4124.102539,4133.846191,4137.436035,4120.000000,4134.871582,4160.512695,4153.846191,4138.974121,4123.589844,4123.589844,4166.666504,4123.589844,4121.025879,737.000000,4.000000,,,,0.000000,4.000000,4.000000,4.000000,4.000000,4.000000,4.000000,4.000000,4.000000,4.000000,4.000000,4.000000,4.000000,4.000000,4.000000,100.000000
1602006442.503034,114.000000,0.000000,4138.974121,4121.025879,4139.487305,4138.461426,4120.000000,4128.205078,4154.358887,4146.153809,4139.487305,4128.205078,4125.641113,4158.974121,4123.589844,4124.102539,845.000000,4.000000,,,,0.000000,4.000000,4.000000,4.000000,4.000000,4.000000,4.000000,4.000000,4.000000,4.000000,4.000000,4.000000,4.000000,4.000000,4.000000,100.000000
1602006442.510915,115.000000,0.000000,4149.743652,4128.717773,4143.589844,4137.436035,4122.563965,4136.410156,4145.128418,4140.512695,4142.563965,4133.846191,4122.051270,4161.538574,4124.615234,4126.666504,844.000000,4.000000,,,,0.000000,4.000000,4.000000,4.000000,4.000000,4.000000,4.000000,4.000000,4.000000,4.000000,4.000000,4.000000,4.000000,4.000000,4.000000,100.000000
1602006442.518796,116.000000,0.000000,4142.051270,4124.615234,4137.436035,4128.717773,4121.538574,4136.922852,4131.794922,4126.153809,4138.974121,4117.948730,4123.589844,4162.563965,4120.512695,4124.102539,761.000000,4.000000,,,,0.000000,4.000000,4.000000,4.000000,4.000000,4.000000,4.000000,4.000000,4.000000,4.000000,4.000000,4.000000,4.000000,4.000000,4.000000,100.000000
1602006442.526678,117.000000,0.000000,4133.333496,4119.487305,4135.384766,4123.077148,4123.589844,4124.615234,4118.461426,4110.769043,4129.743652,4106.666504,4125.128418,4156.922852,4115.897461,4120.000000,737.000000,4.000000,,,,0.000000,4.000000,4.000000,4.000000,4.000000,4.000000,4.000000,4.000000,4.000000,4.000000,4.000000,4.000000,4.000000,4.000000,4.000000,100.000000
1602006442.534559,118.000000,0.000000,4135.897461,4123.077148,4135.384766,4125.128418,4126.666504,4130.256348,4109.743652,4105.641113,4127.179688,4111.794922,4110.256348,4144.102539,4109.230957,4114.871582,845.000000,4.000000,,,,0.000000,4.000000,4.000000,4.000000,4.000000,4.000000,4.000000,4.000000,4.000000,4.000000,4.000000,4.000000,4.000000,4.000000,4.000000,100.000000
1602006442.542441,119.000000,0.000000,4133.333496,4123.077148,4133.846191,4129.230957,4127.179688,4138.461426,4105.128418,4104.102539,4127.179688,4127.692383,4104.615234,4136.922852,4107.692383,4110.256348,844.000000,4.000000,,,,0.000000,4.000000,4.000000,4.000000,4.000000,4.000000,4.000000,4.000000,4.000000,4.000000,4.000000,4.000000,4.000000,4.000000,4.000000,100.000000
1602006442.550222,120.000000,0.000000,4120.000000,4121.025879,4134.358887,4134.358887,4131.794922,4127.179688,4103.077148,4107.179688,4128.205078,4139.487305,4121.025879,4147.692383,4116.410156,4103.589844,761.000000,4.000000,,,,0.000000,4.000000,4.000000,4.000000,4.000000,4.000000,4.000000,4.000000,4.000000,4.000000,4.000000,4.000000,4.000000,4.000000,4.000000,100.000000
1602006442.558103,121.000000,0.000000,4121.538574,4128.717773,4136.410156,4136.922852,4134.871582,4125.128418,4111.282227,4118.461426,4128.205078,4131.794922,4123.589844,4162.563965,4123.077148,4110.769043,737.000000,4.000000,,,,0.000000,4.000000,4.000000,4.000000,4.000000,4.000000,4.000000,4.000000,4.000000,4.000000,4.000000,4.000000,4.000000,4.000000,4.000000,100.000000
1602006442.566083,122.000000,0.000000,4140.000000,4140.512695,4136.922852,4138.974121,4130.256348,4134.358887,4126.666504,4124.615234,4118.461426,4117.948730,4115.897461,4163.589844,4130.256348,4131.794922,845.000000,4.000000,,,,0.000000,4.000000,4.000000,4.000000,4.000000,4.000000,4.000000,4.000000,4.000000,4.000000,4.000000,4.000000,4.000000,4.000000,4.000000,100.000000
1602006442.573964,123.000000,0.000000,4146.153809,4143.077148,4136.922852,4140.000000,4123.589844,4130.256348,4135.897461,4124.615234,4107.692383,4122.051270,4127.179688,4160.000000,4138.974121,4135.384766,844.000000,4.000000,,,,0.000000,4.000000,4.000000,4.000000,4.000000,4.000000,4.000000,4.000000,4.000000,4.000000,4.000000,4.000000,4.000000,4.000000,4.000000,100.000000
1602006442.581945,124.000000,0.000000,4141.538574,4137.436035,4137.948730,4138.461426,4121.025879,4123.077148,4145.128418,4129.230957,4109.743652,4120.000000,4136.922852,4163.077148,4133.846191,4125.641113,761.000000,4.000000,,,,0.000000,4.000000,4.000000,4.000000,4.000000,4.000000,4.000000,4.000000,4.000000,4.000000,4.000000,4.000000,4.000000,4.000000,4.000000,100.000000
1602006442.589826,125.000000,0.000000,4141.025879,4135.897461,4144.102539,4137.948730,4119.487305,4130.256348,4153.333496,4136.922852,4115.384766,4109.230957,4134.358887,4168.717773,4124.615234,4133.333496,737.000000,4.000000,,,,0.000000,4.000000,4.000000,4.000000,4.000000,4.000000,4.000000,4.000000,4.000000,4.000000,4.000000,4.000000,4.000000,4.000000,4.000000,100.000000
1602006442.597608,126.000000,0.000000,4138.974121,4135.897461,4145.641113,4136.410156,4118.461426,4135.897461,4147.692383,4138.974121,4117.948730,4109.743652,4135.897461,4170.256348,4130.256348,4143.589844,845.000000,4.000000,,,,0.000000,4.000000,4.000000,4.000000,4.000000,4.000000,4.000000,4.000000,4.000000,4.000000,4.000000,4.000000,4.000000,4.000000,4.000000,100.000000
1602006442.605489,127.000000,0.000000,4133.846191,4133.333496,4139.487305,4133.846191,4120.000000,4136.410156,4140.512695,4138.974121,4128.205078,4120.512695,4138.974121,4169.743652,4138.461426,4138.974121,844.000000,4.000000,,,,0.000000,4.000000,4.000000,4.000000,4.000000,4.000000,4.000000,4.000000,4.000000,4.000000,4.000000,4.000000,4.000000,4.000000,4.000000,100.000000
1602006442.613370,128.000000,0.000000,4134.871582,4135.384766,4147.179688,4138.461426,4123.589844,4135.897461,4137.948730,4141.025879,4140.000000,4136.410156,4138.461426,4167.692383,4138.461426,4134.871582,761.000000,4.000000,,,,0.000000,4.000000,4.000000,4.000000,4.000000,4.000000,4.000000,4.000000,4.000000,4.000000,4.000000,4.000000,4.000000,4.000000,4.000000,100.000000
1602006442.621252,0.000000,0.000000,4138.974121,4137.948730,4154.871582,4136.922852,4124.615234,4130.256348,4126.666504,4135.384766,4136.922852,4141.025879,4134.358887,4159.487305,4139.487305,4137.948730,793.000000,4.000000,,,,0.000000,4.000000,4.000000,4.000000,4.000000,4.000000,4.000000,4.000000,4.000000,4.000000,4.000000,4.000000,4.000000,4.000000,4.000000,100.000000
