Timestamp,EEG.Counter,EEG.Interpolated,EEG.AF3,EEG.F7,EEG.F3,EEG.FC5,EEG.T7,EEG.P7,EEG.O1,EEG.O2,EEG.P8,EEG.T8,EEG.FC6,EEG.F4,EEG.F8,EEG.AF4,EEG.RawCq,EEG.Battery,MarkerIndex,MarkerType,MarkerValueInt,EEG.MarkerHardware,CQ.AF3,CQ.F7,CQ.F3,CQ.FC5,CQ.T7,CQ.P7,CQ.O1,CQ.O2,CQ.P8,CQ.T8,CQ.FC6,CQ.F4,CQ.F8,CQ.AF4,CQ.Overall
1602006450.990265,30.000000,0.000000,4135.384766,4126.153809,4139.487305,4137.436035,4126.666504,4128.205078,4123.077148,4131.794922,4125.641113,4126.666504,4151.794922,4145.128418,4145.128418,4144.615234,0.000000,4.000000,,,,0.000000,4.000000,4.000000,4.000000,4.000000,4.000000,4.000000,4.000000,4.000000,4.000000,4.000000,4.000000,4.000000,4.000000,4.000000,100.000000
1602006450.998046,31.000000,0.000000,4136.410156,4125.641113,4137.948730,4132.820313,4123.589844,4128.717773,4120.000000,4138.461426,4134.358887,4137.948730,4158.461426,4147.692383,4154.358887,4155.897461,0.000000,4.000000,,,,0.000000,4.000000,4.000000,4.000000,4.000000,4.000000,4.000000,4.000000,4.000000,4.000000,4.000000,4.000000,4.000000,4.000000,4.000000,100.000000
1602006451.005928,32.000000,0.000000,4141.025879,4126.666504,4135.384766,4126.666504,4123.589844,4137.948730,4126.153809,4140.000000,4140.000000,4149.743652,4150.769043,4145.641113,4155.897461,4162.563965,0.000000,4.000000,,,,0.000000,4.000000,4.000000,4.000000,4.000000,4.000000,4.000000,4.000000,4.000000,4.000000,4.000000,4.000000,4.000000,4.000000,4.000000,100.000000
1602006451.013809,33.000000,0.000000,4128.717773,4117.436035,4124.615234,4122.563965,4122.563965,4141.538574,4137.948730,4140.512695,4121.025879,4144.102539,4131.282227,4137.436035,4143.589844,4141.025879,0.000000,4.000000,,,,0.000000,4.000000,4.000000,4.000000,4.000000,4.000000,4.000000,4.000000,4.000000,4.000000,4.000000,4.000000,4.000000,4.000000,4.000000,100.000000
1602006451.021691,34.000000,0.000000,4114.871582,4105.128418,4116.410156,4118.974121,4121.025879,4136.410156,4140.000000,4140.000000,4106.153809,4121.025879,4128.205078,4125.128418,4133.846191,4126.153809,0.000000,4.000000,,,,0.000000,4.000000,4.000000,4.000000,4.000000,4.000000,4.000000,4.000000,4.000000,4.000000,4.000000,4.000000,4.000000,4.000000,4.000000,100.000000
1602006451.029572,35.000000,0.000000,4121.025879,4110.256348,4122.051270,4118.461426,4121.025879,4128.717773,4134.871582,4133.846191,4106.153809,4116.922852,4140.000000,4123.077148,4135.897461,4134.358887,0.000000,4.000000,,,,0.000000,4.000000,4.000000,4.000000,4.000000,4.000000,4.000000,4.000000,4.000000,4.000000,4.000000,4.000000,4.000000,4.000000,4.000000,100.000000
1602006451.037453,36.000000,0.000000,4125.128418,4121.538574,4131.794922,4122.563965,4120.512695,4121.025879,4130.256348,4127.179688,4113.846191,4128.205078,4136.922852,4126.666504,4138.461426,4142.563965,0.000000,4.000000,,,,0.000000,4.000000,4.000000,4.000000,4.000000,4.000000,4.000000,4.000000,4.000000,4.000000,4.000000,4.000000,4.000000,4.000000,4.000000,100.000000
1602006451.045335,37.000000,0.000000,4124.615234,4122.563965,4136.410156,4125.641113,4123.589844,4119.487305,4126.153809,4126.666504,4131.282227,4125.641113,4130.256348,4126.153809,4138.461426,4137.948730,0.000000,4.000000,,,,0.000000,4.000000,4.000000,4.000000,4.000000,4.000000,4.000000,4.000000,4.000000,4.000000,4.000000,4.000000,4.000000,4.000000,4.000000,100.000000
1602006451.053117,38.000000,0.000000,4126.153809,4120.000000,4129.743652,4121.538574,4125.128418,4123.077148,4119.487305,4125.128418,4141.025879,4125.641113,4138.461426,4122.051270,4138.974121,4135.384766,0.000000,4.000000,,,,0.000000,4.000000,4.000000,4.000000,4.000000,4.000000,4.000000,4.000000,4.000000,4.000000,4.000000,4.000000,4.000000,4.000000,4.000000,100.000000
1602006451.060998,39.000000,0.000000,4125.128418,4123.077148,4124.615234,4119.487305,4125.128418,4132.307617,4119.487305,4122.563965,4144.615234,4149.230957,4143.077148,4123.077148,4136.410156,4141.538574,0.000000,4.000000,,,,0.000000,4.000000,4.000000,4.000000,4.000000,4.000000,4.000000,4.000000,4.000000,4.000000,4.000000,4.000000,4.000000,4.000000,4.000000,100.000000
1602006451.068880,40.000000,0.000000,4122.563965,4119.487305,4125.641113,4122.563965,4126.666504,4140.512695,4123.077148,4125.128418,4149.230957,4156.410156,4131.282227,4126.153809,4127.692383,4136.410156,0.000000,4.000000,,,,0.000000,4.000000,4.000000,4.000000,4.000000,4.000000,4.000000,4.000000,4.000000,4.000000,4.000000,4.000000,4.000000,4.000000,4.000000,100.000000
1602006451.076762,41.000000,0.000000,4122.051270,4108.205078,4116.922852,4117.948730,4121.025879,4131.282227,4123.589844,4126.666504,4145.128418,4130.769043,4120.512695,4122.051270,4114.358887,4126.666504,0.000000,4.000000,,,,0.000000,4.000000,4.000000,4.000000,4.000000,4.000000,4.000000,4.000000,4.000000,4.000000,4.000000,4.000000,4.000000,4.000000,4.000000,100.000000
1602006451.084643,42.000000,0.000000,4121.025879,4103.589844,4108.717773,4109.743652,4111.794922,4120.512695,4122.563965,4127.692383,4131.282227,4104.615234,4122.563965,4113.333496,4105.128418,4123.077148,0.000000,4.000000,,,,0.000000,4.000000,4.000000,4.000000,4.000000,4.000000,4.000000,4.000000,4.000000,4.000000,4.000000,4.000000,4.000000,4.000000,4.000000,100.000000
1602006451.092525,43.000000,0.000000,4107.692383,4105.128418,4109.230957,4107.179688,4107.179688,4122.051270,4122.563965,4134.358887,4118.974121,4099.487305,4119.487305,4104.102539,4104.615234,4114.871582,0.000000,4.000000,,,,0.000000,4.000000,4.000000,4.000000,4.000000,4.000000,4.000000,4.000000,4.000000,4.000000,4.000000,4.000000,4.000000,4.000000,4.000000,100.000000
1602006451.100406,44.000000,0.000000,4094.871826,4105.128418,4110.769043,4110.256348,4104.615234,4121.538574,4128.205078,4139.487305,4120.000000,4117.436035,4114.871582,4103.589844,4105.641113,4110.256348,0.000000,4.000000,,,,0.000000,4.000000,4.000000,4.000000,4.000000,4.000000,4.000000,4.000000,4.000000,4.000000,4.000000,4.000000,4.000000,4.000000,4.000000,100.000000
1602006451.108288,45.000000,0.000000,4107.692383,4106.153809,4116.922852,4119.487305,4111.282227,4119.487305,4135.384766,4138.974121,4123.077148,4136.410156,4128.717773,4112.307617,4108.717773,4118.461426,0.000000,4.000000,,,,0.000000,4.000000,4.000000,4.000000,4.000000,4.000000,4.000000,4.000000,4.000000,4.000000,4.000000,4.000000,4.000000,4.000000,4.000000,100.000000
1602006451.116170,46.000000,0.000000,4127.179688,4110.256348,4125.641113,4123.077148,4118.461426,4125.641113,4136.922852,4139.487305,4117.436035,4123.589844,4141.538574,4115.384766,4113.846191,4121.538574,0.000000,4.000000,,,,0.000000,4.000000,4.000000,4.000000,4.000000,4.000000,4.000000,4.000000,4.000000,4.000000,4.000000,4.000000,4.000000,4.000000,4.000000,100.000000
1602006451.124151,47.000000,0.000000,4121.025879,4112.820313,4123.077148,4115.897461,4113.333496,4129.743652,4133.846191,4135.897461,4111.794922,4111.282227,4129.743652,4105.641113,4113.846191,4118.461426,0.000000,4.000000,,,,0.000000,4.000000,4.000000,4.000000,4.000000,4.000000,4.000000,4.000000,4.000000,4.000000,4.000000,4.000000,4.000000,4.000000,4.000000,100.000000
1602006451.132032,48.000000,0.000000,4108.205078,4117.436035,4117.948730,4115.897461,4112.307617,4131.794922,4131.282227,4131.794922,4122.563965,4132.820313,4117.436035,4105.128418,4114.871582,4121.025879,0.000000,4.000000,,,,0.000000,4.000000,4.000000,4.000000,4.000000,4.000000,4.000000,4.000000,4.000000,4.000000,4.000000,4.000000,4.000000,4.000000,4.000000,100.000000
1602006451.139913,49.000000,0.000000,4116.922852,4122.051270,4122.051270,4124.102539,4119.487305,4133.846191,4132.307617,4135.384766,4137.436035,4140.512695,4123.077148,4120.512695,4126.666504,4124.102539,0.000000,4.000000,,,,0.000000,4.000000,4.000000,4.000000,4.000000,4.000000,4.000000,4.000000,4.000000,4.000000,4.000000,4.000000,4.000000,4.000000,4.000000,100.000000
1602006451.147794,50.000000,0.000000,4126.666504,4121.538574,4124.102539,4123.589844,4119.487305,4129.230957,4133.846191,4139.487305,4143.077148,4126.666504,4136.922852,4125.128418,4140.512695,4132.307617,0.000000,4.000000,,,,0.000000,4.000000,4.000000,4.000000,4.000000,4.000000,4.000000,4.000000,4.000000,4.000000,4.000000,4.000000,4.000000,4.000000,4.000000,100.000000
1602006451.155576,51.000000,0.000000,4124.102539,4120.512695,4122.563965,4121.538574,4116.922852,4123.589844,4130.256348,4137.948730,4142.051270,4131.282227,4142.563965,4116.922852,4139.487305,4137.436035,0.000000,4.000000,,,,0.000000,4.000000,4.000000,4.000000,4.000000,4.000000,4.000000,4.000000,4.000000,4.000000,4.000000,4.000000,4.000000,4.000000,4.000000,100.000000
1602006451.163458,52.000000,0.000000,4123.077148,4120.000000,4122.051270,4122.051270,4119.487305,4123.077148,4124.615234,4134.871582,4138.974121,4141.538574,4137.948730,4118.974121,4129.230957,4128.205078,0.000000,4.000000,,,,0.000000,4.000000,4.000000,4.000000,4.000000,4.000000,4.000000,4.000000,4.000000,4.000000,4.000000,4.000000,4.000000,4.000000,4.000000,100.000000
1602006451.171339,53.000000,0.000000,4124.615234,4120.512695,4123.589844,4121.538574,4120.512695,4122.563965,4125.128418,4136.922852,4140.512695,4145.641113,4137.948730,4131.794922,4130.256348,4130.256348,0.000000,4.000000,,,,0.000000,4.000000,4.000000,4.000000,4.000000,4.000000,4.000000,4.000000,4.000000,4.000000,4.000000,4.000000,4.000000,4.000000,4.000000,100.000000
1602006451.179221,54.000000,0.000000,4122.563965,4124.615234,4121.538574,4124.102539,4123.077148,4121.538574,4126.666504,4141.538574,4142.051270,4150.256348,4144.615234,4143.077148,4140.000000,4138.461426,0.000000,4.000000,,,,0.000000,4.000000,4.000000,4.000000,4.000000,4.000000,4.000000,4.000000,4.000000,4.000000,4.000000,4.000000,4.000000,4.000000,4.000000,100.000000
1602006451.187103,55.000000,0.000000,4127.692383,4128.717773,4121.025879,4126.666504,4125.641113,4123.077148,4124.102539,4134.871582,4138.974121,4142.563965,4143.589844,4153.333496,4141.538574,4136.410156,0.000000,4.000000,,,,0.000000,4.000000,4.000000,4.000000,4.000000,4.000000,4.000000,4.000000,4.000000,4.000000,4.000000,4.000000,4.000000,4.000000,4.000000,100.000000
1602006451.194984,56.000000,0.000000,4132.820313,4127.179688,4130.769043,4124.102539,4124.102539,4123.077148,4122.051270,4124.615234,4129.743652,4121.538574,4133.333496,4155.384766,4138.461426,4144.615234,0.000000,4.000000,,,,0.000000,4.000000,4.000000,4.000000,4.000000,4.000000,4.000000,4.000000,4.000000,4.000000,4.000000,4.000000,4.000000,4.000000,4.000000,100.000000
1602006451.202866,57.000000,0.000000,4127.179688,4126.666504,4134.358887,4122.563965,4121.538574,4122.563965,4123.589844,4120.512695,4117.436035,4115.897461,4135.384766,4142.563965,4138.461426,4146.666504,0.000000,4.000000,,,,0.000000,4.000000,4.000000,4.000000,4.000000,4.000000,4.000000,4.000000,4.000000,4.000000,4.000000,4.000000,4.000000,4.000000,4.000000,100.000000
1602006451.210748,58.000000,0.000000,4129.230957,4131.794922,4128.205078,4123.589844,4120.512695,4126.153809,4130.769043,4121.025879,4120.000000,4129.743652,4145.641113,4140.512695,4135.897461,4129.230957,0.000000,4.000000,,,,0.000000,4.000000,4.000000,4.000000,4.000000,4.000000,4.000000,4.000000,4.000000,4.000000,4.000000,4.000000,4.000000,4.000000,4.000000,100.000000
1602006451.218629,59.000000,0.000000,4140.000000,4138.461426,4131.794922,4127.179688,4125.641113,4137.948730,4138.974121,4126.153809,4135.897461,4143.077148,4143.589844,4153.333496,4139.487305,4129.230957,0.000000,4.000000,,,,0.000000,4.000000,4.000000,4.000000,4.000000,4.000000,4.000000,4.000000,4.000000,4.000000,4.000000,4.000000,4.000000,4.000000,4.000000,100.000000
1602006451.226610,60.000000,0.000000,4145.641113,4137.436035,4137.436035,4130.256348,4128.717773,4144.615234,4141.025879,4135.897461,4146.153809,4150.769043,4136.922852,4155.897461,4149.743652,4142.563965,0.000000,4.000000,,,,0.000000,4.000000,4.000000,4.000000,4.000000,4.000000,4.000000,4.000000,4.000000,4.000000,4.000000,4.000000,4.000000,4.000000,4.000000,100.000000
1602006451.234491,61.000000,0.000000,4149.743652,4132.820313,4140.512695,4132.307617,4123.589844,4133.333496,4139.487305,4140.512695,4155.384766,4151.282227,4141.025879,4155.384766,4153.333496,4143.077148,0.000000,4.000000,,,,0.000000,4.000000,4.000000,4.000000,4.000000,4.000000,4.000000,4.000000,4.000000,4.000000,4.000000,4.000000,4.000000,4.000000,4.000000,100.000000
1602006451.242373,62.000000,0.000000,4155.897461,4140.512695,4150.769043,4137.948730,4124.102539,4122.051270,4137.948730,4139.487305,4168.717773,4154.871582,4145.128418,4166.666504,4163.077148,4147.179688,0.000000,4.000000,,,,0.000000,4.000000,4.000000,4.000000,4.000000,4.000000,4.000000,4.000000,4.000000,4.000000,4.000000,4.000000,4.000000,4.000000,4.000000,100.000000
1602006451.250353,63.000000,0.000000,4148.717773,4139.487305,4154.871582,4135.897461,4129.230957,4125.128418,4136.922852,4141.025879,4173.846191,4162.051270,4145.641113,4174.358887,4173.333496,4156.410156,0.000000,4.000000,,,,0.000000,4.000000,4.000000,4.000000,4.000000,4.000000,4.000000,4.000000,4.000000,4.000000,4.000000,4.000000,4.000000,4.000000,4.000000,100.000000
1602006451.258234,64.000000,0.000000,4130.769043,4120.512695,4146.153809,4122.563965,4125.641113,4126.666504,4135.897461,4140.000000,4166.153809,4152.307617,4153.846191,4167.692383,4163.589844,4152.820313,793.000000,4.000000,,,,0.000000,4.000000,4.000000,4.000000,4.000000,4.000000,4.000000,4.000000,4.000000,4.000000,4.000000,4.000000,4.000000,4.000000,4.000000,100.000000
1602006451.266016,65.000000,0.000000,4140.512695,4130.256348,4148.205078,4128.205078,4122.051270,4123.589844,4134.871582,4133.846191,4150.256348,4132.307617,4162.051270,4158.461426,4154.358887,4151.794922,794.000000,4.000000,,,,0.000000,4.000000,4.000000,4.000000,4.000000,4.000000,4.000000,4.000000,4.000000,4.000000,4.000000,4.000000,4.000000,4.000000,4.000000,100.000000
1602006451.273897,66.000000,0.000000,4178.461426,4166.666504,4155.384766,4151.794922,4131.282227,4126.666504,4135.897461,4129.230957,4142.051270,4138.974121,4154.358887,4153.846191,4156.410156,4160.512695,853.000000,4.000000,,,,0.000000,4.000000,4.000000,4.000000,4.000000,4.000000,4.000000,4.000000,4.000000,4.000000,4.000000,4.000000,4.000000,4.000000,4.000000,100.000000
1602006451.281778,67.000000,0.000000,4193.333496,4176.410156,4154.871582,4156.410156,4135.384766,4127.692383,4136.410156,4129.743652,4144.615234,4155.384766,4138.974121,4150.769043,4148.717773,4153.333496,867.000000,4.000000,,,,0.000000,4.000000,4.000000,4.000000,4.000000,4.000000,4.000000,4.000000,4.000000,4.000000,4.000000,4.000000,4.000000,4.000000,4.000000,100.000000
1602006451.289659,68.000000,0.000000,4181.025879,4166.666504,4154.871582,4144.615234,4128.205078,4127.692383,4135.384766,4135.384766,4141.538574,4143.077148,4134.358887,4153.846191,4134.358887,4132.820313,814.000000,4.000000,,,,0.000000,4.000000,4.000000,4.000000,4.000000,4.000000,4.000000,4.000000,4.000000,4.000000,4.000000,4.000000,4.000000,4.000000,4.000000,100.000000
1602006451.297540,69.000000,0.000000,4184.615234,4167.179688,4157.436035,4143.077148,4125.641113,4138.461426,4140.512695,4142.051270,4138.461426,4131.794922,4135.384766,4162.051270,4127.692383,4126.153809,817.000000,4.000000,,,,0.000000,4.000000,4.000000,4.000000,4.000000,4.000000,4.000000,4.000000,4.000000,4.000000,4.000000,4.000000,4.000000,4.000000,4.000000,100.000000
1602006451.305322,70.000000,0.000000,4187.692383,4161.538574,4156.410156,4142.563965,4121.538574,4135.384766,4140.512695,4139.487305,4144.102539,4137.948730,4118.974121,4163.077148,4116.410156,4122.051270,762.000000,4.000000,,,,0.000000,4.000000,4.000000,4.000000,4.000000,4.000000,4.000000,4.000000,4.000000,4.000000,4.000000,4.000000,4.000000,4.000000,4.000000,100.000000
1602006451.313204,71.000000,0.000000,4169.230957,4149.230957,4151.794922,4136.922852,4113.846191,4117.948730,4125.641113,4125.641113,4136.922852,4127.692383,4099.487305,4153.333496,4103.589844,4103.077148,674.000000,4.000000,,,,0.000000,4.000000,4.000000,4.000000,4.000000,4.000000,4.000000,4.000000,4.000000,4.000000,4.000000,4.000000,4.000000,4.000000,4.000000,100.000000
1602006451.321085,72.000000,0.000000,4164.615234,4151.794922,4151.282227,4135.897461,4116.410156,4117.436035,4119.487305,4125.128418,4124.102539,4105.128418,4104.615234,4151.794922,4105.128418,4105.128418,791.000000,4.000000,,,,0.000000,4.000000,4.000000,4.000000,4.000000,4.000000,4.000000,4.000000,4.000000,4.000000,4.000000,4.000000,4.000000,4.000000,4.000000,100.000000
1602006451.328967,73.000000,0.000000,4177.436035,4156.922852,4155.384766,4135.897461,4120.512695,4125.128418,4126.153809,4135.384766,4130.256348,4104.615234,4113.333496,4160.512695,4108.205078,4127.692383,835.000000,4.000000,,,,0.000000,4.000000,4.000000,4.000000,4.000000,4.000000,4.000000,4.000000,4.000000,4.000000,4.000000,4.000000,4.000000,4.000000,4.000000,100.000000
1602006451.336849,74.000000,0.000000,4174.358887,4148.717773,4150.256348,4135.384766,4116.410156,4122.563965,4127.692383,4129.743652,4137.436035,4121.025879,4108.205078,4160.000000,4098.974121,4123.077148,871.000000,4.000000,,,,0.000000,4.000000,4.000000,4.000000,4.000000,4.000000,4.000000,4.000000,4.000000,4.000000,4.000000,4.000000,4.000000,4.000000,4.000000,100.000000
1602006451.344730,75.000000,0.000000,4158.461426,4142.051270,4140.000000,4137.436035,4118.974121,4127.179688,4127.179688,4119.487305,4134.358887,4125.641113,4111.794922,4150.769043,4090.256348,4103.589844,841.000000,4.000000,,,,0.000000,4.000000,4.000000,4.000000,4.000000,4.000000,4.000000,4.000000,4.000000,4.000000,4.000000,4.000000,4.000000,4.000000,4.000000,100.000000
1602006451.352612,76.000000,0.000000,4152.307617,4146.666504,4134.871582,4136.922852,4127.179688,4131.794922,4126.153809,4121.025879,4132.307617,4117.948730,4119.487305,4141.025879,4091.281982,4105.128418,770.000000,4.000000,,,,0.000000,4.000000,4.000000,4.000000,4.000000,4.000000,4.000000,4.000000,4.000000,4.000000,4.000000,4.000000,4.000000,4.000000,4.000000,100.000000
1602006451.360493,77.000000,0.000000,4162.051270,4148.205078,4130.769043,4132.820313,4126.666504,4124.615234,4124.102539,4123.077148,4129.230957,4120.512695,4114.871582,4138.974121,4093.333252,4108.717773,742.000000,4.000000,,,,0.000000,4.000000,4.000000,4.000000,4.000000,4.000000,4.000000,4.000000,4.000000,4.000000,4.000000,4.000000,4.000000,4.000000,4.000000,100.000000
1602006451.368375,78.000000,0.000000,4169.230957,4142.051270,4128.205078,4133.333496,4123.077148,4123.077148,4133.333496,4122.563965,4128.205078,4123.077148,4104.615234,4148.717773,4092.307617,4094.871826,871.000000,4.000000,,,,0.000000,4.000000,4.000000,4.000000,4.000000,4.000000,4.000000,4.000000,4.000000,4.000000,4.000000,4.000000,4.000000,4.000000,4.000000,100.000000
1602006451.376356,79.000000,0.000000,4158.461426,4137.948730,4126.666504,4131.794922,4117.436035,4124.102539,4138.974121,4123.077148,4133.846191,4106.666504,4101.025879,4149.230957,4088.718018,4086.666748,841.000000,4.000000,,,,0.000000,4.000000,4.000000,4.000000,4.000000,4.000000,4.000000,4.000000,4.000000,4.000000,4.000000,4.000000,4.000000,4.000000,4.000000,100.000000
1602006451.384238,80.000000,0.000000,4149.230957,4138.461426,4124.102539,4127.692383,4112.307617,4122.051270,4128.717773,4123.077148,4135.897461,4103.077148,4108.717773,4143.589844,4090.769287,4099.487305,770.000000,4.000000,,,,0.000000,4.000000,4.000000,4.000000,4.000000,4.000000,4.000000,4.000000,4.000000,4.000000,4.000000,4.000000,4.000000,4.000000,4.000000,100.000000
1602006451.392119,81.000000,0.000000,4154.871582,4142.051270,4131.794922,4131.282227,4118.974121,4125.641113,4130.256348,4131.794922,4135.897461,4124.102539,4117.436035,4148.717773,4103.077148,4108.717773,742.000000,4.000000,,,,0.000000,4.000000,4.000000,4.000000,4.000000,4.000000,4.000000,4.000000,4.000000,4.000000,4.000000,4.000000,4.000000,4.000000,4.000000,100.000000
1602006451.400001,82.000000,0.000000,4156.922852,4145.128418,4141.025879,4136.410156,4124.615234,4128.717773,4135.384766,4137.436035,4137.436035,4129.230957,4111.794922,4152.820313,4101.538574,4105.128418,871.000000,4.000000,,,,0.000000,4.000000,4.000000,4.000000,4.000000,4.000000,4.000000,4.000000,4.000000,4.000000,4.000000,4.000000,4.000000,4.000000,4.000000,100.000000
1602006451.407882,83.000000,0.000000,4151.794922,4145.128418,4137.436035,4136.922852,4123.077148,4122.051270,4126.666504,4131.794922,4134.871582,4120.000000,4102.563965,4145.641113,4091.794922,4105.641113,841.000000,4.000000,,,,0.000000,4.000000,4.000000,4.000000,4.000000,4.000000,4.000000,4.000000,4.000000,4.000000,4.000000,4.000000,4.000000,4.000000,4.000000,100.000000
1602006451.415763,84.000000,0.000000,4156.922852,4151.794922,4135.384766,4138.461426,4123.077148,4111.794922,4123.077148,4133.846191,4136.922852,4125.128418,4109.743652,4142.051270,4100.000000,4110.769043,770.000000,4.000000,,,,0.000000,4.000000,4.000000,4.000000,4.000000,4.000000,4.000000,4.000000,4.000000,4.000000,4.000000,4.000000,4.000000,4.000000,4.000000,100.000000
1602006451.423645,85.000000,0.000000,4164.102539,4156.410156,4139.487305,4140.512695,4124.102539,4110.769043,4127.692383,4138.974121,4141.538574,4129.743652,4124.102539,4144.615234,4109.230957,4111.282227,742.000000,4.000000,,,,0.000000,4.000000,4.000000,4.000000,4.000000,4.000000,4.000000,4.000000,4.000000,4.000000,4.000000,4.000000,4.000000,4.000000,4.000000,100.000000
1602006451.431426,86.000000,0.000000,4155.384766,4144.102539,4134.871582,4138.461426,4124.102539,4116.410156,4128.205078,4133.846191,4144.102539,4118.974121,4123.589844,4145.128418,4107.179688,4106.666504,871.000000,4.000000,,,,0.000000,4.000000,4.000000,4.000000,4.000000,4.000000,4.000000,4.000000,4.000000,4.000000,4.000000,4.000000,4.000000,4.000000,4.000000,100.000000
1602006451.439308,87.000000,0.000000,4146.153809,4137.436035,4130.769043,4137.436035,4123.589844,4122.563965,4127.179688,4125.128418,4141.538574,4107.179688,4111.794922,4143.589844,4105.641113,4095.897461,841.000000,4.000000,,,,0.000000,4.000000,4.000000,4.000000,4.000000,4.000000,4.000000,4.000000,4.000000,4.000000,4.000000,4.000000,4.000000,4.000000,4.000000,100.000000
1602006451.447189,88.000000,0.000000,4156.922852,4149.230957,4133.333496,4135.897461,4119.487305,4119.487305,4125.641113,4121.538574,4126.153809,4105.128418,4108.205078,4137.436035,4097.948730,4089.230713,770.000000,4.000000,,,,0.000000,4.000000,4.000000,4.000000,4.000000,4.000000,4.000000,4.000000,4.000000,4.000000,4.000000,4.000000,4.000000,4.000000,4.000000,100.000000
1602006451.455071,89.000000,0.000000,4174.358887,4166.153809,4143.589844,4144.102539,4124.615234,4117.948730,4124.102539,4120.512695,4122.051270,4114.358887,4119.487305,4141.025879,4095.897461,4109.230957,742.000000,4.000000,,,,0.000000,4.000000,4.000000,4.000000,4.000000,4.000000,4.000000,4.000000,4.000000,4.000000,4.000000,4.000000,4.000000,4.000000,4.000000,100.000000
1602006451.462952,90.000000,0.000000,4175.384766,4173.846191,4156.410156,4158.974121,4138.461426,4131.282227,4128.205078,4123.077148,4135.897461,4125.128418,4131.794922,4153.846191,4109.230957,4126.153809,871.000000,4.000000,,,,0.000000,4.000000,4.000000,4.000000,4.000000,4.000000,4.000000,4.000000,4.000000,4.000000,4.000000,4.000000,4.000000,4.000000,4.000000,100.000000
1602006451.470833,91.000000,0.000000,4170.256348,4166.153809,4153.333496,4153.333496,4140.000000,4140.512695,4126.153809,4124.615234,4131.794922,4131.794922,4127.179688,4149.743652,4111.282227,4115.384766,841.000000,4.000000,,,,0.000000,4.000000,4.000000,4.000000,4.000000,4.000000,4.000000,4.000000,4.000000,4.000000,4.000000,4.000000,4.000000,4.000000,4.000000,100.000000
1602006451.478815,92.000000,0.000000,4170.769043,4155.384766,4138.974121,4138.461426,4134.871582,4131.282227,4120.512695,4124.102539,4125.641113,4140.000000,4113.333496,4137.948730,4103.589844,4106.153809,770.000000,4.000000,,,,0.000000,4.000000,4.000000,4.000000,4.000000,4.000000,4.000000,4.000000,4.000000,4.000000,4.000000,4.000000,4.000000,4.000000,4.000000,100.000000
1602006451.486696,93.000000,0.000000,4171.282227,4158.461426,4135.384766,4141.538574,4136.922852,4125.641113,4121.025879,4122.563965,4138.461426,4140.000000,4112.820313,4139.487305,4107.179688,4109.743652,742.000000,4.000000,,,,0.000000,4.000000,4.000000,4.000000,4.000000,4.000000,4.000000,4.000000,4.000000,4.000000,4.000000,4.000000,4.000000,4.000000,4.000000,100.000000
1602006451.494577,94.000000,0.000000,4175.384766,4171.282227,4142.563965,4156.922852,4142.051270,4137.436035,4123.077148,4121.025879,4136.410156,4127.179688,4121.025879,4144.615234,4113.846191,4114.871582,871.000000,4.000000,,,,0.000000,4.000000,4.000000,4.000000,4.000000,4.000000,4.000000,4.000000,4.000000,4.000000,4.000000,4.000000,4.000000,4.000000,4.000000,100.000000
1602006451.502459,95.000000,0.000000,4178.461426,4174.358887,4141.025879,4155.897461,4140.512695,4140.000000,4123.589844,4122.051270,4121.025879,4114.871582,4118.974121,4142.051270,4113.333496,4109.230957,841.000000,4.000000,,,,0.000000,4.000000,4.000000,4.000000,4.000000,4.000000,4.000000,4.000000,4.000000,4.000000,4.000000,4.000000,4.000000,4.000000,4.000000,100.000000
1602006451.510340,96.000000,0.000000,4169.743652,4163.077148,4135.897461,4142.563965,4131.794922,4122.563965,4122.563965,4121.538574,4120.512695,4105.128418,4106.666504,4137.436035,4103.589844,4098.461426,770.000000,4.000000,,,,0.000000,4.000000,4.000000,4.000000,4.000000,4.000000,4.000000,4.000000,4.000000,4.000000,4.000000,4.000000,4.000000,4.000000,4.000000,100.000000
1602006451.518222,97.000000,0.000000,4164.615234,4154.871582,4144.102539,4141.538574,4128.717773,4111.282227,4122.563965,4120.512695,4121.538574,4107.692383,4102.563965,4138.974121,4095.384521,4105.128418,742.000000,4.000000,,,,0.000000,4.000000,4.000000,4.000000,4.000000,4.000000,4.000000,4.000000,4.000000,4.000000,4.000000,4.000000,4.000000,4.000000,4.000000,100.000000
1602006451.526203,98.000000,0.000000,4172.307617,4160.512695,4151.794922,4152.307617,4133.333496,4115.384766,4128.205078,4128.205078,4118.461426,4116.410156,4111.282227,4145.128418,4101.025879,4121.538574,871.000000,4.000000,,,,0.000000,4.000000,4.000000,4.000000,4.000000,4.000000,4.000000,4.000000,4.000000,4.000000,4.000000,4.000000,4.000000,4.000000,4.000000,100.000000
1602006451.534084,99.000000,0.000000,4175.897461,4164.102539,4144.615234,4157.436035,4137.948730,4123.077148,4135.897461,4138.974121,4123.077148,4120.512695,4128.205078,4146.153809,4109.743652,4117.948730,841.000000,4.000000,,,,0.000000,4.000000,4.000000,4.000000,4.000000,4.000000,4.000000,4.000000,4.000000,4.000000,4.000000,4.000000,4.000000,4.000000,4.000000,100.000000
1602006451.541966,100.000000,0.000000,4165.128418,4155.897461,4134.871582,4149.743652,4135.384766,4127.179688,4138.461426,4138.461426,4125.641113,4132.307617,4130.769043,4138.974121,4109.743652,4109.743652,770.000000,4.000000,,,,0.000000,4.000000,4.000000,4.000000,4.000000,4.000000,4.000000,4.000000,4.000000,4.000000,4.000000,4.000000,4.000000,4.000000,4.000000,100.000000
1602006451.549847,101.000000,0.000000,4158.974121,4151.794922,4129.743652,4140.512695,4128.205078,4125.128418,4131.282227,4132.820313,4120.000000,4137.948730,4112.820313,4134.871582,4108.205078,4114.358887,742.000000,4.000000,,,,0.000000,4.000000,4.000000,4.000000,4.000000,4.000000,4.000000,4.000000,4.000000,4.000000,4.000000,4.000000,4.000000,4.000000,4.000000,100.000000
1602006451.557729,102.000000,0.000000,4166.666504,4154.871582,4127.179688,4141.025879,4126.666504,4120.000000,4125.641113,4128.205078,4125.128418,4123.589844,4109.230957,4135.384766,4107.692383,4109.230957,871.000000,4.000000,,,,0.000000,4.000000,4.000000,4.000000,4.000000,4.000000,4.000000,4.000000,4.000000,4.000000,4.000000,4.000000,4.000000,4.000000,4.000000,100.000000
1602006451.565610,103.000000,0.000000,4167.692383,4155.897461,4132.820313,4144.102539,4134.358887,4123.077148,4128.205078,4125.128418,4137.436035,4126.153809,4118.974121,4136.922852,4108.205078,4103.589844,841.000000,4.000000,,,,0.000000,4.000000,4.000000,4.000000,4.000000,4.000000,4.000000,4.000000,4.000000,4.000000,4.000000,4.000000,4.000000,4.000000,4.000000,100.000000
1602006451.573491,104.000000,0.000000,4154.358887,4154.871582,4138.974121,4140.000000,4136.922852,4128.717773,4128.205078,4129.230957,4137.948730,4142.051270,4115.384766,4136.410156,4108.717773,4109.230957,770.000000,4.000000,,,,0.000000,4.000000,4.000000,4.000000,4.000000,4.000000,4.000000,4.000000,4.000000,4.000000,4.000000,4.000000,4.000000,4.000000,4.000000,100.000000
1602006451.581373,105.000000,0.000000,4153.846191,4152.820313,4136.410156,4143.077148,4132.820313,4126.666504,4127.179688,4135.897461,4136.410156,4131.282227,4113.846191,4134.871582,4104.615234,4105.641113,742.000000,4.000000,,,,0.000000,4.000000,4.000000,4.000000,4.000000,4.000000,4.000000,4.000000,4.000000,4.000000,4.000000,4.000000,4.000000,4.000000,4.000000,100.000000
1602006451.589155,106.000000,0.000000,4170.769043,4156.410156,4143.589844,4152.307617,4136.410156,4131.282227,4135.384766,4139.487305,4150.256348,4118.974121,4126.153809,4143.077148,4112.307617,4109.743652,871.000000,4.000000,,,,0.000000,4.000000,4.000000,4.000000,4.000000,4.000000,4.000000,4.000000,4.000000,4.000000,4.000000,4.000000,4.000000,4.000000,4.000000,100.000000
1602006451.597036,107.000000,0.000000,4175.384766,4161.025879,4155.897461,4146.153809,4140.000000,4141.025879,4142.051270,4141.025879,4155.897461,4127.179688,4129.230957,4151.282227,4124.102539,4127.692383,841.000000,4.000000,,,,0.000000,4.000000,4.000000,4.000000,4.000000,4.000000,4.000000,4.000000,4.000000,4.000000,4.000000,4.000000,4.000000,4.000000,4.000000,100.000000
1602006451.604918,108.000000,0.000000,4164.615234,4152.820313,4151.282227,4137.436035,4135.897461,4131.794922,4136.410156,4141.538574,4135.384766,4124.102539,4114.358887,4143.589844,4113.333496,4121.025879,770.000000,4.000000,,,,0.000000,4.000000,4.000000,4.000000,4.000000,4.000000,4.000000,4.000000,4.000000,4.000000,4.000000,4.000000,4.000000,4.000000,4.000000,100.000000
1602006451.612799,109.000000,0.000000,4157.436035,4143.589844,4139.487305,4140.000000,4133.333496,4124.102539,4134.871582,4144.102539,4121.538574,4107.692383,4106.666504,4134.871582,4098.461426,4102.563965,742.000000,4.000000,,,,0.000000,4.000000,4.000000,4.000000,4.000000,4.000000,4.000000,4.000000,4.000000,4.000000,4.000000,4.000000,4.000000,4.000000,4.000000,100.000000
1602006451.620681,110.000000,0.000000,4155.384766,4147.692383,4136.922852,4140.000000,4135.897461,4132.820313,4139.487305,4150.256348,4131.794922,4109.230957,4116.410156,4138.461426,4103.077148,4106.153809,871.000000,4.000000,,,,0.000000,4.000000,4.000000,4.000000,4.000000,4.000000,4.000000,4.000000,4.000000,4.000000,4.000000,4.000000,4.000000,4.000000,4.000000,100.000000
1602006451.628563,111.000000,0.000000,4155.384766,4154.871582,4137.948730,4141.025879,4138.461426,4131.794922,4138.974121,4154.358887,4144.615234,4134.358887,4124.102539,4140.000000,4108.717773,4115.384766,841.000000,4.000000,,,,0.000000,4.000000,4.000000,4.000000,4.000000,4.000000,4.000000,4.000000,4.000000,4.000000,4.000000,4.000000,4.000000,4.000000,4.000000,100.000000
1602006451.636444,112.000000,0.000000,4157.948730,4155.384766,4140.512695,4151.794922,4138.974121,4126.666504,4138.461426,4151.282227,4147.692383,4144.615234,4120.000000,4136.922852,4106.666504,4111.794922,770.000000,4.000000,,,,0.000000,4.000000,4.000000,4.000000,4.000000,4.000000,4.000000,4.000000,4.000000,4.000000,4.000000,4.000000,4.000000,4.000000,4.000000,100.000000
1602006451.644326,113.000000,0.000000,4157.948730,4152.820313,4142.051270,4151.794922,4138.974121,4131.282227,4135.897461,4143.077148,4141.025879,4125.128418,4117.436035,4136.410156,4108.717773,4107.692383,742.000000,4.000000,,,,0.000000,4.000000,4.000000,4.000000,4.000000,4.000000,4.000000,4.000000,4.000000,4.000000,4.000000,4.000000,4.000000,4.000000,4.000000,100.000000
1602006451.652208,114.000000,0.000000,4153.333496,4152.820313,4134.358887,4138.461426,4137.436035,4125.128418,4128.717773,4135.897461,4129.743652,4114.358887,4122.051270,4134.358887,4110.256348,4114.358887,871.000000,4.000000,,,,0.000000,4.000000,4.000000,4.000000,4.000000,4.000000,4.000000,4.000000,4.000000,4.000000,4.000000,4.000000,4.000000,4.000000,4.000000,100.000000
1602006451.660189,115.000000,0.000000,4152.307617,4153.333496,4131.282227,4136.410156,4138.461426,4119.487305,4126.153809,4137.436035,4124.102539,4129.743652,4127.179688,4136.410156,4109.743652,4123.589844,841.000000,4.000000,,,,0.000000,4.000000,4.000000,4.000000,4.000000,4.000000,4.000000,4.000000,4.000000,4.000000,4.000000,4.000000,4.000000,4.000000,4.000000,100.000000
1602006451.668071,116.000000,0.000000,4158.974121,4154.358887,4142.563965,4150.769043,4140.512695,4130.256348,4128.205078,4141.025879,4124.102539,4130.256348,4129.743652,4147.692383,4114.871582,4123.077148,770.000000,4.000000,,,,0.000000,4.000000,4.000000,4.000000,4.000000,4.000000,4.000000,4.000000,4.000000,4.000000,4.000000,4.000000,4.000000,4.000000,4.000000,100.000000
1602006451.675952,117.000000,0.000000,4161.538574,4154.358887,4147.692383,4152.307617,4137.948730,4130.256348,4128.717773,4137.436035,4128.205078,4112.307617,4124.615234,4152.307617,4121.538574,4118.461426,742.000000,4.000000,,,,0.000000,4.000000,4.000000,4.000000,4.000000,4.000000,4.000000,4.000000,4.000000,4.000000,4.000000,4.000000,4.000000,4.000000,4.000000,100.000000
1602006451.683834,118.000000,0.000000,4155.897461,4152.820313,4142.051270,4142.051270,4134.871582,4118.974121,4130.769043,4142.051270,4135.384766,4118.974121,4125.641113,4149.743652,4124.615234,4121.538574,871.000000,4.000000,,,,0.000000,4.000000,4.000000,4.000000,4.000000,4.000000,4.000000,4.000000,4.000000,4.000000,4.000000,4.000000,4.000000,4.000000,4.000000,100.000000
1602006451.691716,119.000000,0.000000,4153.333496,4153.333496,4145.641113,4146.666504,4136.922852,4124.615234,4138.974121,4154.871582,4141.538574,4148.205078,4137.436035,4152.820313,4125.128418,4131.794922,841.000000,4.000000,,,,0.000000,4.000000,4.000000,4.000000,4.000000,4.000000,4.000000,4.000000,4.000000,4.000000,4.000000,4.000000,4.000000,4.000000,4.000000,100.000000
1602006451.699597,120.000000,0.000000,4156.410156,4153.846191,4149.743652,4153.846191,4141.025879,4134.358887,4138.974121,4154.871582,4141.025879,4152.820313,4138.461426,4153.333496,4127.179688,4142.563965,770.000000,4.000000,,,,0.000000,4.000000,4.000000,4.000000,4.000000,4.000000,4.000000,4.000000,4.000000,4.000000,4.000000,4.000000,4.000000,4.000000,4.000000,100.000000
1602006451.707479,121.000000,0.000000,4153.846191,4146.666504,4141.025879,4141.538574,4134.871582,4130.256348,4127.179688,4141.538574,4128.205078,4127.692383,4125.128418,4142.563965,4121.538574,4137.436035,742.000000,4.000000,,,,0.000000,4.000000,4.000000,4.000000,4.000000,4.000000,4.000000,4.000000,4.000000,4.000000,4.000000,4.000000,4.000000,4.000000,4.000000,100.000000
1602006451.715361,122.000000,0.000000,4148.205078,4135.384766,4134.358887,4131.794922,4125.128418,4122.563965,4120.000000,4132.820313,4110.769043,4115.897461,4117.436035,4133.846191,4112.820313,4116.922852,871.000000,4.000000,,,,0.000000,4.000000,4.000000,4.000000,4.000000,4.000000,4.000000,4.000000,4.000000,4.000000,4.000000,4.000000,4.000000,4.000000,4.000000,100.000000
1602006451.723242,123.000000,0.000000,4150.256348,4135.897461,4138.461426,4138.461426,4127.692383,4130.256348,4126.666504,4136.410156,4112.307617,4125.128418,4125.128418,4137.948730,4117.948730,4112.307617,841.000000,4.000000,,,,0.000000,4.000000,4.000000,4.000000,4.000000,4.000000,4.000000,4.000000,4.000000,4.000000,4.000000,4.000000,4.000000,4.000000,4.000000,100.000000
1602006451.731024,124.000000,0.000000,4153.846191,4148.717773,4143.589844,4143.589844,4134.358887,4140.512695,4131.794922,4136.922852,4124.102539,4127.179688,4136.922852,4138.974121,4120.000000,4125.641113,770.000000,4.000000,,,,0.000000,4.000000,4.000000,4.000000,4.000000,4.000000,4.000000,4.000000,4.000000,4.000000,4.000000,4.000000,4.000000,4.000000,4.000000,100.000000
1602006451.738906,125.000000,0.000000,4152.820313,4149.743652,4134.358887,4141.025879,4128.717773,4129.230957,4125.641113,4130.769043,4122.051270,4117.948730,4137.948730,4127.692383,4109.230957,4126.153809,742.000000,4.000000,,,,0.000000,4.000000,4.000000,4.000000,4.000000,4.000000,4.000000,4.000000,4.000000,4.000000,4.000000,4.000000,4.000000,4.000000,4.000000,100.000000
1602006451.746787,126.000000,0.000000,4152.820313,4143.589844,4121.538574,4137.436035,4121.025879,4115.384766,4123.077148,4130.769043,4126.666504,4119.487305,4129.743652,4117.436035,4109.230957,4113.846191,871.000000,4.000000,,,,0.000000,4.000000,4.000000,4.000000,4.000000,4.000000,4.000000,4.000000,4.000000,4.000000,4.000000,4.000000,4.000000,4.000000,4.000000,100.000000
1602006451.754669,127.000000,0.000000,4151.794922,4146.153809,4125.128418,4136.410156,4122.563965,4122.563965,4125.128418,4136.922852,4140.512695,4126.153809,4130.769043,4122.051270,4124.102539,4112.307617,841.000000,4.000000,,,,0.000000,4.000000,4.000000,4.000000,4.000000,4.000000,4.000000,4.000000,4.000000,4.000000,4.000000,4.000000,4.000000,4.000000,4.000000,100.000000
1602006451.762551,128.000000,0.000000,4154.358887,4153.333496,4138.974121,4140.000000,4129.743652,4127.692383,4125.641113,4140.000000,4142.563965,4127.692383,4138.461426,4134.358887,4129.743652,4123.077148,770.000000,4.000000,,,,0.000000,4.000000,4.000000,4.000000,4.000000,4.000000,4.000000,4.000000,4.000000,4.000000,4.000000,4.000000,4.000000,4.000000,4.000000,100.000000
1602006451.770432,0.000000,0.000000,4157.948730,4155.897461,4141.025879,4141.538574,4137.436035,4124.615234,4122.051270,4140.000000,4136.922852,4132.820313,4134.871582,4138.461426,4125.128418,4127.179688,793.000000,4.000000,,,,0.000000,4.000000,4.000000,4.000000,4.000000,4.000000,4.000000,4.000000,4.000000,4.000000,4.000000,4.000000,4.000000,4.000000,4.000000,100.000000
1602006451.778314,1.000000,0.000000,4149.743652,4150.769043,4134.871582,4137.948730,4139.487305,4123.077148,4114.871582,4136.410156,4133.846191,4136.922852,4128.205078,4135.897461,4125.641113,4122.563965,794.000000,4.000000,,,,0.000000,4.000000,4.000000,4.000000,4.000000,4.000000,4.000000,4.000000,4.000000,4.000000,4.000000,4.000000,4.000000,4.000000,4.000000,100.000000
1602006451.786196,2.000000,0.000000,4138.974121,4146.666504,4137.436035,4141.538574,4135.384766,4114.871582,4111.282227,4128.717773,4127.179688,4135.897461,4130.256348,4136.410156,4129.230957,4123.077148,853.000000,4.000000,,,,0.000000,4.000000,4.000000,4.000000,4.000000,4.000000,4.000000,4.000000,4.000000,4.000000,4.000000,4.000000,4.000000,4.000000,4.000000,100.000000
1602006451.794177,3.000000,0.000000,4137.948730,4144.615234,4140.000000,4146.153809,4128.717773,4103.589844,4109.230957,4123.077148,4119.487305,4139.487305,4127.179688,4137.948730,4126.666504,4123.077148,867.000000,4.000000,,,,0.000000,4.000000,4.000000,4.000000,4.000000,4.000000,4.000000,4.000000,4.000000,4.000000,4.000000,4.000000,4.000000,4.000000,4.000000,100.000000
1602006451.802058,4.000000,0.000000,4141.025879,4143.077148,4138.461426,4138.974121,4123.589844,4100.000000,4105.641113,4121.025879,4123.589844,4141.538574,4125.641113,4140.000000,4126.666504,4120.512695,814.000000,4.000000,,,,0.000000,4.000000,4.000000,4.000000,4.000000,4.000000,4.000000,4.000000,4.000000,4.000000,4.000000,4.000000,4.000000,4.000000,4.000000,100.000000
1602006451.809939,5.000000,0.000000,4140.000000,4142.563965,4146.153809,4134.358887,4129.230957,4109.230957,4111.794922,4122.563965,4137.436035,4139.487305,4137.948730,4143.077148,4135.897461,4128.205078,817.000000,4.000000,,,,0.000000,4.000000,4.000000,4.000000,4.000000,4.000000,4.000000,4.000000,4.000000,4.000000,4.000000,4.000000,4.000000,4.000000,4.000000,100.000000
1602006451.817920,6.000000,0.000000,4141.025879,4142.051270,4151.794922,4140.000000,4136.410156,4122.051270,4123.077148,4131.282227,4140.512695,4145.641113,4140.512695,4143.077148,4135.897461,4131.282227,762.000000,4.000000,,,,0.000000,4.000000,4.000000,4.000000,4.000000,4.000000,4.000000,4.000000,4.000000,4.000000,4.000000,4.000000,4.000000,4.000000,4.000000,100.000000
1602006451.825801,7.000000,0.000000,4147.692383,4140.512695,4143.589844,4141.538574,4135.897461,4126.666504,4125.128418,4135.897461,4128.205078,4140.512695,4123.589844,4138.461426,4122.563965,4122.051270,673.000000,4.000000,,,,0.000000,4.000000,4.000000,4.000000,4.000000,4.000000,4.000000,4.000000,4.000000,4.000000,4.000000,4.000000,4.000000,4.000000,4.000000,100.000000
1602006451.833682,8.000000,0.000000,4150.256348,4141.025879,4139.487305,4138.974121,4137.948730,4126.153809,4125.128418,4132.307617,4123.077148,4122.051270,4114.871582,4138.974121,4117.948730,4120.512695,790.000000,4.000000,,,,0.000000,4.000000,4.000000,4.000000,4.000000,4.000000,4.000000,4.000000,4.000000,4.000000,4.000000,4.000000,4.000000,4.000000,4.000000,100.000000
1602006451.841464,9.000000,0.000000,4144.102539,4139.487305,4140.512695,4137.948730,4136.922852,4126.153809,4124.102539,4125.128418,4124.102539,4118.461426,4122.051270,4140.000000,4122.563965,4118.461426,835.000000,4.000000,,,,0.000000,4.000000,4.000000,4.000000,4.000000,4.000000,4.000000,4.000000,4.000000,4.000000,4.000000,4.000000,4.000000,4.000000,4.000000,100.000000
1602006451.849345,10.000000,0.000000,4131.282227,4131.282227,4133.846191,4135.384766,4126.666504,4120.000000,4119.487305,4120.000000,4119.487305,4120.000000,4128.717773,4130.256348,4121.538574,4112.307617,871.000000,4.000000,,,,0.000000,4.000000,4.000000,4.000000,4.000000,4.000000,4.000000,4.000000,4.000000,4.000000,4.000000,4.000000,4.000000,4.000000,4.000000,100.000000
1602006451.857227,11.000000,0.000000,4124.102539,4132.307617,4132.820313,4134.871582,4128.717773,4118.461426,4126.666504,4127.692383,4122.563965,4122.051270,4126.153809,4127.692383,4123.589844,4116.922852,841.000000,4.000000,,,,0.000000,4.000000,4.000000,4.000000,4.000000,4.000000,4.000000,4.000000,4.000000,4.000000,4.000000,4.000000,4.000000,4.000000,4.000000,100.000000
1602006451.865108,12.000000,0.000000,4131.282227,4143.077148,4140.000000,4141.025879,4138.461426,4131.282227,4138.461426,4137.948730,4132.820313,4134.871582,4125.128418,4138.461426,4130.256348,4125.128418,770.000000,4.000000,,,,0.000000,4.000000,4.000000,4.000000,4.000000,4.000000,4.000000,4.000000,4.000000,4.000000,4.000000,4.000000,4.000000,4.000000,4.000000,100.000000
1602006451.872989,13.000000,0.000000,4143.077148,4141.538574,4140.000000,4145.128418,4137.948730,4134.871582,4131.794922,4132.307617,4124.102539,4143.589844,4136.922852,4140.000000,4127.692383,4127.179688,742.000000,4.000000,,,,0.000000,4.000000,4.000000,4.000000,4.000000,4.000000,4.000000,4.000000,4.000000,4.000000,4.000000,4.000000,4.000000,4.000000,4.000000,100.000000
1602006451.880871,14.000000,0.000000,4144.102539,4136.410156,4136.922852,4142.051270,4134.871582,4122.563965,4118.461426,4120.000000,4105.128418,4137.436035,4136.922852,4134.358887,4121.025879,4135.384766,871.000000,4.000000,,,,0.000000,4.000000,4.000000,4.000000,4.000000,4.000000,4.000000,4.000000,4.000000,4.000000,4.000000,4.000000,4.000000,4.000000,4.000000,100.000000
1602006451.888852,15.000000,0.000000,4144.615234,4146.153809,4140.000000,4137.948730,4137.436035,4116.922852,4117.436035,4120.000000,4105.641113,4129.743652,4122.051270,4135.897461,4128.205078,4143.077148,841.000000,4.000000,,,,0.000000,4.000000,4.000000,4.000000,4.000000,4.000000,4.000000,4.000000,4.000000,4.000000,4.000000,4.000000,4.000000,4.000000,4.000000,100.000000
1602006451.896733,16.000000,0.000000,4152.820313,4155.384766,4143.589844,4144.102539,4138.974121,4127.179688,4126.666504,4126.153809,4119.487305,4124.102539,4122.563965,4138.461426,4141.025879,4132.820313,0.000000,4.000000,,,,0.000000,4.000000,4.000000,4.000000,4.000000,4.000000,4.000000,4.000000,4.000000,4.000000,4.000000,4.000000,4.000000,4.000000,4.000000,100.000000
1602006451.904713,17.000000,0.000000,4151.282227,4154.358887,4140.512695,4153.333496,4138.461426,4135.897461,4136.922852,4129.743652,4128.717773,4127.692383,4131.282227,4137.436035,4142.051270,4122.563965,0.000000,4.000000,,,,0.000000,4.000000,4.000000,4.000000,4.000000,4.000000,4.000000,4.000000,4.000000,4.000000,4.000000,4.000000,4.000000,4.000000,4.000000,100.000000
1602006451.912594,18.000000,0.000000,4140.512695,4150.769043,4136.410156,4150.256348,4137.948730,4138.974121,4141.538574,4134.358887,4136.922852,4145.641113,4128.717773,4135.897461,4131.794922,4123.077148,0.000000,4.000000,,,,0.000000,4.000000,4.000000,4.000000,4.000000,4.000000,4.000000,4.000000,4.000000,4.000000,4.000000,4.000000,4.000000,4.000000,4.000000,100.000000
1602006451.920575,19.000000,0.000000,4138.461426,4145.128418,4137.436035,4140.000000,4142.051270,4145.128418,4141.025879,4137.436035,4147.179688,4160.000000,4125.641113,4131.794922,4127.692383,4123.077148,0.000000,4.000000,,,,0.000000,4.000000,4.000000,4.000000,4.000000,4.000000,4.000000,4.000000,4.000000,4.000000,4.000000,4.000000,4.000000,4.000000,4.000000,100.000000
1602006451.928456,20.000000,0.000000,4141.025879,4142.051270,4138.461426,4136.410156,4143.589844,4144.615234,4140.512695,4134.358887,4141.538574,4154.871582,4125.128418,4131.282227,4133.333496,4126.666504,0.000000,4.000000,,,,0.000000,4.000000,4.000000,4.000000,4.000000,4.000000,4.000000,4.000000,4.000000,4.000000,4.000000,4.000000,4.000000,4.000000,4.000000,100.000000
1602006451.936437,21.000000,0.000000,4142.051270,4148.717773,4136.410156,4141.538574,4142.051270,4134.358887,4135.384766,4133.333496,4125.128418,4136.410156,4127.692383,4137.436035,4136.410156,4140.512695,0.000000,4.000000,,,,0.000000,4.000000,4.000000,4.000000,4.000000,4.000000,4.000000,4.000000,4.000000,4.000000,4.000000,4.000000,4.000000,4.000000,4.000000,100.000000
1602006451.944318,22.000000,0.000000,4147.692383,4157.436035,4146.666504,4153.333496,4148.717773,4135.897461,4126.153809,4137.948730,4122.051270,4132.307617,4138.461426,4141.025879,4137.436035,4155.897461,0.000000,4.000000,,,,0.000000,4.000000,4.000000,4.000000,4.000000,4.000000,4.000000,4.000000,4.000000,4.000000,4.000000,4.000000,4.000000,4.000000,4.000000,100.000000
1602006451.952199,23.000000,0.000000,4153.333496,4157.436035,4156.410156,4155.897461,4151.282227,4143.077148,4121.538574,4134.358887,4120.512695,4143.077148,4137.436035,4138.974121,4137.436035,4154.358887,0.000000,4.000000,,,,0.000000,4.000000,4.000000,4.000000,4.000000,4.000000,4.000000,4.000000,4.000000,4.000000,4.000000,4.000000,4.000000,4.000000,4.000000,100.000000
1602006451.959980,24.000000,0.000000,4152.820313,4153.333496,4147.692383,4147.692383,4137.948730,4128.205078,4118.974121,4121.025879,4100.512695,4127.692383,4122.563965,4135.897461,4132.820313,4140.512695,0.000000,4.000000,,,,0.000000,4.000000,4.000000,4.000000,4.000000,4.000000,4.000000,4.000000,4.000000,4.000000,4.000000,4.000000,4.000000,4.000000,4.000000,100.000000
1602006451.967761,25.000000,0.000000,4152.820313,4151.282227,4137.948730,4147.179688,4130.769043,4115.897461,4117.948730,4115.384766,4091.281982,4105.128418,4117.436035,4135.897461,4131.794922,4134.358887,0.000000,4.000000,,,,0.000000,4.000000,4.000000,4.000000,4.000000,4.000000,4.000000,4.000000,4.000000,4.000000,4.000000,4.000000,4.000000,4.000000,4.000000,100.000000
1602006451.975643,26.000000,0.000000,4149.230957,4153.846191,4136.922852,4146.666504,4137.948730,4130.769043,4124.102539,4122.563965,4108.717773,4123.589844,4125.641113,4138.461426,4136.922852,4138.974121,0.000000,4.000000,,,,0.000000,4.000000,4.000000,4.000000,4.000000,4.000000,4.000000,4.000000,4.000000,4.000000,4.000000,4.000000,4.000000,4.000000,4.000000,100.000000
1602006451.983524,27.000000,0.000000,4145.128418,4152.307617,4141.538574,4139.487305,4138.461426,4141.538574,4132.307617,4130.769043,4127.179688,4161.538574,4134.358887,4138.461426,4140.512695,4144.102539,0.000000,4.000000,,,,0.000000,4.000000,4.000000,4.000000,4.000000,4.000000,4.000000,4.000000,4.000000,4.000000,4.000000,4.000000,4.000000,4.000000,4.000000,100.000000
1602006451.991406,28.000000,0.000000,4144.615234,4144.102539,4146.153809,4140.000000,4136.922852,4136.410156,4139.487305,4137.948730,4144.102539,4170.769043,4142.563965,4141.025879,4138.461426,4139.487305,0.000000,4.000000,,,,0.000000,4.000000,4.000000,4.000000,4.000000,4.000000,4.000000,4.000000,4.000000,4.000000,4.000000,4.000000,4.000000,4.000000,4.000000,100.000000
1602006451.999287,29.000000,0.000000,4139.487305,4141.025879,4142.563965,4143.077148,4142.563965,4138.461426,4140.000000,4144.102539,4158.974121,4163.589844,4139.487305,4143.589844,4135.897461,4133.333496,0.000000,4.000000,,,,0.000000,4.000000,4.000000,4.000000,4.000000,4.000000,4.000000,4.000000,4.000000,4.000000,4.000000,4.000000,4.000000,4.000000,4.000000,100.000000
1602006452.007168,30.000000,0.000000,4133.846191,4145.128418,4135.384766,4137.948730,4144.615234,4138.974121,4129.743652,4143.077148,4155.384766,4149.230957,4133.846191,4140.000000,4138.461426,4137.948730,0.000000,4.000000,,,,0.000000,4.000000,4.000000,4.000000,4.000000,4.000000,4.000000,4.000000,4.000000,4.000000,4.000000,4.000000,4.000000,4.000000,4.000000,100.000000
1602006452.015150,31.000000,0.000000,4135.384766,4143.077148,4133.846191,4135.897461,4142.051270,4125.641113,4123.589844,4137.948730,4143.589844,4128.717773,4146.666504,4137.436035,4152.307617,4151.794922,0.000000,4.000000,,,,0.000000,4.000000,4.000000,4.000000,4.000000,4.000000,4.000000,4.000000,4.000000,4.000000,4.000000,4.000000,4.000000,4.000000,4.000000,100.000000
1602006452.023032,32.000000,0.000000,4128.717773,4133.846191,4130.256348,4135.384766,4138.461426,4117.948730,4123.077148,4138.461426,4136.922852,4125.128418,4153.846191,4136.410156,4166.666504,4160.000000,0.000000,4.000000,,,,0.000000,4.000000,4.000000,4.000000,4.000000,4.000000,4.000000,4.000000,4.000000,4.000000,4.000000,4.000000,4.000000,4.000000,4.000000,100.000000
1602006452.030913,33.000000,0.000000,4113.846191,4123.077148,4126.666504,4126.666504,4137.948730,4123.589844,4124.102539,4140.000000,4130.769043,4136.410156,4138.974121,4133.846191,4167.179688,4156.922852,0.000000,4.000000,,,,0.000000,4.000000,4.000000,4.000000,4.000000,4.000000,4.000000,4.000000,4.000000,4.000000,4.000000,4.000000,4.000000,4.000000,4.000000,100.000000
1602006452.038795,34.000000,0.000000,4104.102539,4118.461426,4134.358887,4121.538574,4140.512695,4131.794922,4131.282227,4141.025879,4131.282227,4148.205078,4138.974121,4142.563965,4170.769043,4152.820313,0.000000,4.000000,,,,0.000000,4.000000,4.000000,4.000000,4.000000,4.000000,4.000000,4.000000,4.000000,4.000000,4.000000,4.000000,4.000000,4.000000,4.000000,100.000000
1602006452.046676,35.000000,0.000000,4104.615234,4121.025879,4140.000000,4125.641113,4143.077148,4137.436035,4135.384766,4143.077148,4136.922852,4157.436035,4154.358887,4156.922852,4183.589844,4160.000000,0.000000,4.000000,,,,0.000000,4.000000,4.000000,4.000000,4.000000,4.000000,4.000000,4.000000,4.000000,4.000000,4.000000,4.000000,4.000000,4.000000,4.000000,100.000000
1602006452.054558,36.000000,0.000000,4115.384766,4126.666504,4141.025879,4133.846191,4148.205078,4141.025879,4125.641113,4140.512695,4135.384766,4160.512695,4160.512695,4160.000000,4191.794922,4174.871582,0.000000,4.000000,,,,0.000000,4.000000,4.000000,4.000000,4.000000,4.000000,4.000000,4.000000,4.000000,4.000000,4.000000,4.000000,4.000000,4.000000,4.000000,100.000000
1602006452.062440,37.000000,0.000000,4118.974121,4127.692383,4140.512695,4136.922852,4151.794922,4138.461426,4118.461426,4130.256348,4126.666504,4153.333496,4160.000000,4157.948730,4189.230957,4171.282227,0.000000,4.000000,,,,0.000000,4.000000,4.000000,4.000000,4.000000,4.000000,4.000000,4.000000,4.000000,4.000000,4.000000,4.000000,4.000000,4.000000,4.000000,100.000000
1602006452.070321,38.000000,0.000000,4107.692383,4124.102539,4138.974121,4135.897461,4146.666504,4137.436035,4121.538574,4122.051270,4122.051270,4149.230957,4161.538574,4153.846191,4183.589844,4152.307617,0.000000,4.000000,,,,0.000000,4.000000,4.000000,4.000000,4.000000,4.000000,4.000000,4.000000,4.000000,4.000000,4.000000,4.000000,4.000000,4.000000,4.000000,100.000000
1602006452.078203,39.000000,0.000000,4104.102539,4120.000000,4137.436035,4130.256348,4137.948730,4138.974121,4121.538574,4120.000000,4127.692383,4155.897461,4154.358887,4143.077148,4182.563965,4149.230957,0.000000,4.000000,,,,0.000000,4.000000,4.000000,4.000000,4.000000,4.000000,4.000000,4.000000,4.000000,4.000000,4.000000,4.000000,4.000000,4.000000,4.000000,100.000000
1602006452.085985,40.000000,0.000000,4110.769043,4118.974121,4132.307617,4124.615234,4135.384766,4136.410156,4122.563965,4125.641113,4135.384766,4158.461426,4141.025879,4136.922852,4179.487305,4161.025879,0.000000,4.000000,,,,0.000000,4.000000,4.000000,4.000000,4.000000,4.000000,4.000000,4.000000,4.000000,4.000000,4.000000,4.000000,4.000000,4.000000,4.000000,100.000000
1602006452.093866,41.000000,0.000000,4114.871582,4120.512695,4133.333496,4123.077148,4138.974121,4133.333496,4130.256348,4134.871582,4141.538574,4148.717773,4137.436035,4146.666504,4174.871582,4165.128418,0.000000,4.000000,,,,0.000000,4.000000,4.000000,4.000000,4.000000,4.000000,4.000000,4.000000,4.000000,4.000000,4.000000,4.000000,4.000000,4.000000,4.000000,100.000000
1602006452.101747,42.000000,0.000000,4108.205078,4117.948730,4136.922852,4122.563965,4142.051270,4134.871582,4135.897461,4138.461426,4153.333496,4140.000000,4151.282227,4156.410156,4170.256348,4155.897461,0.000000,4.000000,,,,0.000000,4.000000,4.000000,4.000000,4.000000,4.000000,4.000000,4.000000,4.000000,4.000000,4.000000,4.000000,4.000000,4.000000,4.000000,100.000000
1602006452.109629,43.000000,0.000000,4098.974121,4115.897461,4132.820313,4119.487305,4143.077148,4138.461426,4136.922852,4138.461426,4164.615234,4154.358887,4162.563965,4156.922852,4171.794922,4147.692383,0.000000,4.000000,,,,0.000000,4.000000,4.000000,4.000000,4.000000,4.000000,4.000000,4.000000,4.000000,4.000000,4.000000,4.000000,4.000000,4.000000,4.000000,100.000000
1602006452.117510,44.000000,0.000000,4107.692383,4120.512695,4128.205078,4121.538574,4148.717773,4139.487305,4134.358887,4140.000000,4160.512695,4170.769043,4156.922852,4161.025879,4181.538574,4157.948730,0.000000,4.000000,,,,0.000000,4.000000,4.000000,4.000000,4.000000,4.000000,4.000000,4.000000,4.000000,4.000000,4.000000,4.000000,4.000000,4.000000,4.000000,100.000000
1602006452.125392,45.000000,0.000000,4125.128418,4124.102539,4128.205078,4128.717773,4155.384766,4137.436035,4132.820313,4139.487305,4151.282227,4160.512695,4160.512695,4167.179688,4191.282227,4168.205078,0.000000,4.000000,,,,0.000000,4.000000,4.000000,4.000000,4.000000,4.000000,4.000000,4.000000,4.000000,4.000000,4.000000,4.000000,4.000000,4.000000,4.000000,100.000000
1602006452.133273,46.000000,0.000000,4119.487305,4124.615234,4125.641113,4129.230957,4150.256348,4140.000000,4134.358887,4137.436035,4155.384766,4154.358887,4170.256348,4163.077148,4191.282227,4154.358887,0.000000,4.000000,,,,0.000000,4.000000,4.000000,4.000000,4.000000,4.000000,4.000000,4.000000,4.000000,4.000000,4.000000,4.000000,4.000000,4.000000,4.000000,100.000000
1602006452.141154,47.000000,0.000000,4104.102539,4122.563965,4118.974121,4126.666504,4138.974121,4144.615234,4139.487305,4135.897461,4159.487305,4168.717773,4160.000000,4147.179688,4180.000000,4139.487305,0.000000,4.000000,,,,0.000000,4.000000,4.000000,4.000000,4.000000,4.000000,4.000000,4.000000,4.000000,4.000000,4.000000,4.000000,4.000000,4.000000,4.000000,100.000000
1602006452.149136,48.000000,0.000000,4103.077148,4113.333496,4115.897461,4122.563965,4137.948730,4142.051270,4144.102539,4134.871582,4154.358887,4173.333496,4149.230957,4140.512695,4172.820313,4141.025879,0.000000,4.000000,,,,0.000000,4.000000,4.000000,4.000000,4.000000,4.000000,4.000000,4.000000,4.000000,4.000000,4.000000,4.000000,4.000000,4.000000,4.000000,100.000000
1602006452.157018,49.000000,0.000000,4107.692383,4106.666504,4118.461426,4115.384766,4136.410156,4137.436035,4143.077148,4135.897461,4151.282227,4156.410156,4151.282227,4151.282227,4173.333496,4140.512695,0.000000,4.000000,,,,0.000000,4.000000,4.000000,4.000000,4.000000,4.000000,4.000000,4.000000,4.000000,4.000000,4.000000,4.000000,4.000000,4.000000,4.000000,100.000000
1602006452.164899,50.000000,0.000000,4104.102539,4108.717773,4119.487305,4107.692383,4130.256348,4139.487305,4142.051270,4140.512695,4156.410156,4142.051270,4147.692383,4158.461426,4165.641113,4138.974121,0.000000,4.000000,,,,0.000000,4.000000,4.000000,4.000000,4.000000,4.000000,4.000000,4.000000,4.000000,4.000000,4.000000,4.000000,4.000000,4.000000,4.000000,100.000000
1602006452.172781,51.000000,0.000000,4092.820557,4102.563965,4110.769043,4105.641113,4127.179688,4139.487305,4142.051270,4144.102539,4158.974121,4135.897461,4137.436035,4146.153809,4153.333496,4132.820313,0.000000,4.000000,,,,0.000000,4.000000,4.000000,4.000000,4.000000,4.000000,4.000000,4.000000,4.000000,4.000000,4.000000,4.000000,4.000000,4.000000,4.000000,100.000000
1602006452.180662,52.000000,0.000000,4088.718018,4096.922852,4106.666504,4105.641113,4128.205078,4135.897461,4134.871582,4137.948730,4157.436035,4125.128418,4134.871582,4133.333496,4148.205078,4116.410156,0.000000,4.000000,,,,0.000000,4.000000,4.000000,4.000000,4.000000,4.000000,4.000000,4.000000,4.000000,4.000000,4.000000,4.000000,4.000000,4.000000,4.000000,100.000000
1602006452.188544,53.000000,0.000000,4087.692383,4104.615234,4112.307617,4106.153809,4134.358887,4136.922852,4123.589844,4125.641113,4154.358887,4115.384766,4130.769043,4135.897461,4145.641113,4114.871582,0.000000,4.000000,,,,0.000000,4.000000,4.000000,4.000000,4.000000,4.000000,4.000000,4.000000,4.000000,4.000000,4.000000,4.000000,4.000000,4.000000,4.000000,100.000000
1602006452.196426,54.000000,0.000000,4078.461426,4105.128418,4111.794922,4109.230957,4134.358887,4133.846191,4118.974121,4120.512695,4148.717773,4118.974121,4120.512695,4138.461426,4137.436035,4124.102539,0.000000,4.000000,,,,0.000000,4.000000,4.000000,4.000000,4.000000,4.000000,4.000000,4.000000,4.000000,4.000000,4.000000,4.000000,4.000000,4.000000,4.000000,100.000000
1602006452.204307,55.000000,0.000000,4074.358887,4097.436035,4111.282227,4112.307617,4125.128418,4122.051270,4118.461426,4120.000000,4141.538574,4130.769043,4122.563965,4136.410156,4136.410156,4120.000000,0.000000,4.000000,,,,0.000000,4.000000,4.000000,4.000000,4.000000,4.000000,4.000000,4.000000,4.000000,4.000000,4.000000,4.000000,4.000000,4.000000,4.000000,100.000000
1602006452.212189,56.000000,0.000000,4088.205078,4100.512695,4124.102539,4115.897461,4126.153809,4115.897461,4117.436035,4117.436035,4136.922852,4135.384766,4136.410156,4143.077148,4145.128418,4122.051270,0.000000,4.000000,,,,0.000000,4.000000,4.000000,4.000000,4.000000,4.000000,4.000000,4.000000,4.000000,4.000000,4.000000,4.000000,4.000000,4.000000,4.000000,100.000000
1602006452.220170,57.000000,0.000000,4105.128418,4108.717773,4138.461426,4123.077148,4138.461426,4130.256348,4128.717773,4123.077148,4138.461426,4133.846191,4142.563965,4164.102539,4153.333496,4141.025879,0.000000,4.000000,,,,0.000000,4.000000,4.000000,4.000000,4.000000,4.000000,4.000000,4.000000,4.000000,4.000000,4.000000,4.000000,4.000000,4.000000,4.000000,100.000000
1602006452.228051,58.000000,0.000000,4102.563965,4109.230957,4138.461426,4120.000000,4140.512695,4144.615234,4146.666504,4136.922852,4140.000000,4135.384766,4140.000000,4177.436035,4158.974121,4146.666504,0.000000,4.000000,,,,0.000000,4.000000,4.000000,4.000000,4.000000,4.000000,4.000000,4.000000,4.000000,4.000000,4.000000,4.000000,4.000000,4.000000,4.000000,100.000000
1602006452.236032,59.000000,0.000000,4089.230713,4107.179688,4122.563965,4109.230957,4135.897461,4141.538574,4150.769043,4140.000000,4137.948730,4137.436035,4139.487305,4165.641113,4159.487305,4133.846191,0.000000,4.000000,,,,0.000000,4.000000,4.000000,4.000000,4.000000,4.000000,4.000000,4.000000,4.000000,4.000000,4.000000,4.000000,4.000000,4.000000,4.000000,100.000000
1602006452.243913,60.000000,0.000000,4086.666748,4105.641113,4108.205078,4109.230957,4140.000000,4143.077148,4149.743652,4137.436035,4135.384766,4136.922852,4140.000000,4146.153809,4161.538574,4127.179688,0.000000,4.000000,,,,0.000000,4.000000,4.000000,4.000000,4.000000,4.000000,4.000000,4.000000,4.000000,4.000000,4.000000,4.000000,4.000000,4.000000,4.000000,100.000000
1602006452.251795,61.000000,0.000000,4092.307617,4106.666504,4105.641113,4111.282227,4142.563965,4156.410156,4148.205078,4137.948730,4136.410156,4138.461426,4138.974121,4137.436035,4166.153809,4122.563965,0.000000,4.000000,,,,0.000000,4.000000,4.000000,4.000000,4.000000,4.000000,4.000000,4.000000,4.000000,4.000000,4.000000,4.000000,4.000000,4.000000,4.000000,100.000000
1602006452.259676,62.000000,0.000000,4088.718018,4110.769043,4106.666504,4109.743652,4141.025879,4154.871582,4142.563965,4135.897461,4137.436035,4140.000000,4140.512695,4135.384766,4162.051270,4117.948730,0.000000,4.000000,,,,0.000000,4.000000,4.000000,4.000000,4.000000,4.000000,4.000000,4.000000,4.000000,4.000000,4.000000,4.000000,4.000000,4.000000,4.000000,100.000000
1602006452.267558,63.000000,0.000000,4091.281982,4116.410156,4111.794922,4117.948730,4137.948730,4138.974121,4134.871582,4132.307617,4137.436035,4134.871582,4139.487305,4139.487305,4155.384766,4126.153809,0.000000,4.000000,,,,0.000000,4.000000,4.000000,4.000000,4.000000,4.000000,4.000000,4.000000,4.000000,4.000000,4.000000,4.000000,4.000000,4.000000,4.000000,100.000000
1602006452.275439,64.000000,0.000000,4111.282227,4122.563965,4127.179688,4126.153809,4136.410156,4135.897461,4131.282227,4134.871582,4146.666504,4140.512695,4138.974121,4152.307617,4160.512695,4138.974121,793.000000,4.000000,,,,0.000000,4.000000,4.000000,4.000000,4.000000,4.000000,4.000000,4.000000,4.000000,4.000000,4.000000,4.000000,4.000000,4.000000,4.000000,100.000000
1602006452.283221,65.000000,0.000000,4118.974121,4124.102539,4140.000000,4123.077148,4139.487305,4141.025879,4133.333496,4139.487305,4154.871582,4156.410156,4144.615234,4165.641113,4166.666504,4144.615234,764.000000,4.000000,,,,0.000000,4.000000,4.000000,4.000000,4.000000,4.000000,4.000000,4.000000,4.000000,4.000000,4.000000,4.000000,4.000000,4.000000,4.000000,100.000000
1602006452.291102,66.000000,0.000000,4105.128418,4116.922852,4136.410156,4121.025879,4135.897461,4136.410156,4136.922852,4140.000000,4148.205078,4145.128418,4149.230957,4164.615234,4161.025879,4136.922852,853.000000,4.000000,,,,0.000000,4.000000,4.000000,4.000000,4.000000,4.000000,4.000000,4.000000,4.000000,4.000000,4.000000,4.000000,4.000000,4.000000,4.000000,100.000000
1602006452.298984,67.000000,0.000000,4091.281982,4105.128418,4128.205078,4116.922852,4124.102539,4123.077148,4129.230957,4137.948730,4142.051270,4122.563965,4141.025879,4149.743652,4152.307617,4122.051270,867.000000,4.000000,,,,0.000000,4.000000,4.000000,4.000000,4.000000,4.000000,4.000000,4.000000,4.000000,4.000000,4.000000,4.000000,4.000000,4.000000,4.000000,100.000000
1602006452.306866,68.000000,0.000000,4088.718018,4098.974121,4123.077148,4105.641113,4118.461426,4113.333496,4120.512695,4138.974121,4150.769043,4128.717773,4127.179688,4137.436035,4150.769043,4115.897461,814.000000,4.000000,,,,0.000000,4.000000,4.000000,4.000000,4.000000,4.000000,4.000000,4.000000,4.000000,4.000000,4.000000,4.000000,4.000000,4.000000,4.000000,100.000000
1602006452.314747,69.000000,0.000000,4090.256348,4101.025879,4110.769043,4101.538574,4125.128418,4120.000000,4129.743652,4140.512695,4156.922852,4144.615234,4125.128418,4137.436035,4152.307617,4121.025879,817.000000,4.000000,,,,0.000000,4.000000,4.000000,4.000000,4.000000,4.000000,4.000000,4.000000,4.000000,4.000000,4.000000,4.000000,4.000000,4.000000,4.000000,100.000000
1602006452.322629,70.000000,0.000000,4092.307617,4103.589844,4099.487305,4106.153809,4135.384766,4132.307617,4139.487305,4140.000000,4152.820313,4140.000000,4131.794922,4135.897461,4147.692383,4121.025879,762.000000,4.000000,,,,0.000000,4.000000,4.000000,4.000000,4.000000,4.000000,4.000000,4.000000,4.000000,4.000000,4.000000,4.000000,4.000000,4.000000,4.000000,100.000000
1602006452.330511,71.000000,0.000000,4100.000000,4108.205078,4108.205078,4114.358887,4140.000000,4138.974121,4137.436035,4141.538574,4149.743652,4133.846191,4132.820313,4132.820313,4145.641113,4117.948730,673.000000,4.000000,,,,0.000000,4.000000,4.000000,4.000000,4.000000,4.000000,4.000000,4.000000,4.000000,4.000000,4.000000,4.000000,4.000000,4.000000,4.000000,100.000000
1602006452.338392,72.000000,0.000000,4112.307617,4117.436035,4122.051270,4123.077148,4142.563965,4140.000000,4136.410156,4142.051270,4150.256348,4138.974121,4140.512695,4142.051270,4153.846191,4128.205078,788.000000,4.000000,,,,0.000000,4.000000,4.000000,4.000000,4.000000,4.000000,4.000000,4.000000,4.000000,4.000000,4.000000,4.000000,4.000000,4.000000,4.000000,100.000000
1602006452.346274,73.000000,0.000000,4114.358887,4123.077148,4124.102539,4124.615234,4144.102539,4139.487305,4138.461426,4143.589844,4152.307617,4135.384766,4150.256348,4152.307617,4160.512695,4138.974121,835.000000,4.000000,,,,0.000000,4.000000,4.000000,4.000000,4.000000,4.000000,4.000000,4.000000,4.000000,4.000000,4.000000,4.000000,4.000000,4.000000,4.000000,100.000000
1602006452.354055,74.000000,0.000000,4110.256348,4122.051270,4129.230957,4121.538574,4142.563965,4137.948730,4135.897461,4150.256348,4153.333496,4131.794922,4147.179688,4154.358887,4156.410156,4142.563965,871.000000,4.000000,,,,0.000000,4.000000,4.000000,4.000000,4.000000,4.000000,4.000000,4.000000,4.000000,4.000000,4.000000,4.000000,4.000000,4.000000,4.000000,100.000000
1602006452.361937,75.000000,0.000000,4111.282227,4124.615234,4141.025879,4126.153809,4143.077148,4140.512695,4135.897461,4151.794922,4153.333496,4151.282227,4149.230957,4155.897461,4157.436035,4144.102539,841.000000,4.000000,,,,0.000000,4.000000,4.000000,4.000000,4.000000,4.000000,4.000000,4.000000,4.000000,4.000000,4.000000,4.000000,4.000000,4.000000,4.000000,100.000000
1602006452.369818,76.000000,0.000000,4110.256348,4124.102539,4135.384766,4124.615234,4142.051270,4141.025879,4134.358887,4143.077148,4155.384766,4154.871582,4155.384766,4150.769043,4158.974121,4138.974121,770.000000,4.000000,,,,0.000000,4.000000,4.000000,4.000000,4.000000,4.000000,4.000000,4.000000,4.000000,4.000000,4.000000,4.000000,4.000000,4.000000,4.000000,100.000000
1602006452.377700,77.000000,0.000000,4106.153809,4110.769043,4122.563965,4114.358887,4133.333496,4126.153809,4123.077148,4136.922852,4150.769043,4126.666504,4145.128418,4138.974121,4148.717773,4131.282227,741.000000,4.000000,,,,0.000000,4.000000,4.000000,4.000000,4.000000,4.000000,4.000000,4.000000,4.000000,4.000000,4.000000,4.000000,4.000000,4.000000,4.000000,100.000000
1602006452.385581,78.000000,0.000000,4106.153809,4106.153809,4130.256348,4116.410156,4124.615234,4116.410156,4123.589844,4137.948730,4142.563965,4128.205078,4136.410156,4136.410156,4140.512695,4134.871582,871.000000,4.000000,,,,0.000000,4.000000,4.000000,4.000000,4.000000,4.000000,4.000000,4.000000,4.000000,4.000000,4.000000,4.000000,4.000000,4.000000,4.000000,100.000000
1602006452.393462,79.000000,0.000000,4104.615234,4111.282227,4140.512695,4119.487305,4126.153809,4131.794922,4137.436035,4136.922852,4138.461426,4144.102539,4138.974121,4139.487305,4140.512695,4137.948730,841.000000,4.000000,,,,0.000000,4.000000,4.000000,4.000000,4.000000,4.000000,4.000000,4.000000,4.000000,4.000000,4.000000,4.000000,4.000000,4.000000,4.000000,100.000000
1602006452.401344,80.000000,0.000000,4105.641113,4110.769043,4134.871582,4114.358887,4124.102539,4135.897461,4141.025879,4134.358887,4138.461426,4125.128418,4136.410156,4140.000000,4143.589844,4136.922852,770.000000,4.000000,,,,0.000000,4.000000,4.000000,4.000000,4.000000,4.000000,4.000000,4.000000,4.000000,4.000000,4.000000,4.000000,4.000000,4.000000,4.000000,100.000000
1602006452.409225,81.000000,0.000000,4118.461426,4113.846191,4137.948730,4117.436035,4120.000000,4120.512695,4134.871582,4135.384766,4138.461426,4124.615234,4135.384766,4151.794922,4149.743652,4145.128418,741.000000,4.000000,,,,0.000000,4.000000,4.000000,4.000000,4.000000,4.000000,4.000000,4.000000,4.000000,4.000000,4.000000,4.000000,4.000000,4.000000,4.000000,100.000000
1602006452.417207,82.000000,0.000000,4129.743652,4121.538574,4153.333496,4125.641113,4126.666504,4124.615234,4134.871582,4136.922852,4137.436035,4152.820313,4147.179688,4165.641113,4156.410156,4153.846191,871.000000,4.000000,,,,0.000000,4.000000,4.000000,4.000000,4.000000,4.000000,4.000000,4.000000,4.000000,4.000000,4.000000,4.000000,4.000000,4.000000,4.000000,100.000000
1602006452.425088,83.000000,0.000000,4127.179688,4123.077148,4157.436035,4124.615234,4135.897461,4142.051270,4136.922852,4136.922852,4135.384766,4145.641113,4153.846191,4163.077148,4157.948730,4153.846191,841.000000,4.000000,,,,0.000000,4.000000,4.000000,4.000000,4.000000,4.000000,4.000000,4.000000,4.000000,4.000000,4.000000,4.000000,4.000000,4.000000,4.000000,100.000000
1602006452.432969,84.000000,0.000000,4123.077148,4119.487305,4149.230957,4123.077148,4138.461426,4140.512695,4134.871582,4136.410156,4141.538574,4132.307617,4147.692383,4156.410156,4152.820313,4150.256348,770.000000,4.000000,,,,0.000000,4.000000,4.000000,4.000000,4.000000,4.000000,4.000000,4.000000,4.000000,4.000000,4.000000,4.000000,4.000000,4.000000,4.000000,100.000000
1602006452.440851,85.000000,0.000000,4123.077148,4111.794922,4135.384766,4121.538574,4131.794922,4128.717773,4128.717773,4137.436035,4153.333496,4137.436035,4139.487305,4151.282227,4143.077148,4146.153809,741.000000,4.000000,,,,0.000000,4.000000,4.000000,4.000000,4.000000,4.000000,4.000000,4.000000,4.000000,4.000000,4.000000,4.000000,4.000000,4.000000,4.000000,100.000000
1602006452.448732,86.000000,0.000000,4122.563965,4103.589844,4123.077148,4116.922852,4124.615234,4126.666504,4126.153809,4135.384766,4144.615234,4126.666504,4138.461426,4145.128418,4134.358887,4138.461426,871.000000,4.000000,,,,0.000000,4.000000,4.000000,4.000000,4.000000,4.000000,4.000000,4.000000,4.000000,4.000000,4.000000,4.000000,4.000000,4.000000,4.000000,100.000000
1602006452.456614,87.000000,0.000000,4123.077148,4110.256348,4124.615234,4120.000000,4129.743652,4134.871582,4130.769043,4135.897461,4133.846191,4122.563965,4146.153809,4147.179688,4138.974121,4136.410156,841.000000,4.000000,,,,0.000000,4.000000,4.000000,4.000000,4.000000,4.000000,4.000000,4.000000,4.000000,4.000000,4.000000,4.000000,4.000000,4.000000,4.000000,100.000000
1602006452.464595,88.000000,0.000000,4127.179688,4123.077148,4139.487305,4125.128418,4135.897461,4137.436035,4136.410156,4142.563965,4147.179688,4141.025879,4153.333496,4158.461426,4151.282227,4146.153809,770.000000,4.000000,,,,0.000000,4.000000,4.000000,4.000000,4.000000,4.000000,4.000000,4.000000,4.000000,4.000000,4.000000,4.000000,4.000000,4.000000,4.000000,100.000000
1602006452.472476,89.000000,0.000000,4129.743652,4123.077148,4150.769043,4122.563965,4131.794922,4126.666504,4138.461426,4144.102539,4154.358887,4142.563965,4156.410156,4165.641113,4157.436035,4156.922852,741.000000,4.000000,,,,0.000000,4.000000,4.000000,4.000000,4.000000,4.000000,4.000000,4.000000,4.000000,4.000000,4.000000,4.000000,4.000000,4.000000,4.000000,100.000000
1602006452.480358,90.000000,0.000000,4126.666504,4115.384766,4146.666504,4121.538574,4126.153809,4120.512695,4136.410156,4138.461426,4141.538574,4132.820313,4150.256348,4158.974121,4149.230957,4157.436035,871.000000,4.000000,,,,0.000000,4.000000,4.000000,4.000000,4.000000,4.000000,4.000000,4.000000,4.000000,4.000000,4.000000,4.000000,4.000000,4.000000,4.000000,100.000000
1602006452.488239,91.000000,0.000000,4124.615234,4108.205078,4132.307617,4124.102539,4125.128418,4121.538574,4128.717773,4134.871582,4131.794922,4133.846191,4132.820313,4145.641113,4138.461426,4142.051270,841.000000,4.000000,,,,0.000000,4.000000,4.000000,4.000000,4.000000,4.000000,4.000000,4.000000,4.000000,4.000000,4.000000,4.000000,4.000000,4.000000,4.000000,100.000000
1602006452.496121,92.000000,0.000000,4119.487305,4104.615234,4120.512695,4120.000000,4122.051270,4114.871582,4122.563965,4131.794922,4129.230957,4130.256348,4119.487305,4136.922852,4138.974121,4127.692383,770.000000,4.000000,,,,0.000000,4.000000,4.000000,4.000000,4.000000,4.000000,4.000000,4.000000,4.000000,4.000000,4.000000,4.000000,4.000000,4.000000,4.000000,100.000000
1602006452.504002,93.000000,0.000000,4112.820313,4109.230957,4121.025879,4114.358887,4126.153809,4113.846191,4121.538574,4126.153809,4124.102539,4112.307617,4127.179688,4136.922852,4139.487305,4128.205078,741.000000,4.000000,,,,0.000000,4.000000,4.000000,4.000000,4.000000,4.000000,4.000000,4.000000,4.000000,4.000000,4.000000,4.000000,4.000000,4.000000,4.000000,100.000000
1602006452.511883,94.000000,0.000000,4117.948730,4120.000000,4132.307617,4122.563965,4137.436035,4119.487305,4120.512695,4126.153809,4123.077148,4105.128418,4147.179688,4143.077148,4136.410156,4140.000000,871.000000,4.000000,,,,0.000000,4.000000,4.000000,4.000000,4.000000,4.000000,4.000000,4.000000,4.000000,4.000000,4.000000,4.000000,4.000000,4.000000,4.000000,100.000000
1602006452.519665,95.000000,0.000000,4128.205078,4128.717773,4141.538574,4136.410156,4135.384766,4112.307617,4118.974121,4132.820313,4126.153809,4122.563965,4154.358887,4152.307617,4143.589844,4152.307617,841.000000,4.000000,,,,0.000000,4.000000,4.000000,4.000000,4.000000,4.000000,4.000000,4.000000,4.000000,4.000000,4.000000,4.000000,4.000000,4.000000,4.000000,100.000000
1602006452.527546,96.000000,0.000000,4128.717773,4127.179688,4140.000000,4136.410156,4123.589844,4103.077148,4117.948730,4137.948730,4129.230957,4138.974121,4150.769043,4157.436035,4153.333496,4149.743652,770.000000,4.000000,,,,0.000000,4.000000,4.000000,4.000000,4.000000,4.000000,4.000000,4.000000,4.000000,4.000000,4.000000,4.000000,4.000000,4.000000,4.000000,100.000000
1602006452.535428,97.000000,0.000000,4126.666504,4125.641113,4139.487305,4132.820313,4120.000000,4111.282227,4120.512695,4139.487305,4137.436035,4139.487305,4155.897461,4158.974121,4157.436035,4144.615234,741.000000,4.000000,,,,0.000000,4.000000,4.000000,4.000000,4.000000,4.000000,4.000000,4.000000,4.000000,4.000000,4.000000,4.000000,4.000000,4.000000,4.000000,100.000000
1602006452.543309,98.000000,0.000000,4127.692383,4129.743652,4138.461426,4135.897461,4125.128418,4123.077148,4126.666504,4142.051270,4144.615234,4140.000000,4160.512695,4155.897461,4154.871582,4152.307617,871.000000,4.000000,,,,0.000000,4.000000,4.000000,4.000000,4.000000,4.000000,4.000000,4.000000,4.000000,4.000000,4.000000,4.000000,4.000000,4.000000,4.000000,100.000000
1602006452.551190,99.000000,0.000000,4117.436035,4122.051270,4121.025879,4126.666504,4124.102539,4121.538574,4127.692383,4141.538574,4142.051270,4143.077148,4145.641113,4143.589844,4141.538574,4150.256348,841.000000,4.000000,,,,0.000000,4.000000,4.000000,4.000000,4.000000,4.000000,4.000000,4.000000,4.000000,4.000000,4.000000,4.000000,4.000000,4.000000,4.000000,100.000000
1602006452.559072,100.000000,0.000000,4103.077148,4106.153809,4104.615234,4112.307617,4115.897461,4118.974121,4128.717773,4138.974121,4138.974121,4135.384766,4132.820313,4132.820313,4133.333496,4133.333496,770.000000,4.000000,,,,0.000000,4.000000,4.000000,4.000000,4.000000,4.000000,4.000000,4.000000,4.000000,4.000000,4.000000,4.000000,4.000000,4.000000,4.000000,100.000000
1602006452.566853,101.000000,0.000000,4101.025879,4105.128418,4105.128418,4115.384766,4109.743652,4124.102539,4135.384766,4140.000000,4137.436035,4126.666504,4136.410156,4133.333496,4136.922852,4131.794922,741.000000,4.000000,,,,0.000000,4.000000,4.000000,4.000000,4.000000,4.000000,4.000000,4.000000,4.000000,4.000000,4.000000,4.000000,4.000000,4.000000,4.000000,100.000000
1602006452.574735,102.000000,0.000000,4104.102539,4110.769043,4108.205078,4120.512695,4109.230957,4125.128418,4137.436035,4142.051270,4130.256348,4117.948730,4137.436035,4133.846191,4129.743652,4140.000000,871.000000,4.000000,,,,0.000000,4.000000,4.000000,4.000000,4.000000,4.000000,4.000000,4.000000,4.000000,4.000000,4.000000,4.000000,4.000000,4.000000,4.000000,100.000000
1602006452.582616,103.000000,0.000000,4107.179688,4106.153809,4111.794922,4113.846191,4113.333496,4120.000000,4134.358887,4136.410156,4122.051270,4110.769043,4137.436035,4133.333496,4124.102539,4141.025879,841.000000,4.000000,,,,0.000000,4.000000,4.000000,4.000000,4.000000,4.000000,4.000000,4.000000,4.000000,4.000000,4.000000,4.000000,4.000000,4.000000,4.000000,100.000000
1602006452.590498,104.000000,0.000000,4124.615234,4109.230957,4123.589844,4117.436035,4122.051270,4126.666504,4133.846191,4134.871582,4123.589844,4128.205078,4140.000000,4145.641113,4144.615234,4164.102539,770.000000,4.000000,,,,0.000000,4.000000,4.000000,4.000000,4.000000,4.000000,4.000000,4.000000,4.000000,4.000000,4.000000,4.000000,4.000000,4.000000,4.000000,100.000000
1602006452.598379,105.000000,0.000000,4150.256348,4121.025879,4130.256348,4127.179688,4128.717773,4127.179688,4129.230957,4134.358887,4128.205078,4141.538574,4133.333496,4157.948730,4160.000000,4203.077148,741.000000,4.000000,,,,0.000000,4.000000,4.000000,4.000000,4.000000,4.000000,4.000000,4.000000,4.000000,4.000000,4.000000,4.000000,4.000000,4.000000,4.000000,100.000000
1602006452.606260,106.000000,0.000000,4158.974121,4122.051270,4124.102539,4122.051270,4127.179688,4107.692383,4117.436035,4122.051270,4121.538574,4116.410156,4130.769043,4153.846191,4155.897461,4209.230957,871.000000,4.000000,,,,0.000000,4.000000,4.000000,4.000000,4.000000,4.000000,4.000000,4.000000,4.000000,4.000000,4.000000,4.000000,4.000000,4.000000,4.000000,100.000000
1602006452.614242,107.000000,0.000000,4159.487305,4119.487305,4119.487305,4114.358887,4124.102539,4105.128418,4115.897461,4120.000000,4114.358887,4105.128418,4145.641113,4148.205078,4161.538574,4192.820313,841.000000,4.000000,,,,0.000000,4.000000,4.000000,4.000000,4.000000,4.000000,4.000000,4.000000,4.000000,4.000000,4.000000,4.000000,4.000000,4.000000,4.000000,100.000000
1602006452.622123,108.000000,0.000000,4158.974121,4125.641113,4121.538574,4121.025879,4130.769043,4130.769043,4122.563965,4133.333496,4127.179688,4143.589844,4161.538574,4150.769043,4173.846191,4203.077148,770.000000,4.000000,,,,0.000000,4.000000,4.000000,4.000000,4.000000,4.000000,4.000000,4.000000,4.000000,4.000000,4.000000,4.000000,4.000000,4.000000,4.000000,100.000000
1602006452.630004,109.000000,0.000000,4155.897461,4129.230957,4126.153809,4127.692383,4136.922852,4143.589844,4124.615234,4141.025879,4148.205078,4169.230957,4156.410156,4153.333496,4171.794922,4219.487305,741.000000,4.000000,,,,0.000000,4.000000,4.000000,4.000000,4.000000,4.000000,4.000000,4.000000,4.000000,4.000000,4.000000,4.000000,4.000000,4.000000,4.000000,100.000000
1602006452.637886,110.000000,0.000000,4162.563965,4131.282227,4132.820313,4129.230957,4136.922852,4132.820313,4123.077148,4146.666504,4148.717773,4144.615234,4145.641113,4159.487305,4168.205078,4212.307617,871.000000,4.000000,,,,0.000000,4.000000,4.000000,4.000000,4.000000,4.000000,4.000000,4.000000,4.000000,4.000000,4.000000,4.000000,4.000000,4.000000,4.000000,100.000000
1602006452.645767,111.000000,0.000000,4173.333496,4137.948730,4138.461426,4133.846191,4134.871582,4125.128418,4122.563965,4151.794922,4137.436035,4124.615234,4152.307617,4170.769043,4171.794922,4215.897461,841.000000,4.000000,,,,0.000000,4.000000,4.000000,4.000000,4.000000,4.000000,4.000000,4.000000,4.000000,4.000000,4.000000,4.000000,4.000000,4.000000,4.000000,100.000000
1602006452.653649,112.000000,0.000000,4165.641113,4135.897461,4138.974121,4139.487305,4135.384766,4124.102539,4126.153809,4144.615234,4136.922852,4134.871582,4160.512695,4167.179688,4166.153809,4230.256348,770.000000,4.000000,,,,0.000000,4.000000,4.000000,4.000000,4.000000,4.000000,4.000000,4.000000,4.000000,4.000000,4.000000,4.000000,4.000000,4.000000,4.000000,100.000000
1602006452.661530,113.000000,0.000000,4151.282227,4127.692383,4136.922852,4136.922852,4135.897461,4117.948730,4128.717773,4138.461426,4140.000000,4143.589844,4154.358887,4153.846191,4154.871582,4214.358887,741.000000,4.000000,,,,0.000000,4.000000,4.000000,4.000000,4.000000,4.000000,4.000000,4.000000,4.000000,4.000000,4.000000,4.000000,4.000000,4.000000,4.000000,100.000000
1602006452.669312,114.000000,0.000000,4146.153809,4123.589844,4136.410156,4126.666504,4129.230957,4108.717773,4127.692383,4138.461426,4130.769043,4131.794922,4141.025879,4150.769043,4146.666504,4176.410156,871.000000,4.000000,,,,0.000000,4.000000,4.000000,4.000000,4.000000,4.000000,4.000000,4.000000,4.000000,4.000000,4.000000,4.000000,4.000000,4.000000,4.000000,100.000000
1602006452.677193,115.000000,0.000000,4136.410156,4121.025879,4137.436035,4120.512695,4123.589844,4110.769043,4129.743652,4135.897461,4126.153809,4133.846191,4127.179688,4156.922852,4139.487305,4160.000000,841.000000,4.000000,,,,0.000000,4.000000,4.000000,4.000000,4.000000,4.000000,4.000000,4.000000,4.000000,4.000000,4.000000,4.000000,4.000000,4.000000,4.000000,100.000000
1602006452.685075,116.000000,0.000000,4128.205078,4122.051270,4138.974121,4124.102539,4125.641113,4121.025879,4136.922852,4135.897461,4134.871582,4160.512695,4117.948730,4157.948730,4135.897461,4159.487305,770.000000,4.000000,,,,0.000000,4.000000,4.000000,4.000000,4.000000,4.000000,4.000000,4.000000,4.000000,4.000000,4.000000,4.000000,4.000000,4.000000,4.000000,100.000000
1602006452.692957,117.000000,0.000000,4133.846191,4124.615234,4136.410156,4129.230957,4128.717773,4119.487305,4138.461426,4138.974121,4139.487305,4153.333496,4127.692383,4153.846191,4140.000000,4162.051270,741.000000,4.000000,,,,0.000000,4.000000,4.000000,4.000000,4.000000,4.000000,4.000000,4.000000,4.000000,4.000000,4.000000,4.000000,4.000000,4.000000,4.000000,100.000000
1602006452.700838,118.000000,0.000000,4143.077148,4129.230957,4134.871582,4132.307617,4131.282227,4117.948730,4136.922852,4145.128418,4140.512695,4124.615234,4151.794922,4157.436035,4153.846191,4181.025879,871.000000,4.000000,,,,0.000000,4.000000,4.000000,4.000000,4.000000,4.000000,4.000000,4.000000,4.000000,4.000000,4.000000,4.000000,4.000000,4.000000,4.000000,100.000000
1602006452.708720,119.000000,0.000000,4143.077148,4138.974121,4138.461426,4137.436035,4145.641113,4132.820313,4140.000000,4157.436035,4153.846191,4143.589844,4164.102539,4168.205078,4170.769043,4189.743652,841.000000,4.000000,,,,0.000000,4.000000,4.000000,4.000000,4.000000,4.000000,4.000000,4.000000,4.000000,4.000000,4.000000,4.000000,4.000000,4.000000,4.000000,100.000000
1602006452.716602,120.000000,0.000000,4133.333496,4144.102539,4141.025879,4140.512695,4156.922852,4140.512695,4141.025879,4161.538574,4162.563965,4179.487305,4155.384766,4171.282227,4170.256348,4170.256348,770.000000,4.000000,,,,0.000000,4.000000,4.000000,4.000000,4.000000,4.000000,4.000000,4.000000,4.000000,4.000000,4.000000,4.000000,4.000000,4.000000,4.000000,100.000000
1602006452.724483,121.000000,0.000000,4124.102539,4141.025879,4139.487305,4140.512695,4149.743652,4134.358887,4135.384766,4154.871582,4147.179688,4165.128418,4143.589844,4161.025879,4153.846191,4158.461426,741.000000,4.000000,,,,0.000000,4.000000,4.000000,4.000000,4.000000,4.000000,4.000000,4.000000,4.000000,4.000000,4.000000,4.000000,4.000000,4.000000,4.000000,100.000000
1602006452.732465,122.000000,0.000000,4124.615234,4138.461426,4140.512695,4141.538574,4141.025879,4135.897461,4129.230957,4148.717773,4137.948730,4140.000000,4149.743652,4156.410156,4155.384766,4168.205078,871.000000,4.000000,,,,0.000000,4.000000,4.000000,4.000000,4.000000,4.000000,4.000000,4.000000,4.000000,4.000000,4.000000,4.000000,4.000000,4.000000,4.000000,100.000000
1602006452.740346,123.000000,0.000000,4129.743652,4140.000000,4142.051270,4140.000000,4141.538574,4135.384766,4123.077148,4141.025879,4138.461426,4145.641113,4158.461426,4157.948730,4161.538574,4159.487305,841.000000,4.000000,,,,0.000000,4.000000,4.000000,4.000000,4.000000,4.000000,4.000000,4.000000,4.000000,4.000000,4.000000,4.000000,4.000000,4.000000,4.000000,100.000000
1602006452.748228,124.000000,0.000000,4123.077148,4134.358887,4135.384766,4134.358887,4135.384766,4125.128418,4124.615234,4134.871582,4126.153809,4144.102539,4148.205078,4149.743652,4144.615234,4134.358887,770.000000,4.000000,,,,0.000000,4.000000,4.000000,4.000000,4.000000,4.000000,4.000000,4.000000,4.000000,4.000000,4.000000,4.000000,4.000000,4.000000,4.000000,100.000000
1602006452.756110,125.000000,0.000000,4111.794922,4125.128418,4126.666504,4129.230957,4123.589844,4125.128418,4133.846191,4138.461426,4116.922852,4125.128418,4134.358887,4139.487305,4125.128418,4128.205078,741.000000,4.000000,,,,0.000000,4.000000,4.000000,4.000000,4.000000,4.000000,4.000000,4.000000,4.000000,4.000000,4.000000,4.000000,4.000000,4.000000,4.000000,100.000000
1602006452.763991,126.000000,0.000000,4109.230957,4122.563965,4124.615234,4128.205078,4123.077148,4138.461426,4139.487305,4144.102539,4123.589844,4121.025879,4134.871582,4140.000000,4123.589844,4144.102539,871.000000,4.000000,,,,0.000000,4.000000,4.000000,4.000000,4.000000,4.000000,4.000000,4.000000,4.000000,4.000000,4.000000,4.000000,4.000000,4.000000,4.000000,100.000000
1602006452.771873,127.000000,0.000000,4109.230957,4119.487305,4121.025879,4125.128418,4126.153809,4141.025879,4138.974121,4143.077148,4127.179688,4124.615234,4138.974121,4138.461426,4123.589844,4155.384766,841.000000,4.000000,,,,0.000000,4.000000,4.000000,4.000000,4.000000,4.000000,4.000000,4.000000,4.000000,4.000000,4.000000,4.000000,4.000000,4.000000,4.000000,100.000000
1602006452.779755,128.000000,0.000000,4103.589844,4109.230957,4114.358887,4118.461426,4122.051270,4127.692383,4136.922852,4143.077148,4126.153809,4116.922852,4132.820313,4131.794922,4122.051270,4143.077148,770.000000,4.000000,,,,0.000000,4.000000,4.000000,4.000000,4.000000,4.000000,4.000000,4.000000,4.000000,4.000000,4.000000,4.000000,4.000000,4.000000,4.000000,100.000000
1602006452.787636,0.000000,0.000000,4102.563965,4112.820313,4122.051270,4126.153809,4124.615234,4124.102539,4140.000000,4151.794922,4137.948730,4125.128418,4135.897461,4137.948730,4131.794922,4135.384766,793.000000,4.000000,,,,0.000000,4.000000,4.000000,4.000000,4.000000,4.000000,4.000000,4.000000,4.000000,4.000000,4.000000,4.000000,4.000000,4.000000,4.000000,100.000000
1602006452.795518,1.000000,0.000000,4109.743652,4128.717773,4137.948730,4142.051270,4137.948730,4136.922852,4138.461426,4154.358887,4141.025879,4151.282227,4155.897461,4147.179688,4142.563965,4149.230957,780.000000,4.000000,,,,0.000000,4.000000,4.000000,4.000000,4.000000,4.000000,4.000000,4.000000,4.000000,4.000000,4.000000,4.000000,4.000000,4.000000,4.000000,100.000000
1602006452.803300,2.000000,0.000000,4113.846191,4129.230957,4140.512695,4138.461426,4143.077148,4139.487305,4127.179688,4140.000000,4125.641113,4151.282227,4155.897461,4140.000000,4138.974121,4148.717773,853.000000,4.000000,,,,0.000000,4.000000,4.000000,4.000000,4.000000,4.000000,4.000000,4.000000,4.000000,4.000000,4.000000,4.000000,4.000000,4.000000,4.000000,100.000000
1602006452.811181,3.000000,0.000000,4114.871582,4127.179688,4131.794922,4127.692383,4140.512695,4131.794922,4119.487305,4127.179688,4113.846191,4124.615234,4140.000000,4132.820313,4132.820313,4129.230957,867.000000,4.000000,,,,0.000000,4.000000,4.000000,4.000000,4.000000,4.000000,4.000000,4.000000,4.000000,4.000000,4.000000,4.000000,4.000000,4.000000,4.000000,100.000000
1602006452.819063,4.000000,0.000000,4113.333496,4138.461426,4126.666504,4133.333496,4143.077148,4137.436035,4122.563965,4125.641113,4115.897461,4110.769043,4137.436035,4133.846191,4136.922852,4127.179688,814.000000,4.000000,,,,0.000000,4.000000,4.000000,4.000000,4.000000,4.000000,4.000000,4.000000,4.000000,4.000000,4.000000,4.000000,4.000000,4.000000,4.000000,100.000000
1602006452.826945,5.000000,0.000000,4113.846191,4143.077148,4129.743652,4141.538574,4143.589844,4140.512695,4123.077148,4124.615234,4119.487305,4114.871582,4135.897461,4135.897461,4140.512695,4134.358887,817.000000,4.000000,,,,0.000000,4.000000,4.000000,4.000000,4.000000,4.000000,4.000000,4.000000,4.000000,4.000000,4.000000,4.000000,4.000000,4.000000,4.000000,100.000000
1602006452.834826,6.000000,0.000000,4119.487305,4138.974121,4136.410156,4138.461426,4140.000000,4128.205078,4122.051270,4128.205078,4119.487305,4125.641113,4137.948730,4143.077148,4142.563965,4142.563965,782.000000,4.000000,,,,0.000000,4.000000,4.000000,4.000000,4.000000,4.000000,4.000000,4.000000,4.000000,4.000000,4.000000,4.000000,4.000000,4.000000,4.000000,100.000000
1602006452.842708,7.000000,0.000000,4121.025879,4139.487305,4138.974121,4138.461426,4139.487305,4128.717773,4126.666504,4135.384766,4122.051270,4142.563965,4155.897461,4151.794922,4152.307617,4148.717773,673.000000,4.000000,,,,0.000000,4.000000,4.000000,4.000000,4.000000,4.000000,4.000000,4.000000,4.000000,4.000000,4.000000,4.000000,4.000000,4.000000,4.000000,100.000000
1602006452.850590,8.000000,0.000000,4116.922852,4135.897461,4134.358887,4142.051270,4137.436035,4134.871582,4127.692383,4136.922852,4122.563965,4145.128418,4160.000000,4146.666504,4151.282227,4144.102539,788.000000,4.000000,,,,0.000000,4.000000,4.000000,4.000000,4.000000,4.000000,4.000000,4.000000,4.000000,4.000000,4.000000,4.000000,4.000000,4.000000,4.000000,100.000000
1602006452.858471,9.000000,0.000000,4105.641113,4125.128418,4125.641113,4135.897461,4127.179688,4124.102539,4128.205078,4134.871582,4119.487305,4128.205078,4139.487305,4135.897461,4131.794922,4138.461426,835.000000,4.000000,,,,0.000000,4.000000,4.000000,4.000000,4.000000,4.000000,4.000000,4.000000,4.000000,4.000000,4.000000,4.000000,4.000000,4.000000,4.000000,100.000000
1602006452.866453,10.000000,0.000000,4096.922852,4119.487305,4121.538574,4126.666504,4121.538574,4115.384766,4133.333496,4136.410156,4121.538574,4118.461426,4129.230957,4133.846191,4124.102539,4133.846191,871.000000,4.000000,,,,0.000000,4.000000,4.000000,4.000000,4.000000,4.000000,4.000000,4.000000,4.000000,4.000000,4.000000,4.000000,4.000000,4.000000,4.000000,100.000000
1602006452.874334,11.000000,0.000000,4109.230957,4126.666504,4130.256348,4132.307617,4129.743652,4126.666504,4138.974121,4146.153809,4129.230957,4133.333496,4144.102539,4141.538574,4142.051270,4133.846191,841.000000,4.000000,,,,0.000000,4.000000,4.000000,4.000000,4.000000,4.000000,4.000000,4.000000,4.000000,4.000000,4.000000,4.000000,4.000000,4.000000,4.000000,100.000000
1602006452.882216,12.000000,0.000000,4124.102539,4136.922852,4140.000000,4141.025879,4137.436035,4139.487305,4141.025879,4153.846191,4138.461426,4155.897461,4158.974121,4153.333496,4153.333496,4148.717773,770.000000,4.000000,,,,0.000000,4.000000,4.000000,4.000000,4.000000,4.000000,4.000000,4.000000,4.000000,4.000000,4.000000,4.000000,4.000000,4.000000,4.000000,100.000000
1602006452.890098,13.000000,0.000000,4111.794922,4130.769043,4132.307617,4132.820313,4136.922852,4140.000000,4139.487305,4151.794922,4148.205078,4154.358887,4156.922852,4153.333496,4145.128418,4154.871582,739.000000,4.000000,,,,0.000000,4.000000,4.000000,4.000000,4.000000,4.000000,4.000000,4.000000,4.000000,4.000000,4.000000,4.000000,4.000000,4.000000,4.000000,100.000000
1602006452.897979,14.000000,0.000000,4098.974121,4120.000000,4122.563965,4122.563965,4134.358887,4136.922852,4137.948730,4149.230957,4146.666504,4142.563965,4148.717773,4141.025879,4138.974121,4138.461426,871.000000,4.000000,,,,0.000000,4.000000,4.000000,4.000000,4.000000,4.000000,4.000000,4.000000,4.000000,4.000000,4.000000,4.000000,4.000000,4.000000,4.000000,100.000000
1602006452.905861,15.000000,0.000000,4109.230957,4127.179688,4131.794922,4125.641113,4137.436035,4133.846191,4137.948730,4150.256348,4138.461426,4150.256348,4155.384766,4143.589844,4149.230957,4137.436035,841.000000,4.000000,,,,0.000000,4.000000,4.000000,4.000000,4.000000,4.000000,4.000000,4.000000,4.000000,4.000000,4.000000,4.000000,4.000000,4.000000,4.000000,100.000000
1602006452.913743,16.000000,0.000000,4124.102539,4138.974121,4141.025879,4133.333496,4141.538574,4135.897461,4133.846191,4147.179688,4140.000000,4161.025879,4158.974121,4154.358887,4160.000000,4156.410156,0.000000,4.000000,,,,0.000000,4.000000,4.000000,4.000000,4.000000,4.000000,4.000000,4.000000,4.000000,4.000000,4.000000,4.000000,4.000000,4.000000,4.000000,100.000000
1602006452.921624,17.000000,0.000000,4129.743652,4138.974121,4135.897461,4135.384766,4142.563965,4140.512695,4125.128418,4140.000000,4141.538574,4153.333496,4146.153809,4151.282227,4158.461426,4160.000000,0.000000,4.000000,,,,0.000000,4.000000,4.000000,4.000000,4.000000,4.000000,4.000000,4.000000,4.000000,4.000000,4.000000,4.000000,4.000000,4.000000,4.000000,100.000000
1602006452.929506,18.000000,0.000000,4123.077148,4136.410156,4133.333496,4133.846191,4138.974121,4134.358887,4121.538574,4140.000000,4134.358887,4150.256348,4139.487305,4146.153809,4151.794922,4149.230957,0.000000,4.000000,,,,0.000000,4.000000,4.000000,4.000000,4.000000,4.000000,4.000000,4.000000,4.000000,4.000000,4.000000,4.000000,4.000000,4.000000,4.000000,100.000000
1602006452.937287,19.000000,0.000000,4115.897461,4138.461426,4138.461426,4134.871582,4135.897461,4121.025879,4128.205078,4142.563965,4133.333496,4157.436035,4144.615234,4146.153809,4149.743652,4140.000000,0.000000,4.000000,,,,0.000000,4.000000,4.000000,4.000000,4.000000,4.000000,4.000000,4.000000,4.000000,4.000000,4.000000,4.000000,4.000000,4.000000,4.000000,100.000000
1602006452.945169,20.000000,0.000000,4118.974121,4138.461426,4141.538574,4136.922852,4135.384766,4125.641113,4136.922852,4143.077148,4137.436035,4150.256348,4144.102539,4140.000000,4151.794922,4135.384766,0.000000,4.000000,,,,0.000000,4.000000,4.000000,4.000000,4.000000,4.000000,4.000000,4.000000,4.000000,4.000000,4.000000,4.000000,4.000000,4.000000,4.000000,100.000000
1602006452.953050,21.000000,0.000000,4123.077148,4132.307617,4137.948730,4133.333496,4131.794922,4137.948730,4135.384766,4137.948730,4123.077148,4132.820313,4130.256348,4128.717773,4138.974121,4141.025879,0.000000,4.000000,,,,0.000000,4.000000,4.000000,4.000000,4.000000,4.000000,4.000000,4.000000,4.000000,4.000000,4.000000,4.000000,4.000000,4.000000,4.000000,100.000000
1602006452.960932,22.000000,0.000000,4114.358887,4125.128418,4127.179688,4124.615234,4120.000000,4124.102539,4123.077148,4123.077148,4103.077148,4112.307617,4120.512695,4120.512695,4121.025879,4141.025879,0.000000,4.000000,,,,0.000000,4.000000,4.000000,4.000000,4.000000,4.000000,4.000000,4.000000,4.000000,4.000000,4.000000,4.000000,4.000000,4.000000,4.000000,100.000000
1602006452.968813,23.000000,0.000000,4103.077148,4122.051270,4122.051270,4122.051270,4112.820313,4106.666504,4118.461426,4118.461426,4103.589844,4103.077148,4129.230957,4122.051270,4126.153809,4128.717773,0.000000,4.000000,,,,0.000000,4.000000,4.000000,4.000000,4.000000,4.000000,4.000000,4.000000,4.000000,4.000000,4.000000,4.000000,4.000000,4.000000,4.000000,100.000000
1602006452.976694,24.000000,0.000000,4109.743652,4124.102539,4132.820313,4127.692383,4116.410156,4115.384766,4123.589844,4130.256348,4120.512695,4121.538574,4144.615234,4132.820313,4140.512695,4130.256348,0.000000,4.000000,,,,0.000000,4.000000,4.000000,4.000000,4.000000,4.000000,4.000000,4.000000,4.000000,4.000000,4.000000,4.000000,4.000000,4.000000,4.000000,100.000000
1602006452.984576,25.000000,0.000000,4126.666504,4133.333496,4146.666504,4137.436035,4124.615234,4128.717773,4124.102539,4141.025879,4132.307617,4154.358887,4154.871582,4151.282227,4147.692383,4151.282227,0.000000,4.000000,,,,0.000000,4.000000,4.000000,4.000000,4.000000,4.000000,4.000000,4.000000,4.000000,4.000000,4.000000,4.000000,4.000000,4.000000,4.000000,100.000000
1602006452.992457,26.000000,0.000000,4138.461426,4143.589844,4152.820313,4142.051270,4132.820313,4128.717773,4125.641113,4147.692383,4137.436035,4170.769043,4160.000000,4167.692383,4155.897461,4167.179688,0.000000,4.000000,,,,0.000000,4.000000,4.000000,4.000000,4.000000,4.000000,4.000000,4.000000,4.000000,4.000000,4.000000,4.000000,4.000000,4.000000,4.000000,100.000000
1602006453.000439,27.000000,0.000000,4140.000000,4144.102539,4152.820313,4140.512695,4137.948730,4124.615234,4133.846191,4150.256348,4140.512695,4172.307617,4157.948730,4167.692383,4162.051270,4167.179688,0.000000,4.000000,,,,0.000000,4.000000,4.000000,4.000000,4.000000,4.000000,4.000000,4.000000,4.000000,4.000000,4.000000,4.000000,4.000000,4.000000,4.000000,100.000000
1602006453.008320,28.000000,0.000000,4134.871582,4139.487305,4149.230957,4140.000000,4140.000000,4128.717773,4137.948730,4146.666504,4141.538574,4171.794922,4153.333496,4158.461426,4161.025879,4164.615234,0.000000,4.000000,,,,0.000000,4.000000,4.000000,4.000000,4.000000,4.000000,4.000000,4.000000,4.000000,4.000000,4.000000,4.000000,4.000000,4.000000,4.000000,100.000000
1602006453.016202,29.000000,0.000000,4118.974121,4133.846191,4137.436035,4132.307617,4139.487305,4137.436035,4137.436035,4141.538574,4138.974121,4150.769043,4152.820313,4151.282227,4156.410156,4151.282227,0.000000,4.000000,,,,0.000000,4.000000,4.000000,4.000000,4.000000,4.000000,4.000000,4.000000,4.000000,4.000000,4.000000,4.000000,4.000000,4.000000,4.000000,100.000000
1602006453.024084,30.000000,0.000000,4102.051270,4123.589844,4123.077148,4120.000000,4137.436035,4136.922852,4136.410156,4134.871582,4136.410156,4120.512695,4146.153809,4140.000000,4146.153809,4127.179688,0.000000,4.000000,,,,0.000000,4.000000,4.000000,4.000000,4.000000,4.000000,4.000000,4.000000,4.000000,4.000000,4.000000,4.000000,4.000000,4.000000,4.000000,100.000000
1602006453.031965,31.000000,0.000000,4103.589844,4121.025879,4116.922852,4121.538574,4135.384766,4128.205078,4130.769043,4125.128418,4136.410156,4123.077148,4136.922852,4133.333496,4136.410156,4116.410156,0.000000,4.000000,,,,0.000000,4.000000,4.000000,4.000000,4.000000,4.000000,4.000000,4.000000,4.000000,4.000000,4.000000,4.000000,4.000000,4.000000,4.000000,100.000000
1602006453.039847,32.000000,0.000000,4115.897461,4131.794922,4121.025879,4134.358887,4135.897461,4127.692383,4124.102539,4126.666504,4136.922852,4148.205078,4133.846191,4147.692383,4137.436035,4124.102539,0.000000,4.000000,,,,0.000000,4.000000,4.000000,4.000000,4.000000,4.000000,4.000000,4.000000,4.000000,4.000000,4.000000,4.000000,4.000000,4.000000,4.000000,100.000000
1602006453.047729,33.000000,0.000000,4120.512695,4137.436035,4126.666504,4137.948730,4137.436035,4128.717773,4125.128418,4136.922852,4134.871582,4155.384766,4135.384766,4162.051270,4137.436035,4136.922852,0.000000,4.000000,,,,0.000000,4.000000,4.000000,4.000000,4.000000,4.000000,4.000000,4.000000,4.000000,4.000000,4.000000,4.000000,4.000000,4.000000,4.000000,100.000000
1602006453.055610,34.000000,0.000000,4123.077148,4135.384766,4131.794922,4135.384766,4137.436035,4125.128418,4128.717773,4138.461426,4130.256348,4151.794922,4145.641113,4158.974121,4135.384766,4140.000000,0.000000,4.000000,,,,0.000000,4.000000,4.000000,4.000000,4.000000,4.000000,4.000000,4.000000,4.000000,4.000000,4.000000,4.000000,4.000000,4.000000,4.000000,100.000000
1602006453.063492,35.000000,0.000000,4130.256348,4135.384766,4135.384766,4136.410156,4135.384766,4123.077148,4126.153809,4131.794922,4120.512695,4140.000000,4151.794922,4157.436035,4136.410156,4136.410156,0.000000,4.000000,,,,0.000000,4.000000,4.000000,4.000000,4.000000,4.000000,4.000000,4.000000,4.000000,4.000000,4.000000,4.000000,4.000000,4.000000,4.000000,100.000000
1602006453.071273,36.000000,0.000000,4137.948730,4141.025879,4141.025879,4140.512695,4135.384766,4121.538574,4124.102539,4126.666504,4123.589844,4126.666504,4143.077148,4167.179688,4142.563965,4142.051270,0.000000,4.000000,,,,0.000000,4.000000,4.000000,4.000000,4.000000,4.000000,4.000000,4.000000,4.000000,4.000000,4.000000,4.000000,4.000000,4.000000,4.000000,100.000000
1602006453.079155,37.000000,0.000000,4149.743652,4152.820313,4154.871582,4152.307617,4141.538574,4128.205078,4131.794922,4129.743652,4144.615234,4136.410156,4136.922852,4176.922852,4153.333496,4155.897461,0.000000,4.000000,,,,0.000000,4.000000,4.000000,4.000000,4.000000,4.000000,4.000000,4.000000,4.000000,4.000000,4.000000,4.000000,4.000000,4.000000,4.000000,100.000000
1602006453.087036,38.000000,0.000000,4156.922852,4157.948730,4159.487305,4156.922852,4147.179688,4141.025879,4136.922852,4135.897461,4154.871582,4158.974121,4140.512695,4173.846191,4156.410156,4161.025879,0.000000,4.000000,,,,0.000000,4.000000,4.000000,4.000000,4.000000,4.000000,4.000000,4.000000,4.000000,4.000000,4.000000,4.000000,4.000000,4.000000,4.000000,100.000000
1602006453.094918,39.000000,0.000000,4144.102539,4149.743652,4146.666504,4144.615234,4145.128418,4145.128418,4129.743652,4135.897461,4154.871582,4161.538574,4146.666504,4168.717773,4152.820313,4153.333496,0.000000,4.000000,,,,0.000000,4.000000,4.000000,4.000000,4.000000,4.000000,4.000000,4.000000,4.000000,4.000000,4.000000,4.000000,4.000000,4.000000,4.000000,100.000000
1602006453.102799,40.000000,0.000000,4126.666504,4140.512695,4135.384766,4134.358887,4140.512695,4140.512695,4126.666504,4136.410156,4160.512695,4150.256348,4152.820313,4169.743652,4153.333496,4142.563965,0.000000,4.000000,,,,0.000000,4.000000,4.000000,4.000000,4.000000,4.000000,4.000000,4.000000,4.000000,4.000000,4.000000,4.000000,4.000000,4.000000,4.000000,100.000000
1602006453.110680,41.000000,0.000000,4121.538574,4138.974121,4131.282227,4136.922852,4138.461426,4137.436035,4133.846191,4138.974121,4152.820313,4148.205078,4155.897461,4165.128418,4156.410156,4137.948730,0.000000,4.000000,,,,0.000000,4.000000,4.000000,4.000000,4.000000,4.000000,4.000000,4.000000,4.000000,4.000000,4.000000,4.000000,4.000000,4.000000,4.000000,100.000000
1602006453.118562,42.000000,0.000000,4124.102539,4136.922852,4127.179688,4137.436035,4135.384766,4135.897461,4138.974121,4139.487305,4140.000000,4150.256348,4152.820313,4156.410156,4150.769043,4137.436035,0.000000,4.000000,,,,0.000000,4.000000,4.000000,4.000000,4.000000,4.000000,4.000000,4.000000,4.000000,4.000000,4.000000,4.000000,4.000000,4.000000,4.000000,100.000000
1602006453.126543,43.000000,0.000000,4125.641113,4128.717773,4119.487305,4130.256348,4130.256348,4133.333496,4139.487305,4141.025879,4137.436035,4137.436035,4138.461426,4149.743652,4132.307617,4125.128418,0.000000,4.000000,,,,0.000000,4.000000,4.000000,4.000000,4.000000,4.000000,4.000000,4.000000,4.000000,4.000000,4.000000,4.000000,4.000000,4.000000,4.000000,100.000000
1602006453.134425,44.000000,0.000000,4117.948730,4120.512695,4108.205078,4121.025879,4123.077148,4123.589844,4138.461426,4134.871582,4128.205078,4117.436035,4109.743652,4140.000000,4110.769043,4103.589844,0.000000,4.000000,,,,0.000000,4.000000,4.000000,4.000000,4.000000,4.000000,4.000000,4.000000,4.000000,4.000000,4.000000,4.000000,4.000000,4.000000,4.000000,100.000000
1602006453.142307,45.000000,0.000000,4107.179688,4117.948730,4110.256348,4121.538574,4117.436035,4111.794922,4136.410156,4125.128418,4117.436035,4118.461426,4100.512695,4131.794922,4107.692383,4100.000000,0.000000,4.000000,,,,0.000000,4.000000,4.000000,4.000000,4.000000,4.000000,4.000000,4.000000,4.000000,4.000000,4.000000,4.000000,4.000000,4.000000,4.000000,100.000000
1602006453.150188,46.000000,0.000000,4117.436035,4124.615234,4130.769043,4134.871582,4125.641113,4122.563965,4136.922852,4126.153809,4124.615234,4138.974121,4125.641113,4143.589844,4130.769043,4118.974121,0.000000,4.000000,,,,0.000000,4.000000,4.000000,4.000000,4.000000,4.000000,4.000000,4.000000,4.000000,4.000000,4.000000,4.000000,4.000000,4.000000,4.000000,100.000000
1602006453.158070,47.000000,0.000000,4135.384766,4135.897461,4143.589844,4143.077148,4136.410156,4140.000000,4131.794922,4128.205078,4129.230957,4147.692383,4141.025879,4157.948730,4144.102539,4131.794922,0.000000,4.000000,,,,0.000000,4.000000,4.000000,4.000000,4.000000,4.000000,4.000000,4.000000,4.000000,4.000000,4.000000,4.000000,4.000000,4.000000,4.000000,100.000000
1602006453.165952,48.000000,0.000000,4135.384766,4138.461426,4141.025879,4138.974121,4130.256348,4130.256348,4115.384766,4119.487305,4118.974121,4129.743652,4138.974121,4156.922852,4135.384766,4135.384766,0.000000,4.000000,,,,0.000000,4.000000,4.000000,4.000000,4.000000,4.000000,4.000000,4.000000,4.000000,4.000000,4.000000,4.000000,4.000000,4.000000,4.000000,100.000000
1602006453.173833,49.000000,0.000000,4140.512695,4136.922852,4147.179688,4137.948730,4125.128418,4116.410156,4105.641113,4116.410156,4124.102539,4120.512695,4141.538574,4161.538574,4139.487305,4148.205078,0.000000,4.000000,,,,0.000000,4.000000,4.000000,4.000000,4.000000,4.000000,4.000000,4.000000,4.000000,4.000000,4.000000,4.000000,4.000000,4.000000,4.000000,100.000000
1602006453.181715,50.000000,0.000000,4154.871582,4140.512695,4158.974121,4141.025879,4138.974121,4128.205078,4114.358887,4122.563965,4138.461426,4144.102539,4143.589844,4175.897461,4153.333496,4157.436035,0.000000,4.000000,,,,0.000000,4.000000,4.000000,4.000000,4.000000,4.000000,4.000000,4.000000,4.000000,4.000000,4.000000,4.000000,4.000000,4.000000,4.000000,100.000000
1602006453.189596,51.000000,0.000000,4145.128418,4138.461426,4152.307617,4140.512695,4144.615234,4141.025879,4121.538574,4122.563965,4135.384766,4157.948730,4139.487305,4173.333496,4146.666504,4147.692383,0.000000,4.000000,,,,0.000000,4.000000,4.000000,4.000000,4.000000,4.000000,4.000000,4.000000,4.000000,4.000000,4.000000,4.000000,4.000000,4.000000,4.000000,100.000000
1602006453.197478,52.000000,0.000000,4123.077148,4126.153809,4134.358887,4132.307617,4129.743652,4137.436035,4124.615234,4118.974121,4126.666504,4141.025879,4132.820313,4154.358887,4132.820313,4129.743652,0.000000,4.000000,,,,0.000000,4.000000,4.000000,4.000000,4.000000,4.000000,4.000000,4.000000,4.000000,4.000000,4.000000,4.000000,4.000000,4.000000,4.000000,100.000000
1602006453.205259,53.000000,0.000000,4122.051270,4120.000000,4126.153809,4122.051270,4121.538574,4135.384766,4132.820313,4119.487305,4122.563965,4131.794922,4123.589844,4142.563965,4125.128418,4118.461426,0.000000,4.000000,,,,0.000000,4.000000,4.000000,4.000000,4.000000,4.000000,4.000000,4.000000,4.000000,4.000000,4.000000,4.000000,4.000000,4.000000,4.000000,100.000000
1602006453.213141,54.000000,0.000000,4123.589844,4119.487305,4122.563965,4119.487305,4123.077148,4137.948730,4140.512695,4126.153809,4121.538574,4142.051270,4120.000000,4138.461426,4117.436035,4120.000000,0.000000,4.000000,,,,0.000000,4.000000,4.000000,4.000000,4.000000,4.000000,4.000000,4.000000,4.000000,4.000000,4.000000,4.000000,4.000000,4.000000,4.000000,100.000000
1602006453.221022,55.000000,0.000000,4114.358887,4116.922852,4123.077148,4121.538574,4124.102539,4137.436035,4139.487305,4134.358887,4129.743652,4137.436035,4124.102539,4140.000000,4117.436035,4121.538574,0.000000,4.000000,,,,0.000000,4.000000,4.000000,4.000000,4.000000,4.000000,4.000000,4.000000,4.000000,4.000000,4.000000,4.000000,4.000000,4.000000,4.000000,100.000000
1602006453.228903,56.000000,0.000000,4121.538574,4124.615234,4131.794922,4127.692383,4132.820313,4135.897461,4139.487305,4141.025879,4134.871582,4118.461426,4126.153809,4149.230957,4129.230957,4118.461426,0.000000,4.000000,,,,0.000000,4.000000,4.000000,4.000000,4.000000,4.000000,4.000000,4.000000,4.000000,4.000000,4.000000,4.000000,4.000000,4.000000,4.000000,100.000000
1602006453.236884,57.000000,0.000000,4137.436035,4137.436035,4140.512695,4135.897461,4136.922852,4137.948730,4134.871582,4141.025879,4129.743652,4119.487305,4127.179688,4155.897461,4138.974121,4128.717773,0.000000,4.000000,,,,0.000000,4.000000,4.000000,4.000000,4.000000,4.000000,4.000000,4.000000,4.000000,4.000000,4.000000,4.000000,4.000000,4.000000,4.000000,100.000000
1602006453.244865,58.000000,0.000000,4130.769043,4138.461426,4140.512695,4137.948730,4128.205078,4134.871582,4117.436035,4132.307617,4125.128418,4144.102539,4130.256348,4154.871582,4137.436035,4140.512695,0.000000,4.000000,,,,0.000000,4.000000,4.000000,4.000000,4.000000,4.000000,4.000000,4.000000,4.000000,4.000000,4.000000,4.000000,4.000000,4.000000,4.000000,100.000000
1602006453.252746,59.000000,0.000000,4121.538574,4132.820313,4136.922852,4135.897461,4120.512695,4115.897461,4104.615234,4121.538574,4120.512695,4155.897461,4128.717773,4153.846191,4126.153809,4127.179688,0.000000,4.000000,,,,0.000000,4.000000,4.000000,4.000000,4.000000,4.000000,4.000000,4.000000,4.000000,4.000000,4.000000,4.000000,4.000000,4.000000,4.000000,100.000000
1602006453.260628,60.000000,0.000000,4132.820313,4134.358887,4134.871582,4136.410156,4122.563965,4101.538574,4104.102539,4115.897461,4114.871582,4136.410156,4123.589844,4153.333496,4119.487305,4114.871582,0.000000,4.000000,,,,0.000000,4.000000,4.000000,4.000000,4.000000,4.000000,4.000000,4.000000,4.000000,4.000000,4.000000,4.000000,4.000000,4.000000,4.000000,100.000000
1602006453.268509,61.000000,0.000000,4135.897461,4138.461426,4136.922852,4136.922852,4125.128418,4112.820313,4107.179688,4117.948730,4118.974121,4117.436035,4121.025879,4149.230957,4123.589844,4124.615234,0.000000,4.000000,,,,0.000000,4.000000,4.000000,4.000000,4.000000,4.000000,4.000000,4.000000,4.000000,4.000000,4.000000,4.000000,4.000000,4.000000,4.000000,100.000000
1602006453.276391,62.000000,0.000000,4122.563965,4132.820313,4140.000000,4135.897461,4128.205078,4127.179688,4113.333496,4122.051270,4121.538574,4119.487305,4123.077148,4150.256348,4123.589844,4131.282227,0.000000,4.000000,,,,0.000000,4.000000,4.000000,4.000000,4.000000,4.000000,4.000000,4.000000,4.000000,4.000000,4.000000,4.000000,4.000000,4.000000,4.000000,100.000000
1602006453.284272,63.000000,0.000000,4118.974121,4122.563965,4140.000000,4132.820313,4125.128418,4127.179688,4122.563965,4126.153809,4120.000000,4126.666504,4127.179688,4152.820313,4124.615234,4122.051270,0.000000,4.000000,,,,0.000000,4.000000,4.000000,4.000000,4.000000,4.000000,4.000000,4.000000,4.000000,4.000000,4.000000,4.000000,4.000000,4.000000,4.000000,100.000000
1602006453.292153,64.000000,0.000000,4120.512695,4117.436035,4134.871582,4122.563965,4114.871582,4123.589844,4128.205078,4126.666504,4124.615234,4116.922852,4123.077148,4144.102539,4119.487305,4113.846191,793.000000,4.000000,,,,0.000000,4.000000,4.000000,4.000000,4.000000,4.000000,4.000000,4.000000,4.000000,4.000000,4.000000,4.000000,4.000000,4.000000,4.000000,100.000000
1602006453.300135,65.000000,0.000000,4117.436035,4119.487305,4131.794922,4118.974121,4115.897461,4122.051270,4130.256348,4124.102539,4124.102539,4109.230957,4111.282227,4137.948730,4107.179688,4110.256348,785.000000,4.000000,,,,0.000000,4.000000,4.000000,4.000000,4.000000,4.000000,4.000000,4.000000,4.000000,4.000000,4.000000,4.000000,4.000000,4.000000,4.000000,100.000000
1602006453.308016,66.000000,0.000000,4118.974121,4121.538574,4137.436035,4125.128418,4125.128418,4123.589844,4128.205078,4125.641113,4121.538574,4121.025879,4112.820313,4146.666504,4111.282227,4106.666504,853.000000,4.000000,,,,0.000000,4.000000,4.000000,4.000000,4.000000,4.000000,4.000000,4.000000,4.000000,4.000000,4.000000,4.000000,4.000000,4.000000,4.000000,100.000000
1602006453.315898,67.000000,0.000000,4124.102539,4127.692383,4143.077148,4128.717773,4124.615234,4126.666504,4124.102539,4126.666504,4122.051270,4126.666504,4127.179688,4156.410156,4125.641113,4110.769043,867.000000,4.000000,,,,0.000000,4.000000,4.000000,4.000000,4.000000,4.000000,4.000000,4.000000,4.000000,4.000000,4.000000,4.000000,4.000000,4.000000,4.000000,100.000000
1602006453.323779,68.000000,0.000000,4132.820313,4144.615234,4144.615234,4135.384766,4129.743652,4123.589844,4122.563965,4123.077148,4115.384766,4124.615234,4137.948730,4156.922852,4127.692383,4121.025879,814.000000,4.000000,,,,0.000000,4.000000,4.000000,4.000000,4.000000,4.000000,4.000000,4.000000,4.000000,4.000000,4.000000,4.000000,4.000000,4.000000,4.000000,100.000000
1602006453.331660,69.000000,0.000000,4142.051270,4155.897461,4149.743652,4141.538574,4140.000000,4117.436035,4121.538574,4122.051270,4112.820313,4131.794922,4138.974121,4154.871582,4128.717773,4133.846191,817.000000,4.000000,,,,0.000000,4.000000,4.000000,4.000000,4.000000,4.000000,4.000000,4.000000,4.000000,4.000000,4.000000,4.000000,4.000000,4.000000,4.000000,100.000000
1602006453.339542,70.000000,0.000000,4145.128418,4158.974121,4156.410156,4144.615234,4140.512695,4118.974121,4122.563965,4130.769043,4124.615234,4152.307617,4141.538574,4157.436035,4148.205078,4151.282227,771.000000,4.000000,,,,0.000000,4.000000,4.000000,4.000000,4.000000,4.000000,4.000000,4.000000,4.000000,4.000000,4.000000,4.000000,4.000000,4.000000,4.000000,100.000000
1602006453.347323,71.000000,0.000000,4146.153809,4157.948730,4154.871582,4147.179688,4138.461426,4127.179688,4124.102539,4134.871582,4135.384766,4153.333496,4140.512695,4157.948730,4156.922852,4154.358887,672.000000,4.000000,,,,0.000000,4.000000,4.000000,4.000000,4.000000,4.000000,4.000000,4.000000,4.000000,4.000000,4.000000,4.000000,4.000000,4.000000,4.000000,100.000000
1602006453.355205,72.000000,0.000000,4136.410156,4144.102539,4140.000000,4139.487305,4134.871582,4125.641113,4113.846191,4124.615234,4135.384766,4121.025879,4122.051270,4142.051270,4128.717773,4124.615234,788.000000,4.000000,,,,0.000000,4.000000,4.000000,4.000000,4.000000,4.000000,4.000000,4.000000,4.000000,4.000000,4.000000,4.000000,4.000000,4.000000,4.000000,100.000000
1602006453.363086,73.000000,0.000000,4112.820313,4124.615234,4123.077148,4124.615234,4124.102539,4121.538574,4107.179688,4116.922852,4135.384766,4102.563965,4110.256348,4123.077148,4100.512695,4098.461426,835.000000,4.000000,,,,0.000000,4.000000,4.000000,4.000000,4.000000,4.000000,4.000000,4.000000,4.000000,4.000000,4.000000,4.000000,4.000000,4.000000,4.000000,100.000000
1602006453.370967,74.000000,0.000000,4103.077148,4120.512695,4118.461426,4119.487305,4118.974121,4131.282227,4118.974121,4125.128418,4133.333496,4115.897461,4115.384766,4120.512695,4103.077148,4100.000000,871.000000,4.000000,,,,0.000000,4.000000,4.000000,4.000000,4.000000,4.000000,4.000000,4.000000,4.000000,4.000000,4.000000,4.000000,4.000000,4.000000,4.000000,100.000000
1602006453.378849,75.000000,0.000000,4110.769043,4124.102539,4121.538574,4123.077148,4121.538574,4142.051270,4126.153809,4134.358887,4122.051270,4124.102539,4123.589844,4123.589844,4109.743652,4106.153809,841.000000,4.000000,,,,0.000000,4.000000,4.000000,4.000000,4.000000,4.000000,4.000000,4.000000,4.000000,4.000000,4.000000,4.000000,4.000000,4.000000,4.000000,100.000000
1602006453.386730,76.000000,0.000000,4113.846191,4126.153809,4128.205078,4122.051270,4127.179688,4138.974121,4122.563965,4135.384766,4120.512695,4125.128418,4128.717773,4129.230957,4108.205078,4118.461426,770.000000,4.000000,,,,0.000000,4.000000,4.000000,4.000000,4.000000,4.000000,4.000000,4.000000,4.000000,4.000000,4.000000,4.000000,4.000000,4.000000,4.000000,100.000000
1602006453.394612,77.000000,0.000000,4118.461426,4135.897461,4138.974121,4126.153809,4135.897461,4136.410156,4130.769043,4139.487305,4136.410156,4143.077148,4131.794922,4144.102539,4126.153809,4134.358887,736.000000,4.000000,,,,0.000000,4.000000,4.000000,4.000000,4.000000,4.000000,4.000000,4.000000,4.000000,4.000000,4.000000,4.000000,4.000000,4.000000,4.000000,100.000000
1602006453.402493,78.000000,0.000000,4133.333496,4142.563965,4143.077148,4134.871582,4140.512695,4135.384766,4136.410156,4142.051270,4140.000000,4149.230957,4134.871582,4148.205078,4144.102539,4129.743652,871.000000,4.000000,,,,0.000000,4.000000,4.000000,4.000000,4.000000,4.000000,4.000000,4.000000,4.000000,4.000000,4.000000,4.000000,4.000000,4.000000,4.000000,100.000000
1602006453.410275,79.000000,0.000000,4143.077148,4137.948730,4141.538574,4136.922852,4136.410156,4123.589844,4124.615234,4136.410156,4124.102539,4137.436035,4137.436035,4144.102539,4131.794922,4117.948730,841.000000,4.000000,,,,0.000000,4.000000,4.000000,4.000000,4.000000,4.000000,4.000000,4.000000,4.000000,4.000000,4.000000,4.000000,4.000000,4.000000,4.000000,100.000000
1602006453.418156,80.000000,0.000000,4138.461426,4143.077148,4145.128418,4139.487305,4136.410156,4118.974121,4123.589844,4130.256348,4117.436035,4126.153809,4139.487305,4150.769043,4118.461426,4123.077148,770.000000,4.000000,,,,0.000000,4.000000,4.000000,4.000000,4.000000,4.000000,4.000000,4.000000,4.000000,4.000000,4.000000,4.000000,4.000000,4.000000,4.000000,100.000000
1602006453.426037,81.000000,0.000000,4133.846191,4153.846191,4145.641113,4143.077148,4140.512695,4128.717773,4136.410156,4134.358887,4127.179688,4118.974121,4137.948730,4153.846191,4127.692383,4135.384766,736.000000,4.000000,,,,0.000000,4.000000,4.000000,4.000000,4.000000,4.000000,4.000000,4.000000,4.000000,4.000000,4.000000,4.000000,4.000000,4.000000,4.000000,100.000000
1602006453.433919,82.000000,0.000000,4138.974121,4156.922852,4141.538574,4142.563965,4143.589844,4137.948730,4139.487305,4140.512695,4136.922852,4129.743652,4141.025879,4148.205078,4142.563965,4138.461426,871.000000,4.000000,,,,0.000000,4.000000,4.000000,4.000000,4.000000,4.000000,4.000000,4.000000,4.000000,4.000000,4.000000,4.000000,4.000000,4.000000,4.000000,100.000000
1602006453.441800,83.000000,0.000000,4145.641113,4154.358887,4142.563965,4143.077148,4143.589844,4148.205078,4135.897461,4140.000000,4138.974121,4146.666504,4140.512695,4148.205078,4140.512695,4138.974121,841.000000,4.000000,,,,0.000000,4.000000,4.000000,4.000000,4.000000,4.000000,4.000000,4.000000,4.000000,4.000000,4.000000,4.000000,4.000000,4.000000,4.000000,100.000000
1602006453.449682,84.000000,0.000000,4137.948730,4148.205078,4142.051270,4137.948730,4140.000000,4152.307617,4131.282227,4135.897461,4136.922852,4141.025879,4129.743652,4145.128418,4124.615234,4133.846191,770.000000,4.000000,,,,0.000000,4.000000,4.000000,4.000000,4.000000,4.000000,4.000000,4.000000,4.000000,4.000000,4.000000,4.000000,4.000000,4.000000,4.000000,100.000000
1602006453.457563,85.000000,0.000000,4125.128418,4135.384766,4131.282227,4123.077148,4136.922852,4141.538574,4123.077148,4134.358887,4135.897461,4129.743652,4123.077148,4129.743652,4108.205078,4121.025879,736.000000,4.000000,,,,0.000000,4.000000,4.000000,4.000000,4.000000,4.000000,4.000000,4.000000,4.000000,4.000000,4.000000,4.000000,4.000000,4.000000,4.000000,100.000000
1602006453.465444,86.000000,0.000000,4122.051270,4129.743652,4121.538574,4124.615234,4136.922852,4134.358887,4123.589844,4137.436035,4139.487305,4134.358887,4119.487305,4120.512695,4106.666504,4117.436035,871.000000,4.000000,,,,0.000000,4.000000,4.000000,4.000000,4.000000,4.000000,4.000000,4.000000,4.000000,4.000000,4.000000,4.000000,4.000000,4.000000,4.000000,100.000000
1602006453.473226,87.000000,0.000000,4123.589844,4135.384766,4122.563965,4135.384766,4136.410156,4134.871582,4135.384766,4142.563965,4137.948730,4132.820313,4119.487305,4130.256348,4120.000000,4120.000000,841.000000,4.000000,,,,0.000000,4.000000,4.000000,4.000000,4.000000,4.000000,4.000000,4.000000,4.000000,4.000000,4.000000,4.000000,4.000000,4.000000,4.000000,100.000000
1602006453.481107,88.000000,0.000000,4120.000000,4136.410156,4122.563965,4127.179688,4128.205078,4128.205078,4140.000000,4142.563965,4124.615234,4120.512695,4124.615234,4139.487305,4118.974121,4110.769043,770.000000,4.000000,,,,0.000000,4.000000,4.000000,4.000000,4.000000,4.000000,4.000000,4.000000,4.000000,4.000000,4.000000,4.000000,4.000000,4.000000,4.000000,100.000000
1602006453.488989,89.000000,0.000000,4120.512695,4133.333496,4121.025879,4120.512695,4120.512695,4123.077148,4133.846191,4141.025879,4110.256348,4125.128418,4123.589844,4132.307617,4104.615234,4100.512695,736.000000,4.000000,,,,0.000000,4.000000,4.000000,4.000000,4.000000,4.000000,4.000000,4.000000,4.000000,4.000000,4.000000,4.000000,4.000000,4.000000,4.000000,100.000000
1602006453.496870,90.000000,0.000000,4121.538574,4133.846191,4123.077148,4127.692383,4127.692383,4126.666504,4127.179688,4135.897461,4104.102539,4126.153809,4114.358887,4121.025879,4102.563965,4108.717773,871.000000,4.000000,,,,0.000000,4.000000,4.000000,4.000000,4.000000,4.000000,4.000000,4.000000,4.000000,4.000000,4.000000,4.000000,4.000000,4.000000,4.000000,100.000000
1602006453.504751,91.000000,0.000000,4119.487305,4135.384766,4123.077148,4128.717773,4133.846191,4121.025879,4126.153809,4126.666504,4103.077148,4118.461426,4114.871582,4117.948730,4109.230957,4121.538574,841.000000,4.000000,,,,0.000000,4.000000,4.000000,4.000000,4.000000,4.000000,4.000000,4.000000,4.000000,4.000000,4.000000,4.000000,4.000000,4.000000,4.000000,100.000000
