Timestamp,EEG.Counter,EEG.Interpolated,EEG.AF3,EEG.F7,EEG.F3,EEG.FC5,EEG.T7,EEG.P7,EEG.O1,EEG.O2,EEG.P8,EEG.T8,EEG.FC6,EEG.F4,EEG.F8,EEG.AF4,EEG.RawCq,EEG.Battery,MarkerIndex,MarkerType,MarkerValueInt,EEG.MarkerHardware,CQ.AF3,CQ.F7,CQ.F3,CQ.FC5,CQ.T7,CQ.P7,CQ.O1,CQ.O2,CQ.P8,CQ.T8,CQ.FC6,CQ.F4,CQ.F8,CQ.AF4,CQ.Overall
1602006461.763220,107.000000,0.000000,4122.563965,4125.128418,4135.897461,4122.563965,4125.641113,4134.871582,4137.948730,4135.897461,4112.307617,4123.589844,4138.461426,4128.205078,4122.563965,4122.051270,839.000000,4.000000,,,,0.000000,4.000000,4.000000,4.000000,4.000000,4.000000,4.000000,4.000000,4.000000,4.000000,4.000000,4.000000,4.000000,4.000000,4.000000,100.000000
1602006461.771201,108.000000,0.000000,4125.128418,4123.077148,4136.922852,4121.025879,4127.692383,4136.410156,4141.025879,4136.410156,4105.641113,4133.333496,4136.922852,4136.922852,4123.589844,4126.153809,764.000000,4.000000,,,,0.000000,4.000000,4.000000,4.000000,4.000000,4.000000,4.000000,4.000000,4.000000,4.000000,4.000000,4.000000,4.000000,4.000000,4.000000,100.000000
1602006461.779083,109.000000,0.000000,4134.871582,4125.128418,4134.871582,4122.563965,4126.666504,4128.717773,4139.487305,4135.897461,4109.230957,4136.410156,4121.025879,4140.512695,4124.615234,4142.051270,736.000000,4.000000,,,,0.000000,4.000000,4.000000,4.000000,4.000000,4.000000,4.000000,4.000000,4.000000,4.000000,4.000000,4.000000,4.000000,4.000000,4.000000,100.000000
1602006461.786965,110.000000,0.000000,4141.538574,4123.077148,4129.230957,4122.051270,4123.589844,4129.230957,4140.512695,4136.410156,4116.922852,4131.794922,4117.948730,4138.974121,4123.077148,4143.077148,871.000000,4.000000,,,,0.000000,4.000000,4.000000,4.000000,4.000000,4.000000,4.000000,4.000000,4.000000,4.000000,4.000000,4.000000,4.000000,4.000000,4.000000,100.000000
1602006461.794846,111.000000,0.000000,4134.358887,4115.384766,4123.077148,4117.948730,4123.077148,4130.769043,4140.000000,4141.538574,4123.077148,4130.256348,4131.794922,4137.948730,4122.051270,4128.717773,839.000000,4.000000,,,,0.000000,4.000000,4.000000,4.000000,4.000000,4.000000,4.000000,4.000000,4.000000,4.000000,4.000000,4.000000,4.000000,4.000000,4.000000,100.000000
1602006461.802728,112.000000,0.000000,4123.077148,4115.384766,4124.615234,4116.922852,4124.102539,4124.102539,4139.487305,4147.692383,4133.333496,4125.641113,4135.384766,4137.948730,4120.512695,4129.230957,764.000000,4.000000,,,,0.000000,4.000000,4.000000,4.000000,4.000000,4.000000,4.000000,4.000000,4.000000,4.000000,4.000000,4.000000,4.000000,4.000000,4.000000,100.000000
1602006461.810610,113.000000,0.000000,4127.179688,4121.025879,4134.358887,4120.512695,4130.256348,4125.641113,4140.512695,4148.205078,4137.436035,4113.846191,4131.282227,4137.948730,4127.692383,4141.025879,736.000000,4.000000,,,,0.000000,4.000000,4.000000,4.000000,4.000000,4.000000,4.000000,4.000000,4.000000,4.000000,4.000000,4.000000,4.000000,4.000000,4.000000,100.000000
1602006461.818491,114.000000,0.000000,4137.948730,4123.077148,4140.000000,4124.102539,4136.410156,4136.922852,4140.000000,4144.615234,4132.820313,4118.974121,4138.974121,4138.974121,4140.000000,4140.512695,871.000000,4.000000,,,,0.000000,4.000000,4.000000,4.000000,4.000000,4.000000,4.000000,4.000000,4.000000,4.000000,4.000000,4.000000,4.000000,4.000000,4.000000,100.000000
1602006461.826373,115.000000,0.000000,4135.897461,4128.205078,4140.000000,4124.102539,4136.410156,4144.102539,4138.461426,4142.563965,4136.410156,4140.512695,4144.615234,4141.538574,4138.974121,4134.871582,839.000000,4.000000,,,,0.000000,4.000000,4.000000,4.000000,4.000000,4.000000,4.000000,4.000000,4.000000,4.000000,4.000000,4.000000,4.000000,4.000000,4.000000,100.000000
1602006461.834255,116.000000,0.000000,4135.897461,4133.846191,4140.000000,4124.615234,4135.384766,4143.077148,4135.897461,4141.025879,4140.000000,4144.102539,4140.000000,4142.563965,4131.282227,4139.487305,764.000000,4.000000,,,,0.000000,4.000000,4.000000,4.000000,4.000000,4.000000,4.000000,4.000000,4.000000,4.000000,4.000000,4.000000,4.000000,4.000000,4.000000,100.000000
1602006461.842136,117.000000,0.000000,4146.666504,4130.769043,4143.077148,4124.102539,4134.871582,4136.922852,4135.897461,4131.794922,4124.615234,4136.922852,4129.743652,4142.051270,4136.410156,4146.153809,736.000000,4.000000,,,,0.000000,4.000000,4.000000,4.000000,4.000000,4.000000,4.000000,4.000000,4.000000,4.000000,4.000000,4.000000,4.000000,4.000000,4.000000,100.000000
1602006461.849918,118.000000,0.000000,4147.179688,4125.641113,4145.641113,4121.025879,4130.256348,4129.743652,4134.871582,4124.615234,4104.615234,4130.769043,4121.025879,4148.205078,4142.051270,4140.000000,871.000000,4.000000,,,,0.000000,4.000000,4.000000,4.000000,4.000000,4.000000,4.000000,4.000000,4.000000,4.000000,4.000000,4.000000,4.000000,4.000000,4.000000,100.000000
1602006461.857799,119.000000,0.000000,4138.461426,4123.589844,4144.615234,4118.974121,4124.102539,4124.102539,4127.692383,4127.692383,4101.538574,4114.871582,4117.436035,4153.846191,4128.717773,4133.333496,839.000000,4.000000,,,,0.000000,4.000000,4.000000,4.000000,4.000000,4.000000,4.000000,4.000000,4.000000,4.000000,4.000000,4.000000,4.000000,4.000000,4.000000,100.000000
1602006461.865681,120.000000,0.000000,4134.871582,4124.102539,4140.000000,4119.487305,4123.077148,4124.615234,4125.641113,4136.410156,4114.871582,4117.948730,4118.974121,4148.205078,4122.051270,4140.000000,764.000000,4.000000,,,,0.000000,4.000000,4.000000,4.000000,4.000000,4.000000,4.000000,4.000000,4.000000,4.000000,4.000000,4.000000,4.000000,4.000000,4.000000,100.000000
1602006461.873562,121.000000,0.000000,4137.436035,4121.025879,4138.461426,4115.384766,4124.615234,4131.794922,4136.922852,4147.179688,4137.948730,4147.179688,4127.692383,4141.025879,4136.410156,4146.666504,736.000000,4.000000,,,,0.000000,4.000000,4.000000,4.000000,4.000000,4.000000,4.000000,4.000000,4.000000,4.000000,4.000000,4.000000,4.000000,4.000000,4.000000,100.000000
1602006461.881443,122.000000,0.000000,4140.000000,4111.282227,4137.436035,4106.153809,4120.512695,4135.897461,4144.102539,4154.871582,4149.743652,4150.769043,4137.948730,4137.948730,4137.948730,4136.410156,871.000000,4.000000,,,,0.000000,4.000000,4.000000,4.000000,4.000000,4.000000,4.000000,4.000000,4.000000,4.000000,4.000000,4.000000,4.000000,4.000000,4.000000,100.000000
1602006461.889325,123.000000,0.000000,4132.307617,4104.102539,4134.358887,4104.615234,4113.846191,4134.358887,4138.974121,4152.307617,4143.077148,4130.256348,4134.871582,4136.410156,4121.538574,4134.358887,839.000000,4.000000,,,,0.000000,4.000000,4.000000,4.000000,4.000000,4.000000,4.000000,4.000000,4.000000,4.000000,4.000000,4.000000,4.000000,4.000000,4.000000,100.000000
1602006461.897206,124.000000,0.000000,4121.538574,4105.641113,4136.410156,4110.256348,4114.871582,4137.436035,4142.563965,4150.769043,4137.948730,4125.128418,4123.589844,4135.897461,4116.410156,4140.000000,764.000000,4.000000,,,,0.000000,4.000000,4.000000,4.000000,4.000000,4.000000,4.000000,4.000000,4.000000,4.000000,4.000000,4.000000,4.000000,4.000000,4.000000,100.000000
1602006461.905088,125.000000,0.000000,4121.025879,4108.717773,4133.846191,4110.256348,4122.563965,4147.692383,4154.871582,4155.384766,4138.974121,4129.230957,4118.974121,4133.333496,4117.436035,4124.102539,736.000000,4.000000,,,,0.000000,4.000000,4.000000,4.000000,4.000000,4.000000,4.000000,4.000000,4.000000,4.000000,4.000000,4.000000,4.000000,4.000000,4.000000,100.000000
1602006461.913069,126.000000,0.000000,4126.153809,4104.615234,4122.563965,4103.077148,4123.589844,4141.025879,4153.333496,4149.743652,4129.230957,4120.512695,4108.717773,4123.589844,4108.205078,4108.205078,871.000000,4.000000,,,,0.000000,4.000000,4.000000,4.000000,4.000000,4.000000,4.000000,4.000000,4.000000,4.000000,4.000000,4.000000,4.000000,4.000000,4.000000,100.000000
1602006461.920950,127.000000,0.000000,4122.563965,4102.051270,4125.128418,4101.538574,4121.538574,4122.051270,4142.563965,4139.487305,4119.487305,4120.000000,4104.615234,4119.487305,4101.538574,4123.589844,839.000000,4.000000,,,,0.000000,4.000000,4.000000,4.000000,4.000000,4.000000,4.000000,4.000000,4.000000,4.000000,4.000000,4.000000,4.000000,4.000000,4.000000,100.000000
1602006461.928831,128.000000,0.000000,4122.051270,4110.769043,4137.948730,4112.307617,4121.538574,4120.512695,4139.487305,4140.000000,4123.589844,4126.666504,4127.692383,4129.230957,4109.230957,4141.025879,764.000000,4.000000,,,,0.000000,4.000000,4.000000,4.000000,4.000000,4.000000,4.000000,4.000000,4.000000,4.000000,4.000000,4.000000,4.000000,4.000000,4.000000,100.000000
1602006461.936812,0.000000,0.000000,4134.871582,4122.563965,4144.102539,4120.512695,4123.589844,4129.743652,4138.461426,4141.025879,4125.641113,4125.128418,4138.461426,4137.948730,4120.000000,4138.974121,800.000000,4.000000,,,,0.000000,4.000000,4.000000,4.000000,4.000000,4.000000,4.000000,4.000000,4.000000,4.000000,4.000000,4.000000,4.000000,4.000000,4.000000,100.000000
1602006461.944693,1.000000,0.000000,4147.692383,4126.666504,4150.769043,4122.051270,4127.179688,4125.641113,4134.358887,4137.436035,4117.436035,4126.153809,4126.153809,4142.051270,4125.641113,4137.436035,785.000000,4.000000,,,,0.000000,4.000000,4.000000,4.000000,4.000000,4.000000,4.000000,4.000000,4.000000,4.000000,4.000000,4.000000,4.000000,4.000000,4.000000,100.000000
1602006461.952474,2.000000,0.000000,4144.102539,4124.102539,4155.897461,4125.128418,4128.205078,4120.512695,4134.871582,4135.897461,4114.871582,4124.615234,4127.179688,4147.179688,4128.205078,4142.563965,853.000000,4.000000,,,,0.000000,4.000000,4.000000,4.000000,4.000000,4.000000,4.000000,4.000000,4.000000,4.000000,4.000000,4.000000,4.000000,4.000000,4.000000,100.000000
1602006461.960355,3.000000,0.000000,4134.358887,4121.538574,4145.641113,4124.615234,4124.615234,4126.666504,4135.384766,4142.051270,4117.948730,4119.487305,4135.897461,4152.307617,4127.692383,4144.615234,867.000000,4.000000,,,,0.000000,4.000000,4.000000,4.000000,4.000000,4.000000,4.000000,4.000000,4.000000,4.000000,4.000000,4.000000,4.000000,4.000000,4.000000,100.000000
1602006461.968236,4.000000,0.000000,4137.436035,4121.538574,4138.974121,4121.025879,4125.128418,4136.922852,4137.948730,4147.179688,4123.589844,4130.256348,4125.641113,4156.922852,4125.128418,4143.589844,814.000000,4.000000,,,,0.000000,4.000000,4.000000,4.000000,4.000000,4.000000,4.000000,4.000000,4.000000,4.000000,4.000000,4.000000,4.000000,4.000000,4.000000,100.000000
1602006461.976117,5.000000,0.000000,4141.538574,4124.102539,4143.589844,4123.589844,4128.205078,4146.153809,4144.615234,4144.102539,4130.256348,4135.384766,4121.025879,4160.512695,4123.589844,4142.051270,817.000000,4.000000,,,,0.000000,4.000000,4.000000,4.000000,4.000000,4.000000,4.000000,4.000000,4.000000,4.000000,4.000000,4.000000,4.000000,4.000000,4.000000,100.000000
1602006461.984098,6.000000,0.000000,4134.871582,4123.589844,4142.051270,4126.153809,4126.153809,4145.641113,4146.153809,4141.025879,4124.615234,4120.000000,4135.897461,4156.410156,4123.589844,4143.077148,760.000000,4.000000,,,,0.000000,4.000000,4.000000,4.000000,4.000000,4.000000,4.000000,4.000000,4.000000,4.000000,4.000000,4.000000,4.000000,4.000000,4.000000,100.000000
1602006461.991980,7.000000,0.000000,4131.282227,4120.000000,4136.410156,4121.538574,4123.077148,4132.820313,4144.102539,4150.256348,4121.025879,4130.769043,4145.128418,4149.743652,4123.589844,4151.794922,664.000000,4.000000,,,,0.000000,4.000000,4.000000,4.000000,4.000000,4.000000,4.000000,4.000000,4.000000,4.000000,4.000000,4.000000,4.000000,4.000000,4.000000,100.000000
1602006461.999861,8.000000,0.000000,4135.897461,4119.487305,4134.358887,4118.461426,4127.179688,4125.128418,4141.025879,4157.948730,4140.000000,4158.461426,4143.077148,4150.256348,4130.256348,4153.846191,787.000000,4.000000,,,,0.000000,4.000000,4.000000,4.000000,4.000000,4.000000,4.000000,4.000000,4.000000,4.000000,4.000000,4.000000,4.000000,4.000000,4.000000,100.000000
1602006462.007742,9.000000,0.000000,4142.563965,4129.230957,4144.102539,4127.692383,4134.358887,4131.794922,4138.461426,4154.871582,4154.871582,4152.820313,4144.102539,4151.794922,4137.948730,4146.666504,835.000000,4.000000,,,,0.000000,4.000000,4.000000,4.000000,4.000000,4.000000,4.000000,4.000000,4.000000,4.000000,4.000000,4.000000,4.000000,4.000000,4.000000,100.000000
1602006462.015623,10.000000,0.000000,4149.743652,4138.461426,4156.410156,4138.974121,4138.461426,4141.025879,4137.948730,4153.846191,4144.615234,4145.641113,4146.666504,4151.794922,4138.461426,4142.563965,871.000000,4.000000,,,,0.000000,4.000000,4.000000,4.000000,4.000000,4.000000,4.000000,4.000000,4.000000,4.000000,4.000000,4.000000,4.000000,4.000000,4.000000,100.000000
1602006462.023404,11.000000,0.000000,4142.563965,4131.282227,4150.769043,4130.769043,4137.436035,4143.077148,4136.922852,4151.794922,4135.384766,4151.794922,4134.871582,4150.769043,4136.410156,4142.563965,839.000000,4.000000,,,,0.000000,4.000000,4.000000,4.000000,4.000000,4.000000,4.000000,4.000000,4.000000,4.000000,4.000000,4.000000,4.000000,4.000000,4.000000,100.000000
1602006462.031285,12.000000,0.000000,4126.153809,4118.974121,4135.897461,4111.282227,4137.436035,4140.000000,4134.871582,4145.641113,4137.948730,4147.692383,4118.974121,4149.743652,4135.384766,4140.000000,764.000000,4.000000,,,,0.000000,4.000000,4.000000,4.000000,4.000000,4.000000,4.000000,4.000000,4.000000,4.000000,4.000000,4.000000,4.000000,4.000000,4.000000,100.000000
1602006462.039266,13.000000,0.000000,4125.128418,4121.538574,4134.358887,4109.230957,4138.974121,4138.461426,4136.922852,4144.615234,4137.436035,4147.692383,4125.641113,4152.307617,4137.436035,4138.461426,736.000000,4.000000,,,,0.000000,4.000000,4.000000,4.000000,4.000000,4.000000,4.000000,4.000000,4.000000,4.000000,4.000000,4.000000,4.000000,4.000000,4.000000,100.000000
1602006462.047147,14.000000,0.000000,4128.717773,4126.666504,4136.922852,4120.512695,4136.922852,4142.051270,4139.487305,4143.077148,4134.358887,4145.641113,4143.077148,4148.717773,4133.333496,4139.487305,871.000000,4.000000,,,,0.000000,4.000000,4.000000,4.000000,4.000000,4.000000,4.000000,4.000000,4.000000,4.000000,4.000000,4.000000,4.000000,4.000000,4.000000,100.000000
1602006462.054928,15.000000,0.000000,4121.025879,4120.512695,4132.820313,4124.615234,4135.384766,4144.102539,4138.461426,4135.897461,4132.820313,4129.743652,4144.615234,4137.436035,4127.179688,4137.948730,839.000000,4.000000,,,,0.000000,4.000000,4.000000,4.000000,4.000000,4.000000,4.000000,4.000000,4.000000,4.000000,4.000000,4.000000,4.000000,4.000000,4.000000,100.000000
1602006462.062810,16.000000,0.000000,4124.102539,4118.974121,4132.820313,4119.487305,4137.436035,4141.538574,4140.000000,4136.410156,4134.358887,4130.769043,4138.974121,4139.487305,4135.897461,4137.948730,0.000000,4.000000,,,,0.000000,4.000000,4.000000,4.000000,4.000000,4.000000,4.000000,4.000000,4.000000,4.000000,4.000000,4.000000,4.000000,4.000000,4.000000,100.000000
1602006462.070691,17.000000,0.000000,4138.461426,4129.230957,4136.922852,4120.512695,4137.948730,4136.922852,4141.538574,4141.025879,4138.974121,4146.153809,4138.461426,4152.820313,4146.153809,4135.897461,0.000000,4.000000,,,,0.000000,4.000000,4.000000,4.000000,4.000000,4.000000,4.000000,4.000000,4.000000,4.000000,4.000000,4.000000,4.000000,4.000000,4.000000,100.000000
1602006462.078573,18.000000,0.000000,4141.538574,4135.384766,4139.487305,4129.230957,4136.410156,4130.769043,4140.512695,4137.436035,4135.384766,4147.692383,4143.589844,4158.461426,4138.974121,4135.384766,0.000000,4.000000,,,,0.000000,4.000000,4.000000,4.000000,4.000000,4.000000,4.000000,4.000000,4.000000,4.000000,4.000000,4.000000,4.000000,4.000000,4.000000,100.000000
1602006462.086454,19.000000,0.000000,4137.948730,4138.461426,4144.615234,4138.461426,4138.974121,4133.846191,4141.025879,4138.974121,4129.230957,4152.307617,4152.307617,4165.128418,4138.461426,4145.128418,0.000000,4.000000,,,,0.000000,4.000000,4.000000,4.000000,4.000000,4.000000,4.000000,4.000000,4.000000,4.000000,4.000000,4.000000,4.000000,4.000000,4.000000,100.000000
1602006462.094335,20.000000,0.000000,4141.538574,4136.922852,4152.307617,4139.487305,4143.589844,4148.717773,4148.717773,4147.692383,4134.358887,4164.615234,4155.384766,4181.538574,4154.358887,4147.692383,0.000000,4.000000,,,,0.000000,4.000000,4.000000,4.000000,4.000000,4.000000,4.000000,4.000000,4.000000,4.000000,4.000000,4.000000,4.000000,4.000000,4.000000,100.000000
1602006462.102217,21.000000,0.000000,4136.410156,4128.205078,4156.410156,4129.743652,4143.589844,4152.820313,4152.820313,4148.205078,4140.512695,4152.307617,4151.282227,4186.153809,4158.974121,4136.922852,0.000000,4.000000,,,,0.000000,4.000000,4.000000,4.000000,4.000000,4.000000,4.000000,4.000000,4.000000,4.000000,4.000000,4.000000,4.000000,4.000000,4.000000,100.000000
1602006462.110098,22.000000,0.000000,4132.307617,4128.205078,4149.743652,4124.615234,4143.077148,4141.538574,4144.615234,4140.512695,4138.974121,4130.256348,4151.794922,4174.871582,4147.692383,4132.820313,0.000000,4.000000,,,,0.000000,4.000000,4.000000,4.000000,4.000000,4.000000,4.000000,4.000000,4.000000,4.000000,4.000000,4.000000,4.000000,4.000000,4.000000,100.000000
1602006462.117879,23.000000,0.000000,4147.179688,4141.025879,4140.512695,4133.846191,4143.077148,4137.948730,4135.897461,4136.410156,4138.974121,4136.410156,4156.410156,4168.205078,4141.025879,4143.077148,0.000000,4.000000,,,,0.000000,4.000000,4.000000,4.000000,4.000000,4.000000,4.000000,4.000000,4.000000,4.000000,4.000000,4.000000,4.000000,4.000000,4.000000,100.000000
1602006462.125761,24.000000,0.000000,4153.846191,4148.205078,4138.974121,4141.538574,4143.077148,4140.000000,4136.922852,4137.436035,4143.589844,4151.282227,4154.358887,4168.717773,4142.051270,4143.589844,0.000000,4.000000,,,,0.000000,4.000000,4.000000,4.000000,4.000000,4.000000,4.000000,4.000000,4.000000,4.000000,4.000000,4.000000,4.000000,4.000000,4.000000,100.000000
1602006462.133642,25.000000,0.000000,4147.692383,4149.230957,4141.538574,4138.974121,4143.077148,4137.436035,4136.410156,4134.871582,4141.538574,4142.051270,4142.051270,4167.692383,4132.820313,4128.205078,0.000000,4.000000,,,,0.000000,4.000000,4.000000,4.000000,4.000000,4.000000,4.000000,4.000000,4.000000,4.000000,4.000000,4.000000,4.000000,4.000000,4.000000,100.000000
1602006462.141523,26.000000,0.000000,4150.769043,4155.384766,4140.512695,4137.436035,4140.512695,4135.384766,4130.769043,4134.358887,4135.897461,4137.436035,4131.794922,4164.615234,4121.025879,4120.000000,0.000000,4.000000,,,,0.000000,4.000000,4.000000,4.000000,4.000000,4.000000,4.000000,4.000000,4.000000,4.000000,4.000000,4.000000,4.000000,4.000000,4.000000,100.000000
1602006462.149404,27.000000,0.000000,4156.922852,4150.256348,4138.974121,4136.410156,4137.436035,4141.025879,4131.794922,4137.948730,4145.641113,4158.974121,4142.563965,4167.692383,4127.692383,4124.615234,0.000000,4.000000,,,,0.000000,4.000000,4.000000,4.000000,4.000000,4.000000,4.000000,4.000000,4.000000,4.000000,4.000000,4.000000,4.000000,4.000000,4.000000,100.000000
1602006462.157386,28.000000,0.000000,4150.256348,4141.025879,4141.025879,4129.743652,4138.974121,4145.641113,4138.461426,4140.512695,4156.922852,4153.333496,4155.897461,4170.769043,4136.922852,4123.077148,0.000000,4.000000,,,,0.000000,4.000000,4.000000,4.000000,4.000000,4.000000,4.000000,4.000000,4.000000,4.000000,4.000000,4.000000,4.000000,4.000000,4.000000,100.000000
1602006462.165267,29.000000,0.000000,4138.974121,4139.487305,4134.358887,4123.589844,4137.436035,4145.128418,4136.922852,4136.922852,4145.641113,4115.897461,4144.102539,4164.102539,4127.179688,4121.538574,0.000000,4.000000,,,,0.000000,4.000000,4.000000,4.000000,4.000000,4.000000,4.000000,4.000000,4.000000,4.000000,4.000000,4.000000,4.000000,4.000000,4.000000,100.000000
1602006462.173149,30.000000,0.000000,4128.205078,4132.820313,4128.205078,4121.025879,4127.179688,4143.589844,4131.282227,4130.256348,4134.871582,4110.769043,4122.563965,4152.820313,4114.358887,4121.538574,0.000000,4.000000,,,,0.000000,4.000000,4.000000,4.000000,4.000000,4.000000,4.000000,4.000000,4.000000,4.000000,4.000000,4.000000,4.000000,4.000000,4.000000,100.000000
1602006462.181031,31.000000,0.000000,4122.563965,4123.589844,4132.820313,4122.051270,4123.589844,4142.051270,4133.846191,4127.179688,4134.871582,4134.871582,4115.897461,4151.794922,4108.717773,4110.256348,0.000000,4.000000,,,,0.000000,4.000000,4.000000,4.000000,4.000000,4.000000,4.000000,4.000000,4.000000,4.000000,4.000000,4.000000,4.000000,4.000000,4.000000,100.000000
1602006462.188912,32.000000,0.000000,4129.230957,4122.563965,4136.410156,4124.102539,4132.307617,4138.461426,4137.436035,4126.666504,4124.615234,4134.871582,4121.025879,4154.358887,4108.717773,4105.641113,0.000000,4.000000,,,,0.000000,4.000000,4.000000,4.000000,4.000000,4.000000,4.000000,4.000000,4.000000,4.000000,4.000000,4.000000,4.000000,4.000000,4.000000,100.000000
1602006462.196794,33.000000,0.000000,4136.410156,4130.769043,4135.897461,4123.589844,4137.948730,4136.922852,4134.871582,4125.641113,4123.077148,4123.077148,4122.051270,4152.820313,4117.948730,4120.000000,0.000000,4.000000,,,,0.000000,4.000000,4.000000,4.000000,4.000000,4.000000,4.000000,4.000000,4.000000,4.000000,4.000000,4.000000,4.000000,4.000000,4.000000,100.000000
1602006462.204675,34.000000,0.000000,4142.563965,4135.897461,4135.384766,4124.615234,4138.461426,4137.436035,4132.820313,4127.179688,4133.846191,4125.641113,4118.974121,4157.436035,4123.589844,4126.153809,0.000000,4.000000,,,,0.000000,4.000000,4.000000,4.000000,4.000000,4.000000,4.000000,4.000000,4.000000,4.000000,4.000000,4.000000,4.000000,4.000000,4.000000,100.000000
1602006462.212557,35.000000,0.000000,4152.307617,4138.974121,4135.897461,4132.307617,4140.000000,4138.974121,4140.512695,4134.358887,4129.230957,4121.025879,4130.256348,4167.179688,4123.589844,4122.051270,0.000000,4.000000,,,,0.000000,4.000000,4.000000,4.000000,4.000000,4.000000,4.000000,4.000000,4.000000,4.000000,4.000000,4.000000,4.000000,4.000000,4.000000,100.000000
1602006462.220538,36.000000,0.000000,4158.461426,4147.179688,4144.102539,4140.000000,4142.563965,4138.461426,4146.153809,4141.025879,4126.666504,4120.000000,4149.743652,4176.410156,4135.384766,4131.794922,0.000000,4.000000,,,,0.000000,4.000000,4.000000,4.000000,4.000000,4.000000,4.000000,4.000000,4.000000,4.000000,4.000000,4.000000,4.000000,4.000000,4.000000,100.000000
1602006462.228419,37.000000,0.000000,4158.461426,4152.820313,4153.333496,4145.128418,4143.589844,4133.846191,4142.051270,4139.487305,4140.512695,4143.589844,4151.794922,4186.153809,4147.179688,4142.051270,0.000000,4.000000,,,,0.000000,4.000000,4.000000,4.000000,4.000000,4.000000,4.000000,4.000000,4.000000,4.000000,4.000000,4.000000,4.000000,4.000000,4.000000,100.000000
1602006462.236300,38.000000,0.000000,4158.974121,4153.846191,4153.333496,4146.666504,4140.512695,4132.307617,4136.922852,4140.000000,4145.128418,4160.000000,4136.922852,4185.641113,4143.077148,4140.000000,0.000000,4.000000,,,,0.000000,4.000000,4.000000,4.000000,4.000000,4.000000,4.000000,4.000000,4.000000,4.000000,4.000000,4.000000,4.000000,4.000000,4.000000,100.000000
1602006462.244081,39.000000,0.000000,4160.000000,4154.871582,4149.743652,4143.077148,4137.436035,4136.410156,4133.333496,4140.000000,4140.512695,4150.769043,4129.230957,4176.410156,4136.922852,4141.025879,0.000000,4.000000,,,,0.000000,4.000000,4.000000,4.000000,4.000000,4.000000,4.000000,4.000000,4.000000,4.000000,4.000000,4.000000,4.000000,4.000000,4.000000,100.000000
1602006462.251962,40.000000,0.000000,4153.333496,4151.282227,4146.153809,4139.487305,4135.897461,4138.461426,4133.846191,4129.743652,4137.948730,4138.974121,4125.128418,4167.692383,4133.333496,4138.461426,0.000000,4.000000,,,,0.000000,4.000000,4.000000,4.000000,4.000000,4.000000,4.000000,4.000000,4.000000,4.000000,4.000000,4.000000,4.000000,4.000000,4.000000,100.000000
1602006462.259843,41.000000,0.000000,4141.025879,4140.000000,4137.436035,4136.922852,4132.307617,4133.846191,4134.358887,4118.974121,4127.692383,4125.641113,4108.717773,4157.948730,4117.436035,4115.897461,0.000000,4.000000,,,,0.000000,4.000000,4.000000,4.000000,4.000000,4.000000,4.000000,4.000000,4.000000,4.000000,4.000000,4.000000,4.000000,4.000000,4.000000,100.000000
1602006462.267725,42.000000,0.000000,4138.461426,4136.410156,4134.358887,4129.230957,4125.641113,4125.128418,4129.230957,4118.974121,4111.794922,4097.948730,4099.487305,4153.333496,4104.615234,4105.128418,0.000000,4.000000,,,,0.000000,4.000000,4.000000,4.000000,4.000000,4.000000,4.000000,4.000000,4.000000,4.000000,4.000000,4.000000,4.000000,4.000000,4.000000,100.000000
1602006462.275606,43.000000,0.000000,4143.077148,4138.974121,4136.410156,4120.000000,4122.563965,4116.922852,4120.512695,4121.538574,4111.282227,4084.102539,4112.820313,4160.000000,4107.179688,4117.948730,0.000000,4.000000,,,,0.000000,4.000000,4.000000,4.000000,4.000000,4.000000,4.000000,4.000000,4.000000,4.000000,4.000000,4.000000,4.000000,4.000000,4.000000,100.000000
1602006462.283387,44.000000,0.000000,4141.025879,4133.846191,4135.897461,4121.025879,4128.205078,4115.897461,4120.512695,4121.025879,4121.025879,4107.179688,4122.563965,4164.615234,4105.128418,4121.538574,0.000000,4.000000,,,,0.000000,4.000000,4.000000,4.000000,4.000000,4.000000,4.000000,4.000000,4.000000,4.000000,4.000000,4.000000,4.000000,4.000000,4.000000,100.000000
1602006462.291269,45.000000,0.000000,4143.589844,4136.410156,4135.384766,4133.333496,4137.948730,4118.974121,4124.615234,4127.692383,4124.615234,4136.922852,4118.974121,4164.615234,4107.692383,4122.563965,0.000000,4.000000,,,,0.000000,4.000000,4.000000,4.000000,4.000000,4.000000,4.000000,4.000000,4.000000,4.000000,4.000000,4.000000,4.000000,4.000000,4.000000,100.000000
1602006462.299151,46.000000,0.000000,4154.871582,4145.641113,4135.897461,4140.000000,4141.025879,4121.025879,4123.589844,4137.436035,4128.205078,4140.000000,4125.128418,4162.051270,4128.717773,4133.333496,0.000000,4.000000,,,,0.000000,4.000000,4.000000,4.000000,4.000000,4.000000,4.000000,4.000000,4.000000,4.000000,4.000000,4.000000,4.000000,4.000000,4.000000,100.000000
1602006462.307032,47.000000,0.000000,4153.846191,4142.563965,4135.897461,4136.922852,4136.922852,4122.051270,4123.589844,4138.461426,4135.384766,4133.846191,4132.820313,4155.384766,4142.051270,4134.358887,0.000000,4.000000,,,,0.000000,4.000000,4.000000,4.000000,4.000000,4.000000,4.000000,4.000000,4.000000,4.000000,4.000000,4.000000,4.000000,4.000000,4.000000,100.000000
1602006462.314914,48.000000,0.000000,4141.025879,4135.897461,4135.897461,4136.922852,4137.948730,4126.153809,4126.666504,4136.922852,4141.025879,4145.128418,4127.692383,4155.897461,4143.589844,4132.820313,0.000000,4.000000,,,,0.000000,4.000000,4.000000,4.000000,4.000000,4.000000,4.000000,4.000000,4.000000,4.000000,4.000000,4.000000,4.000000,4.000000,4.000000,100.000000
1602006462.322796,49.000000,0.000000,4135.897461,4138.974121,4136.922852,4140.000000,4142.563965,4136.922852,4134.358887,4138.974121,4148.717773,4153.846191,4129.743652,4167.179688,4154.358887,4141.025879,0.000000,4.000000,,,,0.000000,4.000000,4.000000,4.000000,4.000000,4.000000,4.000000,4.000000,4.000000,4.000000,4.000000,4.000000,4.000000,4.000000,4.000000,100.000000
1602006462.330677,50.000000,0.000000,4137.948730,4142.563965,4136.410156,4137.948730,4142.051270,4143.077148,4140.000000,4143.077148,4162.051270,4143.077148,4140.512695,4175.384766,4163.077148,4140.512695,0.000000,4.000000,,,,0.000000,4.000000,4.000000,4.000000,4.000000,4.000000,4.000000,4.000000,4.000000,4.000000,4.000000,4.000000,4.000000,4.000000,4.000000,100.000000
1602006462.338559,51.000000,0.000000,4134.871582,4139.487305,4135.384766,4134.358887,4137.948730,4137.436035,4134.358887,4142.563965,4154.871582,4133.333496,4142.563965,4168.717773,4157.436035,4129.743652,0.000000,4.000000,,,,0.000000,4.000000,4.000000,4.000000,4.000000,4.000000,4.000000,4.000000,4.000000,4.000000,4.000000,4.000000,4.000000,4.000000,4.000000,100.000000
1602006462.346540,52.000000,0.000000,4127.692383,4132.820313,4137.436035,4131.282227,4130.256348,4131.282227,4125.641113,4133.333496,4139.487305,4139.487305,4135.897461,4155.384766,4154.871582,4124.615234,0.000000,4.000000,,,,0.000000,4.000000,4.000000,4.000000,4.000000,4.000000,4.000000,4.000000,4.000000,4.000000,4.000000,4.000000,4.000000,4.000000,4.000000,100.000000
1602006462.354422,53.000000,0.000000,4120.512695,4126.153809,4134.871582,4124.615234,4125.128418,4138.461426,4124.615234,4127.179688,4145.128418,4156.410156,4127.179688,4151.282227,4151.794922,4121.538574,0.000000,4.000000,,,,0.000000,4.000000,4.000000,4.000000,4.000000,4.000000,4.000000,4.000000,4.000000,4.000000,4.000000,4.000000,4.000000,4.000000,4.000000,100.000000
1602006462.362304,54.000000,0.000000,4120.512695,4122.563965,4127.179688,4121.025879,4124.615234,4140.000000,4130.256348,4132.820313,4158.974121,4163.077148,4123.589844,4152.820313,4141.025879,4122.051270,0.000000,4.000000,,,,0.000000,4.000000,4.000000,4.000000,4.000000,4.000000,4.000000,4.000000,4.000000,4.000000,4.000000,4.000000,4.000000,4.000000,4.000000,100.000000
1602006462.370185,55.000000,0.000000,4124.102539,4121.538574,4123.077148,4122.563965,4123.589844,4126.666504,4134.358887,4138.461426,4156.922852,4146.666504,4131.282227,4151.282227,4134.358887,4123.589844,0.000000,4.000000,,,,0.000000,4.000000,4.000000,4.000000,4.000000,4.000000,4.000000,4.000000,4.000000,4.000000,4.000000,4.000000,4.000000,4.000000,4.000000,100.000000
1602006462.378067,56.000000,0.000000,4123.077148,4120.000000,4125.128418,4124.102539,4121.025879,4123.589844,4137.948730,4137.436035,4143.077148,4131.794922,4135.897461,4149.743652,4135.384766,4120.000000,0.000000,4.000000,,,,0.000000,4.000000,4.000000,4.000000,4.000000,4.000000,4.000000,4.000000,4.000000,4.000000,4.000000,4.000000,4.000000,4.000000,4.000000,100.000000
1602006462.385949,57.000000,0.000000,4122.563965,4121.538574,4132.820313,4123.077148,4126.153809,4137.436035,4142.563965,4138.461426,4143.589844,4136.922852,4126.666504,4152.820313,4132.820313,4122.563965,0.000000,4.000000,,,,0.000000,4.000000,4.000000,4.000000,4.000000,4.000000,4.000000,4.000000,4.000000,4.000000,4.000000,4.000000,4.000000,4.000000,4.000000,100.000000
1602006462.393830,58.000000,0.000000,4123.077148,4124.615234,4137.948730,4122.563965,4131.794922,4144.102539,4144.102539,4140.000000,4151.794922,4137.948730,4119.487305,4155.384766,4129.743652,4131.282227,0.000000,4.000000,,,,0.000000,4.000000,4.000000,4.000000,4.000000,4.000000,4.000000,4.000000,4.000000,4.000000,4.000000,4.000000,4.000000,4.000000,4.000000,100.000000
1602006462.401712,59.000000,0.000000,4121.538574,4124.102539,4132.307617,4124.615234,4129.743652,4139.487305,4139.487305,4136.922852,4149.743652,4134.358887,4127.692383,4156.922852,4134.871582,4131.282227,0.000000,4.000000,,,,0.000000,4.000000,4.000000,4.000000,4.000000,4.000000,4.000000,4.000000,4.000000,4.000000,4.000000,4.000000,4.000000,4.000000,4.000000,100.000000
1602006462.409594,60.000000,0.000000,4122.563965,4124.102539,4123.077148,4124.615234,4127.179688,4137.948730,4134.358887,4135.897461,4150.256348,4146.153809,4141.538574,4156.410156,4142.051270,4123.589844,0.000000,4.000000,,,,0.000000,4.000000,4.000000,4.000000,4.000000,4.000000,4.000000,4.000000,4.000000,4.000000,4.000000,4.000000,4.000000,4.000000,4.000000,100.000000
1602006462.417575,61.000000,0.000000,4121.538574,4122.051270,4120.512695,4121.538574,4125.641113,4138.461426,4135.384766,4138.974121,4157.948730,4145.128418,4136.922852,4148.205078,4143.077148,4122.051270,0.000000,4.000000,,,,0.000000,4.000000,4.000000,4.000000,4.000000,4.000000,4.000000,4.000000,4.000000,4.000000,4.000000,4.000000,4.000000,4.000000,4.000000,100.000000
1602006462.425457,62.000000,0.000000,4123.077148,4120.000000,4123.589844,4122.051270,4126.666504,4134.871582,4135.384766,4139.487305,4153.846191,4123.077148,4124.615234,4143.077148,4139.487305,4123.077148,0.000000,4.000000,,,,0.000000,4.000000,4.000000,4.000000,4.000000,4.000000,4.000000,4.000000,4.000000,4.000000,4.000000,4.000000,4.000000,4.000000,4.000000,100.000000
1602006462.433338,63.000000,0.000000,4134.358887,4123.589844,4133.333496,4129.743652,4133.846191,4135.384766,4134.358887,4142.051270,4152.307617,4128.717773,4129.743652,4143.589844,4141.538574,4123.077148,0.000000,4.000000,,,,0.000000,4.000000,4.000000,4.000000,4.000000,4.000000,4.000000,4.000000,4.000000,4.000000,4.000000,4.000000,4.000000,4.000000,4.000000,100.000000
1602006462.441220,64.000000,0.000000,4142.563965,4129.230957,4143.077148,4135.384766,4140.000000,4141.538574,4140.512695,4148.717773,4170.256348,4157.948730,4138.461426,4146.666504,4150.769043,4126.153809,799.000000,4.000000,,,,0.000000,4.000000,4.000000,4.000000,4.000000,4.000000,4.000000,4.000000,4.000000,4.000000,4.000000,4.000000,4.000000,4.000000,4.000000,100.000000
1602006462.449102,65.000000,0.000000,4137.436035,4127.179688,4139.487305,4134.871582,4134.871582,4130.256348,4143.077148,4147.692383,4168.205078,4166.666504,4128.205078,4149.743652,4148.717773,4124.615234,785.000000,4.000000,,,,0.000000,4.000000,4.000000,4.000000,4.000000,4.000000,4.000000,4.000000,4.000000,4.000000,4.000000,4.000000,4.000000,4.000000,4.000000,100.000000
1602006462.456983,66.000000,0.000000,4133.333496,4121.538574,4135.897461,4134.358887,4125.128418,4105.128418,4137.948730,4136.410156,4136.410156,4149.743652,4116.410156,4150.256348,4129.743652,4126.153809,853.000000,4.000000,,,,0.000000,4.000000,4.000000,4.000000,4.000000,4.000000,4.000000,4.000000,4.000000,4.000000,4.000000,4.000000,4.000000,4.000000,4.000000,100.000000
1602006462.464865,67.000000,0.000000,4136.922852,4126.666504,4145.128418,4138.461426,4127.692383,4107.692383,4134.871582,4129.743652,4117.948730,4128.717773,4121.025879,4153.333496,4127.179688,4136.410156,867.000000,4.000000,,,,0.000000,4.000000,4.000000,4.000000,4.000000,4.000000,4.000000,4.000000,4.000000,4.000000,4.000000,4.000000,4.000000,4.000000,4.000000,100.000000
1602006462.472747,68.000000,0.000000,4144.615234,4135.384766,4146.153809,4141.025879,4135.897461,4129.743652,4133.846191,4127.692383,4124.615234,4123.077148,4126.666504,4151.282227,4136.922852,4135.897461,814.000000,4.000000,,,,0.000000,4.000000,4.000000,4.000000,4.000000,4.000000,4.000000,4.000000,4.000000,4.000000,4.000000,4.000000,4.000000,4.000000,4.000000,100.000000
1602006462.480728,69.000000,0.000000,4140.512695,4131.282227,4129.743652,4137.948730,4136.410156,4136.410156,4133.846191,4124.615234,4133.333496,4132.820313,4120.512695,4137.948730,4130.256348,4125.128418,817.000000,4.000000,,,,0.000000,4.000000,4.000000,4.000000,4.000000,4.000000,4.000000,4.000000,4.000000,4.000000,4.000000,4.000000,4.000000,4.000000,4.000000,100.000000
1602006462.488609,70.000000,0.000000,4126.666504,4123.077148,4119.487305,4136.922852,4135.384766,4134.358887,4133.333496,4128.717773,4140.512695,4143.077148,4117.948730,4128.205078,4123.077148,4118.461426,761.000000,4.000000,,,,0.000000,4.000000,4.000000,4.000000,4.000000,4.000000,4.000000,4.000000,4.000000,4.000000,4.000000,4.000000,4.000000,4.000000,4.000000,100.000000
1602006462.496490,71.000000,0.000000,4128.205078,4126.153809,4127.692383,4135.897461,4140.000000,4137.948730,4129.230957,4138.974121,4149.743652,4145.128418,4124.615234,4134.871582,4133.333496,4125.641113,698.000000,4.000000,,,,0.000000,4.000000,4.000000,4.000000,4.000000,4.000000,4.000000,4.000000,4.000000,4.000000,4.000000,4.000000,4.000000,4.000000,4.000000,100.000000
1602006462.504371,72.000000,0.000000,4132.820313,4131.794922,4137.436035,4129.230957,4141.025879,4140.000000,4128.717773,4143.077148,4156.410156,4152.820313,4128.717773,4142.051270,4148.205078,4134.871582,787.000000,4.000000,,,,0.000000,4.000000,4.000000,4.000000,4.000000,4.000000,4.000000,4.000000,4.000000,4.000000,4.000000,4.000000,4.000000,4.000000,4.000000,100.000000
1602006462.512252,73.000000,0.000000,4124.102539,4128.717773,4135.384766,4124.102539,4139.487305,4143.077148,4135.897461,4143.077148,4156.922852,4158.461426,4132.307617,4140.000000,4153.846191,4129.230957,835.000000,4.000000,,,,0.000000,4.000000,4.000000,4.000000,4.000000,4.000000,4.000000,4.000000,4.000000,4.000000,4.000000,4.000000,4.000000,4.000000,4.000000,100.000000
1602006462.520134,74.000000,0.000000,4117.436035,4124.615234,4125.641113,4126.153809,4140.512695,4142.563965,4137.436035,4141.538574,4149.230957,4145.641113,4141.538574,4137.436035,4146.153809,4118.461426,912.000000,4.000000,,,,0.000000,4.000000,4.000000,4.000000,4.000000,4.000000,4.000000,4.000000,4.000000,4.000000,4.000000,4.000000,4.000000,4.000000,4.000000,100.000000
1602006462.527915,75.000000,0.000000,4123.589844,4124.615234,4121.025879,4133.846191,4136.410156,4134.358887,4129.230957,4133.333496,4139.487305,4135.384766,4138.974121,4136.410156,4134.358887,4122.563965,894.000000,4.000000,,,,0.000000,4.000000,4.000000,4.000000,4.000000,4.000000,4.000000,4.000000,4.000000,4.000000,4.000000,4.000000,4.000000,4.000000,4.000000,100.000000
1602006462.535797,76.000000,0.000000,4130.769043,4125.641113,4131.282227,4139.487305,4127.692383,4133.846191,4124.102539,4121.538574,4130.256348,4139.487305,4126.666504,4138.461426,4131.794922,4130.256348,764.000000,4.000000,,,,0.000000,4.000000,4.000000,4.000000,4.000000,4.000000,4.000000,4.000000,4.000000,4.000000,4.000000,4.000000,4.000000,4.000000,4.000000,100.000000
1602006462.543679,77.000000,0.000000,4135.897461,4124.102539,4142.563965,4137.948730,4125.128418,4138.461426,4125.128418,4123.589844,4125.641113,4138.974121,4125.641113,4139.487305,4131.794922,4126.666504,736.000000,4.000000,,,,0.000000,4.000000,4.000000,4.000000,4.000000,4.000000,4.000000,4.000000,4.000000,4.000000,4.000000,4.000000,4.000000,4.000000,4.000000,100.000000
1602006462.551560,78.000000,0.000000,4138.974121,4123.077148,4141.538574,4137.436035,4125.641113,4136.410156,4127.692383,4135.897461,4126.153809,4128.717773,4128.717773,4138.461426,4126.153809,4121.538574,912.000000,4.000000,,,,0.000000,4.000000,4.000000,4.000000,4.000000,4.000000,4.000000,4.000000,4.000000,4.000000,4.000000,4.000000,4.000000,4.000000,4.000000,100.000000
1602006462.559442,79.000000,0.000000,4132.820313,4121.025879,4137.436035,4134.358887,4125.128418,4134.358887,4125.128418,4134.871582,4123.589844,4121.538574,4123.589844,4137.436035,4122.563965,4123.077148,894.000000,4.000000,,,,0.000000,4.000000,4.000000,4.000000,4.000000,4.000000,4.000000,4.000000,4.000000,4.000000,4.000000,4.000000,4.000000,4.000000,4.000000,100.000000
1602006462.567323,80.000000,0.000000,4125.641113,4114.871582,4136.922852,4127.692383,4128.717773,4138.461426,4120.000000,4122.563965,4123.077148,4122.563965,4119.487305,4136.922852,4118.974121,4130.256348,764.000000,4.000000,,,,0.000000,4.000000,4.000000,4.000000,4.000000,4.000000,4.000000,4.000000,4.000000,4.000000,4.000000,4.000000,4.000000,4.000000,4.000000,100.000000
1602006462.575205,81.000000,0.000000,4121.538574,4115.384766,4131.794922,4129.230957,4135.897461,4140.512695,4122.563965,4125.641113,4132.307617,4133.333496,4122.051270,4136.410156,4116.410156,4129.743652,736.000000,4.000000,,,,0.000000,4.000000,4.000000,4.000000,4.000000,4.000000,4.000000,4.000000,4.000000,4.000000,4.000000,4.000000,4.000000,4.000000,4.000000,100.000000
1602006462.583087,82.000000,0.000000,4119.487305,4122.563965,4123.589844,4133.333496,4139.487305,4142.051270,4124.615234,4137.948730,4148.717773,4151.794922,4133.333496,4135.897461,4128.205078,4115.897461,912.000000,4.000000,,,,0.000000,4.000000,4.000000,4.000000,4.000000,4.000000,4.000000,4.000000,4.000000,4.000000,4.000000,4.000000,4.000000,4.000000,4.000000,100.000000
1602006462.590968,83.000000,0.000000,4121.538574,4123.589844,4122.051270,4130.769043,4138.461426,4143.077148,4125.128418,4137.948730,4159.487305,4158.974121,4139.487305,4134.358887,4140.512695,4110.769043,894.000000,4.000000,,,,0.000000,4.000000,4.000000,4.000000,4.000000,4.000000,4.000000,4.000000,4.000000,4.000000,4.000000,4.000000,4.000000,4.000000,4.000000,100.000000
1602006462.598750,84.000000,0.000000,4123.077148,4121.025879,4122.563965,4133.333496,4136.922852,4136.922852,4131.794922,4139.487305,4155.897461,4155.384766,4126.153809,4133.333496,4135.897461,4119.487305,764.000000,4.000000,,,,0.000000,4.000000,4.000000,4.000000,4.000000,4.000000,4.000000,4.000000,4.000000,4.000000,4.000000,4.000000,4.000000,4.000000,4.000000,100.000000
1602006462.606631,85.000000,0.000000,4121.025879,4123.077148,4122.051270,4139.487305,4136.410156,4134.871582,4138.974121,4150.769043,4140.512695,4154.358887,4116.410156,4133.333496,4128.717773,4129.743652,736.000000,4.000000,,,,0.000000,4.000000,4.000000,4.000000,4.000000,4.000000,4.000000,4.000000,4.000000,4.000000,4.000000,4.000000,4.000000,4.000000,4.000000,100.000000
1602006462.614512,86.000000,0.000000,4119.487305,4124.102539,4120.000000,4141.025879,4136.410156,4141.538574,4138.974121,4155.384766,4133.846191,4150.769043,4125.641113,4136.410156,4133.846191,4133.846191,912.000000,4.000000,,,,0.000000,4.000000,4.000000,4.000000,4.000000,4.000000,4.000000,4.000000,4.000000,4.000000,4.000000,4.000000,4.000000,4.000000,4.000000,100.000000
1602006462.622393,87.000000,0.000000,4123.589844,4124.615234,4123.589844,4140.512695,4138.974121,4137.436035,4136.922852,4154.871582,4141.025879,4140.512695,4139.487305,4146.153809,4140.000000,4138.461426,894.000000,4.000000,,,,0.000000,4.000000,4.000000,4.000000,4.000000,4.000000,4.000000,4.000000,4.000000,4.000000,4.000000,4.000000,4.000000,4.000000,4.000000,100.000000
1602006462.630274,88.000000,0.000000,4123.589844,4125.641113,4131.794922,4140.000000,4140.000000,4122.051270,4136.922852,4153.333496,4139.487305,4132.820313,4143.589844,4155.897461,4138.974121,4143.589844,764.000000,4.000000,,,,0.000000,4.000000,4.000000,4.000000,4.000000,4.000000,4.000000,4.000000,4.000000,4.000000,4.000000,4.000000,4.000000,4.000000,4.000000,100.000000
1602006462.638256,89.000000,0.000000,4121.025879,4126.153809,4134.358887,4137.948730,4141.025879,4127.179688,4138.461426,4147.692383,4134.358887,4137.948730,4134.358887,4151.794922,4139.487305,4143.077148,736.000000,4.000000,,,,0.000000,4.000000,4.000000,4.000000,4.000000,4.000000,4.000000,4.000000,4.000000,4.000000,4.000000,4.000000,4.000000,4.000000,4.000000,100.000000
1602006462.646138,90.000000,0.000000,4123.077148,4128.205078,4129.230957,4140.000000,4144.102539,4145.641113,4137.436035,4140.000000,4137.948730,4146.153809,4122.051270,4141.538574,4142.563965,4137.436035,912.000000,4.000000,,,,0.000000,4.000000,4.000000,4.000000,4.000000,4.000000,4.000000,4.000000,4.000000,4.000000,4.000000,4.000000,4.000000,4.000000,4.000000,100.000000
1602006462.654019,91.000000,0.000000,4116.922852,4126.153809,4120.000000,4137.436035,4143.077148,4143.589844,4128.717773,4132.820313,4134.358887,4135.384766,4121.025879,4137.436035,4132.307617,4128.717773,894.000000,4.000000,,,,0.000000,4.000000,4.000000,4.000000,4.000000,4.000000,4.000000,4.000000,4.000000,4.000000,4.000000,4.000000,4.000000,4.000000,4.000000,100.000000
1602006462.661901,92.000000,0.000000,4105.128418,4120.512695,4109.230957,4133.333496,4136.922852,4132.307617,4119.487305,4122.563965,4120.000000,4126.666504,4125.641113,4134.358887,4120.000000,4124.102539,764.000000,4.000000,,,,0.000000,4.000000,4.000000,4.000000,4.000000,4.000000,4.000000,4.000000,4.000000,4.000000,4.000000,4.000000,4.000000,4.000000,4.000000,100.000000
1602006462.669782,93.000000,0.000000,4103.589844,4124.615234,4103.589844,4137.436035,4135.897461,4134.871582,4120.512695,4118.461426,4118.461426,4141.025879,4124.615234,4131.282227,4129.230957,4123.589844,736.000000,4.000000,,,,0.000000,4.000000,4.000000,4.000000,4.000000,4.000000,4.000000,4.000000,4.000000,4.000000,4.000000,4.000000,4.000000,4.000000,4.000000,100.000000
1602006462.677664,94.000000,0.000000,4111.794922,4131.282227,4103.589844,4138.974121,4137.948730,4127.692383,4126.153809,4127.692383,4130.769043,4153.846191,4123.077148,4133.333496,4140.512695,4123.589844,912.000000,4.000000,,,,0.000000,4.000000,4.000000,4.000000,4.000000,4.000000,4.000000,4.000000,4.000000,4.000000,4.000000,4.000000,4.000000,4.000000,4.000000,100.000000
1602006462.685546,95.000000,0.000000,4123.589844,4135.897461,4112.307617,4135.897461,4138.461426,4112.820313,4128.205078,4138.974121,4141.025879,4161.538574,4135.897461,4142.051270,4143.589844,4132.307617,894.000000,4.000000,,,,0.000000,4.000000,4.000000,4.000000,4.000000,4.000000,4.000000,4.000000,4.000000,4.000000,4.000000,4.000000,4.000000,4.000000,4.000000,100.000000
1602006462.693427,96.000000,0.000000,4136.922852,4148.205078,4130.256348,4141.538574,4145.128418,4122.563965,4128.205078,4142.051270,4142.051270,4168.717773,4150.769043,4155.897461,4157.948730,4150.769043,764.000000,4.000000,,,,0.000000,4.000000,4.000000,4.000000,4.000000,4.000000,4.000000,4.000000,4.000000,4.000000,4.000000,4.000000,4.000000,4.000000,4.000000,100.000000
1602006462.701309,97.000000,0.000000,4143.589844,4154.358887,4140.512695,4153.333496,4148.205078,4140.512695,4128.717773,4140.000000,4132.820313,4158.461426,4148.205078,4156.922852,4165.641113,4153.846191,736.000000,4.000000,,,,0.000000,4.000000,4.000000,4.000000,4.000000,4.000000,4.000000,4.000000,4.000000,4.000000,4.000000,4.000000,4.000000,4.000000,4.000000,100.000000
1602006462.709290,98.000000,0.000000,4138.461426,4142.563965,4134.871582,4151.794922,4138.974121,4134.358887,4128.205078,4138.974121,4121.538574,4135.384766,4135.384766,4144.102539,4145.641113,4137.948730,912.000000,4.000000,,,,0.000000,4.000000,4.000000,4.000000,4.000000,4.000000,4.000000,4.000000,4.000000,4.000000,4.000000,4.000000,4.000000,4.000000,4.000000,100.000000
1602006462.717172,99.000000,0.000000,4134.358887,4133.846191,4133.846191,4139.487305,4134.358887,4119.487305,4126.153809,4139.487305,4115.897461,4121.025879,4130.256348,4144.102539,4134.358887,4133.333496,894.000000,4.000000,,,,0.000000,4.000000,4.000000,4.000000,4.000000,4.000000,4.000000,4.000000,4.000000,4.000000,4.000000,4.000000,4.000000,4.000000,4.000000,100.000000
1602006462.725053,100.000000,0.000000,4138.461426,4136.922852,4141.025879,4139.487305,4138.974121,4123.589844,4122.563965,4139.487305,4116.922852,4112.820313,4133.846191,4154.871582,4137.436035,4140.512695,764.000000,4.000000,,,,0.000000,4.000000,4.000000,4.000000,4.000000,4.000000,4.000000,4.000000,4.000000,4.000000,4.000000,4.000000,4.000000,4.000000,4.000000,100.000000
1602006462.732935,101.000000,0.000000,4140.512695,4136.410156,4142.051270,4151.794922,4139.487305,4126.153809,4115.384766,4140.512695,4125.128418,4123.589844,4139.487305,4155.897461,4136.922852,4147.692383,736.000000,4.000000,,,,0.000000,4.000000,4.000000,4.000000,4.000000,4.000000,4.000000,4.000000,4.000000,4.000000,4.000000,4.000000,4.000000,4.000000,4.000000,100.000000
1602006462.740816,102.000000,0.000000,4135.384766,4136.410156,4138.974121,4148.205078,4136.922852,4113.846191,4110.769043,4137.948730,4136.410156,4155.897461,4144.615234,4156.922852,4143.589844,4149.743652,912.000000,4.000000,,,,0.000000,4.000000,4.000000,4.000000,4.000000,4.000000,4.000000,4.000000,4.000000,4.000000,4.000000,4.000000,4.000000,4.000000,4.000000,100.000000
1602006462.748697,103.000000,0.000000,4141.025879,4140.000000,4144.615234,4143.077148,4138.974121,4118.974121,4122.563965,4142.051270,4149.230957,4170.256348,4149.743652,4168.717773,4156.410156,4152.307617,894.000000,4.000000,,,,0.000000,4.000000,4.000000,4.000000,4.000000,4.000000,4.000000,4.000000,4.000000,4.000000,4.000000,4.000000,4.000000,4.000000,4.000000,100.000000
1602006462.756679,104.000000,0.000000,4152.307617,4140.512695,4151.794922,4149.230957,4139.487305,4139.487305,4137.948730,4152.307617,4163.589844,4168.717773,4158.461426,4174.358887,4161.025879,4165.128418,764.000000,4.000000,,,,0.000000,4.000000,4.000000,4.000000,4.000000,4.000000,4.000000,4.000000,4.000000,4.000000,4.000000,4.000000,4.000000,4.000000,4.000000,100.000000
1602006462.764560,105.000000,0.000000,4144.615234,4140.512695,4143.077148,4146.666504,4136.922852,4142.563965,4138.974121,4151.794922,4164.615234,4174.871582,4156.410156,4165.641113,4158.461426,4170.256348,736.000000,4.000000,,,,0.000000,4.000000,4.000000,4.000000,4.000000,4.000000,4.000000,4.000000,4.000000,4.000000,4.000000,4.000000,4.000000,4.000000,4.000000,100.000000
1602006462.772441,106.000000,0.000000,4126.666504,4134.871582,4125.641113,4136.410156,4133.846191,4134.871582,4134.871582,4140.512695,4142.563965,4158.461426,4136.410156,4153.333496,4151.794922,4150.769043,912.000000,4.000000,,,,0.000000,4.000000,4.000000,4.000000,4.000000,4.000000,4.000000,4.000000,4.000000,4.000000,4.000000,4.000000,4.000000,4.000000,4.000000,100.000000
1602006462.780323,107.000000,0.000000,4121.538574,4128.205078,4122.051270,4136.922852,4134.358887,4132.307617,4131.794922,4129.743652,4121.538574,4125.641113,4133.333496,4147.179688,4144.615234,4135.897461,894.000000,4.000000,,,,0.000000,4.000000,4.000000,4.000000,4.000000,4.000000,4.000000,4.000000,4.000000,4.000000,4.000000,4.000000,4.000000,4.000000,4.000000,100.000000
1602006462.788204,108.000000,0.000000,4123.077148,4131.282227,4123.077148,4141.025879,4136.410156,4123.077148,4124.615234,4121.025879,4118.974121,4126.153809,4149.230957,4147.692383,4141.025879,4140.000000,764.000000,4.000000,,,,0.000000,4.000000,4.000000,4.000000,4.000000,4.000000,4.000000,4.000000,4.000000,4.000000,4.000000,4.000000,4.000000,4.000000,4.000000,100.000000
1602006462.796086,109.000000,0.000000,4121.538574,4132.820313,4117.948730,4137.436035,4135.897461,4115.897461,4117.948730,4122.051270,4118.974121,4147.692383,4147.179688,4150.769043,4139.487305,4141.025879,736.000000,4.000000,,,,0.000000,4.000000,4.000000,4.000000,4.000000,4.000000,4.000000,4.000000,4.000000,4.000000,4.000000,4.000000,4.000000,4.000000,4.000000,100.000000
1602006462.803967,110.000000,0.000000,4125.641113,4130.256348,4118.461426,4137.948730,4136.410156,4123.077148,4121.025879,4137.436035,4120.512695,4152.820313,4135.384766,4155.897461,4142.051270,4143.077148,912.000000,4.000000,,,,0.000000,4.000000,4.000000,4.000000,4.000000,4.000000,4.000000,4.000000,4.000000,4.000000,4.000000,4.000000,4.000000,4.000000,4.000000,100.000000
1602006462.811949,111.000000,0.000000,4132.307617,4135.897461,4127.179688,4140.512695,4138.974121,4126.153809,4124.102539,4144.102539,4125.128418,4155.384766,4139.487305,4158.461426,4147.692383,4150.256348,894.000000,4.000000,,,,0.000000,4.000000,4.000000,4.000000,4.000000,4.000000,4.000000,4.000000,4.000000,4.000000,4.000000,4.000000,4.000000,4.000000,4.000000,100.000000
1602006462.819830,112.000000,0.000000,4133.846191,4142.051270,4126.153809,4141.025879,4138.461426,4120.000000,4120.512695,4138.974121,4126.666504,4155.897461,4137.436035,4149.230957,4142.563965,4147.179688,764.000000,4.000000,,,,0.000000,4.000000,4.000000,4.000000,4.000000,4.000000,4.000000,4.000000,4.000000,4.000000,4.000000,4.000000,4.000000,4.000000,4.000000,100.000000
1602006462.827712,113.000000,0.000000,4136.410156,4138.461426,4114.358887,4140.000000,4137.436035,4123.077148,4125.128418,4138.974121,4131.282227,4141.025879,4121.538574,4140.000000,4137.948730,4142.051270,736.000000,4.000000,,,,0.000000,4.000000,4.000000,4.000000,4.000000,4.000000,4.000000,4.000000,4.000000,4.000000,4.000000,4.000000,4.000000,4.000000,4.000000,100.000000
1602006462.835594,114.000000,0.000000,4135.897461,4135.384766,4112.307617,4138.461426,4140.000000,4134.871582,4136.922852,4143.077148,4138.974121,4134.871582,4117.948730,4133.846191,4139.487305,4143.077148,912.000000,4.000000,,,,0.000000,4.000000,4.000000,4.000000,4.000000,4.000000,4.000000,4.000000,4.000000,4.000000,4.000000,4.000000,4.000000,4.000000,4.000000,100.000000
1602006462.843475,115.000000,0.000000,4126.153809,4137.948730,4120.000000,4138.461426,4141.025879,4141.025879,4141.025879,4143.589844,4146.666504,4148.205078,4132.307617,4127.179688,4134.871582,4142.051270,894.000000,4.000000,,,,0.000000,4.000000,4.000000,4.000000,4.000000,4.000000,4.000000,4.000000,4.000000,4.000000,4.000000,4.000000,4.000000,4.000000,4.000000,100.000000
1602006462.851357,116.000000,0.000000,4117.436035,4137.436035,4121.538574,4136.922852,4138.461426,4138.974121,4137.948730,4141.025879,4151.282227,4161.538574,4142.051270,4122.563965,4130.769043,4134.871582,764.000000,4.000000,,,,0.000000,4.000000,4.000000,4.000000,4.000000,4.000000,4.000000,4.000000,4.000000,4.000000,4.000000,4.000000,4.000000,4.000000,4.000000,100.000000
1602006462.859238,117.000000,0.000000,4122.563965,4136.410156,4121.025879,4135.897461,4138.461426,4140.000000,4134.358887,4141.025879,4148.717773,4157.948730,4140.000000,4122.563965,4135.384766,4133.333496,736.000000,4.000000,,,,0.000000,4.000000,4.000000,4.000000,4.000000,4.000000,4.000000,4.000000,4.000000,4.000000,4.000000,4.000000,4.000000,4.000000,4.000000,100.000000
1602006462.867120,118.000000,0.000000,4131.282227,4135.897461,4122.563965,4136.922852,4139.487305,4137.948730,4129.230957,4139.487305,4134.358887,4135.897461,4136.922852,4128.205078,4135.897461,4137.436035,912.000000,4.000000,,,,0.000000,4.000000,4.000000,4.000000,4.000000,4.000000,4.000000,4.000000,4.000000,4.000000,4.000000,4.000000,4.000000,4.000000,4.000000,100.000000
1602006462.875002,119.000000,0.000000,4134.358887,4136.410156,4121.538574,4134.871582,4136.922852,4124.102539,4121.025879,4134.358887,4119.487305,4120.512695,4134.358887,4134.358887,4134.871582,4134.871582,894.000000,4.000000,,,,0.000000,4.000000,4.000000,4.000000,4.000000,4.000000,4.000000,4.000000,4.000000,4.000000,4.000000,4.000000,4.000000,4.000000,4.000000,100.000000
1602006462.882983,120.000000,0.000000,4139.487305,4137.948730,4124.615234,4136.410156,4136.410156,4117.948730,4115.897461,4128.717773,4117.948730,4142.051270,4127.179688,4134.871582,4135.897461,4132.307617,764.000000,4.000000,,,,0.000000,4.000000,4.000000,4.000000,4.000000,4.000000,4.000000,4.000000,4.000000,4.000000,4.000000,4.000000,4.000000,4.000000,4.000000,100.000000
1602006462.890864,121.000000,0.000000,4143.077148,4138.461426,4128.205078,4142.563965,4135.897461,4123.077148,4115.384766,4123.077148,4123.077148,4161.025879,4112.820313,4126.666504,4127.692383,4136.922852,736.000000,4.000000,,,,0.000000,4.000000,4.000000,4.000000,4.000000,4.000000,4.000000,4.000000,4.000000,4.000000,4.000000,4.000000,4.000000,4.000000,4.000000,100.000000
1602006462.898745,122.000000,0.000000,4143.077148,4136.410156,4126.666504,4143.077148,4136.922852,4123.077148,4116.922852,4122.563965,4121.025879,4137.436035,4106.153809,4120.000000,4117.948730,4135.384766,912.000000,4.000000,,,,0.000000,4.000000,4.000000,4.000000,4.000000,4.000000,4.000000,4.000000,4.000000,4.000000,4.000000,4.000000,4.000000,4.000000,4.000000,100.000000
1602006462.906626,123.000000,0.000000,4148.205078,4142.051270,4131.794922,4145.641113,4146.666504,4128.717773,4122.563965,4133.333496,4120.000000,4132.307617,4116.922852,4126.153809,4123.589844,4133.333496,894.000000,4.000000,,,,0.000000,4.000000,4.000000,4.000000,4.000000,4.000000,4.000000,4.000000,4.000000,4.000000,4.000000,4.000000,4.000000,4.000000,4.000000,100.000000
1602006462.914408,124.000000,0.000000,4156.922852,4153.333496,4142.563965,4152.820313,4151.282227,4144.615234,4130.256348,4143.589844,4132.307617,4159.487305,4131.794922,4137.436035,4136.922852,4147.692383,764.000000,4.000000,,,,0.000000,4.000000,4.000000,4.000000,4.000000,4.000000,4.000000,4.000000,4.000000,4.000000,4.000000,4.000000,4.000000,4.000000,4.000000,100.000000
1602006462.922289,125.000000,0.000000,4156.922852,4151.282227,4142.563965,4149.743652,4144.102539,4145.128418,4129.743652,4142.563965,4137.436035,4146.666504,4136.410156,4143.589844,4141.538574,4153.846191,736.000000,4.000000,,,,0.000000,4.000000,4.000000,4.000000,4.000000,4.000000,4.000000,4.000000,4.000000,4.000000,4.000000,4.000000,4.000000,4.000000,4.000000,100.000000
1602006462.930170,126.000000,0.000000,4149.743652,4138.974121,4134.358887,4138.974121,4137.948730,4136.410156,4125.128418,4143.589844,4136.922852,4118.461426,4137.436035,4142.051270,4139.487305,4141.538574,912.000000,4.000000,,,,0.000000,4.000000,4.000000,4.000000,4.000000,4.000000,4.000000,4.000000,4.000000,4.000000,4.000000,4.000000,4.000000,4.000000,4.000000,100.000000
1602006462.938051,127.000000,0.000000,4141.538574,4136.922852,4127.179688,4137.948730,4140.512695,4141.025879,4134.871582,4154.871582,4151.282227,4145.128418,4141.538574,4136.410156,4144.102539,4140.512695,894.000000,4.000000,,,,0.000000,4.000000,4.000000,4.000000,4.000000,4.000000,4.000000,4.000000,4.000000,4.000000,4.000000,4.000000,4.000000,4.000000,4.000000,100.000000
1602006462.945832,128.000000,0.000000,4129.230957,4139.487305,4117.436035,4140.000000,4138.461426,4140.000000,4138.974121,4155.384766,4161.025879,4173.846191,4137.436035,4126.153809,4146.153809,4143.077148,764.000000,4.000000,,,,0.000000,4.000000,4.000000,4.000000,4.000000,4.000000,4.000000,4.000000,4.000000,4.000000,4.000000,4.000000,4.000000,4.000000,4.000000,100.000000
1602006462.953613,0.000000,0.000000,4127.179688,4134.358887,4113.846191,4138.461426,4132.307617,4129.743652,4128.205078,4143.589844,4150.769043,4153.846191,4134.358887,4116.410156,4139.487305,4133.846191,799.000000,4.000000,,,,0.000000,4.000000,4.000000,4.000000,4.000000,4.000000,4.000000,4.000000,4.000000,4.000000,4.000000,4.000000,4.000000,4.000000,4.000000,100.000000
1602006462.961494,1.000000,0.000000,4139.487305,4133.846191,4124.102539,4141.025879,4134.871582,4134.358887,4129.230957,4143.589844,4149.743652,4149.230957,4138.974121,4118.461426,4145.641113,4140.000000,785.000000,4.000000,,,,0.000000,4.000000,4.000000,4.000000,4.000000,4.000000,4.000000,4.000000,4.000000,4.000000,4.000000,4.000000,4.000000,4.000000,4.000000,100.000000
1602006462.969376,2.000000,0.000000,4146.153809,4141.538574,4130.769043,4141.025879,4141.538574,4141.538574,4137.436035,4151.282227,4155.897461,4171.282227,4139.487305,4123.589844,4157.948730,4153.333496,853.000000,4.000000,,,,0.000000,4.000000,4.000000,4.000000,4.000000,4.000000,4.000000,4.000000,4.000000,4.000000,4.000000,4.000000,4.000000,4.000000,4.000000,100.000000
1602006462.977357,3.000000,0.000000,4141.538574,4137.436035,4124.615234,4138.974121,4139.487305,4135.897461,4133.333496,4145.641113,4143.589844,4162.563965,4138.974121,4126.153809,4152.307617,4139.487305,867.000000,4.000000,,,,0.000000,4.000000,4.000000,4.000000,4.000000,4.000000,4.000000,4.000000,4.000000,4.000000,4.000000,4.000000,4.000000,4.000000,4.000000,100.000000
1602006462.985238,4.000000,0.000000,4127.692383,4122.563965,4115.897461,4136.922852,4133.333496,4133.846191,4126.666504,4135.897461,4133.333496,4140.000000,4134.871582,4119.487305,4140.512695,4118.974121,814.000000,4.000000,,,,0.000000,4.000000,4.000000,4.000000,4.000000,4.000000,4.000000,4.000000,4.000000,4.000000,4.000000,4.000000,4.000000,4.000000,4.000000,100.000000
1602006462.993120,5.000000,0.000000,4116.922852,4120.000000,4115.897461,4127.692383,4136.410156,4138.974121,4124.615234,4139.487305,4136.410156,4145.128418,4125.128418,4109.743652,4132.307617,4117.948730,817.000000,4.000000,,,,0.000000,4.000000,4.000000,4.000000,4.000000,4.000000,4.000000,4.000000,4.000000,4.000000,4.000000,4.000000,4.000000,4.000000,4.000000,100.000000
1602006463.001001,6.000000,0.000000,4125.128418,4126.153809,4120.000000,4122.563965,4138.461426,4138.974121,4121.025879,4143.077148,4129.230957,4146.153809,4120.512695,4112.820313,4125.128418,4130.256348,761.000000,4.000000,,,,0.000000,4.000000,4.000000,4.000000,4.000000,4.000000,4.000000,4.000000,4.000000,4.000000,4.000000,4.000000,4.000000,4.000000,4.000000,100.000000
1602006463.008883,7.000000,0.000000,4135.897461,4125.641113,4120.512695,4132.820313,4134.871582,4134.358887,4119.487305,4137.948730,4116.922852,4127.692383,4128.717773,4119.487305,4127.692383,4137.948730,681.000000,4.000000,,,,0.000000,4.000000,4.000000,4.000000,4.000000,4.000000,4.000000,4.000000,4.000000,4.000000,4.000000,4.000000,4.000000,4.000000,4.000000,100.000000
1602006463.016764,8.000000,0.000000,4137.948730,4128.717773,4125.128418,4142.051270,4136.410156,4136.410156,4123.589844,4137.948730,4129.230957,4127.692383,4133.846191,4122.051270,4138.974121,4139.487305,787.000000,4.000000,,,,0.000000,4.000000,4.000000,4.000000,4.000000,4.000000,4.000000,4.000000,4.000000,4.000000,4.000000,4.000000,4.000000,4.000000,4.000000,100.000000
1602006463.024645,9.000000,0.000000,4144.102539,4138.974121,4137.948730,4140.000000,4138.461426,4136.410156,4123.077148,4137.436035,4143.589844,4136.922852,4129.743652,4126.666504,4138.974121,4140.000000,835.000000,4.000000,,,,0.000000,4.000000,4.000000,4.000000,4.000000,4.000000,4.000000,4.000000,4.000000,4.000000,4.000000,4.000000,4.000000,4.000000,4.000000,100.000000
1602006463.032427,10.000000,0.000000,4148.205078,4140.000000,4140.512695,4137.436035,4135.384766,4126.153809,4119.487305,4129.743652,4129.743652,4137.436035,4128.205078,4129.230957,4131.794922,4138.461426,883.000000,4.000000,,,,0.000000,4.000000,4.000000,4.000000,4.000000,4.000000,4.000000,4.000000,4.000000,4.000000,4.000000,4.000000,4.000000,4.000000,4.000000,100.000000
1602006463.040309,11.000000,0.000000,4140.512695,4136.410156,4127.179688,4138.461426,4135.897461,4120.512695,4124.615234,4125.128418,4117.948730,4136.922852,4116.922852,4130.256348,4126.666504,4134.358887,852.000000,4.000000,,,,0.000000,4.000000,4.000000,4.000000,4.000000,4.000000,4.000000,4.000000,4.000000,4.000000,4.000000,4.000000,4.000000,4.000000,4.000000,100.000000
1602006463.048190,12.000000,0.000000,4132.820313,4137.948730,4118.461426,4139.487305,4137.948730,4126.153809,4129.743652,4128.205078,4121.025879,4135.384766,4105.641113,4134.358887,4125.641113,4127.179688,764.000000,4.000000,,,,0.000000,4.000000,4.000000,4.000000,4.000000,4.000000,4.000000,4.000000,4.000000,4.000000,4.000000,4.000000,4.000000,4.000000,4.000000,100.000000
1602006463.056072,13.000000,0.000000,4134.358887,4139.487305,4121.025879,4138.461426,4134.358887,4131.794922,4126.666504,4129.230957,4114.358887,4137.436035,4124.102539,4138.974121,4132.820313,4121.025879,736.000000,4.000000,,,,0.000000,4.000000,4.000000,4.000000,4.000000,4.000000,4.000000,4.000000,4.000000,4.000000,4.000000,4.000000,4.000000,4.000000,4.000000,100.000000
1602006463.063954,14.000000,0.000000,4137.436035,4140.000000,4122.563965,4138.461426,4135.384766,4134.358887,4129.743652,4123.077148,4103.589844,4138.974121,4142.563965,4136.922852,4138.461426,4121.538574,883.000000,4.000000,,,,0.000000,4.000000,4.000000,4.000000,4.000000,4.000000,4.000000,4.000000,4.000000,4.000000,4.000000,4.000000,4.000000,4.000000,4.000000,100.000000
1602006463.071835,15.000000,0.000000,4133.333496,4134.871582,4116.410156,4134.358887,4139.487305,4137.436035,4135.384766,4119.487305,4102.563965,4122.051270,4127.179688,4135.384766,4132.307617,4128.205078,852.000000,4.000000,,,,0.000000,4.000000,4.000000,4.000000,4.000000,4.000000,4.000000,4.000000,4.000000,4.000000,4.000000,4.000000,4.000000,4.000000,4.000000,100.000000
1602006463.079717,16.000000,0.000000,4121.538574,4124.615234,4107.692383,4123.589844,4132.307617,4138.461426,4127.179688,4118.974121,4103.077148,4105.128418,4114.871582,4135.384766,4121.538574,4125.128418,0.000000,4.000000,,,,0.000000,4.000000,4.000000,4.000000,4.000000,4.000000,4.000000,4.000000,4.000000,4.000000,4.000000,4.000000,4.000000,4.000000,4.000000,100.000000
1602006463.087599,17.000000,0.000000,4117.948730,4125.128418,4104.615234,4124.102539,4127.179688,4138.974121,4120.000000,4120.000000,4107.692383,4115.384766,4125.128418,4133.333496,4123.589844,4120.512695,0.000000,4.000000,,,,0.000000,4.000000,4.000000,4.000000,4.000000,4.000000,4.000000,4.000000,4.000000,4.000000,4.000000,4.000000,4.000000,4.000000,4.000000,100.000000
1602006463.095480,18.000000,0.000000,4129.743652,4135.384766,4110.769043,4137.436035,4135.384766,4140.512695,4125.641113,4127.692383,4122.563965,4136.922852,4125.128418,4136.410156,4135.897461,4128.205078,0.000000,4.000000,,,,0.000000,4.000000,4.000000,4.000000,4.000000,4.000000,4.000000,4.000000,4.000000,4.000000,4.000000,4.000000,4.000000,4.000000,4.000000,100.000000
1602006463.103262,19.000000,0.000000,4141.538574,4139.487305,4120.512695,4145.128418,4141.025879,4141.025879,4126.666504,4136.410156,4132.820313,4152.307617,4121.538574,4146.666504,4141.538574,4138.461426,0.000000,4.000000,,,,0.000000,4.000000,4.000000,4.000000,4.000000,4.000000,4.000000,4.000000,4.000000,4.000000,4.000000,4.000000,4.000000,4.000000,4.000000,100.000000
1602006463.111143,20.000000,0.000000,4149.230957,4138.974121,4129.743652,4143.077148,4137.436035,4133.846191,4122.051270,4136.922852,4141.538574,4152.307617,4132.307617,4161.538574,4145.641113,4148.205078,0.000000,4.000000,,,,0.000000,4.000000,4.000000,4.000000,4.000000,4.000000,4.000000,4.000000,4.000000,4.000000,4.000000,4.000000,4.000000,4.000000,4.000000,100.000000
1602006463.119025,21.000000,0.000000,4155.384766,4140.512695,4135.384766,4140.000000,4134.358887,4122.563965,4121.025879,4136.410156,4152.820313,4140.000000,4140.512695,4170.769043,4156.922852,4153.333496,0.000000,4.000000,,,,0.000000,4.000000,4.000000,4.000000,4.000000,4.000000,4.000000,4.000000,4.000000,4.000000,4.000000,4.000000,4.000000,4.000000,4.000000,100.000000
1602006463.126906,22.000000,0.000000,4150.769043,4138.461426,4132.307617,4138.461426,4137.436035,4120.000000,4122.051270,4137.436035,4150.256348,4139.487305,4140.512695,4165.641113,4156.922852,4140.512695,0.000000,4.000000,,,,0.000000,4.000000,4.000000,4.000000,4.000000,4.000000,4.000000,4.000000,4.000000,4.000000,4.000000,4.000000,4.000000,4.000000,4.000000,100.000000
1602006463.134787,23.000000,0.000000,4138.974121,4130.769043,4125.128418,4134.358887,4136.922852,4125.641113,4122.563965,4127.179688,4131.282227,4142.051270,4132.820313,4155.897461,4139.487305,4126.153809,0.000000,4.000000,,,,0.000000,4.000000,4.000000,4.000000,4.000000,4.000000,4.000000,4.000000,4.000000,4.000000,4.000000,4.000000,4.000000,4.000000,4.000000,100.000000
1602006463.142669,24.000000,0.000000,4133.846191,4123.077148,4120.000000,4129.743652,4128.205078,4130.256348,4121.025879,4112.307617,4114.358887,4130.769043,4123.589844,4149.230957,4130.256348,4126.666504,0.000000,4.000000,,,,0.000000,4.000000,4.000000,4.000000,4.000000,4.000000,4.000000,4.000000,4.000000,4.000000,4.000000,4.000000,4.000000,4.000000,4.000000,100.000000
1602006463.150450,25.000000,0.000000,4133.333496,4121.538574,4118.974121,4130.256348,4128.205078,4134.358887,4119.487305,4105.641113,4103.589844,4125.641113,4120.512695,4144.615234,4134.871582,4125.128418,0.000000,4.000000,,,,0.000000,4.000000,4.000000,4.000000,4.000000,4.000000,4.000000,4.000000,4.000000,4.000000,4.000000,4.000000,4.000000,4.000000,4.000000,100.000000
1602006463.158331,26.000000,0.000000,4126.153809,4125.128418,4120.512695,4136.410156,4140.000000,4142.563965,4120.000000,4097.436035,4095.384521,4126.666504,4121.538574,4145.641113,4138.461426,4119.487305,0.000000,4.000000,,,,0.000000,4.000000,4.000000,4.000000,4.000000,4.000000,4.000000,4.000000,4.000000,4.000000,4.000000,4.000000,4.000000,4.000000,4.000000,100.000000
1602006463.166212,27.000000,0.000000,4119.487305,4127.179688,4120.512695,4137.436035,4142.563965,4144.615234,4121.025879,4093.333252,4095.897461,4114.358887,4122.051270,4152.820313,4138.461426,4125.128418,0.000000,4.000000,,,,0.000000,4.000000,4.000000,4.000000,4.000000,4.000000,4.000000,4.000000,4.000000,4.000000,4.000000,4.000000,4.000000,4.000000,4.000000,100.000000
1602006463.174094,28.000000,0.000000,4123.589844,4124.615234,4118.974121,4131.282227,4136.410156,4141.025879,4118.974121,4102.051270,4108.205078,4107.692383,4126.666504,4155.384766,4138.974121,4129.743652,0.000000,4.000000,,,,0.000000,4.000000,4.000000,4.000000,4.000000,4.000000,4.000000,4.000000,4.000000,4.000000,4.000000,4.000000,4.000000,4.000000,4.000000,100.000000
1602006463.181975,29.000000,0.000000,4128.717773,4121.025879,4118.974121,4125.128418,4137.436035,4138.974121,4114.358887,4110.769043,4125.128418,4125.641113,4128.717773,4150.769043,4136.922852,4127.692383,0.000000,4.000000,,,,0.000000,4.000000,4.000000,4.000000,4.000000,4.000000,4.000000,4.000000,4.000000,4.000000,4.000000,4.000000,4.000000,4.000000,4.000000,100.000000
1602006463.189956,30.000000,0.000000,4125.641113,4121.025879,4120.512695,4122.051270,4136.410156,4131.282227,4110.769043,4114.358887,4135.897461,4143.589844,4121.538574,4149.743652,4133.846191,4120.000000,0.000000,4.000000,,,,0.000000,4.000000,4.000000,4.000000,4.000000,4.000000,4.000000,4.000000,4.000000,4.000000,4.000000,4.000000,4.000000,4.000000,4.000000,100.000000
1602006463.197837,31.000000,0.000000,4120.000000,4122.051270,4120.000000,4121.538574,4130.256348,4123.077148,4110.256348,4120.000000,4140.512695,4146.666504,4127.692383,4149.743652,4136.922852,4110.769043,0.000000,4.000000,,,,0.000000,4.000000,4.000000,4.000000,4.000000,4.000000,4.000000,4.000000,4.000000,4.000000,4.000000,4.000000,4.000000,4.000000,4.000000,100.000000
1602006463.205718,32.000000,0.000000,4123.077148,4122.051270,4120.000000,4128.717773,4132.820313,4126.153809,4110.256348,4127.692383,4149.230957,4143.589844,4143.589844,4150.256348,4140.000000,4113.846191,0.000000,4.000000,,,,0.000000,4.000000,4.000000,4.000000,4.000000,4.000000,4.000000,4.000000,4.000000,4.000000,4.000000,4.000000,4.000000,4.000000,4.000000,100.000000
1602006463.213599,33.000000,0.000000,4129.230957,4122.051270,4122.563965,4136.410156,4133.846191,4131.282227,4110.256348,4129.230957,4149.230957,4135.384766,4134.871582,4152.307617,4133.846191,4125.641113,0.000000,4.000000,,,,0.000000,4.000000,4.000000,4.000000,4.000000,4.000000,4.000000,4.000000,4.000000,4.000000,4.000000,4.000000,4.000000,4.000000,4.000000,100.000000
1602006463.221480,34.000000,0.000000,4132.307617,4123.077148,4125.128418,4137.436035,4128.205078,4130.769043,4115.384766,4123.589844,4134.871582,4140.000000,4119.487305,4153.846191,4129.230957,4125.641113,0.000000,4.000000,,,,0.000000,4.000000,4.000000,4.000000,4.000000,4.000000,4.000000,4.000000,4.000000,4.000000,4.000000,4.000000,4.000000,4.000000,4.000000,100.000000
1602006463.229262,35.000000,0.000000,4137.436035,4126.153809,4125.641113,4137.436035,4130.769043,4134.871582,4124.102539,4122.051270,4126.666504,4144.102539,4130.769043,4158.461426,4135.897461,4121.538574,0.000000,4.000000,,,,0.000000,4.000000,4.000000,4.000000,4.000000,4.000000,4.000000,4.000000,4.000000,4.000000,4.000000,4.000000,4.000000,4.000000,4.000000,100.000000
1602006463.237143,36.000000,0.000000,4140.000000,4129.230957,4125.128418,4138.974121,4140.000000,4145.641113,4127.179688,4123.589844,4122.051270,4118.974121,4146.666504,4159.487305,4142.563965,4125.641113,0.000000,4.000000,,,,0.000000,4.000000,4.000000,4.000000,4.000000,4.000000,4.000000,4.000000,4.000000,4.000000,4.000000,4.000000,4.000000,4.000000,4.000000,100.000000
1602006463.245025,37.000000,0.000000,4138.461426,4133.846191,4123.077148,4137.948730,4141.538574,4147.179688,4123.077148,4114.871582,4108.717773,4101.538574,4132.820313,4152.307617,4138.461426,4126.153809,0.000000,4.000000,,,,0.000000,4.000000,4.000000,4.000000,4.000000,4.000000,4.000000,4.000000,4.000000,4.000000,4.000000,4.000000,4.000000,4.000000,4.000000,100.000000
1602006463.252906,38.000000,0.000000,4140.000000,4137.948730,4125.641113,4140.512695,4138.974121,4134.871582,4121.025879,4103.077148,4101.538574,4122.563965,4115.897461,4149.743652,4134.358887,4122.563965,0.000000,4.000000,,,,0.000000,4.000000,4.000000,4.000000,4.000000,4.000000,4.000000,4.000000,4.000000,4.000000,4.000000,4.000000,4.000000,4.000000,4.000000,100.000000
1602006463.260788,39.000000,0.000000,4143.077148,4136.922852,4132.820313,4144.615234,4137.436035,4125.128418,4122.051270,4107.179688,4104.615234,4130.256348,4127.179688,4152.820313,4136.410156,4124.615234,0.000000,4.000000,,,,0.000000,4.000000,4.000000,4.000000,4.000000,4.000000,4.000000,4.000000,4.000000,4.000000,4.000000,4.000000,4.000000,4.000000,4.000000,100.000000
1602006463.268669,40.000000,0.000000,4140.000000,4134.358887,4138.461426,4143.077148,4134.358887,4126.153809,4121.025879,4118.461426,4110.769043,4119.487305,4144.102539,4154.871582,4138.974121,4122.563965,0.000000,4.000000,,,,0.000000,4.000000,4.000000,4.000000,4.000000,4.000000,4.000000,4.000000,4.000000,4.000000,4.000000,4.000000,4.000000,4.000000,4.000000,100.000000
1602006463.276450,41.000000,0.000000,4138.461426,4137.436035,4144.102539,4148.717773,4137.436035,4125.128418,4126.153809,4130.256348,4126.666504,4140.512695,4136.410156,4161.538574,4137.948730,4123.077148,0.000000,4.000000,,,,0.000000,4.000000,4.000000,4.000000,4.000000,4.000000,4.000000,4.000000,4.000000,4.000000,4.000000,4.000000,4.000000,4.000000,4.000000,100.000000
1602006463.284331,42.000000,0.000000,4143.589844,4140.512695,4146.666504,4153.333496,4140.512695,4122.563965,4137.436035,4141.538574,4142.051270,4162.563965,4117.948730,4169.743652,4137.436035,4134.358887,0.000000,4.000000,,,,0.000000,4.000000,4.000000,4.000000,4.000000,4.000000,4.000000,4.000000,4.000000,4.000000,4.000000,4.000000,4.000000,4.000000,4.000000,100.000000
1602006463.292312,43.000000,0.000000,4144.102539,4134.358887,4142.051270,4143.589844,4131.282227,4124.615234,4136.922852,4144.102539,4140.000000,4148.717773,4120.000000,4170.256348,4137.948730,4136.410156,0.000000,4.000000,,,,0.000000,4.000000,4.000000,4.000000,4.000000,4.000000,4.000000,4.000000,4.000000,4.000000,4.000000,4.000000,4.000000,4.000000,4.000000,100.000000
1602006463.300193,44.000000,0.000000,4138.974121,4126.666504,4138.461426,4134.871582,4126.666504,4122.563965,4125.128418,4141.538574,4132.820313,4137.948730,4138.974121,4168.717773,4137.948730,4122.563965,0.000000,4.000000,,,,0.000000,4.000000,4.000000,4.000000,4.000000,4.000000,4.000000,4.000000,4.000000,4.000000,4.000000,4.000000,4.000000,4.000000,4.000000,100.000000
1602006463.308174,45.000000,0.000000,4137.948730,4124.615234,4140.000000,4136.922852,4133.846191,4123.589844,4117.948730,4133.846191,4123.077148,4135.384766,4141.538574,4164.615234,4138.461426,4116.922852,0.000000,4.000000,,,,0.000000,4.000000,4.000000,4.000000,4.000000,4.000000,4.000000,4.000000,4.000000,4.000000,4.000000,4.000000,4.000000,4.000000,4.000000,100.000000
1602006463.316055,46.000000,0.000000,4138.974121,4127.179688,4138.974121,4136.922852,4138.974121,4129.743652,4115.384766,4123.077148,4111.794922,4111.282227,4124.615234,4154.871582,4132.307617,4126.666504,0.000000,4.000000,,,,0.000000,4.000000,4.000000,4.000000,4.000000,4.000000,4.000000,4.000000,4.000000,4.000000,4.000000,4.000000,4.000000,4.000000,4.000000,100.000000
1602006463.323937,47.000000,0.000000,4137.948730,4128.717773,4135.897461,4134.358887,4136.922852,4124.615234,4112.307617,4120.000000,4112.307617,4098.974121,4120.000000,4152.307617,4122.051270,4125.641113,0.000000,4.000000,,,,0.000000,4.000000,4.000000,4.000000,4.000000,4.000000,4.000000,4.000000,4.000000,4.000000,4.000000,4.000000,4.000000,4.000000,4.000000,100.000000
1602006463.331818,48.000000,0.000000,4137.436035,4127.179688,4135.384766,4138.461426,4135.384766,4120.512695,4114.358887,4122.563965,4114.358887,4124.615234,4131.282227,4155.897461,4120.000000,4116.410156,0.000000,4.000000,,,,0.000000,4.000000,4.000000,4.000000,4.000000,4.000000,4.000000,4.000000,4.000000,4.000000,4.000000,4.000000,4.000000,4.000000,4.000000,100.000000
1602006463.339700,49.000000,0.000000,4139.487305,4130.769043,4135.897461,4139.487305,4132.307617,4125.128418,4120.000000,4121.025879,4112.820313,4145.641113,4137.436035,4154.358887,4127.179688,4124.102539,0.000000,4.000000,,,,0.000000,4.000000,4.000000,4.000000,4.000000,4.000000,4.000000,4.000000,4.000000,4.000000,4.000000,4.000000,4.000000,4.000000,4.000000,100.000000
1602006463.347581,50.000000,0.000000,4151.282227,4140.000000,4137.948730,4137.948730,4127.179688,4123.589844,4122.563965,4121.025879,4124.615234,4147.179688,4137.948730,4158.974121,4136.922852,4141.025879,0.000000,4.000000,,,,0.000000,4.000000,4.000000,4.000000,4.000000,4.000000,4.000000,4.000000,4.000000,4.000000,4.000000,4.000000,4.000000,4.000000,4.000000,100.000000
1602006463.355363,51.000000,0.000000,4161.538574,4145.128418,4144.615234,4141.538574,4125.128418,4124.102539,4126.666504,4130.256348,4138.974121,4152.820313,4136.922852,4173.846191,4144.615234,4148.205078,0.000000,4.000000,,,,0.000000,4.000000,4.000000,4.000000,4.000000,4.000000,4.000000,4.000000,4.000000,4.000000,4.000000,4.000000,4.000000,4.000000,4.000000,100.000000
1602006463.363244,52.000000,0.000000,4149.230957,4140.000000,4145.128418,4142.051270,4123.077148,4137.436035,4130.256348,4137.436035,4136.410156,4143.077148,4139.487305,4179.487305,4143.077148,4140.512695,0.000000,4.000000,,,,0.000000,4.000000,4.000000,4.000000,4.000000,4.000000,4.000000,4.000000,4.000000,4.000000,4.000000,4.000000,4.000000,4.000000,4.000000,100.000000
1602006463.371126,53.000000,0.000000,4132.820313,4131.282227,4140.000000,4132.307617,4120.512695,4146.666504,4126.666504,4135.897461,4135.384766,4122.563965,4137.948730,4170.256348,4138.974121,4130.256348,0.000000,4.000000,,,,0.000000,4.000000,4.000000,4.000000,4.000000,4.000000,4.000000,4.000000,4.000000,4.000000,4.000000,4.000000,4.000000,4.000000,4.000000,100.000000
1602006463.379008,54.000000,0.000000,4134.871582,4124.615234,4138.974121,4123.589844,4116.922852,4145.128418,4123.077148,4129.230957,4141.025879,4124.102539,4118.974121,4156.922852,4134.358887,4123.589844,0.000000,4.000000,,,,0.000000,4.000000,4.000000,4.000000,4.000000,4.000000,4.000000,4.000000,4.000000,4.000000,4.000000,4.000000,4.000000,4.000000,4.000000,100.000000
1602006463.386889,55.000000,0.000000,4129.743652,4115.384766,4135.897461,4123.077148,4110.769043,4141.025879,4122.051270,4124.615234,4136.410156,4123.077148,4105.128418,4145.128418,4124.102539,4120.512695,0.000000,4.000000,,,,0.000000,4.000000,4.000000,4.000000,4.000000,4.000000,4.000000,4.000000,4.000000,4.000000,4.000000,4.000000,4.000000,4.000000,4.000000,100.000000
1602006463.394771,56.000000,0.000000,4108.205078,4105.128418,4125.128418,4123.589844,4110.769043,4138.461426,4119.487305,4122.051270,4132.307617,4113.333496,4117.948730,4137.948730,4117.948730,4121.538574,0.000000,4.000000,,,,0.000000,4.000000,4.000000,4.000000,4.000000,4.000000,4.000000,4.000000,4.000000,4.000000,4.000000,4.000000,4.000000,4.000000,4.000000,100.000000
1602006463.402653,57.000000,0.000000,4105.128418,4106.666504,4120.000000,4121.538574,4118.974121,4137.948730,4119.487305,4124.102539,4138.974121,4126.153809,4124.615234,4132.307617,4120.512695,4114.358887,0.000000,4.000000,,,,0.000000,4.000000,4.000000,4.000000,4.000000,4.000000,4.000000,4.000000,4.000000,4.000000,4.000000,4.000000,4.000000,4.000000,4.000000,100.000000
1602006463.410534,58.000000,0.000000,4125.641113,4118.974121,4122.563965,4124.102539,4125.641113,4137.948730,4121.538574,4133.846191,4143.589844,4144.615234,4117.436035,4131.282227,4123.077148,4109.743652,0.000000,4.000000,,,,0.000000,4.000000,4.000000,4.000000,4.000000,4.000000,4.000000,4.000000,4.000000,4.000000,4.000000,4.000000,4.000000,4.000000,4.000000,100.000000
1602006463.418416,59.000000,0.000000,4142.563965,4125.641113,4124.102539,4132.307617,4126.153809,4134.358887,4113.846191,4137.948730,4142.051270,4139.487305,4128.205078,4146.153809,4130.256348,4120.512695,0.000000,4.000000,,,,0.000000,4.000000,4.000000,4.000000,4.000000,4.000000,4.000000,4.000000,4.000000,4.000000,4.000000,4.000000,4.000000,4.000000,4.000000,100.000000
1602006463.426197,60.000000,0.000000,4142.563965,4123.589844,4124.102539,4138.461426,4125.641113,4133.846191,4105.641113,4130.769043,4142.051270,4135.897461,4137.948730,4156.410156,4136.410156,4130.256348,0.000000,4.000000,,,,0.000000,4.000000,4.000000,4.000000,4.000000,4.000000,4.000000,4.000000,4.000000,4.000000,4.000000,4.000000,4.000000,4.000000,4.000000,100.000000
1602006463.434079,61.000000,0.000000,4134.871582,4121.538574,4122.563965,4132.820313,4124.102539,4136.410156,4105.128418,4116.410156,4141.025879,4141.025879,4128.205078,4143.589844,4129.230957,4123.589844,0.000000,4.000000,,,,0.000000,4.000000,4.000000,4.000000,4.000000,4.000000,4.000000,4.000000,4.000000,4.000000,4.000000,4.000000,4.000000,4.000000,4.000000,100.000000
1602006463.441960,62.000000,0.000000,4138.461426,4123.589844,4122.051270,4126.153809,4124.102539,4137.948730,4106.666504,4109.743652,4137.436035,4134.358887,4115.897461,4131.794922,4124.615234,4117.948730,0.000000,4.000000,,,,0.000000,4.000000,4.000000,4.000000,4.000000,4.000000,4.000000,4.000000,4.000000,4.000000,4.000000,4.000000,4.000000,4.000000,4.000000,100.000000
1602006463.449842,63.000000,0.000000,4138.974121,4124.102539,4125.128418,4128.205078,4127.179688,4141.025879,4115.384766,4115.384766,4132.820313,4126.153809,4111.282227,4140.512695,4127.692383,4121.538574,0.000000,4.000000,,,,0.000000,4.000000,4.000000,4.000000,4.000000,4.000000,4.000000,4.000000,4.000000,4.000000,4.000000,4.000000,4.000000,4.000000,4.000000,100.000000
1602006463.457723,64.000000,0.000000,4122.563965,4120.512695,4121.538574,4126.666504,4124.615234,4143.589844,4129.743652,4121.538574,4133.333496,4120.000000,4111.794922,4143.589844,4125.128418,4122.051270,799.000000,4.000000,,,,0.000000,4.000000,4.000000,4.000000,4.000000,4.000000,4.000000,4.000000,4.000000,4.000000,4.000000,4.000000,4.000000,4.000000,4.000000,100.000000
1602006463.465604,65.000000,0.000000,4123.589844,4118.974121,4118.461426,4119.487305,4119.487305,4142.563965,4140.512695,4130.769043,4146.666504,4117.436035,4119.487305,4135.897461,4122.051270,4120.000000,785.000000,4.000000,,,,0.000000,4.000000,4.000000,4.000000,4.000000,4.000000,4.000000,4.000000,4.000000,4.000000,4.000000,4.000000,4.000000,4.000000,4.000000,100.000000
1602006463.473486,66.000000,0.000000,4142.051270,4122.563965,4130.256348,4123.077148,4122.563965,4142.051270,4143.589844,4144.102539,4157.948730,4126.666504,4134.358887,4141.025879,4126.666504,4123.589844,853.000000,4.000000,,,,0.000000,4.000000,4.000000,4.000000,4.000000,4.000000,4.000000,4.000000,4.000000,4.000000,4.000000,4.000000,4.000000,4.000000,4.000000,100.000000
1602006463.481367,67.000000,0.000000,4144.102539,4129.743652,4142.563965,4135.384766,4130.256348,4142.563965,4140.000000,4148.205078,4158.974121,4142.563965,4140.000000,4152.307617,4133.333496,4135.384766,867.000000,4.000000,,,,0.000000,4.000000,4.000000,4.000000,4.000000,4.000000,4.000000,4.000000,4.000000,4.000000,4.000000,4.000000,4.000000,4.000000,4.000000,100.000000
1602006463.489148,68.000000,0.000000,4138.974121,4139.487305,4145.128418,4139.487305,4135.384766,4140.512695,4130.769043,4145.641113,4157.948730,4149.230957,4132.820313,4157.436035,4139.487305,4144.615234,814.000000,4.000000,,,,0.000000,4.000000,4.000000,4.000000,4.000000,4.000000,4.000000,4.000000,4.000000,4.000000,4.000000,4.000000,4.000000,4.000000,4.000000,100.000000
1602006463.497030,69.000000,0.000000,4142.563965,4141.025879,4140.512695,4138.461426,4132.307617,4134.358887,4117.436035,4140.512695,4148.717773,4144.615234,4124.102539,4148.205078,4137.948730,4136.410156,817.000000,4.000000,,,,0.000000,4.000000,4.000000,4.000000,4.000000,4.000000,4.000000,4.000000,4.000000,4.000000,4.000000,4.000000,4.000000,4.000000,4.000000,100.000000
1602006463.504911,70.000000,0.000000,4140.000000,4132.307617,4129.230957,4136.410156,4127.692383,4125.641113,4106.153809,4128.205078,4136.922852,4134.358887,4120.512695,4131.282227,4124.615234,4123.077148,761.000000,4.000000,,,,0.000000,4.000000,4.000000,4.000000,4.000000,4.000000,4.000000,4.000000,4.000000,4.000000,4.000000,4.000000,4.000000,4.000000,4.000000,100.000000
1602006463.512792,71.000000,0.000000,4136.410156,4125.641113,4120.000000,4131.282227,4128.205078,4124.615234,4105.128418,4120.512695,4141.025879,4125.128418,4121.538574,4129.230957,4117.948730,4121.025879,675.000000,4.000000,,,,0.000000,4.000000,4.000000,4.000000,4.000000,4.000000,4.000000,4.000000,4.000000,4.000000,4.000000,4.000000,4.000000,4.000000,4.000000,100.000000
1602006463.520673,72.000000,0.000000,4137.436035,4124.615234,4122.051270,4127.179688,4127.692383,4132.820313,4113.333496,4126.153809,4138.974121,4129.230957,4130.769043,4140.512695,4122.051270,4124.102539,787.000000,4.000000,,,,0.000000,4.000000,4.000000,4.000000,4.000000,4.000000,4.000000,4.000000,4.000000,4.000000,4.000000,4.000000,4.000000,4.000000,4.000000,100.000000
1602006463.528455,73.000000,0.000000,4131.794922,4121.538574,4126.153809,4126.666504,4121.538574,4137.436035,4118.974121,4124.615234,4121.025879,4127.692383,4134.871582,4142.051270,4116.410156,4123.589844,835.000000,4.000000,,,,0.000000,4.000000,4.000000,4.000000,4.000000,4.000000,4.000000,4.000000,4.000000,4.000000,4.000000,4.000000,4.000000,4.000000,4.000000,100.000000
1602006463.536336,74.000000,0.000000,4125.641113,4116.410156,4123.589844,4124.615234,4118.974121,4137.436035,4124.615234,4122.051270,4125.128418,4108.205078,4124.102539,4134.871582,4104.615234,4119.487305,878.000000,4.000000,,,,0.000000,4.000000,4.000000,4.000000,4.000000,4.000000,4.000000,4.000000,4.000000,4.000000,4.000000,4.000000,4.000000,4.000000,4.000000,100.000000
1602006463.544217,75.000000,0.000000,4118.461426,4109.743652,4121.538574,4117.948730,4121.538574,4137.948730,4136.410156,4129.743652,4137.948730,4105.641113,4120.000000,4136.922852,4103.589844,4112.820313,847.000000,4.000000,,,,0.000000,4.000000,4.000000,4.000000,4.000000,4.000000,4.000000,4.000000,4.000000,4.000000,4.000000,4.000000,4.000000,4.000000,4.000000,100.000000
1602006463.552099,76.000000,0.000000,4108.205078,4105.641113,4118.974121,4115.897461,4119.487305,4136.922852,4147.179688,4138.974121,4127.692383,4120.512695,4123.077148,4136.922852,4106.153809,4103.589844,764.000000,4.000000,,,,0.000000,4.000000,4.000000,4.000000,4.000000,4.000000,4.000000,4.000000,4.000000,4.000000,4.000000,4.000000,4.000000,4.000000,4.000000,100.000000
1602006463.559980,77.000000,0.000000,4114.871582,4113.333496,4120.512695,4120.512695,4119.487305,4144.615234,4155.384766,4147.692383,4124.102539,4108.717773,4122.051270,4134.358887,4102.563965,4104.615234,736.000000,4.000000,,,,0.000000,4.000000,4.000000,4.000000,4.000000,4.000000,4.000000,4.000000,4.000000,4.000000,4.000000,4.000000,4.000000,4.000000,4.000000,100.000000
1602006463.567862,78.000000,0.000000,4133.333496,4126.666504,4134.871582,4127.179688,4125.128418,4154.871582,4159.487305,4155.897461,4139.487305,4102.051270,4127.179688,4143.077148,4109.230957,4127.692383,878.000000,4.000000,,,,0.000000,4.000000,4.000000,4.000000,4.000000,4.000000,4.000000,4.000000,4.000000,4.000000,4.000000,4.000000,4.000000,4.000000,4.000000,100.000000
1602006463.575843,79.000000,0.000000,4142.051270,4137.948730,4149.230957,4133.846191,4129.230957,4149.743652,4153.333496,4159.487305,4145.128418,4142.563965,4141.538574,4155.897461,4131.282227,4154.358887,847.000000,4.000000,,,,0.000000,4.000000,4.000000,4.000000,4.000000,4.000000,4.000000,4.000000,4.000000,4.000000,4.000000,4.000000,4.000000,4.000000,4.000000,100.000000
1602006463.583724,80.000000,0.000000,4140.000000,4143.589844,4147.179688,4140.000000,4128.205078,4138.974121,4142.563965,4152.307617,4133.333496,4163.077148,4149.230957,4159.487305,4139.487305,4152.820313,764.000000,4.000000,,,,0.000000,4.000000,4.000000,4.000000,4.000000,4.000000,4.000000,4.000000,4.000000,4.000000,4.000000,4.000000,4.000000,4.000000,4.000000,100.000000
1602006463.591606,81.000000,0.000000,4140.512695,4135.897461,4137.436035,4138.974121,4123.077148,4135.897461,4132.820313,4135.897461,4121.025879,4132.307617,4148.205078,4149.230957,4128.205078,4140.512695,736.000000,4.000000,,,,0.000000,4.000000,4.000000,4.000000,4.000000,4.000000,4.000000,4.000000,4.000000,4.000000,4.000000,4.000000,4.000000,4.000000,4.000000,100.000000
1602006463.599487,82.000000,0.000000,4140.512695,4123.589844,4136.410156,4133.333496,4121.538574,4134.871582,4124.615234,4122.051270,4118.974121,4121.025879,4139.487305,4138.461426,4121.538574,4143.589844,878.000000,4.000000,,,,0.000000,4.000000,4.000000,4.000000,4.000000,4.000000,4.000000,4.000000,4.000000,4.000000,4.000000,4.000000,4.000000,4.000000,4.000000,100.000000
1602006463.607369,83.000000,0.000000,4134.871582,4125.641113,4141.025879,4135.384766,4125.128418,4133.333496,4118.461426,4120.000000,4130.256348,4126.666504,4128.205078,4138.461426,4125.641113,4143.077148,847.000000,4.000000,,,,0.000000,4.000000,4.000000,4.000000,4.000000,4.000000,4.000000,4.000000,4.000000,4.000000,4.000000,4.000000,4.000000,4.000000,4.000000,100.000000
1602006463.615250,84.000000,0.000000,4129.230957,4134.871582,4136.922852,4138.461426,4128.717773,4136.410156,4118.974121,4120.512695,4145.128418,4116.410156,4127.692383,4140.000000,4123.589844,4133.333496,764.000000,4.000000,,,,0.000000,4.000000,4.000000,4.000000,4.000000,4.000000,4.000000,4.000000,4.000000,4.000000,4.000000,4.000000,4.000000,4.000000,4.000000,100.000000
1602006463.623131,85.000000,0.000000,4124.102539,4135.384766,4126.666504,4135.384766,4130.769043,4147.179688,4129.230957,4124.102539,4154.358887,4131.794922,4134.358887,4137.948730,4124.102539,4134.871582,736.000000,4.000000,,,,0.000000,4.000000,4.000000,4.000000,4.000000,4.000000,4.000000,4.000000,4.000000,4.000000,4.000000,4.000000,4.000000,4.000000,4.000000,100.000000
1602006463.631113,86.000000,0.000000,4122.563965,4135.897461,4124.102539,4137.436035,4135.897461,4156.922852,4138.974121,4133.846191,4156.410156,4161.538574,4136.410156,4137.436035,4136.410156,4141.025879,878.000000,4.000000,,,,0.000000,4.000000,4.000000,4.000000,4.000000,4.000000,4.000000,4.000000,4.000000,4.000000,4.000000,4.000000,4.000000,4.000000,4.000000,100.000000
1602006463.638994,87.000000,0.000000,4132.307617,4140.000000,4132.307617,4140.512695,4138.974121,4156.922852,4146.153809,4141.025879,4150.769043,4160.000000,4137.436035,4141.538574,4134.871582,4138.974121,847.000000,4.000000,,,,0.000000,4.000000,4.000000,4.000000,4.000000,4.000000,4.000000,4.000000,4.000000,4.000000,4.000000,4.000000,4.000000,4.000000,4.000000,100.000000
1602006463.646875,88.000000,0.000000,4142.563965,4134.871582,4137.948730,4137.948730,4130.256348,4148.717773,4153.846191,4146.666504,4141.538574,4146.153809,4137.436035,4142.051270,4122.051270,4136.410156,764.000000,4.000000,,,,0.000000,4.000000,4.000000,4.000000,4.000000,4.000000,4.000000,4.000000,4.000000,4.000000,4.000000,4.000000,4.000000,4.000000,4.000000,100.000000
1602006463.654757,89.000000,0.000000,4137.436035,4127.179688,4135.897461,4135.897461,4121.538574,4140.000000,4153.333496,4155.897461,4136.410156,4142.563965,4135.897461,4143.589844,4125.128418,4135.384766,736.000000,4.000000,,,,0.000000,4.000000,4.000000,4.000000,4.000000,4.000000,4.000000,4.000000,4.000000,4.000000,4.000000,4.000000,4.000000,4.000000,4.000000,100.000000
1602006463.662638,90.000000,0.000000,4133.846191,4130.769043,4137.436035,4137.948730,4124.102539,4135.897461,4141.538574,4160.512695,4137.436035,4135.897461,4147.179688,4151.282227,4137.948730,4140.512695,878.000000,4.000000,,,,0.000000,4.000000,4.000000,4.000000,4.000000,4.000000,4.000000,4.000000,4.000000,4.000000,4.000000,4.000000,4.000000,4.000000,4.000000,100.000000
1602006463.670520,91.000000,0.000000,4147.179688,4137.436035,4141.025879,4140.512695,4129.230957,4137.948730,4129.230957,4153.846191,4135.384766,4133.333496,4158.461426,4152.820313,4140.512695,4151.282227,847.000000,4.000000,,,,0.000000,4.000000,4.000000,4.000000,4.000000,4.000000,4.000000,4.000000,4.000000,4.000000,4.000000,4.000000,4.000000,4.000000,4.000000,100.000000
1602006463.678401,92.000000,0.000000,4149.230957,4137.436035,4141.538574,4141.025879,4127.179688,4138.974121,4120.000000,4139.487305,4126.153809,4141.538574,4144.102539,4144.102539,4140.512695,4148.717773,764.000000,4.000000,,,,0.000000,4.000000,4.000000,4.000000,4.000000,4.000000,4.000000,4.000000,4.000000,4.000000,4.000000,4.000000,4.000000,4.000000,4.000000,100.000000
1602006463.686183,93.000000,0.000000,4135.897461,4134.358887,4138.461426,4137.436035,4124.102539,4135.897461,4114.871582,4125.641113,4125.641113,4145.128418,4131.794922,4135.897461,4140.000000,4137.436035,736.000000,4.000000,,,,0.000000,4.000000,4.000000,4.000000,4.000000,4.000000,4.000000,4.000000,4.000000,4.000000,4.000000,4.000000,4.000000,4.000000,4.000000,100.000000
1602006463.694064,94.000000,0.000000,4133.846191,4134.871582,4133.333496,4136.410156,4123.589844,4136.410156,4120.000000,4122.563965,4136.410156,4137.436035,4138.974121,4134.358887,4134.358887,4139.487305,878.000000,4.000000,,,,0.000000,4.000000,4.000000,4.000000,4.000000,4.000000,4.000000,4.000000,4.000000,4.000000,4.000000,4.000000,4.000000,4.000000,4.000000,100.000000
1602006463.701945,95.000000,0.000000,4138.974121,4139.487305,4126.666504,4138.974121,4125.641113,4140.512695,4124.615234,4130.256348,4143.589844,4127.179688,4141.538574,4135.897461,4135.384766,4144.615234,847.000000,4.000000,,,,0.000000,4.000000,4.000000,4.000000,4.000000,4.000000,4.000000,4.000000,4.000000,4.000000,4.000000,4.000000,4.000000,4.000000,4.000000,100.000000
1602006463.709827,96.000000,0.000000,4135.897461,4134.871582,4122.051270,4137.436035,4126.666504,4139.487305,4122.563965,4133.333496,4144.102539,4140.000000,4134.358887,4137.436035,4139.487305,4139.487305,764.000000,4.000000,,,,0.000000,4.000000,4.000000,4.000000,4.000000,4.000000,4.000000,4.000000,4.000000,4.000000,4.000000,4.000000,4.000000,4.000000,4.000000,100.000000
1602006463.717708,97.000000,0.000000,4126.153809,4124.102539,4120.512695,4133.333496,4119.487305,4134.358887,4120.512695,4125.128418,4143.589844,4152.307617,4134.358887,4133.846191,4136.922852,4136.410156,736.000000,4.000000,,,,0.000000,4.000000,4.000000,4.000000,4.000000,4.000000,4.000000,4.000000,4.000000,4.000000,4.000000,4.000000,4.000000,4.000000,4.000000,100.000000
1602006463.725590,98.000000,0.000000,4126.153809,4125.641113,4128.205078,4136.922852,4113.333496,4135.897461,4128.205078,4120.000000,4138.461426,4142.051270,4138.974121,4131.282227,4134.358887,4139.487305,878.000000,4.000000,,,,0.000000,4.000000,4.000000,4.000000,4.000000,4.000000,4.000000,4.000000,4.000000,4.000000,4.000000,4.000000,4.000000,4.000000,4.000000,100.000000
1602006463.733571,99.000000,0.000000,4135.897461,4136.922852,4137.948730,4141.538574,4120.512695,4142.563965,4140.512695,4129.743652,4138.461426,4145.128418,4141.025879,4141.538574,4138.461426,4144.102539,847.000000,4.000000,,,,0.000000,4.000000,4.000000,4.000000,4.000000,4.000000,4.000000,4.000000,4.000000,4.000000,4.000000,4.000000,4.000000,4.000000,4.000000,100.000000
1602006463.741452,100.000000,0.000000,4138.461426,4137.436035,4141.025879,4136.922852,4126.666504,4143.077148,4146.666504,4143.589844,4144.102539,4147.179688,4140.000000,4147.692383,4141.538574,4145.128418,764.000000,4.000000,,,,0.000000,4.000000,4.000000,4.000000,4.000000,4.000000,4.000000,4.000000,4.000000,4.000000,4.000000,4.000000,4.000000,4.000000,4.000000,100.000000
1602006463.749334,101.000000,0.000000,4138.974121,4132.307617,4146.666504,4134.871582,4122.051270,4136.922852,4150.256348,4154.358887,4141.538574,4125.128418,4136.922852,4144.615234,4137.436035,4140.000000,736.000000,4.000000,,,,0.000000,4.000000,4.000000,4.000000,4.000000,4.000000,4.000000,4.000000,4.000000,4.000000,4.000000,4.000000,4.000000,4.000000,4.000000,100.000000
1602006463.757215,102.000000,0.000000,4155.384766,4137.948730,4157.948730,4146.666504,4120.512695,4133.846191,4151.282227,4169.743652,4139.487305,4130.256348,4141.025879,4150.769043,4137.948730,4143.077148,878.000000,4.000000,,,,0.000000,4.000000,4.000000,4.000000,4.000000,4.000000,4.000000,4.000000,4.000000,4.000000,4.000000,4.000000,4.000000,4.000000,4.000000,100.000000
1602006463.765096,103.000000,0.000000,4163.589844,4142.051270,4159.487305,4152.307617,4124.615234,4134.871582,4145.641113,4171.794922,4145.641113,4151.282227,4147.179688,4161.025879,4142.563965,4160.000000,847.000000,4.000000,,,,0.000000,4.000000,4.000000,4.000000,4.000000,4.000000,4.000000,4.000000,4.000000,4.000000,4.000000,4.000000,4.000000,4.000000,4.000000,100.000000
1602006463.772978,104.000000,0.000000,4147.179688,4136.922852,4151.794922,4140.512695,4123.077148,4137.436035,4135.897461,4153.846191,4142.051270,4132.307617,4136.922852,4153.846191,4135.384766,4158.974121,764.000000,4.000000,,,,0.000000,4.000000,4.000000,4.000000,4.000000,4.000000,4.000000,4.000000,4.000000,4.000000,4.000000,4.000000,4.000000,4.000000,4.000000,100.000000
1602006463.780859,105.000000,0.000000,4136.410156,4134.358887,4146.153809,4134.358887,4123.589844,4134.871582,4125.641113,4139.487305,4123.589844,4113.846191,4122.563965,4138.461426,4123.589844,4140.512695,736.000000,4.000000,,,,0.000000,4.000000,4.000000,4.000000,4.000000,4.000000,4.000000,4.000000,4.000000,4.000000,4.000000,4.000000,4.000000,4.000000,4.000000,100.000000
1602006463.788641,106.000000,0.000000,4141.025879,4138.974121,4143.077148,4144.615234,4129.230957,4127.179688,4117.436035,4132.307617,4114.358887,4139.487305,4123.589844,4136.410156,4129.230957,4144.102539,878.000000,4.000000,,,,0.000000,4.000000,4.000000,4.000000,4.000000,4.000000,4.000000,4.000000,4.000000,4.000000,4.000000,4.000000,4.000000,4.000000,4.000000,100.000000
1602006463.796522,107.000000,0.000000,4141.025879,4137.948730,4138.974121,4145.128418,4129.230957,4130.256348,4117.436035,4122.051270,4122.563965,4157.436035,4130.256348,4140.512695,4138.974121,4157.436035,847.000000,4.000000,,,,0.000000,4.000000,4.000000,4.000000,4.000000,4.000000,4.000000,4.000000,4.000000,4.000000,4.000000,4.000000,4.000000,4.000000,4.000000,100.000000
1602006463.804404,108.000000,0.000000,4136.922852,4127.692383,4135.384766,4130.256348,4125.641113,4142.051270,4122.051270,4121.025879,4132.820313,4146.153809,4131.794922,4137.948730,4135.384766,4152.820313,764.000000,4.000000,,,,0.000000,4.000000,4.000000,4.000000,4.000000,4.000000,4.000000,4.000000,4.000000,4.000000,4.000000,4.000000,4.000000,4.000000,4.000000,100.000000
1602006463.812285,109.000000,0.000000,4135.384766,4123.589844,4136.410156,4127.692383,4126.666504,4143.077148,4123.077148,4127.179688,4135.897461,4138.974121,4135.384766,4135.897461,4132.820313,4150.256348,736.000000,4.000000,,,,0.000000,4.000000,4.000000,4.000000,4.000000,4.000000,4.000000,4.000000,4.000000,4.000000,4.000000,4.000000,4.000000,4.000000,4.000000,100.000000
1602006463.820166,110.000000,0.000000,4138.974121,4128.717773,4140.000000,4138.974121,4128.205078,4141.538574,4128.205078,4125.641113,4137.436035,4142.563965,4139.487305,4138.461426,4136.922852,4150.256348,878.000000,4.000000,,,,0.000000,4.000000,4.000000,4.000000,4.000000,4.000000,4.000000,4.000000,4.000000,4.000000,4.000000,4.000000,4.000000,4.000000,4.000000,100.000000
1602006463.828048,111.000000,0.000000,4141.538574,4127.179688,4137.948730,4135.897461,4119.487305,4134.871582,4136.410156,4126.153809,4145.641113,4145.128418,4136.410156,4137.436035,4136.410156,4137.948730,847.000000,4.000000,,,,0.000000,4.000000,4.000000,4.000000,4.000000,4.000000,4.000000,4.000000,4.000000,4.000000,4.000000,4.000000,4.000000,4.000000,4.000000,100.000000
1602006463.835929,112.000000,0.000000,4140.000000,4120.000000,4140.000000,4126.153809,4111.282227,4121.538574,4146.153809,4142.563965,4157.436035,4150.769043,4135.897461,4133.846191,4135.897461,4138.974121,764.000000,4.000000,,,,0.000000,4.000000,4.000000,4.000000,4.000000,4.000000,4.000000,4.000000,4.000000,4.000000,4.000000,4.000000,4.000000,4.000000,4.000000,100.000000
1602006463.843811,113.000000,0.000000,4142.051270,4120.000000,4149.230957,4132.820313,4115.384766,4127.179688,4156.922852,4157.948730,4160.512695,4160.000000,4139.487305,4141.025879,4138.974121,4156.922852,736.000000,4.000000,,,,0.000000,4.000000,4.000000,4.000000,4.000000,4.000000,4.000000,4.000000,4.000000,4.000000,4.000000,4.000000,4.000000,4.000000,4.000000,100.000000
1602006463.851792,114.000000,0.000000,4152.307617,4126.666504,4151.794922,4140.000000,4120.512695,4144.615234,4156.922852,4161.538574,4151.794922,4149.743652,4138.974121,4151.282227,4137.436035,4157.948730,878.000000,4.000000,,,,0.000000,4.000000,4.000000,4.000000,4.000000,4.000000,4.000000,4.000000,4.000000,4.000000,4.000000,4.000000,4.000000,4.000000,4.000000,100.000000
1602006463.859674,115.000000,0.000000,4156.410156,4133.846191,4152.307617,4135.897461,4121.025879,4142.563965,4145.641113,4155.897461,4141.025879,4135.897461,4138.974121,4155.384766,4138.461426,4151.794922,847.000000,4.000000,,,,0.000000,4.000000,4.000000,4.000000,4.000000,4.000000,4.000000,4.000000,4.000000,4.000000,4.000000,4.000000,4.000000,4.000000,4.000000,100.000000
1602006463.867555,116.000000,0.000000,4153.846191,4136.410156,4156.922852,4136.922852,4122.563965,4128.717773,4132.820313,4145.641113,4129.230957,4145.128418,4135.384766,4155.897461,4141.025879,4149.743652,764.000000,4.000000,,,,0.000000,4.000000,4.000000,4.000000,4.000000,4.000000,4.000000,4.000000,4.000000,4.000000,4.000000,4.000000,4.000000,4.000000,4.000000,100.000000
1602006463.875437,117.000000,0.000000,4154.358887,4136.410156,4152.307617,4141.025879,4124.102539,4125.128418,4119.487305,4131.282227,4118.461426,4149.743652,4124.102539,4153.333496,4130.769043,4142.563965,736.000000,4.000000,,,,0.000000,4.000000,4.000000,4.000000,4.000000,4.000000,4.000000,4.000000,4.000000,4.000000,4.000000,4.000000,4.000000,4.000000,4.000000,100.000000
1602006463.883319,118.000000,0.000000,4150.769043,4135.897461,4143.077148,4140.512695,4122.051270,4122.051270,4103.077148,4117.436035,4117.436035,4135.897461,4116.922852,4145.128418,4117.948730,4138.974121,878.000000,4.000000,,,,0.000000,4.000000,4.000000,4.000000,4.000000,4.000000,4.000000,4.000000,4.000000,4.000000,4.000000,4.000000,4.000000,4.000000,4.000000,100.000000
1602006463.891200,119.000000,0.000000,4145.128418,4131.282227,4138.974121,4137.948730,4123.589844,4112.820313,4096.922852,4110.256348,4122.051270,4132.820313,4123.077148,4137.948730,4119.487305,4134.358887,847.000000,4.000000,,,,0.000000,4.000000,4.000000,4.000000,4.000000,4.000000,4.000000,4.000000,4.000000,4.000000,4.000000,4.000000,4.000000,4.000000,4.000000,100.000000
1602006463.899082,120.000000,0.000000,4142.563965,4123.077148,4132.307617,4134.358887,4125.128418,4109.230957,4100.512695,4110.769043,4118.461426,4139.487305,4128.205078,4134.358887,4125.128418,4122.051270,764.000000,4.000000,,,,0.000000,4.000000,4.000000,4.000000,4.000000,4.000000,4.000000,4.000000,4.000000,4.000000,4.000000,4.000000,4.000000,4.000000,4.000000,100.000000
1602006463.906964,121.000000,0.000000,4138.974121,4122.563965,4122.563965,4134.871582,4121.025879,4116.922852,4107.692383,4109.743652,4117.948730,4138.461426,4122.563965,4132.307617,4122.563965,4119.487305,736.000000,4.000000,,,,0.000000,4.000000,4.000000,4.000000,4.000000,4.000000,4.000000,4.000000,4.000000,4.000000,4.000000,4.000000,4.000000,4.000000,4.000000,100.000000
1602006463.914845,122.000000,0.000000,4137.436035,4126.153809,4122.051270,4136.410156,4121.538574,4124.615234,4118.461426,4107.179688,4122.563965,4137.948730,4119.487305,4135.384766,4122.051270,4123.077148,878.000000,4.000000,,,,0.000000,4.000000,4.000000,4.000000,4.000000,4.000000,4.000000,4.000000,4.000000,4.000000,4.000000,4.000000,4.000000,4.000000,4.000000,100.000000
1602006463.922627,123.000000,0.000000,4138.461426,4124.102539,4129.743652,4128.717773,4120.512695,4126.153809,4126.666504,4112.307617,4115.897461,4128.717773,4125.128418,4140.512695,4127.179688,4126.666504,847.000000,4.000000,,,,0.000000,4.000000,4.000000,4.000000,4.000000,4.000000,4.000000,4.000000,4.000000,4.000000,4.000000,4.000000,4.000000,4.000000,4.000000,100.000000
1602006463.930509,124.000000,0.000000,4131.794922,4120.512695,4133.846191,4124.102539,4112.820313,4127.179688,4126.153809,4121.025879,4108.717773,4111.282227,4123.589844,4136.922852,4125.128418,4133.846191,764.000000,4.000000,,,,0.000000,4.000000,4.000000,4.000000,4.000000,4.000000,4.000000,4.000000,4.000000,4.000000,4.000000,4.000000,4.000000,4.000000,4.000000,100.000000
1602006463.938390,125.000000,0.000000,4131.282227,4127.179688,4137.948730,4132.307617,4112.820313,4124.615234,4125.128418,4129.743652,4122.051270,4122.051270,4124.102539,4141.025879,4123.077148,4140.000000,736.000000,4.000000,,,,0.000000,4.000000,4.000000,4.000000,4.000000,4.000000,4.000000,4.000000,4.000000,4.000000,4.000000,4.000000,4.000000,4.000000,4.000000,100.000000
1602006463.946272,126.000000,0.000000,4149.743652,4140.512695,4148.717773,4142.563965,4122.563965,4118.974121,4127.179688,4146.153809,4147.692383,4156.410156,4145.641113,4162.563965,4134.358887,4148.205078,878.000000,4.000000,,,,0.000000,4.000000,4.000000,4.000000,4.000000,4.000000,4.000000,4.000000,4.000000,4.000000,4.000000,4.000000,4.000000,4.000000,4.000000,100.000000
1602006463.954154,127.000000,0.000000,4159.487305,4143.077148,4157.436035,4145.128418,4124.615234,4119.487305,4124.102539,4155.384766,4161.025879,4167.179688,4160.000000,4169.743652,4145.128418,4153.333496,847.000000,4.000000,,,,0.000000,4.000000,4.000000,4.000000,4.000000,4.000000,4.000000,4.000000,4.000000,4.000000,4.000000,4.000000,4.000000,4.000000,4.000000,100.000000
1602006463.962035,128.000000,0.000000,4150.256348,4134.871582,4156.410156,4140.512695,4118.974121,4119.487305,4121.538574,4147.179688,4154.871582,4153.333496,4141.025879,4156.922852,4137.948730,4138.461426,764.000000,4.000000,,,,0.000000,4.000000,4.000000,4.000000,4.000000,4.000000,4.000000,4.000000,4.000000,4.000000,4.000000,4.000000,4.000000,4.000000,4.000000,100.000000
1602006463.969917,0.000000,0.000000,4139.487305,4128.205078,4153.846191,4137.948730,4121.025879,4121.538574,4129.230957,4142.051270,4145.128418,4147.692383,4122.563965,4152.307617,4128.205078,4122.563965,798.000000,4.000000,,,,0.000000,4.000000,4.000000,4.000000,4.000000,4.000000,4.000000,4.000000,4.000000,4.000000,4.000000,4.000000,4.000000,4.000000,4.000000,100.000000
1602006463.977799,1.000000,0.000000,4130.256348,4121.538574,4146.153809,4134.871582,4124.102539,4132.307617,4138.974121,4140.512695,4137.948730,4142.563965,4120.512695,4151.282227,4123.077148,4120.512695,785.000000,4.000000,,,,0.000000,4.000000,4.000000,4.000000,4.000000,4.000000,4.000000,4.000000,4.000000,4.000000,4.000000,4.000000,4.000000,4.000000,4.000000,100.000000
1602006463.985680,2.000000,0.000000,4114.871582,4107.692383,4123.589844,4120.000000,4116.922852,4137.948730,4139.487305,4126.666504,4123.589844,4123.077148,4106.666504,4133.333496,4107.692383,4110.256348,853.000000,4.000000,,,,0.000000,4.000000,4.000000,4.000000,4.000000,4.000000,4.000000,4.000000,4.000000,4.000000,4.000000,4.000000,4.000000,4.000000,4.000000,100.000000
1602006463.993662,3.000000,0.000000,4100.000000,4098.974121,4105.128418,4105.128418,4107.692383,4137.436035,4136.922852,4118.461426,4110.769043,4111.794922,4087.179443,4117.436035,4090.256348,4098.461426,867.000000,4.000000,,,,0.000000,4.000000,4.000000,4.000000,4.000000,4.000000,4.000000,4.000000,4.000000,4.000000,4.000000,4.000000,4.000000,4.000000,4.000000,100.000000
1602006464.001543,4.000000,0.000000,4092.307617,4101.538574,4102.563965,4107.179688,4111.794922,4140.512695,4139.487305,4119.487305,4109.230957,4105.641113,4087.179443,4116.410156,4086.666748,4104.615234,814.000000,4.000000,,,,0.000000,4.000000,4.000000,4.000000,4.000000,4.000000,4.000000,4.000000,4.000000,4.000000,4.000000,4.000000,4.000000,4.000000,4.000000,100.000000
1602006464.009425,5.000000,0.000000,4093.333252,4105.128418,4102.051270,4114.358887,4119.487305,4134.358887,4138.461426,4113.846191,4106.666504,4090.769287,4096.922852,4116.922852,4092.820557,4107.692383,817.000000,4.000000,,,,0.000000,4.000000,4.000000,4.000000,4.000000,4.000000,4.000000,4.000000,4.000000,4.000000,4.000000,4.000000,4.000000,4.000000,4.000000,100.000000
1602006464.017307,6.000000,0.000000,4110.769043,4111.794922,4106.666504,4122.051270,4119.487305,4120.000000,4131.794922,4114.358887,4110.769043,4107.179688,4112.820313,4124.615234,4109.230957,4109.230957,761.000000,4.000000,,,,0.000000,4.000000,4.000000,4.000000,4.000000,4.000000,4.000000,4.000000,4.000000,4.000000,4.000000,4.000000,4.000000,4.000000,4.000000,100.000000
1602006464.025188,7.000000,0.000000,4133.333496,4130.256348,4123.589844,4135.384766,4126.666504,4118.461426,4131.794922,4127.179688,4132.307617,4154.358887,4133.846191,4148.205078,4133.846191,4127.692383,673.000000,4.000000,,,,0.000000,4.000000,4.000000,4.000000,4.000000,4.000000,4.000000,4.000000,4.000000,4.000000,4.000000,4.000000,4.000000,4.000000,4.000000,100.000000
1602006464.033070,8.000000,0.000000,4143.077148,4142.563965,4137.436035,4143.589844,4139.487305,4124.102539,4135.384766,4138.974121,4148.717773,4166.666504,4142.051270,4169.743652,4144.615234,4141.025879,787.000000,4.000000,,,,0.000000,4.000000,4.000000,4.000000,4.000000,4.000000,4.000000,4.000000,4.000000,4.000000,4.000000,4.000000,4.000000,4.000000,4.000000,100.000000
1602006464.040952,9.000000,0.000000,4144.615234,4142.051270,4141.538574,4143.077148,4138.974121,4125.128418,4137.436035,4151.282227,4157.436035,4151.794922,4138.974121,4173.333496,4141.538574,4138.974121,835.000000,4.000000,,,,0.000000,4.000000,4.000000,4.000000,4.000000,4.000000,4.000000,4.000000,4.000000,4.000000,4.000000,4.000000,4.000000,4.000000,4.000000,100.000000
1602006464.048833,10.000000,0.000000,4145.641113,4141.025879,4140.512695,4145.641113,4128.205078,4128.717773,4140.000000,4157.948730,4157.948730,4140.512695,4136.410156,4169.743652,4142.563965,4140.512695,878.000000,4.000000,,,,0.000000,4.000000,4.000000,4.000000,4.000000,4.000000,4.000000,4.000000,4.000000,4.000000,4.000000,4.000000,4.000000,4.000000,4.000000,100.000000
1602006464.056715,11.000000,0.000000,4134.358887,4131.794922,4130.769043,4137.948730,4123.589844,4131.282227,4143.077148,4146.666504,4143.077148,4126.666504,4129.743652,4160.000000,4137.436035,4132.307617,843.000000,4.000000,,,,0.000000,4.000000,4.000000,4.000000,4.000000,4.000000,4.000000,4.000000,4.000000,4.000000,4.000000,4.000000,4.000000,4.000000,4.000000,100.000000
1602006464.064596,12.000000,0.000000,4119.487305,4117.948730,4118.461426,4121.025879,4122.563965,4132.820313,4143.077148,4129.230957,4127.692383,4126.666504,4121.025879,4142.563965,4124.615234,4108.717773,764.000000,4.000000,,,,0.000000,4.000000,4.000000,4.000000,4.000000,4.000000,4.000000,4.000000,4.000000,4.000000,4.000000,4.000000,4.000000,4.000000,4.000000,100.000000
1602006464.072378,13.000000,0.000000,4118.461426,4118.461426,4117.436035,4124.615234,4121.538574,4138.974121,4142.051270,4121.538574,4125.128418,4130.769043,4123.589844,4132.820313,4119.487305,4105.641113,736.000000,4.000000,,,,0.000000,4.000000,4.000000,4.000000,4.000000,4.000000,4.000000,4.000000,4.000000,4.000000,4.000000,4.000000,4.000000,4.000000,4.000000,100.000000
1602006464.080259,14.000000,0.000000,4125.128418,4127.179688,4122.051270,4138.461426,4127.692383,4140.000000,4141.025879,4121.025879,4127.692383,4117.948730,4122.563965,4140.000000,4121.025879,4122.563965,878.000000,4.000000,,,,0.000000,4.000000,4.000000,4.000000,4.000000,4.000000,4.000000,4.000000,4.000000,4.000000,4.000000,4.000000,4.000000,4.000000,4.000000,100.000000
1602006464.088140,15.000000,0.000000,4125.641113,4130.769043,4123.077148,4135.897461,4135.384766,4135.897461,4138.461426,4122.051270,4134.871582,4123.077148,4108.205078,4145.641113,4124.615234,4126.666504,843.000000,4.000000,,,,0.000000,4.000000,4.000000,4.000000,4.000000,4.000000,4.000000,4.000000,4.000000,4.000000,4.000000,4.000000,4.000000,4.000000,4.000000,100.000000
1602006464.096021,16.000000,0.000000,4125.128418,4135.384766,4122.563965,4132.820313,4137.436035,4135.897461,4137.436035,4127.692383,4149.743652,4139.487305,4112.307617,4150.256348,4132.307617,4126.153809,0.000000,4.000000,,,,0.000000,4.000000,4.000000,4.000000,4.000000,4.000000,4.000000,4.000000,4.000000,4.000000,4.000000,4.000000,4.000000,4.000000,4.000000,100.000000
1602006464.103902,17.000000,0.000000,4133.333496,4139.487305,4129.743652,4140.000000,4138.974121,4136.922852,4137.436035,4135.897461,4157.948730,4135.897461,4140.000000,4166.153809,4146.666504,4138.974121,0.000000,4.000000,,,,0.000000,4.000000,4.000000,4.000000,4.000000,4.000000,4.000000,4.000000,4.000000,4.000000,4.000000,4.000000,4.000000,4.000000,4.000000,100.000000
1602006464.111883,18.000000,0.000000,4142.051270,4137.436035,4138.974121,4139.487305,4141.538574,4135.384766,4136.922852,4133.846191,4157.948730,4144.615234,4144.615234,4172.307617,4154.358887,4146.153809,0.000000,4.000000,,,,0.000000,4.000000,4.000000,4.000000,4.000000,4.000000,4.000000,4.000000,4.000000,4.000000,4.000000,4.000000,4.000000,4.000000,4.000000,100.000000
1602006464.119765,19.000000,0.000000,4139.487305,4135.897461,4138.461426,4133.846191,4137.948730,4137.948730,4135.897461,4124.615234,4155.384766,4161.538574,4125.128418,4162.051270,4147.692383,4135.384766,0.000000,4.000000,,,,0.000000,4.000000,4.000000,4.000000,4.000000,4.000000,4.000000,4.000000,4.000000,4.000000,4.000000,4.000000,4.000000,4.000000,4.000000,100.000000
1602006464.127646,20.000000,0.000000,4135.384766,4135.897461,4129.230957,4136.410156,4133.846191,4141.538574,4138.461426,4126.666504,4151.794922,4152.820313,4128.205078,4157.436035,4143.589844,4130.256348,0.000000,4.000000,,,,0.000000,4.000000,4.000000,4.000000,4.000000,4.000000,4.000000,4.000000,4.000000,4.000000,4.000000,4.000000,4.000000,4.000000,4.000000,100.000000
1602006464.135627,21.000000,0.000000,4135.384766,4136.922852,4126.666504,4137.436035,4136.410156,4146.153809,4144.102539,4144.615234,4155.897461,4154.871582,4141.538574,4159.487305,4153.333496,4140.000000,0.000000,4.000000,,,,0.000000,4.000000,4.000000,4.000000,4.000000,4.000000,4.000000,4.000000,4.000000,4.000000,4.000000,4.000000,4.000000,4.000000,4.000000,100.000000
1602006464.143608,22.000000,0.000000,4128.717773,4136.922852,4133.333496,4137.436035,4136.410156,4151.794922,4145.641113,4154.358887,4159.487305,4161.538574,4141.538574,4162.051270,4161.538574,4138.974121,0.000000,4.000000,,,,0.000000,4.000000,4.000000,4.000000,4.000000,4.000000,4.000000,4.000000,4.000000,4.000000,4.000000,4.000000,4.000000,4.000000,4.000000,100.000000
1602006464.151489,23.000000,0.000000,4121.538574,4137.436035,4133.846191,4140.000000,4136.410156,4153.846191,4145.128418,4149.230957,4149.230957,4141.538574,4142.563965,4164.615234,4152.307617,4123.077148,0.000000,4.000000,,,,0.000000,4.000000,4.000000,4.000000,4.000000,4.000000,4.000000,4.000000,4.000000,4.000000,4.000000,4.000000,4.000000,4.000000,4.000000,100.000000
1602006464.159371,24.000000,0.000000,4122.051270,4136.410156,4127.179688,4138.974121,4139.487305,4149.230957,4147.692383,4145.128418,4138.974121,4140.000000,4143.589844,4157.436035,4142.563965,4124.615234,0.000000,4.000000,,,,0.000000,4.000000,4.000000,4.000000,4.000000,4.000000,4.000000,4.000000,4.000000,4.000000,4.000000,4.000000,4.000000,4.000000,4.000000,100.000000
1602006464.167252,25.000000,0.000000,4120.000000,4129.743652,4115.897461,4130.769043,4138.461426,4142.051270,4144.615234,4140.512695,4140.512695,4156.410156,4127.179688,4142.051270,4138.461426,4131.794922,0.000000,4.000000,,,,0.000000,4.000000,4.000000,4.000000,4.000000,4.000000,4.000000,4.000000,4.000000,4.000000,4.000000,4.000000,4.000000,4.000000,4.000000,100.000000
1602006464.175134,26.000000,0.000000,4109.743652,4123.077148,4105.641113,4123.077148,4135.897461,4136.922852,4138.461426,4126.153809,4131.282227,4138.461426,4108.717773,4136.410156,4128.717773,4117.436035,0.000000,4.000000,,,,0.000000,4.000000,4.000000,4.000000,4.000000,4.000000,4.000000,4.000000,4.000000,4.000000,4.000000,4.000000,4.000000,4.000000,4.000000,100.000000
1602006464.183015,27.000000,0.000000,4103.077148,4122.563965,4108.205078,4120.512695,4134.358887,4138.974121,4137.948730,4114.871582,4116.410156,4112.307617,4111.282227,4138.974121,4119.487305,4102.563965,0.000000,4.000000,,,,0.000000,4.000000,4.000000,4.000000,4.000000,4.000000,4.000000,4.000000,4.000000,4.000000,4.000000,4.000000,4.000000,4.000000,4.000000,100.000000
1602006464.190896,28.000000,0.000000,4110.256348,4121.025879,4118.974121,4122.563965,4127.692383,4137.436035,4138.974121,4117.436035,4119.487305,4114.358887,4127.179688,4145.128418,4123.589844,4102.563965,0.000000,4.000000,,,,0.000000,4.000000,4.000000,4.000000,4.000000,4.000000,4.000000,4.000000,4.000000,4.000000,4.000000,4.000000,4.000000,4.000000,4.000000,100.000000
1602006464.198778,29.000000,0.000000,4120.512695,4121.025879,4124.102539,4129.743652,4123.077148,4131.282227,4136.922852,4120.512695,4125.641113,4121.538574,4131.282227,4151.794922,4134.871582,4112.820313,0.000000,4.000000,,,,0.000000,4.000000,4.000000,4.000000,4.000000,4.000000,4.000000,4.000000,4.000000,4.000000,4.000000,4.000000,4.000000,4.000000,4.000000,100.000000
1602006464.206759,30.000000,0.000000,4121.025879,4128.717773,4127.692383,4138.974121,4123.077148,4130.769043,4135.897461,4121.025879,4126.153809,4133.333496,4124.102539,4157.948730,4137.436035,4124.102539,0.000000,4.000000,,,,0.000000,4.000000,4.000000,4.000000,4.000000,4.000000,4.000000,4.000000,4.000000,4.000000,4.000000,4.000000,4.000000,4.000000,4.000000,100.000000
1602006464.214640,31.000000,0.000000,4118.461426,4130.256348,4135.384766,4140.000000,4122.051270,4128.717773,4131.282227,4125.641113,4129.743652,4140.000000,4129.230957,4165.128418,4134.358887,4116.922852,0.000000,4.000000,,,,0.000000,4.000000,4.000000,4.000000,4.000000,4.000000,4.000000,4.000000,4.000000,4.000000,4.000000,4.000000,4.000000,4.000000,4.000000,100.000000
1602006464.222521,32.000000,0.000000,4124.102539,4128.205078,4140.512695,4136.410156,4121.025879,4129.230957,4130.769043,4138.461426,4137.948730,4134.358887,4140.512695,4174.358887,4136.922852,4109.743652,0.000000,4.000000,,,,0.000000,4.000000,4.000000,4.000000,4.000000,4.000000,4.000000,4.000000,4.000000,4.000000,4.000000,4.000000,4.000000,4.000000,4.000000,100.000000
1602006464.230502,33.000000,0.000000,4132.307617,4135.384766,4141.025879,4138.974121,4124.102539,4137.436035,4141.025879,4153.846191,4151.794922,4149.230957,4147.179688,4182.051270,4148.205078,4130.256348,0.000000,4.000000,,,,0.000000,4.000000,4.000000,4.000000,4.000000,4.000000,4.000000,4.000000,4.000000,4.000000,4.000000,4.000000,4.000000,4.000000,4.000000,100.000000
1602006464.238383,34.000000,0.000000,4138.974121,4141.538574,4141.025879,4142.051270,4126.153809,4140.000000,4142.051270,4155.897461,4155.897461,4159.487305,4141.538574,4180.000000,4154.358887,4143.589844,0.000000,4.000000,,,,0.000000,4.000000,4.000000,4.000000,4.000000,4.000000,4.000000,4.000000,4.000000,4.000000,4.000000,4.000000,4.000000,4.000000,4.000000,100.000000
1602006464.246164,35.000000,0.000000,4139.487305,4138.461426,4139.487305,4139.487305,4126.666504,4133.846191,4135.897461,4143.589844,4144.615234,4143.077148,4125.128418,4167.179688,4146.153809,4129.230957,0.000000,4.000000,,,,0.000000,4.000000,4.000000,4.000000,4.000000,4.000000,4.000000,4.000000,4.000000,4.000000,4.000000,4.000000,4.000000,4.000000,4.000000,100.000000
1602006464.254045,36.000000,0.000000,4128.717773,4138.974121,4132.820313,4136.922852,4133.333496,4137.948730,4137.948730,4138.974121,4147.179688,4146.153809,4124.615234,4154.358887,4140.512695,4120.000000,0.000000,4.000000,,,,0.000000,4.000000,4.000000,4.000000,4.000000,4.000000,4.000000,4.000000,4.000000,4.000000,4.000000,4.000000,4.000000,4.000000,4.000000,100.000000
1602006464.261926,37.000000,0.000000,4121.538574,4140.000000,4122.563965,4137.436035,4136.922852,4142.563965,4134.358887,4137.948730,4153.333496,4162.051270,4135.384766,4149.230957,4142.563965,4119.487305,0.000000,4.000000,,,,0.000000,4.000000,4.000000,4.000000,4.000000,4.000000,4.000000,4.000000,4.000000,4.000000,4.000000,4.000000,4.000000,4.000000,4.000000,100.000000
1602006464.269908,38.000000,0.000000,4128.205078,4139.487305,4119.487305,4137.436035,4130.769043,4129.743652,4123.589844,4128.205078,4136.922852,4140.000000,4136.410156,4150.256348,4142.051270,4120.512695,0.000000,4.000000,,,,0.000000,4.000000,4.000000,4.000000,4.000000,4.000000,4.000000,4.000000,4.000000,4.000000,4.000000,4.000000,4.000000,4.000000,4.000000,100.000000
1602006464.277789,39.000000,0.000000,4129.230957,4139.487305,4118.974121,4138.461426,4126.153809,4125.128418,4129.230957,4122.051270,4129.230957,4116.922852,4136.922852,4153.333496,4140.000000,4127.692383,0.000000,4.000000,,,,0.000000,4.000000,4.000000,4.000000,4.000000,4.000000,4.000000,4.000000,4.000000,4.000000,4.000000,4.000000,4.000000,4.000000,4.000000,100.000000
