Timestamp,EEG.Counter,EEG.Interpolated,EEG.AF3,EEG.F7,EEG.F3,EEG.FC5,EEG.T7,EEG.P7,EEG.O1,EEG.O2,EEG.P8,EEG.T8,EEG.FC6,EEG.F4,EEG.F8,EEG.AF4,EEG.RawCq,EEG.Battery,MarkerIndex,MarkerType,MarkerValueInt,EEG.MarkerHardware,CQ.AF3,CQ.F7,CQ.F3,CQ.FC5,CQ.T7,CQ.P7,CQ.O1,CQ.O2,CQ.P8,CQ.T8,CQ.FC6,CQ.F4,CQ.F8,CQ.AF4,CQ.Overall
1602006480.022124,101.000000,0.000000,4086.153809,4106.153809,4100.512695,4101.538574,4120.000000,4134.358887,4121.025879,4123.077148,4121.538574,4130.769043,4110.769043,4120.000000,4133.846191,4089.230713,737.000000,4.000000,,,,0.000000,4.000000,4.000000,4.000000,4.000000,4.000000,4.000000,4.000000,4.000000,4.000000,4.000000,4.000000,4.000000,4.000000,4.000000,100.000000
1602006480.030105,102.000000,0.000000,4089.230713,4104.102539,4106.153809,4106.666504,4110.769043,4118.461426,4120.000000,4118.461426,4118.974121,4132.307617,4105.128418,4121.025879,4129.743652,4066.666748,870.000000,4.000000,,,,0.000000,4.000000,4.000000,4.000000,4.000000,4.000000,4.000000,4.000000,4.000000,4.000000,4.000000,4.000000,4.000000,4.000000,4.000000,100.000000
1602006480.037986,103.000000,0.000000,4094.358887,4121.538574,4121.025879,4123.589844,4118.974121,4123.589844,4125.641113,4127.692383,4133.333496,4134.358887,4122.051270,4136.410156,4135.897461,4089.743652,841.000000,4.000000,,,,0.000000,4.000000,4.000000,4.000000,4.000000,4.000000,4.000000,4.000000,4.000000,4.000000,4.000000,4.000000,4.000000,4.000000,4.000000,100.000000
1602006480.045867,104.000000,0.000000,4101.538574,4128.717773,4130.256348,4131.282227,4122.563965,4135.897461,4124.102539,4136.410156,4137.436035,4113.333496,4126.153809,4145.128418,4138.461426,4122.051270,770.000000,4.000000,,,,0.000000,4.000000,4.000000,4.000000,4.000000,4.000000,4.000000,4.000000,4.000000,4.000000,4.000000,4.000000,4.000000,4.000000,4.000000,100.000000
1602006480.053748,105.000000,0.000000,4107.179688,4121.538574,4135.384766,4125.641113,4109.743652,4130.256348,4119.487305,4136.410156,4135.897461,4106.666504,4125.128418,4148.717773,4140.512695,4123.589844,737.000000,4.000000,,,,0.000000,4.000000,4.000000,4.000000,4.000000,4.000000,4.000000,4.000000,4.000000,4.000000,4.000000,4.000000,4.000000,4.000000,4.000000,100.000000
1602006480.061729,106.000000,0.000000,4109.743652,4121.538574,4141.538574,4123.589844,4105.641113,4123.077148,4121.538574,4132.307617,4144.102539,4150.769043,4143.589844,4155.384766,4152.307617,4118.461426,870.000000,4.000000,,,,0.000000,4.000000,4.000000,4.000000,4.000000,4.000000,4.000000,4.000000,4.000000,4.000000,4.000000,4.000000,4.000000,4.000000,4.000000,100.000000
1602006480.069611,107.000000,0.000000,4106.666504,4122.051270,4139.487305,4124.615234,4111.282227,4123.077148,4123.589844,4127.692383,4141.025879,4180.512695,4149.743652,4151.282227,4158.974121,4118.974121,841.000000,4.000000,,,,0.000000,4.000000,4.000000,4.000000,4.000000,4.000000,4.000000,4.000000,4.000000,4.000000,4.000000,4.000000,4.000000,4.000000,4.000000,100.000000
1602006480.077492,108.000000,0.000000,4097.436035,4111.794922,4128.205078,4121.538574,4108.717773,4114.871582,4121.538574,4123.077148,4119.487305,4149.230957,4131.794922,4138.974121,4141.025879,4109.743652,770.000000,4.000000,,,,0.000000,4.000000,4.000000,4.000000,4.000000,4.000000,4.000000,4.000000,4.000000,4.000000,4.000000,4.000000,4.000000,4.000000,4.000000,100.000000
1602006480.085374,109.000000,0.000000,4087.179443,4108.205078,4117.948730,4114.358887,4109.743652,4108.717773,4120.512695,4119.487305,4105.641113,4125.641113,4119.487305,4133.846191,4122.563965,4097.436035,737.000000,4.000000,,,,0.000000,4.000000,4.000000,4.000000,4.000000,4.000000,4.000000,4.000000,4.000000,4.000000,4.000000,4.000000,4.000000,4.000000,4.000000,100.000000
1602006480.093255,110.000000,0.000000,4094.358887,4118.974121,4117.948730,4111.794922,4120.000000,4120.512695,4121.538574,4119.487305,4109.230957,4143.589844,4124.102539,4135.384766,4127.692383,4101.025879,870.000000,4.000000,,,,0.000000,4.000000,4.000000,4.000000,4.000000,4.000000,4.000000,4.000000,4.000000,4.000000,4.000000,4.000000,4.000000,4.000000,4.000000,100.000000
1602006480.101136,111.000000,0.000000,4107.179688,4125.641113,4121.538574,4118.974121,4122.563965,4127.179688,4120.000000,4121.025879,4118.461426,4138.461426,4131.282227,4137.948730,4136.922852,4108.205078,841.000000,4.000000,,,,0.000000,4.000000,4.000000,4.000000,4.000000,4.000000,4.000000,4.000000,4.000000,4.000000,4.000000,4.000000,4.000000,4.000000,4.000000,100.000000
1602006480.109118,112.000000,0.000000,4100.512695,4123.589844,4122.051270,4125.128418,4118.461426,4124.615234,4118.461426,4120.512695,4128.717773,4108.717773,4135.384766,4138.461426,4136.410156,4104.102539,770.000000,4.000000,,,,0.000000,4.000000,4.000000,4.000000,4.000000,4.000000,4.000000,4.000000,4.000000,4.000000,4.000000,4.000000,4.000000,4.000000,4.000000,100.000000
1602006480.116999,113.000000,0.000000,4093.333252,4123.589844,4121.538574,4122.051270,4120.512695,4130.256348,4121.538574,4122.563965,4135.897461,4115.384766,4142.563965,4141.538574,4140.512695,4107.179688,737.000000,4.000000,,,,0.000000,4.000000,4.000000,4.000000,4.000000,4.000000,4.000000,4.000000,4.000000,4.000000,4.000000,4.000000,4.000000,4.000000,4.000000,100.000000
1602006480.124881,114.000000,0.000000,4100.000000,4123.589844,4122.563965,4120.000000,4121.538574,4134.871582,4124.102539,4131.794922,4136.922852,4152.307617,4152.307617,4146.666504,4153.333496,4125.128418,870.000000,4.000000,,,,0.000000,4.000000,4.000000,4.000000,4.000000,4.000000,4.000000,4.000000,4.000000,4.000000,4.000000,4.000000,4.000000,4.000000,4.000000,100.000000
1602006480.132762,115.000000,0.000000,4109.743652,4124.102539,4129.230957,4124.102539,4118.974121,4131.794922,4126.666504,4138.461426,4140.000000,4167.692383,4153.846191,4155.384766,4158.974121,4126.153809,841.000000,4.000000,,,,0.000000,4.000000,4.000000,4.000000,4.000000,4.000000,4.000000,4.000000,4.000000,4.000000,4.000000,4.000000,4.000000,4.000000,4.000000,100.000000
1602006480.140643,116.000000,0.000000,4115.384766,4126.666504,4141.538574,4125.641113,4119.487305,4132.820313,4134.358887,4140.512695,4149.230957,4167.692383,4153.333496,4163.589844,4154.358887,4118.461426,770.000000,4.000000,,,,0.000000,4.000000,4.000000,4.000000,4.000000,4.000000,4.000000,4.000000,4.000000,4.000000,4.000000,4.000000,4.000000,4.000000,4.000000,100.000000
1602006480.148525,117.000000,0.000000,4118.461426,4121.538574,4151.794922,4124.102539,4120.512695,4137.948730,4141.538574,4143.077148,4155.384766,4177.948730,4160.512695,4163.077148,4154.871582,4131.794922,737.000000,4.000000,,,,0.000000,4.000000,4.000000,4.000000,4.000000,4.000000,4.000000,4.000000,4.000000,4.000000,4.000000,4.000000,4.000000,4.000000,4.000000,100.000000
1602006480.156307,118.000000,0.000000,4121.025879,4118.461426,4151.794922,4124.102539,4120.512695,4137.436035,4140.000000,4142.563965,4149.743652,4170.256348,4160.000000,4156.410156,4159.487305,4141.538574,870.000000,4.000000,,,,0.000000,4.000000,4.000000,4.000000,4.000000,4.000000,4.000000,4.000000,4.000000,4.000000,4.000000,4.000000,4.000000,4.000000,4.000000,100.000000
1602006480.164188,119.000000,0.000000,4118.974121,4123.077148,4138.974121,4126.666504,4119.487305,4134.871582,4132.820313,4133.333496,4143.589844,4147.692383,4153.846191,4150.256348,4156.410156,4125.128418,841.000000,4.000000,,,,0.000000,4.000000,4.000000,4.000000,4.000000,4.000000,4.000000,4.000000,4.000000,4.000000,4.000000,4.000000,4.000000,4.000000,4.000000,100.000000
1602006480.172070,120.000000,0.000000,4115.897461,4126.153809,4125.128418,4126.666504,4119.487305,4132.307617,4124.102539,4123.589844,4142.563965,4149.230957,4144.102539,4144.615234,4142.563965,4112.820313,770.000000,4.000000,,,,0.000000,4.000000,4.000000,4.000000,4.000000,4.000000,4.000000,4.000000,4.000000,4.000000,4.000000,4.000000,4.000000,4.000000,4.000000,100.000000
1602006480.179951,121.000000,0.000000,4117.948730,4129.743652,4120.512695,4124.615234,4120.000000,4126.666504,4113.846191,4120.512695,4141.025879,4152.820313,4125.641113,4131.282227,4129.230957,4110.256348,737.000000,4.000000,,,,0.000000,4.000000,4.000000,4.000000,4.000000,4.000000,4.000000,4.000000,4.000000,4.000000,4.000000,4.000000,4.000000,4.000000,4.000000,100.000000
1602006480.187833,122.000000,0.000000,4123.077148,4136.922852,4114.358887,4129.743652,4122.563965,4125.128418,4107.179688,4119.487305,4134.871582,4138.461426,4116.922852,4119.487305,4122.563965,4093.846191,870.000000,4.000000,,,,0.000000,4.000000,4.000000,4.000000,4.000000,4.000000,4.000000,4.000000,4.000000,4.000000,4.000000,4.000000,4.000000,4.000000,4.000000,100.000000
1602006480.195715,123.000000,0.000000,4122.051270,4140.512695,4105.641113,4133.846191,4124.615234,4125.641113,4107.692383,4120.512695,4128.717773,4138.461426,4122.051270,4120.512695,4121.538574,4082.564209,841.000000,4.000000,,,,0.000000,4.000000,4.000000,4.000000,4.000000,4.000000,4.000000,4.000000,4.000000,4.000000,4.000000,4.000000,4.000000,4.000000,4.000000,100.000000
1602006480.203596,124.000000,0.000000,4122.563965,4140.512695,4109.743652,4127.692383,4123.589844,4126.153809,4111.794922,4121.538574,4127.692383,4151.282227,4121.538574,4123.077148,4125.128418,4097.948730,770.000000,4.000000,,,,0.000000,4.000000,4.000000,4.000000,4.000000,4.000000,4.000000,4.000000,4.000000,4.000000,4.000000,4.000000,4.000000,4.000000,4.000000,100.000000
1602006480.211478,125.000000,0.000000,4128.205078,4138.461426,4120.512695,4122.563965,4121.538574,4130.769043,4117.436035,4121.025879,4134.358887,4147.179688,4118.974121,4124.102539,4124.102539,4110.256348,737.000000,4.000000,,,,0.000000,4.000000,4.000000,4.000000,4.000000,4.000000,4.000000,4.000000,4.000000,4.000000,4.000000,4.000000,4.000000,4.000000,4.000000,100.000000
1602006480.219360,126.000000,0.000000,4125.128418,4142.563965,4125.641113,4129.230957,4125.128418,4139.487305,4128.205078,4125.641113,4139.487305,4130.769043,4121.538574,4131.794922,4121.538574,4104.615234,870.000000,4.000000,,,,0.000000,4.000000,4.000000,4.000000,4.000000,4.000000,4.000000,4.000000,4.000000,4.000000,4.000000,4.000000,4.000000,4.000000,4.000000,100.000000
1602006480.227341,127.000000,0.000000,4128.717773,4152.820313,4133.846191,4139.487305,4129.743652,4143.589844,4140.512695,4135.384766,4135.384766,4132.820313,4129.743652,4146.666504,4127.179688,4108.717773,841.000000,4.000000,,,,0.000000,4.000000,4.000000,4.000000,4.000000,4.000000,4.000000,4.000000,4.000000,4.000000,4.000000,4.000000,4.000000,4.000000,4.000000,100.000000
1602006480.235222,128.000000,0.000000,4143.077148,4151.794922,4152.307617,4142.051270,4126.153809,4142.051270,4145.128418,4138.974121,4135.384766,4157.436035,4141.538574,4156.410156,4140.000000,4126.153809,770.000000,4.000000,,,,0.000000,4.000000,4.000000,4.000000,4.000000,4.000000,4.000000,4.000000,4.000000,4.000000,4.000000,4.000000,4.000000,4.000000,4.000000,100.000000
1602006480.243103,0.000000,0.000000,4141.538574,4137.436035,4154.871582,4134.871582,4119.487305,4140.000000,4143.589844,4136.922852,4141.025879,4162.563965,4141.025879,4157.436035,4142.051270,4129.230957,793.000000,4.000000,,,,0.000000,4.000000,4.000000,4.000000,4.000000,4.000000,4.000000,4.000000,4.000000,4.000000,4.000000,4.000000,4.000000,4.000000,4.000000,100.000000
1602006480.250885,1.000000,0.000000,4121.538574,4124.615234,4140.000000,4124.615234,4117.436035,4131.282227,4140.512695,4136.922852,4135.384766,4131.794922,4124.615234,4151.794922,4127.179688,4114.871582,790.000000,4.000000,,,,0.000000,4.000000,4.000000,4.000000,4.000000,4.000000,4.000000,4.000000,4.000000,4.000000,4.000000,4.000000,4.000000,4.000000,4.000000,100.000000
1602006480.258766,2.000000,0.000000,4106.153809,4119.487305,4132.307617,4121.025879,4121.025879,4126.153809,4140.512695,4137.436035,4130.256348,4124.102539,4118.461426,4145.641113,4117.948730,4105.128418,853.000000,4.000000,,,,0.000000,4.000000,4.000000,4.000000,4.000000,4.000000,4.000000,4.000000,4.000000,4.000000,4.000000,4.000000,4.000000,4.000000,4.000000,100.000000
1602006480.266647,3.000000,0.000000,4106.666504,4122.051270,4131.282227,4123.077148,4124.102539,4132.307617,4140.512695,4135.897461,4138.461426,4154.358887,4126.666504,4144.102539,4124.102539,4108.717773,821.000000,4.000000,,,,0.000000,4.000000,4.000000,4.000000,4.000000,4.000000,4.000000,4.000000,4.000000,4.000000,4.000000,4.000000,4.000000,4.000000,4.000000,100.000000
1602006480.274529,4.000000,0.000000,4110.769043,4125.641113,4125.641113,4123.077148,4123.589844,4137.948730,4136.922852,4132.307617,4139.487305,4158.461426,4125.641113,4142.051270,4120.512695,4108.205078,809.000000,4.000000,,,,0.000000,4.000000,4.000000,4.000000,4.000000,4.000000,4.000000,4.000000,4.000000,4.000000,4.000000,4.000000,4.000000,4.000000,4.000000,100.000000
1602006480.282410,5.000000,0.000000,4107.179688,4123.077148,4122.051270,4121.538574,4122.563965,4138.461426,4134.871582,4127.692383,4123.589844,4128.205078,4112.307617,4138.461426,4106.666504,4092.820557,818.000000,4.000000,,,,0.000000,4.000000,4.000000,4.000000,4.000000,4.000000,4.000000,4.000000,4.000000,4.000000,4.000000,4.000000,4.000000,4.000000,4.000000,100.000000
1602006480.290292,6.000000,0.000000,4101.538574,4120.512695,4122.563965,4121.025879,4122.051270,4133.333496,4133.846191,4122.563965,4109.743652,4114.871582,4107.179688,4135.384766,4105.641113,4084.102539,763.000000,4.000000,,,,0.000000,4.000000,4.000000,4.000000,4.000000,4.000000,4.000000,4.000000,4.000000,4.000000,4.000000,4.000000,4.000000,4.000000,4.000000,100.000000
1602006480.298173,7.000000,0.000000,4105.128418,4121.025879,4120.000000,4119.487305,4117.436035,4124.102539,4129.743652,4118.974121,4109.743652,4124.102539,4112.307617,4133.846191,4105.128418,4087.692383,673.000000,4.000000,,,,0.000000,4.000000,4.000000,4.000000,4.000000,4.000000,4.000000,4.000000,4.000000,4.000000,4.000000,4.000000,4.000000,4.000000,4.000000,100.000000
1602006480.305955,8.000000,0.000000,4121.538574,4127.179688,4124.102539,4126.153809,4115.384766,4122.563965,4128.205078,4124.615234,4120.512695,4133.333496,4117.436035,4141.025879,4103.589844,4098.461426,784.000000,4.000000,,,,0.000000,4.000000,4.000000,4.000000,4.000000,4.000000,4.000000,4.000000,4.000000,4.000000,4.000000,4.000000,4.000000,4.000000,4.000000,100.000000
1602006480.313836,9.000000,0.000000,4138.974121,4145.641113,4139.487305,4144.615234,4124.102539,4135.384766,4137.948730,4139.487305,4136.410156,4137.436035,4129.743652,4159.487305,4126.153809,4123.589844,836.000000,4.000000,,,,0.000000,4.000000,4.000000,4.000000,4.000000,4.000000,4.000000,4.000000,4.000000,4.000000,4.000000,4.000000,4.000000,4.000000,4.000000,100.000000
1602006480.321717,10.000000,0.000000,4145.128418,4157.436035,4153.333496,4151.794922,4130.769043,4143.589844,4151.282227,4151.282227,4151.282227,4145.128418,4143.077148,4170.256348,4145.128418,4142.051270,870.000000,4.000000,,,,0.000000,4.000000,4.000000,4.000000,4.000000,4.000000,4.000000,4.000000,4.000000,4.000000,4.000000,4.000000,4.000000,4.000000,4.000000,100.000000
1602006480.329599,11.000000,0.000000,4141.538574,4148.717773,4151.794922,4142.563965,4124.615234,4139.487305,4151.282227,4151.282227,4156.922852,4156.922852,4142.051270,4164.102539,4140.000000,4131.794922,841.000000,4.000000,,,,0.000000,4.000000,4.000000,4.000000,4.000000,4.000000,4.000000,4.000000,4.000000,4.000000,4.000000,4.000000,4.000000,4.000000,4.000000,100.000000
1602006480.337480,12.000000,0.000000,4140.000000,4138.461426,4143.077148,4137.948730,4116.922852,4134.871582,4140.000000,4144.102539,4156.922852,4151.282227,4137.436035,4160.000000,4135.897461,4116.410156,770.000000,4.000000,,,,0.000000,4.000000,4.000000,4.000000,4.000000,4.000000,4.000000,4.000000,4.000000,4.000000,4.000000,4.000000,4.000000,4.000000,4.000000,100.000000
1602006480.345362,13.000000,0.000000,4142.563965,4141.025879,4144.102539,4143.589844,4122.051270,4133.846191,4134.871582,4141.025879,4157.436035,4143.077148,4137.948730,4162.051270,4138.461426,4118.974121,737.000000,4.000000,,,,0.000000,4.000000,4.000000,4.000000,4.000000,4.000000,4.000000,4.000000,4.000000,4.000000,4.000000,4.000000,4.000000,4.000000,4.000000,100.000000
1602006480.353343,14.000000,0.000000,4138.974121,4142.051270,4145.128418,4142.051270,4127.692383,4136.922852,4137.436035,4141.538574,4153.846191,4150.769043,4130.256348,4160.000000,4130.769043,4121.025879,870.000000,4.000000,,,,0.000000,4.000000,4.000000,4.000000,4.000000,4.000000,4.000000,4.000000,4.000000,4.000000,4.000000,4.000000,4.000000,4.000000,4.000000,100.000000
1602006480.361225,15.000000,0.000000,4124.615234,4130.256348,4131.282227,4131.794922,4124.615234,4134.358887,4133.846191,4133.846191,4138.974121,4152.820313,4116.922852,4146.666504,4118.974121,4109.230957,841.000000,4.000000,,,,0.000000,4.000000,4.000000,4.000000,4.000000,4.000000,4.000000,4.000000,4.000000,4.000000,4.000000,4.000000,4.000000,4.000000,4.000000,100.000000
1602006480.369106,16.000000,0.000000,4114.358887,4124.102539,4120.000000,4127.179688,4123.589844,4132.820313,4131.282227,4123.077148,4130.256348,4143.077148,4115.897461,4136.922852,4116.410156,4092.820557,0.000000,4.000000,,,,0.000000,4.000000,4.000000,4.000000,4.000000,4.000000,4.000000,4.000000,4.000000,4.000000,4.000000,4.000000,4.000000,4.000000,4.000000,100.000000
1602006480.376988,17.000000,0.000000,4109.743652,4122.051270,4121.538574,4126.153809,4128.717773,4148.205078,4138.461426,4123.077148,4140.000000,4140.000000,4118.974121,4137.436035,4120.000000,4085.641113,0.000000,4.000000,,,,0.000000,4.000000,4.000000,4.000000,4.000000,4.000000,4.000000,4.000000,4.000000,4.000000,4.000000,4.000000,4.000000,4.000000,4.000000,100.000000
1602006480.384870,18.000000,0.000000,4102.563965,4118.974121,4115.897461,4125.641113,4129.230957,4152.307617,4141.025879,4125.128418,4140.000000,4140.512695,4114.871582,4138.461426,4115.384766,4088.718018,0.000000,4.000000,,,,0.000000,4.000000,4.000000,4.000000,4.000000,4.000000,4.000000,4.000000,4.000000,4.000000,4.000000,4.000000,4.000000,4.000000,4.000000,100.000000
1602006480.392751,19.000000,0.000000,4110.769043,4134.871582,4113.846191,4133.333496,4126.153809,4138.974121,4136.410156,4120.000000,4122.563965,4136.410156,4115.384766,4134.871582,4104.615234,4095.897461,0.000000,4.000000,,,,0.000000,4.000000,4.000000,4.000000,4.000000,4.000000,4.000000,4.000000,4.000000,4.000000,4.000000,4.000000,4.000000,4.000000,4.000000,100.000000
1602006480.400633,20.000000,0.000000,4132.307617,4157.436035,4123.589844,4140.512695,4126.666504,4134.871582,4129.743652,4116.922852,4114.358887,4121.025879,4123.589844,4132.820313,4104.102539,4102.563965,0.000000,4.000000,,,,0.000000,4.000000,4.000000,4.000000,4.000000,4.000000,4.000000,4.000000,4.000000,4.000000,4.000000,4.000000,4.000000,4.000000,4.000000,100.000000
1602006480.408515,21.000000,0.000000,4146.153809,4156.922852,4127.179688,4139.487305,4127.179688,4132.307617,4124.102539,4120.000000,4117.948730,4101.025879,4124.615234,4142.051270,4107.179688,4107.179688,0.000000,4.000000,,,,0.000000,4.000000,4.000000,4.000000,4.000000,4.000000,4.000000,4.000000,4.000000,4.000000,4.000000,4.000000,4.000000,4.000000,4.000000,100.000000
1602006480.416396,22.000000,0.000000,4153.846191,4150.769043,4129.743652,4145.128418,4125.128418,4128.205078,4128.717773,4122.563965,4124.102539,4113.333496,4122.051270,4154.871582,4106.153809,4111.282227,0.000000,4.000000,,,,0.000000,4.000000,4.000000,4.000000,4.000000,4.000000,4.000000,4.000000,4.000000,4.000000,4.000000,4.000000,4.000000,4.000000,4.000000,100.000000
1602006480.424378,23.000000,0.000000,4156.410156,4156.922852,4139.487305,4151.794922,4123.589844,4131.282227,4136.922852,4123.077148,4134.871582,4150.769043,4124.102539,4157.436035,4115.897461,4110.769043,0.000000,4.000000,,,,0.000000,4.000000,4.000000,4.000000,4.000000,4.000000,4.000000,4.000000,4.000000,4.000000,4.000000,4.000000,4.000000,4.000000,4.000000,100.000000
1602006480.432259,24.000000,0.000000,4150.256348,4158.461426,4143.589844,4141.538574,4124.102539,4130.769043,4135.897461,4121.025879,4138.461426,4159.487305,4122.051270,4151.794922,4121.538574,4107.692383,0.000000,4.000000,,,,0.000000,4.000000,4.000000,4.000000,4.000000,4.000000,4.000000,4.000000,4.000000,4.000000,4.000000,4.000000,4.000000,4.000000,4.000000,100.000000
1602006480.440141,25.000000,0.000000,4149.743652,4156.922852,4144.102539,4141.025879,4125.641113,4125.128418,4134.358887,4120.000000,4127.179688,4147.692383,4117.948730,4151.794922,4109.743652,4105.641113,0.000000,4.000000,,,,0.000000,4.000000,4.000000,4.000000,4.000000,4.000000,4.000000,4.000000,4.000000,4.000000,4.000000,4.000000,4.000000,4.000000,4.000000,100.000000
1602006480.448023,26.000000,0.000000,4155.897461,4157.948730,4154.358887,4154.358887,4124.102539,4129.230957,4135.897461,4121.025879,4120.000000,4146.153809,4121.538574,4155.384766,4108.205078,4109.230957,0.000000,4.000000,,,,0.000000,4.000000,4.000000,4.000000,4.000000,4.000000,4.000000,4.000000,4.000000,4.000000,4.000000,4.000000,4.000000,4.000000,4.000000,100.000000
1602006480.455904,27.000000,0.000000,4153.333496,4153.846191,4160.512695,4150.256348,4119.487305,4125.128418,4126.666504,4122.563965,4123.077148,4141.538574,4127.692383,4154.358887,4123.077148,4120.512695,0.000000,4.000000,,,,0.000000,4.000000,4.000000,4.000000,4.000000,4.000000,4.000000,4.000000,4.000000,4.000000,4.000000,4.000000,4.000000,4.000000,4.000000,100.000000
1602006480.463786,28.000000,0.000000,4149.230957,4153.333496,4150.769043,4137.948730,4116.922852,4109.230957,4116.922852,4122.563965,4122.051270,4137.948730,4129.230957,4151.282227,4126.153809,4124.615234,0.000000,4.000000,,,,0.000000,4.000000,4.000000,4.000000,4.000000,4.000000,4.000000,4.000000,4.000000,4.000000,4.000000,4.000000,4.000000,4.000000,4.000000,100.000000
1602006480.471668,29.000000,0.000000,4153.333496,4157.948730,4138.974121,4144.615234,4125.128418,4113.333496,4122.051270,4122.563965,4118.974121,4137.436035,4126.153809,4151.794922,4121.025879,4117.436035,0.000000,4.000000,,,,0.000000,4.000000,4.000000,4.000000,4.000000,4.000000,4.000000,4.000000,4.000000,4.000000,4.000000,4.000000,4.000000,4.000000,4.000000,100.000000
1602006480.479549,30.000000,0.000000,4154.871582,4159.487305,4138.974121,4156.922852,4137.436035,4129.743652,4127.179688,4124.615234,4122.051270,4129.230957,4126.666504,4152.820313,4123.589844,4122.563965,0.000000,4.000000,,,,0.000000,4.000000,4.000000,4.000000,4.000000,4.000000,4.000000,4.000000,4.000000,4.000000,4.000000,4.000000,4.000000,4.000000,4.000000,100.000000
1602006480.487531,31.000000,0.000000,4141.025879,4155.384766,4137.436035,4150.256348,4135.384766,4125.128418,4121.538574,4121.538574,4121.538574,4122.051270,4123.589844,4140.000000,4119.487305,4119.487305,0.000000,4.000000,,,,0.000000,4.000000,4.000000,4.000000,4.000000,4.000000,4.000000,4.000000,4.000000,4.000000,4.000000,4.000000,4.000000,4.000000,4.000000,100.000000
1602006480.495412,32.000000,0.000000,4124.102539,4150.256348,4129.230957,4135.384766,4123.077148,4108.717773,4117.948730,4113.846191,4110.256348,4118.974121,4108.205078,4125.128418,4105.128418,4092.820557,0.000000,4.000000,,,,0.000000,4.000000,4.000000,4.000000,4.000000,4.000000,4.000000,4.000000,4.000000,4.000000,4.000000,4.000000,4.000000,4.000000,4.000000,100.000000
1602006480.503294,33.000000,0.000000,4128.717773,4150.256348,4128.717773,4136.922852,4120.000000,4117.436035,4126.153809,4120.512695,4109.743652,4122.051270,4104.615234,4136.410156,4106.153809,4092.820557,0.000000,4.000000,,,,0.000000,4.000000,4.000000,4.000000,4.000000,4.000000,4.000000,4.000000,4.000000,4.000000,4.000000,4.000000,4.000000,4.000000,4.000000,100.000000
1602006480.511176,34.000000,0.000000,4145.641113,4154.871582,4140.512695,4148.205078,4123.589844,4136.922852,4135.897461,4137.436035,4127.692383,4130.256348,4117.948730,4154.358887,4119.487305,4118.974121,0.000000,4.000000,,,,0.000000,4.000000,4.000000,4.000000,4.000000,4.000000,4.000000,4.000000,4.000000,4.000000,4.000000,4.000000,4.000000,4.000000,4.000000,100.000000
1602006480.519057,35.000000,0.000000,4153.846191,4158.974121,4152.307617,4152.307617,4124.102539,4138.974121,4141.025879,4143.077148,4137.436035,4137.948730,4125.641113,4154.358887,4127.179688,4125.641113,0.000000,4.000000,,,,0.000000,4.000000,4.000000,4.000000,4.000000,4.000000,4.000000,4.000000,4.000000,4.000000,4.000000,4.000000,4.000000,4.000000,4.000000,100.000000
1602006480.526939,36.000000,0.000000,4155.384766,4160.000000,4157.948730,4151.282227,4123.589844,4137.436035,4143.077148,4140.000000,4137.436035,4140.512695,4131.282227,4152.307617,4127.179688,4126.666504,0.000000,4.000000,,,,0.000000,4.000000,4.000000,4.000000,4.000000,4.000000,4.000000,4.000000,4.000000,4.000000,4.000000,4.000000,4.000000,4.000000,4.000000,100.000000
1602006480.534821,37.000000,0.000000,4155.384766,4156.410156,4155.384766,4146.666504,4123.077148,4134.358887,4141.538574,4141.025879,4138.461426,4144.102539,4133.846191,4152.820313,4126.666504,4133.846191,0.000000,4.000000,,,,0.000000,4.000000,4.000000,4.000000,4.000000,4.000000,4.000000,4.000000,4.000000,4.000000,4.000000,4.000000,4.000000,4.000000,4.000000,100.000000
1602006480.542702,38.000000,0.000000,4149.743652,4152.820313,4151.794922,4143.589844,4123.077148,4127.179688,4138.974121,4140.512695,4129.230957,4138.974121,4120.512695,4144.102539,4120.000000,4121.538574,0.000000,4.000000,,,,0.000000,4.000000,4.000000,4.000000,4.000000,4.000000,4.000000,4.000000,4.000000,4.000000,4.000000,4.000000,4.000000,4.000000,4.000000,100.000000
1602006480.550584,39.000000,0.000000,4140.512695,4151.794922,4151.794922,4143.589844,4123.077148,4131.794922,4138.461426,4133.846191,4117.436035,4120.000000,4112.820313,4135.897461,4110.769043,4108.717773,0.000000,4.000000,,,,0.000000,4.000000,4.000000,4.000000,4.000000,4.000000,4.000000,4.000000,4.000000,4.000000,4.000000,4.000000,4.000000,4.000000,4.000000,100.000000
1602006480.558466,40.000000,0.000000,4134.871582,4150.256348,4145.641113,4140.000000,4125.641113,4142.051270,4136.922852,4127.179688,4120.512695,4117.948730,4124.102539,4139.487305,4113.333496,4120.000000,0.000000,4.000000,,,,0.000000,4.000000,4.000000,4.000000,4.000000,4.000000,4.000000,4.000000,4.000000,4.000000,4.000000,4.000000,4.000000,4.000000,4.000000,100.000000
1602006480.566247,41.000000,0.000000,4136.410156,4150.769043,4140.000000,4137.948730,4133.846191,4144.615234,4133.333496,4125.641113,4122.051270,4126.153809,4125.128418,4142.563965,4118.974121,4126.666504,0.000000,4.000000,,,,0.000000,4.000000,4.000000,4.000000,4.000000,4.000000,4.000000,4.000000,4.000000,4.000000,4.000000,4.000000,4.000000,4.000000,4.000000,100.000000
1602006480.574128,42.000000,0.000000,4146.153809,4157.948730,4141.025879,4141.025879,4140.512695,4143.589844,4134.871582,4125.128418,4114.871582,4125.128418,4118.974121,4132.820313,4120.512695,4116.410156,0.000000,4.000000,,,,0.000000,4.000000,4.000000,4.000000,4.000000,4.000000,4.000000,4.000000,4.000000,4.000000,4.000000,4.000000,4.000000,4.000000,4.000000,100.000000
1602006480.582010,43.000000,0.000000,4146.666504,4158.461426,4141.025879,4142.051270,4139.487305,4140.512695,4133.333496,4123.077148,4117.948730,4123.589844,4126.666504,4127.692383,4122.051270,4106.153809,0.000000,4.000000,,,,0.000000,4.000000,4.000000,4.000000,4.000000,4.000000,4.000000,4.000000,4.000000,4.000000,4.000000,4.000000,4.000000,4.000000,4.000000,100.000000
1602006480.589891,44.000000,0.000000,4130.769043,4152.307617,4137.436035,4143.589844,4137.436035,4135.897461,4123.589844,4121.025879,4118.461426,4125.128418,4126.666504,4131.282227,4114.871582,4103.077148,0.000000,4.000000,,,,0.000000,4.000000,4.000000,4.000000,4.000000,4.000000,4.000000,4.000000,4.000000,4.000000,4.000000,4.000000,4.000000,4.000000,4.000000,100.000000
1602006480.597773,45.000000,0.000000,4132.307617,4161.025879,4137.436035,4150.769043,4136.922852,4135.897461,4117.436035,4120.512695,4111.282227,4129.230957,4122.563965,4131.282227,4110.256348,4111.794922,0.000000,4.000000,,,,0.000000,4.000000,4.000000,4.000000,4.000000,4.000000,4.000000,4.000000,4.000000,4.000000,4.000000,4.000000,4.000000,4.000000,4.000000,100.000000
1602006480.605654,46.000000,0.000000,4148.717773,4168.205078,4137.436035,4153.333496,4136.410156,4135.897461,4122.051270,4127.692383,4122.051270,4138.974121,4130.769043,4131.794922,4128.717773,4131.282227,0.000000,4.000000,,,,0.000000,4.000000,4.000000,4.000000,4.000000,4.000000,4.000000,4.000000,4.000000,4.000000,4.000000,4.000000,4.000000,4.000000,4.000000,100.000000
1602006480.613535,47.000000,0.000000,4144.615234,4162.051270,4135.897461,4149.230957,4137.436035,4136.410156,4130.769043,4143.077148,4136.410156,4143.077148,4144.102539,4142.563965,4151.794922,4141.538574,0.000000,4.000000,,,,0.000000,4.000000,4.000000,4.000000,4.000000,4.000000,4.000000,4.000000,4.000000,4.000000,4.000000,4.000000,4.000000,4.000000,4.000000,100.000000
1602006480.621417,48.000000,0.000000,4141.025879,4164.102539,4143.077148,4149.743652,4137.436035,4145.128418,4135.897461,4152.820313,4139.487305,4140.512695,4157.436035,4154.358887,4155.384766,4142.563965,0.000000,4.000000,,,,0.000000,4.000000,4.000000,4.000000,4.000000,4.000000,4.000000,4.000000,4.000000,4.000000,4.000000,4.000000,4.000000,4.000000,4.000000,100.000000
1602006480.629199,49.000000,0.000000,4159.487305,4170.256348,4157.948730,4154.871582,4140.000000,4155.897461,4142.563965,4155.897461,4148.205078,4151.794922,4170.256348,4158.461426,4160.000000,4148.205078,0.000000,4.000000,,,,0.000000,4.000000,4.000000,4.000000,4.000000,4.000000,4.000000,4.000000,4.000000,4.000000,4.000000,4.000000,4.000000,4.000000,4.000000,100.000000
1602006480.637080,50.000000,0.000000,4158.461426,4160.000000,4156.410156,4151.282227,4139.487305,4154.871582,4144.615234,4151.794922,4153.333496,4167.179688,4162.051270,4152.307617,4166.153809,4142.051270,0.000000,4.000000,,,,0.000000,4.000000,4.000000,4.000000,4.000000,4.000000,4.000000,4.000000,4.000000,4.000000,4.000000,4.000000,4.000000,4.000000,4.000000,100.000000
1602006480.644962,51.000000,0.000000,4129.743652,4147.179688,4140.000000,4137.948730,4129.230957,4146.153809,4140.000000,4141.538574,4141.025879,4169.230957,4137.436035,4138.974121,4152.307617,4127.179688,0.000000,4.000000,,,,0.000000,4.000000,4.000000,4.000000,4.000000,4.000000,4.000000,4.000000,4.000000,4.000000,4.000000,4.000000,4.000000,4.000000,4.000000,100.000000
1602006480.652844,52.000000,0.000000,4118.974121,4144.615234,4131.794922,4131.282227,4123.077148,4147.692383,4137.948730,4137.948730,4137.948730,4167.179688,4138.461426,4134.358887,4140.000000,4120.512695,0.000000,4.000000,,,,0.000000,4.000000,4.000000,4.000000,4.000000,4.000000,4.000000,4.000000,4.000000,4.000000,4.000000,4.000000,4.000000,4.000000,4.000000,100.000000
1602006480.660725,53.000000,0.000000,4120.512695,4134.358887,4126.666504,4128.205078,4126.153809,4150.256348,4140.000000,4138.974121,4137.436035,4161.025879,4155.384766,4131.794922,4139.487305,4110.256348,0.000000,4.000000,,,,0.000000,4.000000,4.000000,4.000000,4.000000,4.000000,4.000000,4.000000,4.000000,4.000000,4.000000,4.000000,4.000000,4.000000,4.000000,100.000000
1602006480.668607,54.000000,0.000000,4111.794922,4124.102539,4120.000000,4121.538574,4123.589844,4138.461426,4142.051270,4134.871582,4122.051270,4145.641113,4150.769043,4126.153809,4134.358887,4105.128418,0.000000,4.000000,,,,0.000000,4.000000,4.000000,4.000000,4.000000,4.000000,4.000000,4.000000,4.000000,4.000000,4.000000,4.000000,4.000000,4.000000,4.000000,100.000000
1602006480.676488,55.000000,0.000000,4110.769043,4129.230957,4126.153809,4124.615234,4119.487305,4136.410156,4149.743652,4141.538574,4124.615234,4138.974121,4136.410156,4130.769043,4131.282227,4120.000000,0.000000,4.000000,,,,0.000000,4.000000,4.000000,4.000000,4.000000,4.000000,4.000000,4.000000,4.000000,4.000000,4.000000,4.000000,4.000000,4.000000,4.000000,100.000000
1602006480.684370,56.000000,0.000000,4124.615234,4137.948730,4136.410156,4136.922852,4129.743652,4152.820313,4157.948730,4153.333496,4138.974121,4139.487305,4135.897461,4143.077148,4135.897461,4129.230957,0.000000,4.000000,,,,0.000000,4.000000,4.000000,4.000000,4.000000,4.000000,4.000000,4.000000,4.000000,4.000000,4.000000,4.000000,4.000000,4.000000,4.000000,100.000000
1602006480.692351,57.000000,0.000000,4127.692383,4136.410156,4135.384766,4135.897461,4134.871582,4150.256348,4150.769043,4144.615234,4134.871582,4135.384766,4138.461426,4142.051270,4128.205078,4125.128418,0.000000,4.000000,,,,0.000000,4.000000,4.000000,4.000000,4.000000,4.000000,4.000000,4.000000,4.000000,4.000000,4.000000,4.000000,4.000000,4.000000,4.000000,100.000000
1602006480.700233,58.000000,0.000000,4122.051270,4132.307617,4133.846191,4130.256348,4124.102539,4130.256348,4139.487305,4134.871582,4129.230957,4136.922852,4140.000000,4135.897461,4119.487305,4120.000000,0.000000,4.000000,,,,0.000000,4.000000,4.000000,4.000000,4.000000,4.000000,4.000000,4.000000,4.000000,4.000000,4.000000,4.000000,4.000000,4.000000,4.000000,100.000000
1602006480.708114,59.000000,0.000000,4130.256348,4140.000000,4144.615234,4136.922852,4124.102539,4137.948730,4147.179688,4146.153809,4140.000000,4153.846191,4150.256348,4148.205078,4131.282227,4114.358887,0.000000,4.000000,,,,0.000000,4.000000,4.000000,4.000000,4.000000,4.000000,4.000000,4.000000,4.000000,4.000000,4.000000,4.000000,4.000000,4.000000,4.000000,100.000000
1602006480.715996,60.000000,0.000000,4135.897461,4150.256348,4155.384766,4142.051270,4136.922852,4155.384766,4155.384766,4155.384766,4149.230957,4163.077148,4151.794922,4157.948730,4143.589844,4121.538574,0.000000,4.000000,,,,0.000000,4.000000,4.000000,4.000000,4.000000,4.000000,4.000000,4.000000,4.000000,4.000000,4.000000,4.000000,4.000000,4.000000,4.000000,100.000000
1602006480.723877,61.000000,0.000000,4131.282227,4152.307617,4153.846191,4141.538574,4138.974121,4147.179688,4147.179688,4151.282227,4153.333496,4152.307617,4150.769043,4145.128418,4140.512695,4138.461426,0.000000,4.000000,,,,0.000000,4.000000,4.000000,4.000000,4.000000,4.000000,4.000000,4.000000,4.000000,4.000000,4.000000,4.000000,4.000000,4.000000,4.000000,100.000000
1602006480.731859,62.000000,0.000000,4134.358887,4153.846191,4151.794922,4142.051270,4134.871582,4135.384766,4136.410156,4149.743652,4156.922852,4145.641113,4162.051270,4141.025879,4137.948730,4133.846191,0.000000,4.000000,,,,0.000000,4.000000,4.000000,4.000000,4.000000,4.000000,4.000000,4.000000,4.000000,4.000000,4.000000,4.000000,4.000000,4.000000,4.000000,100.000000
1602006480.739740,63.000000,0.000000,4140.512695,4153.333496,4154.358887,4143.077148,4133.333496,4140.000000,4139.487305,4154.358887,4150.769043,4140.512695,4165.641113,4153.333496,4138.974121,4121.538574,0.000000,4.000000,,,,0.000000,4.000000,4.000000,4.000000,4.000000,4.000000,4.000000,4.000000,4.000000,4.000000,4.000000,4.000000,4.000000,4.000000,4.000000,100.000000
1602006480.747622,64.000000,0.000000,4140.000000,4144.615234,4152.307617,4140.512695,4126.666504,4141.025879,4143.077148,4151.794922,4138.461426,4123.589844,4153.333496,4148.717773,4135.384766,4128.717773,793.000000,4.000000,,,,0.000000,4.000000,4.000000,4.000000,4.000000,4.000000,4.000000,4.000000,4.000000,4.000000,4.000000,4.000000,4.000000,4.000000,4.000000,100.000000
1602006480.755503,65.000000,0.000000,4135.897461,4136.922852,4141.538574,4132.307617,4121.025879,4136.410156,4140.000000,4142.563965,4130.769043,4123.077148,4141.538574,4135.897461,4129.230957,4138.461426,790.000000,4.000000,,,,0.000000,4.000000,4.000000,4.000000,4.000000,4.000000,4.000000,4.000000,4.000000,4.000000,4.000000,4.000000,4.000000,4.000000,4.000000,100.000000
1602006480.763385,66.000000,0.000000,4126.153809,4131.794922,4129.230957,4122.563965,4123.589844,4137.948730,4138.461426,4137.436035,4124.102539,4144.615234,4138.461426,4136.922852,4123.589844,4122.563965,853.000000,4.000000,,,,0.000000,4.000000,4.000000,4.000000,4.000000,4.000000,4.000000,4.000000,4.000000,4.000000,4.000000,4.000000,4.000000,4.000000,4.000000,100.000000
1602006480.771267,67.000000,0.000000,4118.461426,4123.589844,4126.153809,4118.974121,4124.102539,4135.897461,4139.487305,4134.871582,4121.025879,4155.897461,4136.922852,4133.846191,4120.512695,4102.563965,856.000000,4.000000,,,,0.000000,4.000000,4.000000,4.000000,4.000000,4.000000,4.000000,4.000000,4.000000,4.000000,4.000000,4.000000,4.000000,4.000000,4.000000,100.000000
1602006480.779148,68.000000,0.000000,4116.922852,4120.000000,4134.358887,4120.512695,4122.563965,4137.436035,4140.512695,4134.871582,4118.461426,4142.563965,4137.948730,4125.128418,4122.563965,4110.256348,809.000000,4.000000,,,,0.000000,4.000000,4.000000,4.000000,4.000000,4.000000,4.000000,4.000000,4.000000,4.000000,4.000000,4.000000,4.000000,4.000000,4.000000,100.000000
1602006480.787030,69.000000,0.000000,4111.282227,4125.641113,4138.974121,4121.025879,4126.153809,4149.743652,4142.051270,4135.897461,4111.282227,4137.436035,4143.077148,4129.230957,4124.102539,4128.717773,818.000000,4.000000,,,,0.000000,4.000000,4.000000,4.000000,4.000000,4.000000,4.000000,4.000000,4.000000,4.000000,4.000000,4.000000,4.000000,4.000000,4.000000,100.000000
1602006480.794812,70.000000,0.000000,4111.282227,4131.282227,4135.897461,4124.102539,4128.717773,4149.230957,4145.641113,4136.922852,4104.102539,4142.563965,4141.025879,4136.410156,4123.077148,4125.641113,788.000000,4.000000,,,,0.000000,4.000000,4.000000,4.000000,4.000000,4.000000,4.000000,4.000000,4.000000,4.000000,4.000000,4.000000,4.000000,4.000000,4.000000,100.000000
1602006480.802693,71.000000,0.000000,4117.948730,4137.436035,4135.384766,4127.179688,4125.641113,4135.897461,4145.641113,4136.922852,4106.666504,4127.692383,4136.410156,4141.538574,4128.205078,4119.487305,673.000000,4.000000,,,,0.000000,4.000000,4.000000,4.000000,4.000000,4.000000,4.000000,4.000000,4.000000,4.000000,4.000000,4.000000,4.000000,4.000000,4.000000,100.000000
1602006480.810574,72.000000,0.000000,4116.410156,4140.512695,4140.512695,4128.717773,4123.077148,4138.974121,4143.589844,4139.487305,4115.897461,4107.692383,4150.769043,4148.205078,4139.487305,4132.307617,784.000000,4.000000,,,,0.000000,4.000000,4.000000,4.000000,4.000000,4.000000,4.000000,4.000000,4.000000,4.000000,4.000000,4.000000,4.000000,4.000000,4.000000,100.000000
1602006480.818456,73.000000,0.000000,4109.743652,4140.000000,4144.615234,4135.897461,4126.153809,4151.282227,4143.589844,4138.974121,4122.051270,4117.948730,4163.077148,4147.179688,4141.025879,4142.051270,836.000000,4.000000,,,,0.000000,4.000000,4.000000,4.000000,4.000000,4.000000,4.000000,4.000000,4.000000,4.000000,4.000000,4.000000,4.000000,4.000000,4.000000,100.000000
1602006480.826337,74.000000,0.000000,4110.256348,4140.000000,4141.025879,4141.025879,4126.153809,4141.025879,4138.974121,4133.333496,4123.077148,4136.922852,4144.615234,4131.282227,4128.717773,4135.897461,870.000000,4.000000,,,,0.000000,4.000000,4.000000,4.000000,4.000000,4.000000,4.000000,4.000000,4.000000,4.000000,4.000000,4.000000,4.000000,4.000000,4.000000,100.000000
1602006480.834219,75.000000,0.000000,4118.974121,4136.410156,4129.743652,4135.897461,4122.051270,4127.179688,4134.871582,4132.820313,4114.871582,4130.256348,4131.794922,4120.000000,4120.000000,4124.615234,841.000000,4.000000,,,,0.000000,4.000000,4.000000,4.000000,4.000000,4.000000,4.000000,4.000000,4.000000,4.000000,4.000000,4.000000,4.000000,4.000000,4.000000,100.000000
1602006480.842000,76.000000,0.000000,4123.077148,4128.717773,4122.051270,4126.666504,4121.538574,4134.358887,4138.974121,4135.384766,4110.256348,4124.615234,4141.025879,4123.589844,4121.025879,4116.410156,770.000000,4.000000,,,,0.000000,4.000000,4.000000,4.000000,4.000000,4.000000,4.000000,4.000000,4.000000,4.000000,4.000000,4.000000,4.000000,4.000000,4.000000,100.000000
1602006480.849882,77.000000,0.000000,4109.743652,4123.589844,4120.512695,4122.051270,4123.077148,4136.410156,4142.051270,4137.436035,4117.948730,4134.871582,4138.461426,4121.025879,4124.102539,4115.384766,737.000000,4.000000,,,,0.000000,4.000000,4.000000,4.000000,4.000000,4.000000,4.000000,4.000000,4.000000,4.000000,4.000000,4.000000,4.000000,4.000000,4.000000,100.000000
1602006480.857764,78.000000,0.000000,4100.512695,4122.563965,4121.538574,4122.051270,4123.589844,4128.205078,4144.102539,4138.461426,4122.051270,4140.000000,4122.051270,4114.358887,4125.128418,4115.384766,870.000000,4.000000,,,,0.000000,4.000000,4.000000,4.000000,4.000000,4.000000,4.000000,4.000000,4.000000,4.000000,4.000000,4.000000,4.000000,4.000000,4.000000,100.000000
1602006480.865645,79.000000,0.000000,4111.282227,4124.615234,4124.102539,4123.589844,4123.589844,4132.307617,4145.641113,4138.974121,4129.743652,4134.871582,4118.461426,4118.461426,4125.641113,4110.769043,841.000000,4.000000,,,,0.000000,4.000000,4.000000,4.000000,4.000000,4.000000,4.000000,4.000000,4.000000,4.000000,4.000000,4.000000,4.000000,4.000000,4.000000,100.000000
1602006480.873527,80.000000,0.000000,4113.846191,4125.641113,4123.589844,4123.589844,4123.589844,4142.563965,4140.512695,4137.436035,4134.358887,4138.974121,4126.666504,4125.128418,4121.025879,4104.615234,770.000000,4.000000,,,,0.000000,4.000000,4.000000,4.000000,4.000000,4.000000,4.000000,4.000000,4.000000,4.000000,4.000000,4.000000,4.000000,4.000000,4.000000,100.000000
1602006480.881409,81.000000,0.000000,4106.666504,4124.102539,4123.589844,4120.512695,4125.128418,4143.589844,4135.897461,4134.871582,4122.563965,4146.153809,4129.743652,4123.589844,4114.358887,4109.230957,737.000000,4.000000,,,,0.000000,4.000000,4.000000,4.000000,4.000000,4.000000,4.000000,4.000000,4.000000,4.000000,4.000000,4.000000,4.000000,4.000000,4.000000,100.000000
1602006480.889290,82.000000,0.000000,4106.153809,4122.051270,4122.563965,4120.512695,4126.153809,4135.384766,4131.794922,4128.205078,4111.282227,4124.615234,4123.077148,4118.461426,4105.128418,4108.717773,870.000000,4.000000,,,,0.000000,4.000000,4.000000,4.000000,4.000000,4.000000,4.000000,4.000000,4.000000,4.000000,4.000000,4.000000,4.000000,4.000000,4.000000,100.000000
1602006480.897172,83.000000,0.000000,4108.717773,4123.077148,4115.384766,4126.153809,4124.615234,4124.615234,4124.102539,4120.000000,4119.487305,4097.436035,4111.794922,4115.897461,4096.410156,4094.358887,841.000000,4.000000,,,,0.000000,4.000000,4.000000,4.000000,4.000000,4.000000,4.000000,4.000000,4.000000,4.000000,4.000000,4.000000,4.000000,4.000000,4.000000,100.000000
1602006480.905153,84.000000,0.000000,4108.205078,4124.615234,4112.820313,4126.153809,4123.589844,4122.051270,4122.051270,4126.153809,4125.641113,4108.717773,4108.717773,4115.384766,4096.410156,4090.769287,770.000000,4.000000,,,,0.000000,4.000000,4.000000,4.000000,4.000000,4.000000,4.000000,4.000000,4.000000,4.000000,4.000000,4.000000,4.000000,4.000000,4.000000,100.000000
1602006480.913034,85.000000,0.000000,4110.256348,4125.641113,4121.025879,4123.077148,4122.051270,4125.128418,4131.794922,4136.922852,4121.025879,4130.769043,4115.384766,4118.461426,4103.077148,4102.563965,737.000000,4.000000,,,,0.000000,4.000000,4.000000,4.000000,4.000000,4.000000,4.000000,4.000000,4.000000,4.000000,4.000000,4.000000,4.000000,4.000000,4.000000,100.000000
1602006480.920916,86.000000,0.000000,4119.487305,4130.256348,4125.641113,4131.282227,4124.102539,4125.641113,4138.974121,4137.948730,4122.051270,4128.717773,4127.692383,4128.717773,4115.897461,4115.897461,870.000000,4.000000,,,,0.000000,4.000000,4.000000,4.000000,4.000000,4.000000,4.000000,4.000000,4.000000,4.000000,4.000000,4.000000,4.000000,4.000000,4.000000,100.000000
1602006480.928797,87.000000,0.000000,4126.153809,4139.487305,4125.128418,4140.000000,4127.692383,4130.256348,4138.461426,4142.051270,4124.102539,4126.153809,4134.871582,4134.358887,4125.128418,4121.538574,841.000000,4.000000,,,,0.000000,4.000000,4.000000,4.000000,4.000000,4.000000,4.000000,4.000000,4.000000,4.000000,4.000000,4.000000,4.000000,4.000000,4.000000,100.000000
1602006480.936679,88.000000,0.000000,4120.512695,4138.461426,4126.153809,4133.333496,4124.615234,4137.436035,4135.384766,4143.077148,4120.000000,4136.922852,4127.692383,4129.743652,4124.102539,4116.410156,770.000000,4.000000,,,,0.000000,4.000000,4.000000,4.000000,4.000000,4.000000,4.000000,4.000000,4.000000,4.000000,4.000000,4.000000,4.000000,4.000000,4.000000,100.000000
1602006480.944560,89.000000,0.000000,4105.641113,4125.641113,4121.025879,4124.102539,4117.436035,4136.922852,4134.871582,4130.256348,4113.846191,4140.000000,4124.102539,4120.000000,4120.512695,4104.102539,737.000000,4.000000,,,,0.000000,4.000000,4.000000,4.000000,4.000000,4.000000,4.000000,4.000000,4.000000,4.000000,4.000000,4.000000,4.000000,4.000000,4.000000,100.000000
1602006480.952541,90.000000,0.000000,4095.897461,4120.000000,4109.230957,4122.563965,4119.487305,4132.820313,4137.948730,4120.000000,4107.179688,4131.282227,4132.820313,4113.846191,4120.512695,4101.025879,870.000000,4.000000,,,,0.000000,4.000000,4.000000,4.000000,4.000000,4.000000,4.000000,4.000000,4.000000,4.000000,4.000000,4.000000,4.000000,4.000000,4.000000,100.000000
1602006480.960422,91.000000,0.000000,4104.615234,4126.666504,4108.205078,4122.563965,4123.589844,4131.794922,4140.000000,4122.563965,4106.666504,4122.051270,4136.922852,4116.410156,4126.666504,4111.282227,841.000000,4.000000,,,,0.000000,4.000000,4.000000,4.000000,4.000000,4.000000,4.000000,4.000000,4.000000,4.000000,4.000000,4.000000,4.000000,4.000000,4.000000,100.000000
1602006480.968303,92.000000,0.000000,4122.051270,4134.358887,4113.333496,4123.077148,4121.538574,4134.871582,4138.974121,4123.589844,4105.128418,4120.512695,4133.846191,4117.436035,4131.794922,4118.461426,770.000000,4.000000,,,,0.000000,4.000000,4.000000,4.000000,4.000000,4.000000,4.000000,4.000000,4.000000,4.000000,4.000000,4.000000,4.000000,4.000000,4.000000,100.000000
1602006480.976185,93.000000,0.000000,4123.589844,4136.410156,4113.333496,4126.666504,4128.205078,4142.051270,4138.461426,4122.563965,4103.077148,4122.563965,4127.692383,4110.256348,4130.256348,4122.051270,737.000000,4.000000,,,,0.000000,4.000000,4.000000,4.000000,4.000000,4.000000,4.000000,4.000000,4.000000,4.000000,4.000000,4.000000,4.000000,4.000000,4.000000,100.000000
1602006480.983966,94.000000,0.000000,4118.974121,4136.922852,4115.897461,4131.794922,4137.436035,4145.128418,4138.461426,4124.102539,4112.820313,4123.589844,4109.743652,4104.102539,4114.358887,4116.410156,870.000000,4.000000,,,,0.000000,4.000000,4.000000,4.000000,4.000000,4.000000,4.000000,4.000000,4.000000,4.000000,4.000000,4.000000,4.000000,4.000000,4.000000,100.000000
1602006480.991847,95.000000,0.000000,4120.000000,4133.846191,4116.922852,4135.897461,4129.743652,4132.307617,4131.794922,4122.563965,4120.000000,4119.487305,4097.436035,4103.589844,4097.948730,4098.461426,841.000000,4.000000,,,,0.000000,4.000000,4.000000,4.000000,4.000000,4.000000,4.000000,4.000000,4.000000,4.000000,4.000000,4.000000,4.000000,4.000000,4.000000,100.000000
1602006480.999828,96.000000,0.000000,4120.000000,4133.333496,4109.230957,4136.922852,4118.461426,4119.487305,4121.025879,4126.666504,4107.692383,4119.487305,4112.307617,4104.615234,4102.563965,4089.743652,770.000000,4.000000,,,,0.000000,4.000000,4.000000,4.000000,4.000000,4.000000,4.000000,4.000000,4.000000,4.000000,4.000000,4.000000,4.000000,4.000000,4.000000,100.000000
1602006481.007710,97.000000,0.000000,4125.641113,4140.512695,4113.846191,4141.025879,4127.179688,4127.179688,4120.000000,4137.436035,4108.205078,4135.384766,4135.897461,4113.333496,4120.512695,4105.641113,737.000000,4.000000,,,,0.000000,4.000000,4.000000,4.000000,4.000000,4.000000,4.000000,4.000000,4.000000,4.000000,4.000000,4.000000,4.000000,4.000000,4.000000,100.000000
1602006481.015591,98.000000,0.000000,4136.410156,4144.102539,4126.153809,4144.615234,4136.922852,4137.948730,4124.615234,4134.871582,4129.230957,4149.743652,4147.179688,4125.128418,4130.769043,4123.589844,870.000000,4.000000,,,,0.000000,4.000000,4.000000,4.000000,4.000000,4.000000,4.000000,4.000000,4.000000,4.000000,4.000000,4.000000,4.000000,4.000000,4.000000,100.000000
1602006481.023473,99.000000,0.000000,4136.410156,4140.000000,4122.051270,4137.948730,4132.820313,4133.333496,4123.077148,4121.538574,4132.307617,4134.358887,4153.333496,4126.666504,4132.820313,4121.538574,841.000000,4.000000,,,,0.000000,4.000000,4.000000,4.000000,4.000000,4.000000,4.000000,4.000000,4.000000,4.000000,4.000000,4.000000,4.000000,4.000000,4.000000,100.000000
1602006481.031354,100.000000,0.000000,4135.384766,4138.974121,4118.974121,4135.897461,4134.358887,4135.384766,4123.077148,4120.512695,4120.512695,4118.974121,4154.358887,4135.897461,4141.538574,4118.974121,770.000000,4.000000,,,,0.000000,4.000000,4.000000,4.000000,4.000000,4.000000,4.000000,4.000000,4.000000,4.000000,4.000000,4.000000,4.000000,4.000000,4.000000,100.000000
1602006481.039235,101.000000,0.000000,4139.487305,4141.538574,4123.077148,4138.974121,4137.436035,4144.615234,4127.179688,4125.128418,4120.512695,4133.846191,4144.102539,4140.000000,4140.000000,4122.051270,737.000000,4.000000,,,,0.000000,4.000000,4.000000,4.000000,4.000000,4.000000,4.000000,4.000000,4.000000,4.000000,4.000000,4.000000,4.000000,4.000000,4.000000,100.000000
1602006481.047117,102.000000,0.000000,4137.948730,4137.948730,4116.410156,4133.333496,4132.307617,4137.436035,4125.128418,4122.051270,4122.051270,4144.615234,4130.769043,4128.205078,4122.563965,4115.897461,870.000000,4.000000,,,,0.000000,4.000000,4.000000,4.000000,4.000000,4.000000,4.000000,4.000000,4.000000,4.000000,4.000000,4.000000,4.000000,4.000000,4.000000,100.000000
1602006481.054899,103.000000,0.000000,4135.897461,4138.461426,4112.307617,4132.307617,4134.871582,4134.871582,4129.743652,4127.179688,4122.051270,4137.436035,4130.256348,4127.692383,4122.051270,4112.307617,841.000000,4.000000,,,,0.000000,4.000000,4.000000,4.000000,4.000000,4.000000,4.000000,4.000000,4.000000,4.000000,4.000000,4.000000,4.000000,4.000000,4.000000,100.000000
1602006481.062780,104.000000,0.000000,4131.794922,4142.563965,4120.512695,4138.974121,4140.512695,4142.051270,4138.974121,4137.436035,4126.153809,4135.384766,4134.871582,4140.512695,4133.333496,4118.974121,770.000000,4.000000,,,,0.000000,4.000000,4.000000,4.000000,4.000000,4.000000,4.000000,4.000000,4.000000,4.000000,4.000000,4.000000,4.000000,4.000000,4.000000,100.000000
1602006481.070662,105.000000,0.000000,4125.128418,4140.000000,4123.077148,4139.487305,4136.922852,4134.871582,4137.948730,4136.410156,4125.128418,4137.436035,4138.461426,4138.974121,4129.743652,4120.000000,737.000000,4.000000,,,,0.000000,4.000000,4.000000,4.000000,4.000000,4.000000,4.000000,4.000000,4.000000,4.000000,4.000000,4.000000,4.000000,4.000000,4.000000,100.000000
1602006481.078543,106.000000,0.000000,4126.153809,4137.948730,4118.974121,4133.333496,4134.358887,4130.769043,4136.410156,4134.871582,4120.512695,4134.871582,4143.077148,4133.333496,4122.563965,4113.333496,870.000000,4.000000,,,,0.000000,4.000000,4.000000,4.000000,4.000000,4.000000,4.000000,4.000000,4.000000,4.000000,4.000000,4.000000,4.000000,4.000000,4.000000,100.000000
1602006481.086425,107.000000,0.000000,4127.179688,4134.871582,4112.820313,4128.717773,4133.333496,4142.563965,4140.512695,4134.871582,4117.436035,4129.230957,4132.820313,4134.358887,4122.051270,4107.179688,841.000000,4.000000,,,,0.000000,4.000000,4.000000,4.000000,4.000000,4.000000,4.000000,4.000000,4.000000,4.000000,4.000000,4.000000,4.000000,4.000000,4.000000,100.000000
1602006481.094307,108.000000,0.000000,4122.051270,4124.102539,4105.128418,4122.051270,4128.205078,4150.769043,4139.487305,4131.282227,4117.948730,4115.897461,4121.538574,4134.871582,4117.948730,4101.538574,770.000000,4.000000,,,,0.000000,4.000000,4.000000,4.000000,4.000000,4.000000,4.000000,4.000000,4.000000,4.000000,4.000000,4.000000,4.000000,4.000000,4.000000,100.000000
1602006481.102188,109.000000,0.000000,4120.000000,4123.077148,4112.307617,4124.615234,4133.333496,4150.256348,4138.461426,4131.794922,4126.153809,4109.230957,4134.871582,4136.410156,4117.436035,4108.205078,737.000000,4.000000,,,,0.000000,4.000000,4.000000,4.000000,4.000000,4.000000,4.000000,4.000000,4.000000,4.000000,4.000000,4.000000,4.000000,4.000000,4.000000,100.000000
1602006481.110070,110.000000,0.000000,4122.563965,4134.871582,4122.051270,4136.410156,4139.487305,4152.820313,4141.538574,4135.384766,4135.384766,4123.077148,4140.000000,4138.461426,4123.589844,4126.153809,870.000000,4.000000,,,,0.000000,4.000000,4.000000,4.000000,4.000000,4.000000,4.000000,4.000000,4.000000,4.000000,4.000000,4.000000,4.000000,4.000000,4.000000,100.000000
1602006481.117952,111.000000,0.000000,4127.179688,4137.436035,4114.871582,4135.384766,4134.358887,4155.384766,4138.461426,4135.897461,4145.128418,4139.487305,4126.153809,4135.897461,4122.563965,4125.641113,841.000000,4.000000,,,,0.000000,4.000000,4.000000,4.000000,4.000000,4.000000,4.000000,4.000000,4.000000,4.000000,4.000000,4.000000,4.000000,4.000000,4.000000,100.000000
1602006481.125733,112.000000,0.000000,4134.871582,4133.333496,4111.794922,4127.179688,4132.307617,4149.230957,4135.384766,4139.487305,4154.871582,4150.256348,4125.128418,4136.410156,4119.487305,4111.282227,770.000000,4.000000,,,,0.000000,4.000000,4.000000,4.000000,4.000000,4.000000,4.000000,4.000000,4.000000,4.000000,4.000000,4.000000,4.000000,4.000000,4.000000,100.000000
1602006481.133615,113.000000,0.000000,4140.512695,4136.922852,4123.589844,4129.743652,4138.974121,4140.512695,4134.871582,4135.897461,4150.256348,4154.871582,4131.794922,4139.487305,4124.102539,4113.333496,737.000000,4.000000,,,,0.000000,4.000000,4.000000,4.000000,4.000000,4.000000,4.000000,4.000000,4.000000,4.000000,4.000000,4.000000,4.000000,4.000000,4.000000,100.000000
1602006481.141496,114.000000,0.000000,4138.461426,4141.538574,4128.717773,4137.436035,4137.436035,4136.922852,4129.743652,4125.128418,4129.230957,4154.358887,4127.692383,4140.000000,4130.769043,4122.563965,870.000000,4.000000,,,,0.000000,4.000000,4.000000,4.000000,4.000000,4.000000,4.000000,4.000000,4.000000,4.000000,4.000000,4.000000,4.000000,4.000000,4.000000,100.000000
1602006481.149377,115.000000,0.000000,4134.871582,4141.538574,4125.641113,4136.922852,4129.230957,4135.897461,4126.666504,4123.077148,4114.871582,4145.128418,4128.717773,4137.948730,4137.436035,4127.179688,841.000000,4.000000,,,,0.000000,4.000000,4.000000,4.000000,4.000000,4.000000,4.000000,4.000000,4.000000,4.000000,4.000000,4.000000,4.000000,4.000000,4.000000,100.000000
1602006481.157259,116.000000,0.000000,4133.846191,4139.487305,4131.794922,4135.897461,4126.153809,4134.358887,4131.282227,4124.102539,4114.358887,4115.897461,4137.436035,4137.436035,4138.974121,4127.179688,770.000000,4.000000,,,,0.000000,4.000000,4.000000,4.000000,4.000000,4.000000,4.000000,4.000000,4.000000,4.000000,4.000000,4.000000,4.000000,4.000000,4.000000,100.000000
1602006481.165140,117.000000,0.000000,4140.512695,4139.487305,4139.487305,4140.000000,4132.820313,4137.948730,4137.948730,4120.512695,4116.922852,4092.820557,4142.051270,4145.641113,4135.384766,4125.641113,737.000000,4.000000,,,,0.000000,4.000000,4.000000,4.000000,4.000000,4.000000,4.000000,4.000000,4.000000,4.000000,4.000000,4.000000,4.000000,4.000000,4.000000,100.000000
1602006481.173022,118.000000,0.000000,4154.358887,4149.743652,4143.077148,4142.051270,4135.897461,4144.102539,4141.025879,4123.589844,4126.666504,4116.922852,4137.436035,4153.846191,4135.384766,4132.307617,870.000000,4.000000,,,,0.000000,4.000000,4.000000,4.000000,4.000000,4.000000,4.000000,4.000000,4.000000,4.000000,4.000000,4.000000,4.000000,4.000000,4.000000,100.000000
1602006481.181003,119.000000,0.000000,4157.436035,4152.820313,4145.641113,4139.487305,4128.717773,4144.102539,4139.487305,4128.205078,4135.897461,4154.358887,4129.743652,4150.256348,4138.974121,4141.025879,841.000000,4.000000,,,,0.000000,4.000000,4.000000,4.000000,4.000000,4.000000,4.000000,4.000000,4.000000,4.000000,4.000000,4.000000,4.000000,4.000000,4.000000,100.000000
1602006481.188884,120.000000,0.000000,4149.230957,4144.102539,4145.641113,4134.871582,4124.615234,4137.436035,4136.410156,4124.615234,4140.000000,4156.922852,4132.820313,4142.051270,4138.974121,4135.384766,770.000000,4.000000,,,,0.000000,4.000000,4.000000,4.000000,4.000000,4.000000,4.000000,4.000000,4.000000,4.000000,4.000000,4.000000,4.000000,4.000000,4.000000,100.000000
1602006481.196765,121.000000,0.000000,4150.256348,4143.589844,4142.563965,4135.384766,4126.666504,4132.820313,4135.384766,4126.666504,4141.538574,4146.666504,4133.846191,4138.974121,4137.436035,4125.128418,737.000000,4.000000,,,,0.000000,4.000000,4.000000,4.000000,4.000000,4.000000,4.000000,4.000000,4.000000,4.000000,4.000000,4.000000,4.000000,4.000000,4.000000,100.000000
1602006481.204746,122.000000,0.000000,4154.871582,4152.820313,4133.333496,4139.487305,4131.794922,4137.436035,4137.948730,4134.871582,4139.487305,4142.051270,4129.230957,4136.410156,4142.051270,4126.153809,870.000000,4.000000,,,,0.000000,4.000000,4.000000,4.000000,4.000000,4.000000,4.000000,4.000000,4.000000,4.000000,4.000000,4.000000,4.000000,4.000000,4.000000,100.000000
1602006481.212627,123.000000,0.000000,4144.615234,4153.846191,4127.692383,4140.512695,4136.410156,4144.615234,4140.000000,4137.436035,4136.410156,4135.897461,4133.333496,4133.333496,4145.128418,4126.666504,841.000000,4.000000,,,,0.000000,4.000000,4.000000,4.000000,4.000000,4.000000,4.000000,4.000000,4.000000,4.000000,4.000000,4.000000,4.000000,4.000000,4.000000,100.000000
1602006481.220508,124.000000,0.000000,4140.000000,4147.692383,4133.846191,4137.436035,4136.410156,4140.000000,4133.846191,4134.871582,4136.922852,4137.436035,4140.000000,4137.436035,4136.922852,4131.794922,770.000000,4.000000,,,,0.000000,4.000000,4.000000,4.000000,4.000000,4.000000,4.000000,4.000000,4.000000,4.000000,4.000000,4.000000,4.000000,4.000000,4.000000,100.000000
1602006481.228290,125.000000,0.000000,4151.794922,4145.128418,4142.051270,4137.436035,4135.897461,4136.410156,4124.102539,4135.384766,4140.512695,4138.974121,4144.615234,4148.717773,4139.487305,4148.205078,737.000000,4.000000,,,,0.000000,4.000000,4.000000,4.000000,4.000000,4.000000,4.000000,4.000000,4.000000,4.000000,4.000000,4.000000,4.000000,4.000000,4.000000,100.000000
1602006481.236172,126.000000,0.000000,4155.384766,4141.538574,4141.025879,4140.512695,4140.512695,4141.538574,4124.615234,4139.487305,4141.538574,4141.538574,4156.410156,4156.410156,4157.948730,4158.974121,870.000000,4.000000,,,,0.000000,4.000000,4.000000,4.000000,4.000000,4.000000,4.000000,4.000000,4.000000,4.000000,4.000000,4.000000,4.000000,4.000000,4.000000,100.000000
1602006481.244053,127.000000,0.000000,4150.769043,4138.974121,4139.487305,4133.846191,4140.512695,4135.384766,4127.692383,4140.000000,4134.871582,4153.333496,4163.589844,4157.436035,4158.974121,4155.897461,841.000000,4.000000,,,,0.000000,4.000000,4.000000,4.000000,4.000000,4.000000,4.000000,4.000000,4.000000,4.000000,4.000000,4.000000,4.000000,4.000000,4.000000,100.000000
1602006481.251935,128.000000,0.000000,4152.307617,4136.410156,4144.102539,4126.153809,4131.282227,4127.692383,4124.102539,4136.922852,4125.641113,4155.897461,4147.179688,4158.461426,4141.538574,4146.666504,770.000000,4.000000,,,,0.000000,4.000000,4.000000,4.000000,4.000000,4.000000,4.000000,4.000000,4.000000,4.000000,4.000000,4.000000,4.000000,4.000000,4.000000,100.000000
1602006481.259817,0.000000,0.000000,4151.282227,4128.205078,4146.153809,4130.769043,4124.615234,4135.897461,4128.205078,4134.871582,4127.179688,4143.077148,4137.948730,4157.948730,4136.922852,4146.153809,793.000000,4.000000,,,,0.000000,4.000000,4.000000,4.000000,4.000000,4.000000,4.000000,4.000000,4.000000,4.000000,4.000000,4.000000,4.000000,4.000000,4.000000,100.000000
1602006481.267698,1.000000,0.000000,4140.512695,4126.153809,4143.077148,4132.307617,4127.179688,4140.000000,4138.461426,4135.384766,4136.410156,4132.307617,4146.153809,4154.358887,4139.487305,4153.846191,790.000000,4.000000,,,,0.000000,4.000000,4.000000,4.000000,4.000000,4.000000,4.000000,4.000000,4.000000,4.000000,4.000000,4.000000,4.000000,4.000000,4.000000,100.000000
1602006481.275580,2.000000,0.000000,4135.897461,4133.333496,4136.410156,4128.717773,4135.384766,4141.025879,4136.922852,4136.922852,4136.922852,4132.307617,4146.666504,4151.282227,4140.000000,4148.205078,853.000000,4.000000,,,,0.000000,4.000000,4.000000,4.000000,4.000000,4.000000,4.000000,4.000000,4.000000,4.000000,4.000000,4.000000,4.000000,4.000000,4.000000,100.000000
1602006481.283462,3.000000,0.000000,4147.692383,4135.897461,4136.410156,4135.384766,4140.512695,4152.307617,4133.846191,4139.487305,4134.358887,4143.077148,4138.461426,4153.333496,4140.512695,4133.846191,859.000000,4.000000,,,,0.000000,4.000000,4.000000,4.000000,4.000000,4.000000,4.000000,4.000000,4.000000,4.000000,4.000000,4.000000,4.000000,4.000000,4.000000,100.000000
1602006481.291443,4.000000,0.000000,4151.282227,4131.794922,4138.461426,4137.436035,4134.871582,4144.102539,4135.897461,4138.461426,4137.436035,4150.769043,4141.538574,4152.307617,4132.307617,4134.358887,809.000000,4.000000,,,,0.000000,4.000000,4.000000,4.000000,4.000000,4.000000,4.000000,4.000000,4.000000,4.000000,4.000000,4.000000,4.000000,4.000000,4.000000,100.000000
1602006481.299324,5.000000,0.000000,4137.948730,4133.846191,4135.897461,4128.205078,4128.205078,4120.000000,4135.384766,4135.384766,4136.922852,4143.589844,4154.358887,4143.589844,4127.179688,4136.922852,818.000000,4.000000,,,,0.000000,4.000000,4.000000,4.000000,4.000000,4.000000,4.000000,4.000000,4.000000,4.000000,4.000000,4.000000,4.000000,4.000000,4.000000,100.000000
1602006481.307206,6.000000,0.000000,4141.538574,4138.974121,4140.000000,4130.769043,4131.282227,4124.615234,4135.384766,4135.897461,4134.871582,4144.615234,4152.820313,4138.461426,4133.846191,4126.153809,774.000000,4.000000,,,,0.000000,4.000000,4.000000,4.000000,4.000000,4.000000,4.000000,4.000000,4.000000,4.000000,4.000000,4.000000,4.000000,4.000000,4.000000,100.000000
1602006481.315087,7.000000,0.000000,4155.384766,4142.563965,4152.820313,4139.487305,4137.948730,4143.077148,4136.922852,4138.974121,4138.461426,4154.358887,4144.102539,4146.153809,4138.461426,4126.153809,673.000000,4.000000,,,,0.000000,4.000000,4.000000,4.000000,4.000000,4.000000,4.000000,4.000000,4.000000,4.000000,4.000000,4.000000,4.000000,4.000000,4.000000,100.000000
1602006481.322969,8.000000,0.000000,4149.230957,4148.205078,4162.563965,4139.487305,4139.487305,4140.000000,4134.871582,4137.948730,4142.051270,4155.384766,4148.205078,4151.794922,4137.436035,4143.077148,784.000000,4.000000,,,,0.000000,4.000000,4.000000,4.000000,4.000000,4.000000,4.000000,4.000000,4.000000,4.000000,4.000000,4.000000,4.000000,4.000000,4.000000,100.000000
1602006481.330850,9.000000,0.000000,4144.102539,4151.282227,4168.205078,4144.102539,4134.358887,4131.794922,4132.820313,4136.410156,4138.974121,4162.051270,4157.436035,4152.307617,4140.512695,4153.846191,836.000000,4.000000,,,,0.000000,4.000000,4.000000,4.000000,4.000000,4.000000,4.000000,4.000000,4.000000,4.000000,4.000000,4.000000,4.000000,4.000000,4.000000,100.000000
1602006481.338731,10.000000,0.000000,4158.974121,4152.307617,4172.820313,4151.794922,4132.307617,4137.436035,4134.358887,4145.128418,4139.487305,4173.333496,4160.000000,4164.615234,4145.641113,4152.820313,870.000000,4.000000,,,,0.000000,4.000000,4.000000,4.000000,4.000000,4.000000,4.000000,4.000000,4.000000,4.000000,4.000000,4.000000,4.000000,4.000000,4.000000,100.000000
1602006481.346513,11.000000,0.000000,4169.230957,4149.743652,4168.205078,4148.205078,4134.871582,4135.384766,4134.871582,4154.358887,4143.589844,4168.717773,4157.436035,4169.230957,4151.282227,4153.846191,841.000000,4.000000,,,,0.000000,4.000000,4.000000,4.000000,4.000000,4.000000,4.000000,4.000000,4.000000,4.000000,4.000000,4.000000,4.000000,4.000000,4.000000,100.000000
1602006481.354395,12.000000,0.000000,4169.230957,4143.589844,4158.461426,4138.974121,4135.384766,4125.128418,4134.358887,4150.769043,4139.487305,4166.153809,4158.461426,4157.948730,4153.333496,4156.922852,770.000000,4.000000,,,,0.000000,4.000000,4.000000,4.000000,4.000000,4.000000,4.000000,4.000000,4.000000,4.000000,4.000000,4.000000,4.000000,4.000000,4.000000,100.000000
1602006481.362276,13.000000,0.000000,4168.205078,4144.615234,4156.410156,4137.948730,4134.871582,4130.256348,4136.410156,4142.563965,4136.410156,4171.794922,4162.563965,4158.461426,4149.230957,4152.820313,737.000000,4.000000,,,,0.000000,4.000000,4.000000,4.000000,4.000000,4.000000,4.000000,4.000000,4.000000,4.000000,4.000000,4.000000,4.000000,4.000000,4.000000,100.000000
1602006481.370158,14.000000,0.000000,4166.666504,4148.205078,4157.436035,4141.538574,4135.384766,4142.563965,4138.461426,4141.538574,4136.410156,4152.307617,4171.282227,4171.794922,4154.358887,4153.333496,870.000000,4.000000,,,,0.000000,4.000000,4.000000,4.000000,4.000000,4.000000,4.000000,4.000000,4.000000,4.000000,4.000000,4.000000,4.000000,4.000000,4.000000,100.000000
1602006481.378040,15.000000,0.000000,4169.230957,4147.692383,4155.897461,4140.000000,4136.410156,4145.641113,4137.436035,4140.000000,4132.307617,4130.769043,4169.230957,4169.230957,4156.410156,4167.179688,841.000000,4.000000,,,,0.000000,4.000000,4.000000,4.000000,4.000000,4.000000,4.000000,4.000000,4.000000,4.000000,4.000000,4.000000,4.000000,4.000000,4.000000,100.000000
1602006481.385921,16.000000,0.000000,4167.692383,4148.717773,4155.384766,4138.974121,4135.897461,4150.769043,4139.487305,4136.922852,4132.820313,4144.615234,4158.461426,4157.948730,4145.641113,4172.820313,0.000000,4.000000,,,,0.000000,4.000000,4.000000,4.000000,4.000000,4.000000,4.000000,4.000000,4.000000,4.000000,4.000000,4.000000,4.000000,4.000000,4.000000,100.000000
1602006481.393803,17.000000,0.000000,4158.461426,4151.794922,4156.410156,4139.487305,4137.948730,4160.000000,4141.538574,4136.922852,4140.000000,4162.563965,4159.487305,4155.897461,4141.538574,4157.436035,0.000000,4.000000,,,,0.000000,4.000000,4.000000,4.000000,4.000000,4.000000,4.000000,4.000000,4.000000,4.000000,4.000000,4.000000,4.000000,4.000000,4.000000,100.000000
1602006481.401685,18.000000,0.000000,4152.820313,4146.666504,4146.153809,4140.000000,4135.897461,4154.358887,4136.410156,4135.897461,4138.461426,4151.282227,4156.410156,4153.333496,4141.538574,4142.051270,0.000000,4.000000,,,,0.000000,4.000000,4.000000,4.000000,4.000000,4.000000,4.000000,4.000000,4.000000,4.000000,4.000000,4.000000,4.000000,4.000000,4.000000,100.000000
1602006481.409666,19.000000,0.000000,4151.282227,4141.025879,4133.333496,4138.974121,4132.307617,4140.512695,4133.846191,4136.922852,4133.333496,4146.153809,4143.077148,4148.205078,4140.000000,4143.077148,0.000000,4.000000,,,,0.000000,4.000000,4.000000,4.000000,4.000000,4.000000,4.000000,4.000000,4.000000,4.000000,4.000000,4.000000,4.000000,4.000000,4.000000,100.000000
1602006481.417547,20.000000,0.000000,4152.307617,4141.538574,4131.794922,4133.846191,4128.205078,4129.743652,4133.333496,4140.000000,4141.538574,4164.102539,4146.666504,4152.307617,4147.692383,4146.666504,0.000000,4.000000,,,,0.000000,4.000000,4.000000,4.000000,4.000000,4.000000,4.000000,4.000000,4.000000,4.000000,4.000000,4.000000,4.000000,4.000000,4.000000,100.000000
1602006481.425429,21.000000,0.000000,4161.025879,4140.000000,4139.487305,4131.282227,4123.589844,4122.051270,4131.282227,4141.025879,4153.333496,4162.563965,4161.538574,4163.077148,4158.461426,4154.871582,0.000000,4.000000,,,,0.000000,4.000000,4.000000,4.000000,4.000000,4.000000,4.000000,4.000000,4.000000,4.000000,4.000000,4.000000,4.000000,4.000000,4.000000,100.000000
1602006481.433310,22.000000,0.000000,4168.717773,4142.563965,4149.743652,4135.897461,4129.743652,4121.538574,4129.230957,4141.025879,4159.487305,4150.256348,4171.282227,4169.743652,4160.512695,4171.794922,0.000000,4.000000,,,,0.000000,4.000000,4.000000,4.000000,4.000000,4.000000,4.000000,4.000000,4.000000,4.000000,4.000000,4.000000,4.000000,4.000000,4.000000,100.000000
1602006481.441191,23.000000,0.000000,4170.256348,4143.589844,4155.384766,4141.538574,4135.897461,4129.743652,4127.179688,4142.051270,4160.512695,4165.641113,4179.487305,4173.333496,4157.436035,4180.512695,0.000000,4.000000,,,,0.000000,4.000000,4.000000,4.000000,4.000000,4.000000,4.000000,4.000000,4.000000,4.000000,4.000000,4.000000,4.000000,4.000000,4.000000,100.000000
1602006481.449173,24.000000,0.000000,4166.666504,4139.487305,4153.846191,4140.000000,4128.205078,4136.922852,4128.717773,4140.512695,4151.794922,4176.410156,4177.436035,4167.179688,4155.384766,4170.769043,0.000000,4.000000,,,,0.000000,4.000000,4.000000,4.000000,4.000000,4.000000,4.000000,4.000000,4.000000,4.000000,4.000000,4.000000,4.000000,4.000000,4.000000,100.000000
1602006481.457054,25.000000,0.000000,4157.948730,4142.563965,4149.230957,4136.922852,4125.641113,4135.384766,4135.897461,4138.461426,4138.461426,4154.871582,4165.641113,4153.846191,4156.922852,4160.512695,0.000000,4.000000,,,,0.000000,4.000000,4.000000,4.000000,4.000000,4.000000,4.000000,4.000000,4.000000,4.000000,4.000000,4.000000,4.000000,4.000000,4.000000,100.000000
1602006481.464936,26.000000,0.000000,4158.461426,4153.846191,4151.794922,4139.487305,4136.922852,4135.384766,4140.000000,4143.589844,4136.922852,4145.128418,4167.179688,4157.436035,4160.000000,4167.179688,0.000000,4.000000,,,,0.000000,4.000000,4.000000,4.000000,4.000000,4.000000,4.000000,4.000000,4.000000,4.000000,4.000000,4.000000,4.000000,4.000000,4.000000,100.000000
1602006481.472817,27.000000,0.000000,4172.820313,4158.974121,4161.538574,4145.128418,4137.436035,4139.487305,4138.461426,4147.179688,4145.641113,4162.051270,4168.205078,4169.230957,4157.948730,4170.769043,0.000000,4.000000,,,,0.000000,4.000000,4.000000,4.000000,4.000000,4.000000,4.000000,4.000000,4.000000,4.000000,4.000000,4.000000,4.000000,4.000000,4.000000,100.000000
1602006481.480698,28.000000,0.000000,4170.769043,4154.871582,4171.282227,4148.717773,4127.179688,4135.384766,4138.461426,4142.051270,4142.563965,4160.000000,4158.974121,4168.205078,4154.871582,4157.948730,0.000000,4.000000,,,,0.000000,4.000000,4.000000,4.000000,4.000000,4.000000,4.000000,4.000000,4.000000,4.000000,4.000000,4.000000,4.000000,4.000000,4.000000,100.000000
1602006481.488580,29.000000,0.000000,4151.794922,4154.871582,4174.871582,4152.820313,4124.102539,4126.666504,4137.948730,4138.461426,4132.307617,4152.307617,4159.487305,4166.666504,4155.384766,4156.922852,0.000000,4.000000,,,,0.000000,4.000000,4.000000,4.000000,4.000000,4.000000,4.000000,4.000000,4.000000,4.000000,4.000000,4.000000,4.000000,4.000000,4.000000,100.000000
1602006481.496461,30.000000,0.000000,4147.179688,4153.333496,4168.717773,4152.307617,4123.589844,4124.615234,4130.769043,4139.487305,4134.871582,4169.743652,4164.615234,4169.230957,4152.820313,4172.307617,0.000000,4.000000,,,,0.000000,4.000000,4.000000,4.000000,4.000000,4.000000,4.000000,4.000000,4.000000,4.000000,4.000000,4.000000,4.000000,4.000000,4.000000,100.000000
1602006481.504443,31.000000,0.000000,4155.897461,4142.051270,4158.461426,4138.974121,4120.512695,4120.512695,4122.051270,4133.333496,4140.000000,4170.256348,4152.820313,4158.974121,4147.179688,4162.563965,0.000000,4.000000,,,,0.000000,4.000000,4.000000,4.000000,4.000000,4.000000,4.000000,4.000000,4.000000,4.000000,4.000000,4.000000,4.000000,4.000000,4.000000,100.000000
1602006481.512324,32.000000,0.000000,4153.846191,4133.333496,4151.282227,4131.794922,4121.025879,4122.051270,4121.538574,4124.102539,4132.820313,4142.563965,4137.948730,4151.794922,4146.153809,4137.948730,0.000000,4.000000,,,,0.000000,4.000000,4.000000,4.000000,4.000000,4.000000,4.000000,4.000000,4.000000,4.000000,4.000000,4.000000,4.000000,4.000000,4.000000,100.000000
1602006481.520205,33.000000,0.000000,4137.948730,4128.205078,4142.051270,4132.307617,4125.128418,4130.769043,4126.666504,4125.128418,4123.589844,4133.846191,4137.436035,4152.820313,4137.948730,4133.846191,0.000000,4.000000,,,,0.000000,4.000000,4.000000,4.000000,4.000000,4.000000,4.000000,4.000000,4.000000,4.000000,4.000000,4.000000,4.000000,4.000000,4.000000,100.000000
1602006481.528087,34.000000,0.000000,4126.153809,4124.102539,4126.666504,4124.615234,4123.077148,4121.538574,4125.128418,4131.282227,4117.436035,4133.846191,4138.974121,4145.128418,4124.615234,4127.179688,0.000000,4.000000,,,,0.000000,4.000000,4.000000,4.000000,4.000000,4.000000,4.000000,4.000000,4.000000,4.000000,4.000000,4.000000,4.000000,4.000000,4.000000,100.000000
1602006481.535968,35.000000,0.000000,4131.794922,4130.256348,4126.666504,4122.563965,4123.077148,4108.717773,4127.179688,4134.871582,4118.974121,4123.077148,4140.512695,4142.563965,4126.153809,4127.692383,0.000000,4.000000,,,,0.000000,4.000000,4.000000,4.000000,4.000000,4.000000,4.000000,4.000000,4.000000,4.000000,4.000000,4.000000,4.000000,4.000000,4.000000,100.000000
1602006481.543850,36.000000,0.000000,4145.128418,4150.256348,4145.641113,4136.922852,4135.384766,4118.461426,4136.410156,4135.384766,4131.282227,4130.256348,4151.794922,4152.307617,4142.051270,4157.436035,0.000000,4.000000,,,,0.000000,4.000000,4.000000,4.000000,4.000000,4.000000,4.000000,4.000000,4.000000,4.000000,4.000000,4.000000,4.000000,4.000000,4.000000,100.000000
1602006481.551731,37.000000,0.000000,4153.846191,4162.051270,4157.436035,4148.717773,4142.051270,4130.256348,4136.410156,4136.922852,4140.000000,4153.846191,4162.051270,4161.538574,4155.384766,4182.563965,0.000000,4.000000,,,,0.000000,4.000000,4.000000,4.000000,4.000000,4.000000,4.000000,4.000000,4.000000,4.000000,4.000000,4.000000,4.000000,4.000000,4.000000,100.000000
1602006481.559712,38.000000,0.000000,4158.974121,4156.922852,4153.846191,4144.102539,4131.282227,4128.717773,4133.846191,4141.025879,4141.538574,4167.692383,4150.769043,4161.538574,4158.461426,4172.820313,0.000000,4.000000,,,,0.000000,4.000000,4.000000,4.000000,4.000000,4.000000,4.000000,4.000000,4.000000,4.000000,4.000000,4.000000,4.000000,4.000000,4.000000,100.000000
1602006481.567594,39.000000,0.000000,4161.025879,4145.641113,4144.102539,4134.358887,4123.077148,4127.692383,4138.461426,4137.948730,4136.922852,4160.000000,4137.948730,4151.794922,4151.282227,4155.897461,0.000000,4.000000,,,,0.000000,4.000000,4.000000,4.000000,4.000000,4.000000,4.000000,4.000000,4.000000,4.000000,4.000000,4.000000,4.000000,4.000000,4.000000,100.000000
1602006481.575475,40.000000,0.000000,4153.846191,4139.487305,4133.846191,4127.692383,4126.153809,4125.641113,4135.897461,4127.179688,4122.051270,4134.871582,4142.563965,4144.102539,4142.563965,4154.871582,0.000000,4.000000,,,,0.000000,4.000000,4.000000,4.000000,4.000000,4.000000,4.000000,4.000000,4.000000,4.000000,4.000000,4.000000,4.000000,4.000000,4.000000,100.000000
1602006481.583356,41.000000,0.000000,4142.051270,4135.897461,4125.128418,4124.102539,4126.153809,4124.615234,4127.692383,4123.589844,4109.743652,4116.410156,4143.077148,4142.051270,4136.922852,4150.769043,0.000000,4.000000,,,,0.000000,4.000000,4.000000,4.000000,4.000000,4.000000,4.000000,4.000000,4.000000,4.000000,4.000000,4.000000,4.000000,4.000000,4.000000,100.000000
1602006481.591238,42.000000,0.000000,4137.436035,4126.153809,4121.538574,4121.025879,4123.077148,4134.358887,4131.282227,4123.589844,4109.743652,4121.025879,4133.333496,4134.871582,4125.641113,4137.436035,0.000000,4.000000,,,,0.000000,4.000000,4.000000,4.000000,4.000000,4.000000,4.000000,4.000000,4.000000,4.000000,4.000000,4.000000,4.000000,4.000000,4.000000,100.000000
1602006481.599119,43.000000,0.000000,4135.384766,4121.538574,4123.077148,4121.025879,4120.512695,4135.897461,4139.487305,4121.538574,4113.333496,4118.974121,4132.307617,4124.615234,4118.974121,4131.794922,0.000000,4.000000,,,,0.000000,4.000000,4.000000,4.000000,4.000000,4.000000,4.000000,4.000000,4.000000,4.000000,4.000000,4.000000,4.000000,4.000000,4.000000,100.000000
1602006481.607001,44.000000,0.000000,4124.102539,4123.077148,4126.666504,4121.025879,4114.871582,4125.641113,4138.974121,4120.000000,4111.794922,4108.717773,4136.922852,4123.589844,4124.102539,4136.410156,0.000000,4.000000,,,,0.000000,4.000000,4.000000,4.000000,4.000000,4.000000,4.000000,4.000000,4.000000,4.000000,4.000000,4.000000,4.000000,4.000000,4.000000,100.000000
1602006481.614782,45.000000,0.000000,4116.410156,4123.077148,4129.230957,4121.538574,4114.358887,4120.000000,4134.358887,4122.051270,4106.153809,4113.846191,4132.307617,4122.051270,4122.563965,4135.897461,0.000000,4.000000,,,,0.000000,4.000000,4.000000,4.000000,4.000000,4.000000,4.000000,4.000000,4.000000,4.000000,4.000000,4.000000,4.000000,4.000000,4.000000,100.000000
1602006481.622664,46.000000,0.000000,4130.256348,4128.205078,4134.358887,4132.820313,4121.025879,4126.153809,4135.897461,4127.692383,4107.692383,4121.538574,4124.615234,4123.077148,4121.025879,4132.307617,0.000000,4.000000,,,,0.000000,4.000000,4.000000,4.000000,4.000000,4.000000,4.000000,4.000000,4.000000,4.000000,4.000000,4.000000,4.000000,4.000000,4.000000,100.000000
1602006481.630545,47.000000,0.000000,4144.102539,4135.897461,4140.000000,4136.410156,4124.102539,4136.410156,4137.948730,4135.897461,4121.538574,4127.692383,4124.102539,4134.871582,4131.282227,4134.358887,0.000000,4.000000,,,,0.000000,4.000000,4.000000,4.000000,4.000000,4.000000,4.000000,4.000000,4.000000,4.000000,4.000000,4.000000,4.000000,4.000000,4.000000,100.000000
1602006481.638426,48.000000,0.000000,4139.487305,4129.743652,4140.512695,4124.615234,4121.025879,4137.948730,4133.846191,4136.410156,4124.615234,4144.615234,4133.846191,4144.102539,4136.922852,4141.538574,0.000000,4.000000,,,,0.000000,4.000000,4.000000,4.000000,4.000000,4.000000,4.000000,4.000000,4.000000,4.000000,4.000000,4.000000,4.000000,4.000000,4.000000,100.000000
1602006481.646308,49.000000,0.000000,4136.922852,4122.563965,4141.538574,4120.000000,4119.487305,4130.256348,4133.846191,4134.871582,4115.897461,4145.641113,4148.205078,4147.179688,4136.410156,4146.666504,0.000000,4.000000,,,,0.000000,4.000000,4.000000,4.000000,4.000000,4.000000,4.000000,4.000000,4.000000,4.000000,4.000000,4.000000,4.000000,4.000000,4.000000,100.000000
1602006481.654189,50.000000,0.000000,4148.205078,4127.179688,4144.615234,4127.179688,4113.846191,4121.025879,4135.384766,4137.436035,4117.948730,4122.563965,4154.871582,4151.282227,4139.487305,4142.051270,0.000000,4.000000,,,,0.000000,4.000000,4.000000,4.000000,4.000000,4.000000,4.000000,4.000000,4.000000,4.000000,4.000000,4.000000,4.000000,4.000000,4.000000,100.000000
1602006481.661971,51.000000,0.000000,4154.358887,4130.256348,4144.615234,4131.794922,4108.717773,4123.589844,4135.384766,4134.358887,4125.128418,4127.692383,4152.307617,4151.282227,4141.025879,4144.102539,0.000000,4.000000,,,,0.000000,4.000000,4.000000,4.000000,4.000000,4.000000,4.000000,4.000000,4.000000,4.000000,4.000000,4.000000,4.000000,4.000000,4.000000,100.000000
1602006481.669852,52.000000,0.000000,4143.077148,4129.230957,4143.077148,4130.769043,4118.461426,4127.692383,4137.948730,4127.692383,4127.692383,4141.538574,4151.282227,4146.666504,4140.512695,4158.974121,0.000000,4.000000,,,,0.000000,4.000000,4.000000,4.000000,4.000000,4.000000,4.000000,4.000000,4.000000,4.000000,4.000000,4.000000,4.000000,4.000000,4.000000,100.000000
1602006481.677733,53.000000,0.000000,4133.846191,4126.153809,4144.102539,4126.153809,4124.102539,4120.512695,4136.410156,4126.153809,4124.102539,4119.487305,4142.051270,4143.077148,4134.358887,4154.871582,0.000000,4.000000,,,,0.000000,4.000000,4.000000,4.000000,4.000000,4.000000,4.000000,4.000000,4.000000,4.000000,4.000000,4.000000,4.000000,4.000000,4.000000,100.000000
1602006481.685615,54.000000,0.000000,4135.384766,4121.538574,4146.153809,4128.205078,4114.871582,4113.333496,4126.666504,4123.589844,4113.846191,4114.871582,4128.717773,4143.077148,4125.128418,4134.358887,0.000000,4.000000,,,,0.000000,4.000000,4.000000,4.000000,4.000000,4.000000,4.000000,4.000000,4.000000,4.000000,4.000000,4.000000,4.000000,4.000000,4.000000,100.000000
1602006481.693496,55.000000,0.000000,4139.487305,4128.717773,4143.077148,4138.461426,4114.871582,4118.974121,4123.077148,4122.051270,4108.205078,4138.974121,4132.820313,4148.717773,4122.051270,4137.948730,0.000000,4.000000,,,,0.000000,4.000000,4.000000,4.000000,4.000000,4.000000,4.000000,4.000000,4.000000,4.000000,4.000000,4.000000,4.000000,4.000000,4.000000,100.000000
1602006481.701378,56.000000,0.000000,4142.051270,4137.436035,4139.487305,4135.384766,4120.512695,4125.128418,4123.077148,4123.589844,4110.256348,4128.717773,4131.794922,4153.846191,4123.589844,4156.922852,0.000000,4.000000,,,,0.000000,4.000000,4.000000,4.000000,4.000000,4.000000,4.000000,4.000000,4.000000,4.000000,4.000000,4.000000,4.000000,4.000000,4.000000,100.000000
1602006481.709359,57.000000,0.000000,4141.538574,4130.256348,4139.487305,4125.128418,4114.358887,4124.102539,4120.512695,4123.077148,4109.743652,4111.794922,4121.025879,4149.743652,4124.102539,4153.846191,0.000000,4.000000,,,,0.000000,4.000000,4.000000,4.000000,4.000000,4.000000,4.000000,4.000000,4.000000,4.000000,4.000000,4.000000,4.000000,4.000000,4.000000,100.000000
1602006481.717241,58.000000,0.000000,4137.436035,4121.538574,4132.307617,4123.589844,4109.743652,4120.512695,4121.025879,4121.025879,4109.743652,4134.871582,4129.230957,4137.948730,4125.128418,4136.922852,0.000000,4.000000,,,,0.000000,4.000000,4.000000,4.000000,4.000000,4.000000,4.000000,4.000000,4.000000,4.000000,4.000000,4.000000,4.000000,4.000000,4.000000,100.000000
1602006481.725123,59.000000,0.000000,4140.000000,4124.102539,4121.538574,4128.717773,4112.820313,4114.358887,4118.974121,4123.077148,4111.282227,4142.563965,4139.487305,4129.743652,4123.077148,4129.743652,0.000000,4.000000,,,,0.000000,4.000000,4.000000,4.000000,4.000000,4.000000,4.000000,4.000000,4.000000,4.000000,4.000000,4.000000,4.000000,4.000000,4.000000,100.000000
1602006481.733004,60.000000,0.000000,4143.077148,4125.641113,4125.128418,4132.307617,4110.256348,4108.717773,4114.358887,4125.128418,4108.717773,4111.794922,4130.769043,4131.794922,4121.025879,4136.922852,0.000000,4.000000,,,,0.000000,4.000000,4.000000,4.000000,4.000000,4.000000,4.000000,4.000000,4.000000,4.000000,4.000000,4.000000,4.000000,4.000000,4.000000,100.000000
1602006481.740886,61.000000,0.000000,4136.410156,4127.692383,4135.897461,4130.256348,4110.769043,4106.666504,4117.436035,4122.563965,4110.769043,4104.102539,4130.769043,4137.436035,4124.615234,4145.128418,0.000000,4.000000,,,,0.000000,4.000000,4.000000,4.000000,4.000000,4.000000,4.000000,4.000000,4.000000,4.000000,4.000000,4.000000,4.000000,4.000000,4.000000,100.000000
1602006481.748767,62.000000,0.000000,4137.436035,4134.358887,4135.897461,4126.666504,4118.461426,4105.128418,4122.051270,4125.641113,4121.538574,4135.384766,4142.563965,4142.051270,4130.769043,4136.922852,0.000000,4.000000,,,,0.000000,4.000000,4.000000,4.000000,4.000000,4.000000,4.000000,4.000000,4.000000,4.000000,4.000000,4.000000,4.000000,4.000000,4.000000,100.000000
1602006481.756649,63.000000,0.000000,4152.307617,4137.436035,4134.871582,4129.743652,4120.000000,4106.153809,4121.538574,4136.922852,4129.743652,4161.025879,4147.692383,4146.153809,4138.974121,4128.717773,0.000000,4.000000,,,,0.000000,4.000000,4.000000,4.000000,4.000000,4.000000,4.000000,4.000000,4.000000,4.000000,4.000000,4.000000,4.000000,4.000000,4.000000,100.000000
1602006481.764531,64.000000,0.000000,4160.000000,4138.974121,4140.000000,4137.948730,4121.025879,4116.410156,4125.128418,4142.051270,4131.282227,4156.410156,4147.692383,4153.333496,4147.179688,4143.077148,793.000000,4.000000,,,,0.000000,4.000000,4.000000,4.000000,4.000000,4.000000,4.000000,4.000000,4.000000,4.000000,4.000000,4.000000,4.000000,4.000000,4.000000,100.000000
1602006481.772312,65.000000,0.000000,4157.948730,4141.025879,4141.025879,4141.025879,4124.615234,4125.128418,4126.153809,4131.794922,4129.230957,4138.461426,4140.512695,4160.000000,4146.153809,4154.358887,790.000000,4.000000,,,,0.000000,4.000000,4.000000,4.000000,4.000000,4.000000,4.000000,4.000000,4.000000,4.000000,4.000000,4.000000,4.000000,4.000000,4.000000,100.000000
1602006481.780194,66.000000,0.000000,4155.897461,4137.436035,4137.948730,4135.384766,4117.948730,4117.436035,4116.922852,4120.000000,4124.102539,4129.230957,4137.436035,4160.000000,4138.974121,4145.128418,853.000000,4.000000,,,,0.000000,4.000000,4.000000,4.000000,4.000000,4.000000,4.000000,4.000000,4.000000,4.000000,4.000000,4.000000,4.000000,4.000000,4.000000,100.000000
1602006481.788075,67.000000,0.000000,4151.794922,4134.358887,4140.000000,4127.179688,4112.820313,4106.666504,4113.846191,4121.025879,4120.000000,4127.179688,4143.077148,4154.358887,4138.461426,4138.461426,864.000000,4.000000,,,,0.000000,4.000000,4.000000,4.000000,4.000000,4.000000,4.000000,4.000000,4.000000,4.000000,4.000000,4.000000,4.000000,4.000000,4.000000,100.000000
1602006481.795956,68.000000,0.000000,4151.282227,4136.410156,4140.512695,4128.205078,4117.948730,4106.666504,4117.948730,4124.615234,4120.000000,4127.179688,4140.000000,4153.846191,4139.487305,4142.051270,809.000000,4.000000,,,,0.000000,4.000000,4.000000,4.000000,4.000000,4.000000,4.000000,4.000000,4.000000,4.000000,4.000000,4.000000,4.000000,4.000000,4.000000,100.000000
1602006481.803838,69.000000,0.000000,4154.871582,4140.512695,4138.974121,4136.410156,4123.077148,4113.846191,4120.512695,4123.077148,4119.487305,4131.282227,4139.487305,4162.563965,4139.487305,4147.179688,818.000000,4.000000,,,,0.000000,4.000000,4.000000,4.000000,4.000000,4.000000,4.000000,4.000000,4.000000,4.000000,4.000000,4.000000,4.000000,4.000000,4.000000,100.000000
1602006481.811719,70.000000,0.000000,4158.461426,4147.179688,4140.512695,4139.487305,4125.641113,4119.487305,4123.077148,4128.205078,4122.051270,4147.692383,4153.333496,4168.205078,4147.179688,4156.410156,769.000000,4.000000,,,,0.000000,4.000000,4.000000,4.000000,4.000000,4.000000,4.000000,4.000000,4.000000,4.000000,4.000000,4.000000,4.000000,4.000000,4.000000,100.000000
1602006481.819601,71.000000,0.000000,4167.179688,4156.410156,4140.512695,4141.025879,4130.769043,4122.051270,4126.153809,4138.461426,4124.615234,4160.000000,4154.358887,4168.205078,4150.769043,4155.384766,672.000000,4.000000,,,,0.000000,4.000000,4.000000,4.000000,4.000000,4.000000,4.000000,4.000000,4.000000,4.000000,4.000000,4.000000,4.000000,4.000000,4.000000,100.000000
1602006481.827582,72.000000,0.000000,4168.205078,4153.333496,4138.461426,4141.538574,4126.153809,4121.025879,4124.102539,4134.871582,4122.051270,4136.922852,4131.282227,4164.615234,4143.077148,4142.051270,784.000000,4.000000,,,,0.000000,4.000000,4.000000,4.000000,4.000000,4.000000,4.000000,4.000000,4.000000,4.000000,4.000000,4.000000,4.000000,4.000000,4.000000,100.000000
1602006481.835464,73.000000,0.000000,4156.410156,4140.512695,4136.922852,4137.436035,4112.307617,4114.871582,4120.000000,4123.077148,4123.589844,4117.948730,4122.051270,4156.922852,4141.025879,4136.922852,836.000000,4.000000,,,,0.000000,4.000000,4.000000,4.000000,4.000000,4.000000,4.000000,4.000000,4.000000,4.000000,4.000000,4.000000,4.000000,4.000000,4.000000,100.000000
1602006481.843345,74.000000,0.000000,4149.743652,4135.384766,4130.769043,4133.333496,4110.256348,4108.717773,4118.974121,4119.487305,4124.102539,4130.769043,4137.948730,4151.282227,4141.538574,4136.922852,870.000000,4.000000,,,,0.000000,4.000000,4.000000,4.000000,4.000000,4.000000,4.000000,4.000000,4.000000,4.000000,4.000000,4.000000,4.000000,4.000000,4.000000,100.000000
1602006481.851227,75.000000,0.000000,4150.769043,4138.461426,4127.692383,4129.230957,4118.461426,4107.692383,4120.512695,4120.512695,4112.307617,4132.820313,4138.461426,4151.794922,4137.948730,4139.487305,841.000000,4.000000,,,,0.000000,4.000000,4.000000,4.000000,4.000000,4.000000,4.000000,4.000000,4.000000,4.000000,4.000000,4.000000,4.000000,4.000000,4.000000,100.000000
1602006481.859109,76.000000,0.000000,4152.820313,4138.461426,4134.871582,4125.641113,4125.128418,4117.436035,4123.077148,4120.512695,4109.230957,4122.051270,4125.641113,4154.358887,4137.948730,4149.743652,766.000000,4.000000,,,,0.000000,4.000000,4.000000,4.000000,4.000000,4.000000,4.000000,4.000000,4.000000,4.000000,4.000000,4.000000,4.000000,4.000000,4.000000,100.000000
1602006481.866990,77.000000,0.000000,4153.333496,4136.410156,4138.974121,4124.102539,4124.615234,4129.743652,4123.077148,4120.000000,4123.589844,4132.307617,4134.358887,4154.358887,4135.897461,4152.820313,736.000000,4.000000,,,,0.000000,4.000000,4.000000,4.000000,4.000000,4.000000,4.000000,4.000000,4.000000,4.000000,4.000000,4.000000,4.000000,4.000000,4.000000,100.000000
1602006481.874872,78.000000,0.000000,4145.641113,4135.897461,4131.282227,4124.102539,4123.077148,4129.743652,4122.563965,4121.025879,4129.230957,4136.410156,4139.487305,4153.846191,4130.256348,4143.077148,870.000000,4.000000,,,,0.000000,4.000000,4.000000,4.000000,4.000000,4.000000,4.000000,4.000000,4.000000,4.000000,4.000000,4.000000,4.000000,4.000000,4.000000,100.000000
1602006481.882754,79.000000,0.000000,4134.358887,4135.897461,4121.538574,4122.051270,4122.563965,4117.948730,4121.025879,4120.512695,4117.948730,4116.922852,4120.000000,4152.307617,4133.333496,4135.897461,841.000000,4.000000,,,,0.000000,4.000000,4.000000,4.000000,4.000000,4.000000,4.000000,4.000000,4.000000,4.000000,4.000000,4.000000,4.000000,4.000000,4.000000,100.000000
1602006481.890635,80.000000,0.000000,4137.436035,4136.922852,4127.692383,4122.563965,4120.000000,4114.871582,4119.487305,4123.077148,4118.461426,4113.846191,4123.077148,4151.794922,4140.000000,4136.410156,766.000000,4.000000,,,,0.000000,4.000000,4.000000,4.000000,4.000000,4.000000,4.000000,4.000000,4.000000,4.000000,4.000000,4.000000,4.000000,4.000000,4.000000,100.000000
1602006481.898417,81.000000,0.000000,4147.179688,4141.025879,4136.410156,4128.205078,4120.000000,4121.538574,4122.563965,4129.230957,4128.205078,4125.641113,4145.128418,4156.410156,4140.000000,4135.384766,736.000000,4.000000,,,,0.000000,4.000000,4.000000,4.000000,4.000000,4.000000,4.000000,4.000000,4.000000,4.000000,4.000000,4.000000,4.000000,4.000000,4.000000,100.000000
1602006481.906299,82.000000,0.000000,4141.538574,4142.051270,4129.743652,4127.179688,4122.563965,4116.410156,4124.102539,4129.743652,4124.615234,4133.846191,4131.282227,4156.410156,4137.436035,4135.897461,870.000000,4.000000,,,,0.000000,4.000000,4.000000,4.000000,4.000000,4.000000,4.000000,4.000000,4.000000,4.000000,4.000000,4.000000,4.000000,4.000000,4.000000,100.000000
1602006481.914180,83.000000,0.000000,4131.282227,4135.384766,4123.589844,4121.538574,4117.436035,4106.666504,4118.974121,4120.000000,4118.461426,4140.512695,4111.282227,4150.769043,4137.436035,4138.461426,841.000000,4.000000,,,,0.000000,4.000000,4.000000,4.000000,4.000000,4.000000,4.000000,4.000000,4.000000,4.000000,4.000000,4.000000,4.000000,4.000000,4.000000,100.000000
1602006481.922062,84.000000,0.000000,4135.384766,4135.897461,4133.846191,4126.666504,4113.846191,4111.794922,4117.436035,4110.769043,4124.615234,4142.563965,4130.769043,4151.282227,4140.000000,4138.974121,766.000000,4.000000,,,,0.000000,4.000000,4.000000,4.000000,4.000000,4.000000,4.000000,4.000000,4.000000,4.000000,4.000000,4.000000,4.000000,4.000000,4.000000,100.000000
1602006481.929944,85.000000,0.000000,4145.128418,4145.641113,4143.077148,4132.820313,4121.538574,4122.563965,4123.589844,4111.794922,4123.589844,4140.000000,4144.615234,4155.897461,4139.487305,4139.487305,736.000000,4.000000,,,,0.000000,4.000000,4.000000,4.000000,4.000000,4.000000,4.000000,4.000000,4.000000,4.000000,4.000000,4.000000,4.000000,4.000000,4.000000,100.000000
1602006481.937825,86.000000,0.000000,4145.641113,4147.179688,4134.871582,4127.692383,4126.153809,4127.179688,4124.615234,4116.922852,4109.743652,4130.769043,4124.102539,4154.871582,4133.333496,4140.512695,870.000000,4.000000,,,,0.000000,4.000000,4.000000,4.000000,4.000000,4.000000,4.000000,4.000000,4.000000,4.000000,4.000000,4.000000,4.000000,4.000000,4.000000,100.000000
1602006481.945707,87.000000,0.000000,4142.563965,4138.461426,4125.128418,4124.102539,4123.589844,4127.179688,4121.538574,4120.512695,4112.820313,4114.871582,4116.410156,4148.717773,4130.769043,4137.948730,841.000000,4.000000,,,,0.000000,4.000000,4.000000,4.000000,4.000000,4.000000,4.000000,4.000000,4.000000,4.000000,4.000000,4.000000,4.000000,4.000000,4.000000,100.000000
1602006481.953589,88.000000,0.000000,4142.051270,4136.922852,4123.077148,4125.641113,4125.641113,4128.717773,4127.179688,4124.615234,4128.205078,4102.051270,4124.615234,4143.589844,4127.692383,4126.666504,766.000000,4.000000,,,,0.000000,4.000000,4.000000,4.000000,4.000000,4.000000,4.000000,4.000000,4.000000,4.000000,4.000000,4.000000,4.000000,4.000000,4.000000,100.000000
1602006481.961470,89.000000,0.000000,4140.512695,4141.025879,4123.589844,4124.102539,4127.692383,4135.384766,4137.436035,4129.230957,4126.153809,4111.794922,4118.974121,4141.538574,4124.102539,4127.692383,736.000000,4.000000,,,,0.000000,4.000000,4.000000,4.000000,4.000000,4.000000,4.000000,4.000000,4.000000,4.000000,4.000000,4.000000,4.000000,4.000000,4.000000,100.000000
1602006481.969451,90.000000,0.000000,4135.384766,4134.871582,4122.051270,4123.077148,4126.153809,4143.077148,4138.974121,4129.743652,4121.538574,4131.794922,4116.410156,4138.974121,4129.230957,4138.974121,870.000000,4.000000,,,,0.000000,4.000000,4.000000,4.000000,4.000000,4.000000,4.000000,4.000000,4.000000,4.000000,4.000000,4.000000,4.000000,4.000000,4.000000,100.000000
1602006481.977333,91.000000,0.000000,4125.128418,4122.563965,4114.358887,4120.000000,4122.563965,4139.487305,4134.871582,4124.102539,4120.000000,4132.820313,4124.615234,4135.897461,4125.128418,4129.743652,841.000000,4.000000,,,,0.000000,4.000000,4.000000,4.000000,4.000000,4.000000,4.000000,4.000000,4.000000,4.000000,4.000000,4.000000,4.000000,4.000000,4.000000,100.000000
1602006481.985214,92.000000,0.000000,4115.897461,4117.948730,4108.717773,4111.794922,4116.922852,4128.205078,4130.769043,4121.538574,4111.282227,4126.666504,4130.769043,4134.358887,4114.358887,4115.384766,766.000000,4.000000,,,,0.000000,4.000000,4.000000,4.000000,4.000000,4.000000,4.000000,4.000000,4.000000,4.000000,4.000000,4.000000,4.000000,4.000000,4.000000,100.000000
1602006481.993096,93.000000,0.000000,4112.820313,4119.487305,4108.717773,4109.230957,4114.871582,4122.051270,4126.666504,4123.077148,4111.794922,4126.666504,4131.282227,4136.410156,4113.333496,4114.871582,736.000000,4.000000,,,,0.000000,4.000000,4.000000,4.000000,4.000000,4.000000,4.000000,4.000000,4.000000,4.000000,4.000000,4.000000,4.000000,4.000000,4.000000,100.000000
1602006482.000977,94.000000,0.000000,4111.794922,4121.025879,4114.358887,4114.358887,4121.538574,4123.077148,4128.205078,4122.563965,4120.512695,4119.487305,4125.128418,4135.897461,4118.974121,4115.897461,870.000000,4.000000,,,,0.000000,4.000000,4.000000,4.000000,4.000000,4.000000,4.000000,4.000000,4.000000,4.000000,4.000000,4.000000,4.000000,4.000000,4.000000,100.000000
1602006482.008858,95.000000,0.000000,4116.922852,4129.230957,4120.000000,4120.512695,4125.641113,4128.205078,4135.384766,4129.743652,4121.025879,4120.512695,4122.051270,4133.846191,4127.179688,4122.563965,841.000000,4.000000,,,,0.000000,4.000000,4.000000,4.000000,4.000000,4.000000,4.000000,4.000000,4.000000,4.000000,4.000000,4.000000,4.000000,4.000000,4.000000,100.000000
1602006482.016740,96.000000,0.000000,4130.769043,4141.025879,4126.153809,4124.102539,4124.615234,4130.256348,4137.948730,4140.512695,4129.743652,4146.153809,4133.846191,4142.563965,4137.436035,4136.410156,766.000000,4.000000,,,,0.000000,4.000000,4.000000,4.000000,4.000000,4.000000,4.000000,4.000000,4.000000,4.000000,4.000000,4.000000,4.000000,4.000000,4.000000,100.000000
1602006482.024621,97.000000,0.000000,4144.615234,4141.538574,4134.358887,4124.102539,4125.128418,4124.102539,4136.410156,4141.025879,4145.641113,4162.051270,4142.563965,4154.871582,4144.102539,4145.128418,736.000000,4.000000,,,,0.000000,4.000000,4.000000,4.000000,4.000000,4.000000,4.000000,4.000000,4.000000,4.000000,4.000000,4.000000,4.000000,4.000000,4.000000,100.000000
1602006482.032403,98.000000,0.000000,4146.153809,4137.436035,4139.487305,4125.128418,4124.615234,4119.487305,4136.922852,4137.436035,4145.641113,4151.282227,4137.948730,4158.461426,4142.051270,4151.794922,870.000000,4.000000,,,,0.000000,4.000000,4.000000,4.000000,4.000000,4.000000,4.000000,4.000000,4.000000,4.000000,4.000000,4.000000,4.000000,4.000000,4.000000,100.000000
1602006482.040285,99.000000,0.000000,4142.563965,4141.538574,4141.025879,4128.205078,4124.102539,4131.794922,4140.512695,4143.077148,4138.974121,4145.641113,4138.974121,4158.461426,4143.077148,4148.717773,841.000000,4.000000,,,,0.000000,4.000000,4.000000,4.000000,4.000000,4.000000,4.000000,4.000000,4.000000,4.000000,4.000000,4.000000,4.000000,4.000000,4.000000,100.000000
1602006482.048166,100.000000,0.000000,4142.563965,4138.974121,4134.871582,4127.179688,4122.563965,4138.461426,4136.922852,4139.487305,4132.307617,4141.538574,4132.820313,4155.897461,4136.922852,4129.743652,766.000000,4.000000,,,,0.000000,4.000000,4.000000,4.000000,4.000000,4.000000,4.000000,4.000000,4.000000,4.000000,4.000000,4.000000,4.000000,4.000000,4.000000,100.000000
1602006482.056048,101.000000,0.000000,4134.871582,4126.666504,4127.179688,4120.512695,4121.538574,4125.641113,4128.717773,4125.128418,4120.512695,4122.563965,4121.538574,4150.256348,4123.077148,4128.205078,736.000000,4.000000,,,,0.000000,4.000000,4.000000,4.000000,4.000000,4.000000,4.000000,4.000000,4.000000,4.000000,4.000000,4.000000,4.000000,4.000000,4.000000,100.000000
1602006482.063930,102.000000,0.000000,4120.512695,4126.153809,4130.769043,4117.948730,4125.641113,4119.487305,4130.769043,4122.051270,4120.512695,4120.512695,4127.692383,4149.230957,4126.153809,4140.512695,870.000000,4.000000,,,,0.000000,4.000000,4.000000,4.000000,4.000000,4.000000,4.000000,4.000000,4.000000,4.000000,4.000000,4.000000,4.000000,4.000000,4.000000,100.000000
1602006482.071811,103.000000,0.000000,4126.666504,4137.436035,4137.948730,4127.692383,4129.230957,4124.102539,4131.794922,4125.641113,4128.717773,4148.717773,4137.948730,4152.307617,4140.512695,4139.487305,841.000000,4.000000,,,,0.000000,4.000000,4.000000,4.000000,4.000000,4.000000,4.000000,4.000000,4.000000,4.000000,4.000000,4.000000,4.000000,4.000000,4.000000,100.000000
1602006482.079693,104.000000,0.000000,4143.589844,4141.538574,4138.974121,4137.948730,4127.179688,4121.538574,4123.077148,4126.153809,4129.230957,4158.974121,4138.461426,4151.282227,4143.077148,4138.974121,766.000000,4.000000,,,,0.000000,4.000000,4.000000,4.000000,4.000000,4.000000,4.000000,4.000000,4.000000,4.000000,4.000000,4.000000,4.000000,4.000000,4.000000,100.000000
1602006482.087575,105.000000,0.000000,4129.743652,4125.641113,4130.769043,4128.205078,4126.153809,4116.410156,4118.974121,4127.179688,4133.333496,4139.487305,4137.948730,4152.307617,4132.820313,4136.410156,736.000000,4.000000,,,,0.000000,4.000000,4.000000,4.000000,4.000000,4.000000,4.000000,4.000000,4.000000,4.000000,4.000000,4.000000,4.000000,4.000000,4.000000,100.000000
1602006482.095556,106.000000,0.000000,4118.461426,4120.512695,4126.153809,4123.077148,4132.820313,4118.974121,4121.538574,4133.333496,4139.487305,4137.436035,4138.974121,4154.358887,4130.769043,4131.282227,870.000000,4.000000,,,,0.000000,4.000000,4.000000,4.000000,4.000000,4.000000,4.000000,4.000000,4.000000,4.000000,4.000000,4.000000,4.000000,4.000000,4.000000,100.000000
1602006482.103438,107.000000,0.000000,4150.256348,4150.256348,4134.358887,4144.615234,4138.461426,4127.179688,4121.538574,4138.461426,4137.436035,4154.358887,4143.077148,4157.436035,4139.487305,4144.615234,841.000000,4.000000,,,,0.000000,4.000000,4.000000,4.000000,4.000000,4.000000,4.000000,4.000000,4.000000,4.000000,4.000000,4.000000,4.000000,4.000000,4.000000,100.000000
1602006482.111319,108.000000,0.000000,4178.461426,4176.922852,4144.102539,4160.512695,4137.948730,4138.461426,4121.025879,4137.436035,4145.128418,4157.948730,4150.256348,4162.051270,4147.692383,4161.538574,766.000000,4.000000,,,,0.000000,4.000000,4.000000,4.000000,4.000000,4.000000,4.000000,4.000000,4.000000,4.000000,4.000000,4.000000,4.000000,4.000000,4.000000,100.000000
1602006482.119201,109.000000,0.000000,4178.974121,4174.871582,4140.000000,4149.743652,4132.820313,4135.897461,4120.512695,4128.205078,4153.846191,4152.820313,4143.589844,4158.974121,4137.436035,4147.179688,736.000000,4.000000,,,,0.000000,4.000000,4.000000,4.000000,4.000000,4.000000,4.000000,4.000000,4.000000,4.000000,4.000000,4.000000,4.000000,4.000000,4.000000,100.000000
1602006482.127083,110.000000,0.000000,4184.102539,4170.256348,4133.333496,4146.153809,4128.717773,4130.256348,4118.974121,4119.487305,4134.358887,4141.025879,4123.077148,4147.179688,4108.717773,4117.948730,870.000000,4.000000,,,,0.000000,4.000000,4.000000,4.000000,4.000000,4.000000,4.000000,4.000000,4.000000,4.000000,4.000000,4.000000,4.000000,4.000000,4.000000,100.000000
1602006482.134964,111.000000,0.000000,4193.846191,4175.384766,4136.410156,4156.410156,4125.641113,4135.384766,4122.051270,4120.000000,4109.743652,4127.692383,4110.256348,4140.512695,4091.281982,4114.871582,841.000000,4.000000,,,,0.000000,4.000000,4.000000,4.000000,4.000000,4.000000,4.000000,4.000000,4.000000,4.000000,4.000000,4.000000,4.000000,4.000000,4.000000,100.000000
1602006482.142846,112.000000,0.000000,4184.102539,4170.769043,4136.922852,4149.743652,4122.563965,4127.179688,4128.205078,4120.512695,4112.307617,4116.922852,4104.615234,4135.897461,4082.564209,4117.948730,766.000000,4.000000,,,,0.000000,4.000000,4.000000,4.000000,4.000000,4.000000,4.000000,4.000000,4.000000,4.000000,4.000000,4.000000,4.000000,4.000000,4.000000,100.000000
1602006482.150728,113.000000,0.000000,4169.743652,4166.666504,4134.871582,4139.487305,4123.589844,4115.897461,4134.871582,4120.000000,4122.051270,4109.230957,4100.512695,4132.820313,4078.461426,4105.128418,736.000000,4.000000,,,,0.000000,4.000000,4.000000,4.000000,4.000000,4.000000,4.000000,4.000000,4.000000,4.000000,4.000000,4.000000,4.000000,4.000000,4.000000,100.000000
1602006482.158609,114.000000,0.000000,4174.871582,4172.307617,4136.410156,4147.692383,4126.666504,4127.692383,4138.461426,4129.743652,4123.589844,4108.205078,4109.230957,4145.128418,4092.307617,4106.153809,870.000000,4.000000,,,,0.000000,4.000000,4.000000,4.000000,4.000000,4.000000,4.000000,4.000000,4.000000,4.000000,4.000000,4.000000,4.000000,4.000000,4.000000,100.000000
1602006482.166491,115.000000,0.000000,4186.153809,4176.922852,4141.025879,4155.897461,4126.153809,4131.794922,4129.743652,4136.410156,4123.589844,4108.205078,4123.077148,4157.948730,4108.717773,4131.282227,841.000000,4.000000,,,,0.000000,4.000000,4.000000,4.000000,4.000000,4.000000,4.000000,4.000000,4.000000,4.000000,4.000000,4.000000,4.000000,4.000000,4.000000,100.000000
1602006482.174273,116.000000,0.000000,4184.615234,4174.871582,4147.179688,4151.794922,4122.563965,4110.256348,4112.307617,4127.179688,4120.512695,4111.282227,4124.615234,4155.897461,4106.666504,4142.563965,766.000000,4.000000,,,,0.000000,4.000000,4.000000,4.000000,4.000000,4.000000,4.000000,4.000000,4.000000,4.000000,4.000000,4.000000,4.000000,4.000000,4.000000,100.000000
1602006482.182154,117.000000,0.000000,4180.512695,4170.769043,4151.794922,4149.743652,4121.538574,4100.000000,4104.615234,4127.692383,4123.589844,4128.717773,4123.589844,4158.461426,4102.563965,4126.153809,736.000000,4.000000,,,,0.000000,4.000000,4.000000,4.000000,4.000000,4.000000,4.000000,4.000000,4.000000,4.000000,4.000000,4.000000,4.000000,4.000000,4.000000,100.000000
1602006482.190036,118.000000,0.000000,4186.666504,4171.794922,4153.846191,4150.256348,4123.589844,4115.384766,4114.871582,4136.410156,4126.666504,4147.692383,4127.692383,4166.666504,4111.282227,4118.461426,870.000000,4.000000,,,,0.000000,4.000000,4.000000,4.000000,4.000000,4.000000,4.000000,4.000000,4.000000,4.000000,4.000000,4.000000,4.000000,4.000000,4.000000,100.000000
1602006482.197918,119.000000,0.000000,4185.128418,4168.717773,4149.743652,4143.589844,4121.025879,4125.641113,4129.230957,4132.820313,4119.487305,4147.692383,4127.179688,4161.025879,4109.230957,4126.153809,841.000000,4.000000,,,,0.000000,4.000000,4.000000,4.000000,4.000000,4.000000,4.000000,4.000000,4.000000,4.000000,4.000000,4.000000,4.000000,4.000000,4.000000,100.000000
1602006482.205799,120.000000,0.000000,4170.256348,4158.461426,4141.538574,4138.461426,4114.358887,4121.538574,4138.461426,4131.794922,4110.769043,4131.794922,4116.410156,4153.333496,4094.358887,4125.641113,766.000000,4.000000,,,,0.000000,4.000000,4.000000,4.000000,4.000000,4.000000,4.000000,4.000000,4.000000,4.000000,4.000000,4.000000,4.000000,4.000000,4.000000,100.000000
1602006482.213681,121.000000,0.000000,4160.000000,4153.333496,4136.922852,4138.974121,4108.717773,4126.153809,4145.641113,4137.948730,4113.333496,4106.666504,4108.205078,4151.794922,4086.666748,4108.205078,736.000000,4.000000,,,,0.000000,4.000000,4.000000,4.000000,4.000000,4.000000,4.000000,4.000000,4.000000,4.000000,4.000000,4.000000,4.000000,4.000000,4.000000,100.000000
1602006482.221562,122.000000,0.000000,4155.897461,4152.820313,4134.871582,4137.436035,4108.717773,4142.563965,4148.205078,4132.820313,4120.000000,4092.307617,4105.641113,4144.615234,4089.743652,4095.897461,870.000000,4.000000,,,,0.000000,4.000000,4.000000,4.000000,4.000000,4.000000,4.000000,4.000000,4.000000,4.000000,4.000000,4.000000,4.000000,4.000000,4.000000,100.000000
1602006482.229444,123.000000,0.000000,4153.846191,4151.282227,4128.717773,4134.871582,4106.666504,4138.461426,4138.461426,4124.615234,4120.000000,4107.179688,4105.128418,4140.000000,4085.128174,4098.974121,841.000000,4.000000,,,,0.000000,4.000000,4.000000,4.000000,4.000000,4.000000,4.000000,4.000000,4.000000,4.000000,4.000000,4.000000,4.000000,4.000000,4.000000,100.000000
1602006482.237225,124.000000,0.000000,4151.794922,4151.282227,4124.102539,4135.384766,4106.666504,4116.410156,4127.692383,4122.051270,4115.384766,4123.077148,4097.436035,4141.025879,4073.846191,4102.563965,766.000000,4.000000,,,,0.000000,4.000000,4.000000,4.000000,4.000000,4.000000,4.000000,4.000000,4.000000,4.000000,4.000000,4.000000,4.000000,4.000000,4.000000,100.000000
1602006482.245107,125.000000,0.000000,4150.769043,4153.333496,4126.153809,4136.922852,4115.384766,4113.333496,4121.025879,4123.077148,4118.461426,4124.102539,4089.743652,4131.282227,4076.923096,4103.589844,736.000000,4.000000,,,,0.000000,4.000000,4.000000,4.000000,4.000000,4.000000,4.000000,4.000000,4.000000,4.000000,4.000000,4.000000,4.000000,4.000000,4.000000,100.000000
1602006482.253088,126.000000,0.000000,4150.769043,4150.769043,4126.153809,4135.897461,4122.563965,4123.077148,4115.384766,4124.615234,4126.153809,4125.641113,4097.436035,4122.051270,4085.128174,4098.974121,870.000000,4.000000,,,,0.000000,4.000000,4.000000,4.000000,4.000000,4.000000,4.000000,4.000000,4.000000,4.000000,4.000000,4.000000,4.000000,4.000000,4.000000,100.000000
1602006482.260969,127.000000,0.000000,4152.820313,4151.282227,4124.102539,4136.922852,4124.102539,4130.256348,4113.333496,4124.102539,4125.641113,4130.256348,4107.179688,4127.692383,4086.666748,4091.794922,841.000000,4.000000,,,,0.000000,4.000000,4.000000,4.000000,4.000000,4.000000,4.000000,4.000000,4.000000,4.000000,4.000000,4.000000,4.000000,4.000000,4.000000,100.000000
1602006482.268950,128.000000,0.000000,4149.743652,4155.384766,4123.077148,4139.487305,4123.589844,4135.384766,4117.948730,4122.051270,4122.051270,4122.051270,4105.128418,4137.436035,4087.179443,4096.922852,766.000000,4.000000,,,,0.000000,4.000000,4.000000,4.000000,4.000000,4.000000,4.000000,4.000000,4.000000,4.000000,4.000000,4.000000,4.000000,4.000000,4.000000,100.000000
1602006482.276832,0.000000,0.000000,4144.102539,4149.230957,4121.538574,4136.922852,4122.563965,4136.922852,4129.230957,4124.615234,4121.025879,4104.615234,4104.102539,4137.436035,4089.743652,4107.179688,793.000000,4.000000,,,,0.000000,4.000000,4.000000,4.000000,4.000000,4.000000,4.000000,4.000000,4.000000,4.000000,4.000000,4.000000,4.000000,4.000000,4.000000,100.000000
1602006482.284714,1.000000,0.000000,4146.666504,4144.615234,4127.692383,4135.897461,4123.077148,4144.102539,4138.461426,4130.256348,4119.487305,4104.102539,4107.179688,4135.384766,4093.846191,4105.641113,790.000000,4.000000,,,,0.000000,4.000000,4.000000,4.000000,4.000000,4.000000,4.000000,4.000000,4.000000,4.000000,4.000000,4.000000,4.000000,4.000000,4.000000,100.000000
1602006482.292595,2.000000,0.000000,4154.358887,4149.230957,4136.922852,4139.487305,4126.666504,4155.384766,4140.512695,4133.846191,4123.589844,4123.589844,4098.461426,4140.000000,4089.743652,4103.077148,853.000000,4.000000,,,,0.000000,4.000000,4.000000,4.000000,4.000000,4.000000,4.000000,4.000000,4.000000,4.000000,4.000000,4.000000,4.000000,4.000000,4.000000,100.000000
1602006482.300477,3.000000,0.000000,4152.820313,4147.692383,4138.974121,4138.461426,4128.205078,4149.230957,4141.025879,4136.410156,4129.743652,4133.846191,4091.794922,4143.589844,4080.000000,4105.128418,864.000000,4.000000,,,,0.000000,4.000000,4.000000,4.000000,4.000000,4.000000,4.000000,4.000000,4.000000,4.000000,4.000000,4.000000,4.000000,4.000000,4.000000,100.000000
1602006482.308358,4.000000,0.000000,4151.282227,4142.051270,4135.384766,4133.333496,4126.153809,4137.948730,4144.102539,4138.461426,4130.256348,4129.743652,4104.615234,4143.589844,4085.128174,4107.692383,809.000000,4.000000,,,,0.000000,4.000000,4.000000,4.000000,4.000000,4.000000,4.000000,4.000000,4.000000,4.000000,4.000000,4.000000,4.000000,4.000000,4.000000,100.000000
1602006482.316240,5.000000,0.000000,4151.282227,4142.051270,4129.743652,4130.769043,4125.128418,4141.025879,4145.641113,4139.487305,4127.179688,4127.179688,4110.256348,4140.000000,4095.897461,4110.769043,818.000000,4.000000,,,,0.000000,4.000000,4.000000,4.000000,4.000000,4.000000,4.000000,4.000000,4.000000,4.000000,4.000000,4.000000,4.000000,4.000000,4.000000,100.000000
1602006482.324122,6.000000,0.000000,4142.051270,4141.025879,4121.538574,4126.666504,4123.077148,4136.922852,4145.128418,4138.461426,4122.563965,4113.333496,4098.974121,4135.384766,4094.358887,4107.179688,769.000000,4.000000,,,,0.000000,4.000000,4.000000,4.000000,4.000000,4.000000,4.000000,4.000000,4.000000,4.000000,4.000000,4.000000,4.000000,4.000000,4.000000,100.000000
1602006482.331904,7.000000,0.000000,4137.948730,4138.974121,4125.641113,4124.102539,4122.563965,4136.922852,4150.769043,4135.384766,4118.461426,4104.102539,4101.538574,4138.461426,4096.922852,4112.820313,672.000000,4.000000,,,,0.000000,4.000000,4.000000,4.000000,4.000000,4.000000,4.000000,4.000000,4.000000,4.000000,4.000000,4.000000,4.000000,4.000000,4.000000,100.000000
1602006482.339785,8.000000,0.000000,4144.102539,4141.025879,4137.436035,4127.692383,4123.589844,4150.769043,4152.820313,4136.922852,4119.487305,4123.589844,4122.563965,4143.589844,4110.256348,4131.282227,784.000000,4.000000,,,,0.000000,4.000000,4.000000,4.000000,4.000000,4.000000,4.000000,4.000000,4.000000,4.000000,4.000000,4.000000,4.000000,4.000000,4.000000,100.000000
1602006482.347667,9.000000,0.000000,4140.512695,4138.461426,4136.410156,4127.692383,4121.538574,4146.666504,4143.589844,4137.948730,4125.641113,4136.410156,4127.179688,4140.000000,4112.307617,4133.846191,836.000000,4.000000,,,,0.000000,4.000000,4.000000,4.000000,4.000000,4.000000,4.000000,4.000000,4.000000,4.000000,4.000000,4.000000,4.000000,4.000000,4.000000,100.000000
1602006482.355548,10.000000,0.000000,4137.948730,4134.358887,4132.307617,4122.051270,4117.948730,4127.179688,4134.358887,4132.820313,4125.641113,4128.205078,4113.846191,4136.410156,4102.563965,4120.000000,870.000000,4.000000,,,,0.000000,4.000000,4.000000,4.000000,4.000000,4.000000,4.000000,4.000000,4.000000,4.000000,4.000000,4.000000,4.000000,4.000000,4.000000,100.000000
1602006482.363430,11.000000,0.000000,4149.743652,4138.461426,4136.410156,4124.615234,4117.948730,4124.102539,4132.820313,4128.205078,4122.563965,4128.717773,4114.871582,4139.487305,4100.512695,4118.461426,841.000000,4.000000,,,,0.000000,4.000000,4.000000,4.000000,4.000000,4.000000,4.000000,4.000000,4.000000,4.000000,4.000000,4.000000,4.000000,4.000000,4.000000,100.000000
1602006482.371312,12.000000,0.000000,4157.948730,4146.666504,4138.461426,4135.384766,4122.563965,4132.307617,4134.358887,4135.897461,4130.769043,4142.051270,4127.179688,4140.512695,4107.179688,4125.128418,766.000000,4.000000,,,,0.000000,4.000000,4.000000,4.000000,4.000000,4.000000,4.000000,4.000000,4.000000,4.000000,4.000000,4.000000,4.000000,4.000000,4.000000,100.000000
1602006482.379193,13.000000,0.000000,4154.871582,4153.333496,4140.000000,4143.589844,4127.692383,4137.436035,4135.897461,4148.205078,4140.512695,4140.512695,4125.641113,4142.563965,4109.743652,4125.128418,736.000000,4.000000,,,,0.000000,4.000000,4.000000,4.000000,4.000000,4.000000,4.000000,4.000000,4.000000,4.000000,4.000000,4.000000,4.000000,4.000000,4.000000,100.000000
1602006482.387075,14.000000,0.000000,4156.922852,4154.871582,4144.615234,4148.205078,4131.282227,4143.077148,4144.615234,4152.820313,4140.000000,4129.743652,4120.000000,4152.820313,4108.205078,4125.641113,870.000000,4.000000,,,,0.000000,4.000000,4.000000,4.000000,4.000000,4.000000,4.000000,4.000000,4.000000,4.000000,4.000000,4.000000,4.000000,4.000000,4.000000,100.000000
1602006482.395056,15.000000,0.000000,4158.974121,4154.358887,4145.128418,4147.692383,4132.820313,4146.666504,4152.307617,4153.333496,4141.025879,4132.820313,4125.128418,4159.487305,4111.794922,4129.743652,841.000000,4.000000,,,,0.000000,4.000000,4.000000,4.000000,4.000000,4.000000,4.000000,4.000000,4.000000,4.000000,4.000000,4.000000,4.000000,4.000000,4.000000,100.000000
1602006482.402938,16.000000,0.000000,4154.358887,4154.871582,4138.974121,4139.487305,4130.769043,4148.205078,4151.794922,4149.230957,4144.615234,4131.794922,4122.051270,4147.692383,4112.820313,4126.666504,0.000000,4.000000,,,,0.000000,4.000000,4.000000,4.000000,4.000000,4.000000,4.000000,4.000000,4.000000,4.000000,4.000000,4.000000,4.000000,4.000000,4.000000,100.000000
1602006482.410819,17.000000,0.000000,4150.769043,4148.717773,4135.384766,4135.384766,4127.692383,4152.820313,4151.794922,4143.077148,4140.000000,4121.025879,4112.307617,4136.922852,4107.692383,4121.025879,0.000000,4.000000,,,,0.000000,4.000000,4.000000,4.000000,4.000000,4.000000,4.000000,4.000000,4.000000,4.000000,4.000000,4.000000,4.000000,4.000000,4.000000,100.000000
1602006482.418701,18.000000,0.000000,4149.230957,4139.487305,4137.436035,4136.922852,4124.615234,4150.769043,4152.307617,4140.000000,4136.922852,4121.538574,4117.436035,4143.589844,4108.205078,4122.563965,0.000000,4.000000,,,,0.000000,4.000000,4.000000,4.000000,4.000000,4.000000,4.000000,4.000000,4.000000,4.000000,4.000000,4.000000,4.000000,4.000000,4.000000,100.000000
1602006482.426582,19.000000,0.000000,4141.538574,4136.922852,4138.974121,4128.205078,4121.538574,4141.538574,4144.102539,4136.922852,4131.794922,4130.256348,4123.589844,4148.205078,4108.205078,4122.563965,0.000000,4.000000,,,,0.000000,4.000000,4.000000,4.000000,4.000000,4.000000,4.000000,4.000000,4.000000,4.000000,4.000000,4.000000,4.000000,4.000000,4.000000,100.000000
1602006482.434463,20.000000,0.000000,4133.846191,4136.410156,4134.871582,4124.102539,4120.512695,4135.897461,4139.487305,4135.384766,4121.538574,4133.333496,4120.000000,4141.025879,4099.487305,4113.846191,0.000000,4.000000,,,,0.000000,4.000000,4.000000,4.000000,4.000000,4.000000,4.000000,4.000000,4.000000,4.000000,4.000000,4.000000,4.000000,4.000000,4.000000,100.000000
1602006482.442244,21.000000,0.000000,4143.077148,4136.922852,4135.384766,4134.358887,4121.538574,4136.410156,4142.563965,4136.922852,4126.153809,4131.794922,4120.512695,4139.487305,4100.000000,4113.846191,0.000000,4.000000,,,,0.000000,4.000000,4.000000,4.000000,4.000000,4.000000,4.000000,4.000000,4.000000,4.000000,4.000000,4.000000,4.000000,4.000000,4.000000,100.000000
1602006482.450125,22.000000,0.000000,4155.897461,4140.000000,4143.077148,4142.563965,4122.051270,4140.000000,4142.051270,4140.000000,4143.589844,4130.256348,4127.692383,4145.128418,4110.769043,4126.153809,0.000000,4.000000,,,,0.000000,4.000000,4.000000,4.000000,4.000000,4.000000,4.000000,4.000000,4.000000,4.000000,4.000000,4.000000,4.000000,4.000000,4.000000,100.000000
1602006482.457906,23.000000,0.000000,4149.743652,4140.000000,4140.000000,4141.025879,4121.538574,4140.000000,4137.436035,4138.974121,4145.641113,4133.846191,4123.589844,4142.563965,4110.769043,4128.717773,0.000000,4.000000,,,,0.000000,4.000000,4.000000,4.000000,4.000000,4.000000,4.000000,4.000000,4.000000,4.000000,4.000000,4.000000,4.000000,4.000000,4.000000,100.000000
1602006482.465787,24.000000,0.000000,4136.922852,4137.436035,4126.666504,4134.871582,4122.051270,4132.820313,4130.769043,4135.384766,4129.230957,4142.563965,4114.358887,4136.922852,4105.128418,4121.025879,0.000000,4.000000,,,,0.000000,4.000000,4.000000,4.000000,4.000000,4.000000,4.000000,4.000000,4.000000,4.000000,4.000000,4.000000,4.000000,4.000000,4.000000,100.000000
1602006482.473569,25.000000,0.000000,4135.384766,4136.410156,4121.025879,4130.769043,4121.538574,4126.666504,4122.563965,4136.922852,4121.025879,4128.717773,4111.794922,4135.897461,4104.615234,4119.487305,0.000000,4.000000,,,,0.000000,4.000000,4.000000,4.000000,4.000000,4.000000,4.000000,4.000000,4.000000,4.000000,4.000000,4.000000,4.000000,4.000000,4.000000,100.000000
1602006482.481450,26.000000,0.000000,4140.512695,4138.974121,4124.615234,4135.384766,4122.051270,4126.153809,4128.205078,4140.512695,4129.743652,4116.922852,4110.769043,4138.461426,4106.153809,4123.589844,0.000000,4.000000,,,,0.000000,4.000000,4.000000,4.000000,4.000000,4.000000,4.000000,4.000000,4.000000,4.000000,4.000000,4.000000,4.000000,4.000000,4.000000,100.000000
1602006482.489332,27.000000,0.000000,4143.077148,4148.717773,4126.666504,4142.051270,4126.153809,4128.205078,4134.871582,4140.000000,4141.025879,4135.384766,4112.307617,4141.025879,4107.179688,4123.589844,0.000000,4.000000,,,,0.000000,4.000000,4.000000,4.000000,4.000000,4.000000,4.000000,4.000000,4.000000,4.000000,4.000000,4.000000,4.000000,4.000000,4.000000,100.000000
1602006482.497213,28.000000,0.000000,4141.538574,4153.333496,4126.153809,4140.000000,4129.743652,4130.256348,4130.256348,4137.436035,4144.102539,4133.333496,4119.487305,4140.512695,4108.205078,4115.897461,0.000000,4.000000,,,,0.000000,4.000000,4.000000,4.000000,4.000000,4.000000,4.000000,4.000000,4.000000,4.000000,4.000000,4.000000,4.000000,4.000000,4.000000,100.000000
1602006482.505094,29.000000,0.000000,4135.897461,4144.102539,4123.077148,4137.948730,4127.179688,4129.230957,4131.282227,4133.846191,4136.922852,4117.948730,4122.563965,4137.948730,4105.128418,4108.205078,0.000000,4.000000,,,,0.000000,4.000000,4.000000,4.000000,4.000000,4.000000,4.000000,4.000000,4.000000,4.000000,4.000000,4.000000,4.000000,4.000000,4.000000,100.000000
1602006482.512976,30.000000,0.000000,4134.358887,4135.897461,4119.487305,4137.436035,4123.589844,4120.512695,4138.461426,4126.153809,4123.589844,4134.358887,4119.487305,4138.461426,4104.615234,4111.282227,0.000000,4.000000,,,,0.000000,4.000000,4.000000,4.000000,4.000000,4.000000,4.000000,4.000000,4.000000,4.000000,4.000000,4.000000,4.000000,4.000000,4.000000,100.000000
1602006482.520957,31.000000,0.000000,4136.410156,4137.436035,4123.077148,4130.256348,4125.128418,4118.461426,4131.794922,4121.538574,4114.871582,4145.128418,4123.589844,4141.538574,4111.794922,4124.615234,0.000000,4.000000,,,,0.000000,4.000000,4.000000,4.000000,4.000000,4.000000,4.000000,4.000000,4.000000,4.000000,4.000000,4.000000,4.000000,4.000000,4.000000,100.000000
1602006482.528838,32.000000,0.000000,4128.717773,4136.922852,4121.025879,4121.538574,4128.205078,4127.179688,4123.589844,4120.000000,4117.948730,4125.128418,4121.538574,4140.512695,4109.743652,4122.563965,0.000000,4.000000,,,,0.000000,4.000000,4.000000,4.000000,4.000000,4.000000,4.000000,4.000000,4.000000,4.000000,4.000000,4.000000,4.000000,4.000000,4.000000,100.000000
1602006482.536720,33.000000,0.000000,4121.025879,4130.769043,4110.256348,4121.025879,4123.077148,4127.692383,4122.051270,4120.512695,4121.538574,4107.692383,4109.743652,4134.358887,4099.487305,4103.589844,0.000000,4.000000,,,,0.000000,4.000000,4.000000,4.000000,4.000000,4.000000,4.000000,4.000000,4.000000,4.000000,4.000000,4.000000,4.000000,4.000000,4.000000,100.000000
