Timestamp,EEG.Counter,EEG.Interpolated,EEG.AF3,EEG.F7,EEG.F3,EEG.FC5,EEG.T7,EEG.P7,EEG.O1,EEG.O2,EEG.P8,EEG.T8,EEG.FC6,EEG.F4,EEG.F8,EEG.AF4,EEG.RawCq,EEG.Battery,MarkerIndex,MarkerType,MarkerValueInt,EEG.MarkerHardware,CQ.AF3,CQ.F7,CQ.F3,CQ.FC5,CQ.T7,CQ.P7,CQ.O1,CQ.O2,CQ.P8,CQ.T8,CQ.FC6,CQ.F4,CQ.F8,CQ.AF4,CQ.Overall
1602006497.154098,82.000000,0.000000,4121.025879,4130.256348,4120.000000,4122.051270,4136.410156,4140.000000,4139.487305,4121.025879,4112.820313,4130.256348,4135.384766,4152.820313,4126.666504,4129.230957,869.000000,4.000000,,,,0.000000,4.000000,4.000000,4.000000,4.000000,4.000000,4.000000,4.000000,4.000000,4.000000,4.000000,4.000000,4.000000,4.000000,4.000000,100.000000
1602006497.162080,83.000000,0.000000,4120.512695,4129.743652,4123.077148,4124.102539,4135.897461,4136.922852,4134.871582,4121.538574,4118.974121,4116.410156,4140.000000,4151.282227,4136.922852,4135.897461,835.000000,4.000000,,,,0.000000,4.000000,4.000000,4.000000,4.000000,4.000000,4.000000,4.000000,4.000000,4.000000,4.000000,4.000000,4.000000,4.000000,4.000000,100.000000
1602006497.169961,84.000000,0.000000,4126.153809,4135.897461,4130.769043,4124.102539,4132.820313,4128.205078,4123.077148,4122.051270,4122.563965,4120.512695,4142.051270,4153.846191,4142.051270,4139.487305,768.000000,4.000000,,,,0.000000,4.000000,4.000000,4.000000,4.000000,4.000000,4.000000,4.000000,4.000000,4.000000,4.000000,4.000000,4.000000,4.000000,4.000000,100.000000
1602006497.177843,85.000000,0.000000,4128.205078,4136.922852,4137.436035,4126.153809,4130.769043,4120.512695,4118.461426,4123.589844,4131.794922,4149.743652,4136.410156,4158.461426,4146.153809,4137.948730,737.000000,4.000000,,,,0.000000,4.000000,4.000000,4.000000,4.000000,4.000000,4.000000,4.000000,4.000000,4.000000,4.000000,4.000000,4.000000,4.000000,4.000000,100.000000
1602006497.185725,86.000000,0.000000,4125.128418,4138.461426,4140.000000,4134.358887,4135.897461,4120.512695,4118.461426,4122.563965,4137.948730,4162.051270,4142.563965,4158.974121,4148.717773,4136.410156,869.000000,4.000000,,,,0.000000,4.000000,4.000000,4.000000,4.000000,4.000000,4.000000,4.000000,4.000000,4.000000,4.000000,4.000000,4.000000,4.000000,4.000000,100.000000
1602006497.193606,87.000000,0.000000,4124.615234,4143.589844,4134.871582,4138.461426,4138.974121,4121.025879,4114.358887,4115.897461,4127.692383,4140.512695,4150.769043,4157.948730,4142.563965,4137.948730,835.000000,4.000000,,,,0.000000,4.000000,4.000000,4.000000,4.000000,4.000000,4.000000,4.000000,4.000000,4.000000,4.000000,4.000000,4.000000,4.000000,4.000000,100.000000
1602006497.201488,88.000000,0.000000,4125.641113,4139.487305,4126.153809,4134.358887,4135.384766,4118.461426,4112.307617,4109.743652,4118.461426,4131.282227,4140.000000,4155.384766,4138.974121,4137.948730,768.000000,4.000000,,,,0.000000,4.000000,4.000000,4.000000,4.000000,4.000000,4.000000,4.000000,4.000000,4.000000,4.000000,4.000000,4.000000,4.000000,4.000000,100.000000
1602006497.209369,89.000000,0.000000,4126.153809,4134.358887,4121.538574,4129.230957,4134.871582,4119.487305,4120.000000,4110.256348,4123.077148,4143.589844,4134.871582,4153.333496,4143.589844,4131.794922,737.000000,4.000000,,,,0.000000,4.000000,4.000000,4.000000,4.000000,4.000000,4.000000,4.000000,4.000000,4.000000,4.000000,4.000000,4.000000,4.000000,4.000000,100.000000
1602006497.217251,90.000000,0.000000,4123.077148,4137.948730,4122.051270,4124.102539,4136.922852,4128.205078,4132.820313,4115.384766,4123.077148,4130.769043,4142.563965,4152.820313,4138.461426,4125.641113,869.000000,4.000000,,,,0.000000,4.000000,4.000000,4.000000,4.000000,4.000000,4.000000,4.000000,4.000000,4.000000,4.000000,4.000000,4.000000,4.000000,4.000000,100.000000
1602006497.225133,91.000000,0.000000,4118.974121,4131.794922,4121.025879,4121.538574,4134.871582,4137.948730,4141.538574,4119.487305,4116.410156,4111.282227,4134.871582,4143.077148,4124.102539,4121.538574,835.000000,4.000000,,,,0.000000,4.000000,4.000000,4.000000,4.000000,4.000000,4.000000,4.000000,4.000000,4.000000,4.000000,4.000000,4.000000,4.000000,4.000000,100.000000
1602006497.233114,92.000000,0.000000,4118.461426,4122.563965,4119.487305,4123.077148,4128.205078,4137.436035,4140.000000,4121.538574,4122.563965,4120.000000,4124.615234,4132.820313,4120.000000,4116.922852,768.000000,4.000000,,,,0.000000,4.000000,4.000000,4.000000,4.000000,4.000000,4.000000,4.000000,4.000000,4.000000,4.000000,4.000000,4.000000,4.000000,4.000000,100.000000
1602006497.240995,93.000000,0.000000,4120.512695,4128.205078,4117.948730,4124.102539,4124.102539,4129.743652,4136.922852,4127.179688,4135.384766,4132.820313,4131.282227,4138.974121,4128.205078,4114.871582,737.000000,4.000000,,,,0.000000,4.000000,4.000000,4.000000,4.000000,4.000000,4.000000,4.000000,4.000000,4.000000,4.000000,4.000000,4.000000,4.000000,4.000000,100.000000
1602006497.248876,94.000000,0.000000,4122.051270,4138.974121,4123.589844,4129.230957,4130.256348,4127.692383,4136.410156,4137.436035,4149.743652,4147.179688,4142.051270,4154.358887,4139.487305,4119.487305,869.000000,4.000000,,,,0.000000,4.000000,4.000000,4.000000,4.000000,4.000000,4.000000,4.000000,4.000000,4.000000,4.000000,4.000000,4.000000,4.000000,4.000000,100.000000
1602006497.256757,95.000000,0.000000,4124.615234,4140.000000,4136.922852,4137.436035,4136.922852,4123.589844,4131.282227,4138.974121,4155.897461,4158.974121,4147.692383,4163.589844,4144.102539,4126.153809,835.000000,4.000000,,,,0.000000,4.000000,4.000000,4.000000,4.000000,4.000000,4.000000,4.000000,4.000000,4.000000,4.000000,4.000000,4.000000,4.000000,4.000000,100.000000
1602006497.264638,96.000000,0.000000,4130.256348,4138.974121,4143.589844,4140.000000,4135.384766,4113.333496,4122.051270,4131.794922,4149.230957,4144.102539,4143.589844,4170.256348,4140.000000,4134.358887,768.000000,4.000000,,,,0.000000,4.000000,4.000000,4.000000,4.000000,4.000000,4.000000,4.000000,4.000000,4.000000,4.000000,4.000000,4.000000,4.000000,4.000000,100.000000
1602006497.272420,97.000000,0.000000,4136.410156,4142.051270,4141.025879,4138.974121,4134.358887,4113.333496,4120.000000,4128.717773,4140.512695,4132.820313,4135.897461,4173.846191,4137.948730,4140.000000,737.000000,4.000000,,,,0.000000,4.000000,4.000000,4.000000,4.000000,4.000000,4.000000,4.000000,4.000000,4.000000,4.000000,4.000000,4.000000,4.000000,4.000000,100.000000
1602006497.280301,98.000000,0.000000,4138.974121,4142.563965,4138.974121,4140.000000,4137.436035,4121.538574,4129.230957,4127.179688,4135.384766,4138.461426,4138.461426,4172.307617,4145.128418,4138.461426,869.000000,4.000000,,,,0.000000,4.000000,4.000000,4.000000,4.000000,4.000000,4.000000,4.000000,4.000000,4.000000,4.000000,4.000000,4.000000,4.000000,4.000000,100.000000
1602006497.288183,99.000000,0.000000,4140.000000,4138.461426,4138.974121,4137.948730,4136.922852,4130.256348,4138.974121,4124.615234,4126.666504,4127.692383,4141.025879,4177.436035,4147.692383,4140.512695,835.000000,4.000000,,,,0.000000,4.000000,4.000000,4.000000,4.000000,4.000000,4.000000,4.000000,4.000000,4.000000,4.000000,4.000000,4.000000,4.000000,4.000000,100.000000
1602006497.296064,100.000000,0.000000,4140.000000,4134.358887,4144.102539,4133.333496,4131.282227,4137.948730,4143.077148,4128.717773,4117.436035,4123.077148,4136.922852,4186.666504,4139.487305,4144.102539,768.000000,4.000000,,,,0.000000,4.000000,4.000000,4.000000,4.000000,4.000000,4.000000,4.000000,4.000000,4.000000,4.000000,4.000000,4.000000,4.000000,4.000000,100.000000
1602006497.303946,101.000000,0.000000,4138.461426,4136.410156,4145.128418,4134.871582,4131.794922,4140.512695,4143.077148,4135.897461,4124.102539,4141.538574,4139.487305,4186.153809,4139.487305,4139.487305,737.000000,4.000000,,,,0.000000,4.000000,4.000000,4.000000,4.000000,4.000000,4.000000,4.000000,4.000000,4.000000,4.000000,4.000000,4.000000,4.000000,4.000000,100.000000
1602006497.311827,102.000000,0.000000,4140.512695,4142.563965,4142.051270,4141.025879,4138.461426,4140.000000,4142.051270,4138.974121,4138.461426,4150.769043,4144.615234,4181.538574,4151.282227,4144.102539,869.000000,4.000000,,,,0.000000,4.000000,4.000000,4.000000,4.000000,4.000000,4.000000,4.000000,4.000000,4.000000,4.000000,4.000000,4.000000,4.000000,4.000000,100.000000
1602006497.319809,103.000000,0.000000,4143.589844,4143.077148,4147.179688,4142.051270,4142.051270,4137.948730,4138.974121,4137.948730,4146.153809,4150.769043,4141.538574,4184.615234,4152.307617,4152.820313,835.000000,4.000000,,,,0.000000,4.000000,4.000000,4.000000,4.000000,4.000000,4.000000,4.000000,4.000000,4.000000,4.000000,4.000000,4.000000,4.000000,4.000000,100.000000
1602006497.327690,104.000000,0.000000,4141.538574,4141.025879,4150.256348,4140.000000,4137.948730,4128.717773,4131.282227,4138.974121,4152.307617,4151.794922,4138.974121,4184.615234,4145.641113,4147.692383,768.000000,4.000000,,,,0.000000,4.000000,4.000000,4.000000,4.000000,4.000000,4.000000,4.000000,4.000000,4.000000,4.000000,4.000000,4.000000,4.000000,4.000000,100.000000
1602006497.335572,105.000000,0.000000,4134.358887,4136.922852,4139.487305,4138.461426,4133.333496,4118.974121,4122.563965,4137.948730,4156.410156,4139.487305,4139.487305,4168.717773,4142.051270,4137.436035,737.000000,4.000000,,,,0.000000,4.000000,4.000000,4.000000,4.000000,4.000000,4.000000,4.000000,4.000000,4.000000,4.000000,4.000000,4.000000,4.000000,4.000000,100.000000
1602006497.343453,106.000000,0.000000,4126.153809,4130.256348,4133.846191,4134.358887,4135.384766,4120.000000,4123.077148,4133.846191,4157.948730,4132.820313,4137.948730,4153.846191,4142.051270,4137.948730,869.000000,4.000000,,,,0.000000,4.000000,4.000000,4.000000,4.000000,4.000000,4.000000,4.000000,4.000000,4.000000,4.000000,4.000000,4.000000,4.000000,4.000000,100.000000
1602006497.351335,107.000000,0.000000,4121.538574,4126.666504,4139.487305,4133.333496,4134.871582,4126.666504,4131.794922,4135.897461,4157.436035,4150.769043,4138.461426,4158.461426,4149.230957,4145.128418,835.000000,4.000000,,,,0.000000,4.000000,4.000000,4.000000,4.000000,4.000000,4.000000,4.000000,4.000000,4.000000,4.000000,4.000000,4.000000,4.000000,4.000000,100.000000
1602006497.359217,108.000000,0.000000,4123.077148,4127.692383,4137.948730,4134.358887,4125.641113,4129.743652,4131.282227,4135.384766,4147.692383,4158.974121,4142.051270,4162.563965,4155.897461,4142.563965,768.000000,4.000000,,,,0.000000,4.000000,4.000000,4.000000,4.000000,4.000000,4.000000,4.000000,4.000000,4.000000,4.000000,4.000000,4.000000,4.000000,4.000000,100.000000
1602006497.367098,109.000000,0.000000,4121.538574,4123.589844,4129.743652,4127.179688,4121.025879,4125.128418,4124.615234,4125.641113,4126.153809,4146.153809,4133.846191,4152.820313,4148.205078,4126.666504,737.000000,4.000000,,,,0.000000,4.000000,4.000000,4.000000,4.000000,4.000000,4.000000,4.000000,4.000000,4.000000,4.000000,4.000000,4.000000,4.000000,4.000000,100.000000
1602006497.374980,110.000000,0.000000,4117.948730,4117.948730,4130.769043,4120.512695,4123.589844,4126.153809,4129.230957,4122.563965,4116.410156,4135.897461,4121.538574,4153.846191,4137.948730,4120.512695,869.000000,4.000000,,,,0.000000,4.000000,4.000000,4.000000,4.000000,4.000000,4.000000,4.000000,4.000000,4.000000,4.000000,4.000000,4.000000,4.000000,4.000000,100.000000
1602006497.382862,111.000000,0.000000,4130.256348,4127.179688,4147.179688,4131.282227,4130.256348,4135.384766,4140.000000,4134.358887,4126.153809,4136.922852,4128.717773,4168.205078,4142.563965,4136.410156,835.000000,4.000000,,,,0.000000,4.000000,4.000000,4.000000,4.000000,4.000000,4.000000,4.000000,4.000000,4.000000,4.000000,4.000000,4.000000,4.000000,4.000000,100.000000
1602006497.390643,112.000000,0.000000,4145.128418,4138.461426,4155.897461,4142.563965,4133.846191,4133.333496,4139.487305,4138.461426,4134.358887,4138.461426,4140.512695,4170.769043,4149.743652,4145.641113,768.000000,4.000000,,,,0.000000,4.000000,4.000000,4.000000,4.000000,4.000000,4.000000,4.000000,4.000000,4.000000,4.000000,4.000000,4.000000,4.000000,4.000000,100.000000
1602006497.398525,113.000000,0.000000,4141.538574,4137.436035,4144.102539,4138.461426,4127.692383,4121.025879,4129.743652,4129.230957,4137.948730,4135.897461,4135.897461,4164.102539,4150.256348,4142.563965,737.000000,4.000000,,,,0.000000,4.000000,4.000000,4.000000,4.000000,4.000000,4.000000,4.000000,4.000000,4.000000,4.000000,4.000000,4.000000,4.000000,4.000000,100.000000
1602006497.406407,114.000000,0.000000,4133.846191,4134.358887,4136.922852,4133.846191,4122.563965,4116.410156,4126.153809,4126.666504,4145.641113,4135.897461,4134.871582,4167.179688,4152.307617,4143.589844,869.000000,4.000000,,,,0.000000,4.000000,4.000000,4.000000,4.000000,4.000000,4.000000,4.000000,4.000000,4.000000,4.000000,4.000000,4.000000,4.000000,4.000000,100.000000
1602006497.414288,115.000000,0.000000,4136.410156,4130.256348,4142.563965,4136.922852,4127.179688,4120.512695,4126.666504,4129.230957,4148.205078,4133.846191,4142.051270,4171.282227,4150.256348,4145.128418,835.000000,4.000000,,,,0.000000,4.000000,4.000000,4.000000,4.000000,4.000000,4.000000,4.000000,4.000000,4.000000,4.000000,4.000000,4.000000,4.000000,4.000000,100.000000
1602006497.422170,116.000000,0.000000,4140.000000,4128.717773,4142.051270,4138.461426,4131.794922,4129.743652,4126.666504,4127.692383,4142.563965,4137.948730,4137.948730,4167.692383,4140.512695,4135.897461,768.000000,4.000000,,,,0.000000,4.000000,4.000000,4.000000,4.000000,4.000000,4.000000,4.000000,4.000000,4.000000,4.000000,4.000000,4.000000,4.000000,4.000000,100.000000
1602006497.430052,117.000000,0.000000,4139.487305,4135.897461,4138.461426,4137.436035,4134.358887,4137.436035,4125.128418,4129.230957,4138.974121,4144.615234,4129.230957,4158.974121,4135.897461,4123.077148,737.000000,4.000000,,,,0.000000,4.000000,4.000000,4.000000,4.000000,4.000000,4.000000,4.000000,4.000000,4.000000,4.000000,4.000000,4.000000,4.000000,4.000000,100.000000
1602006497.437933,118.000000,0.000000,4136.410156,4138.461426,4140.000000,4137.436035,4140.000000,4143.589844,4128.205078,4135.384766,4142.563965,4143.077148,4136.410156,4155.384766,4145.128418,4127.179688,869.000000,4.000000,,,,0.000000,4.000000,4.000000,4.000000,4.000000,4.000000,4.000000,4.000000,4.000000,4.000000,4.000000,4.000000,4.000000,4.000000,4.000000,100.000000
1602006497.445815,119.000000,0.000000,4133.333496,4138.461426,4138.974121,4138.974121,4144.615234,4148.717773,4135.384766,4138.461426,4145.128418,4143.077148,4148.205078,4160.512695,4152.820313,4148.205078,835.000000,4.000000,,,,0.000000,4.000000,4.000000,4.000000,4.000000,4.000000,4.000000,4.000000,4.000000,4.000000,4.000000,4.000000,4.000000,4.000000,4.000000,100.000000
1602006497.453596,120.000000,0.000000,4139.487305,4144.102539,4138.461426,4142.051270,4146.153809,4144.102539,4138.974121,4136.922852,4141.538574,4149.230957,4148.717773,4168.205078,4155.384766,4161.025879,768.000000,4.000000,,,,0.000000,4.000000,4.000000,4.000000,4.000000,4.000000,4.000000,4.000000,4.000000,4.000000,4.000000,4.000000,4.000000,4.000000,4.000000,100.000000
1602006497.461478,121.000000,0.000000,4135.897461,4131.794922,4141.025879,4135.897461,4140.512695,4129.230957,4140.000000,4131.794922,4134.358887,4152.307617,4142.563965,4169.230957,4157.948730,4151.794922,737.000000,4.000000,,,,0.000000,4.000000,4.000000,4.000000,4.000000,4.000000,4.000000,4.000000,4.000000,4.000000,4.000000,4.000000,4.000000,4.000000,4.000000,100.000000
1602006497.469359,122.000000,0.000000,4128.205078,4120.512695,4140.000000,4128.205078,4133.846191,4120.000000,4137.948730,4124.615234,4124.615234,4135.384766,4137.948730,4164.102539,4149.230957,4143.077148,869.000000,4.000000,,,,0.000000,4.000000,4.000000,4.000000,4.000000,4.000000,4.000000,4.000000,4.000000,4.000000,4.000000,4.000000,4.000000,4.000000,4.000000,100.000000
1602006497.477241,123.000000,0.000000,4144.102539,4144.102539,4140.000000,4141.538574,4137.948730,4121.025879,4130.769043,4120.512695,4121.025879,4115.384766,4134.871582,4162.563965,4136.922852,4147.692383,835.000000,4.000000,,,,0.000000,4.000000,4.000000,4.000000,4.000000,4.000000,4.000000,4.000000,4.000000,4.000000,4.000000,4.000000,4.000000,4.000000,4.000000,100.000000
1602006497.485122,124.000000,0.000000,4164.615234,4163.589844,4140.512695,4154.871582,4138.461426,4120.512695,4123.077148,4120.000000,4132.820313,4129.230957,4137.436035,4165.641113,4138.974121,4147.179688,768.000000,4.000000,,,,0.000000,4.000000,4.000000,4.000000,4.000000,4.000000,4.000000,4.000000,4.000000,4.000000,4.000000,4.000000,4.000000,4.000000,4.000000,100.000000
1602006497.493003,125.000000,0.000000,4167.179688,4162.563965,4141.538574,4148.205078,4128.205078,4118.974121,4122.051270,4121.538574,4149.230957,4157.436035,4141.538574,4162.051270,4138.974121,4134.871582,737.000000,4.000000,,,,0.000000,4.000000,4.000000,4.000000,4.000000,4.000000,4.000000,4.000000,4.000000,4.000000,4.000000,4.000000,4.000000,4.000000,4.000000,100.000000
1602006497.500885,126.000000,0.000000,4164.102539,4167.179688,4138.974121,4141.025879,4125.128418,4128.205078,4123.077148,4121.025879,4148.717773,4151.282227,4134.358887,4154.358887,4118.974121,4124.102539,869.000000,4.000000,,,,0.000000,4.000000,4.000000,4.000000,4.000000,4.000000,4.000000,4.000000,4.000000,4.000000,4.000000,4.000000,4.000000,4.000000,4.000000,100.000000
1602006497.508866,127.000000,0.000000,4160.000000,4167.692383,4131.282227,4142.051270,4127.692383,4134.871582,4122.563965,4118.974121,4141.538574,4122.051270,4121.025879,4148.205078,4104.102539,4116.922852,835.000000,4.000000,,,,0.000000,4.000000,4.000000,4.000000,4.000000,4.000000,4.000000,4.000000,4.000000,4.000000,4.000000,4.000000,4.000000,4.000000,4.000000,100.000000
1602006497.516748,128.000000,0.000000,4152.820313,4155.897461,4130.256348,4140.000000,4124.615234,4125.641113,4124.102539,4121.025879,4140.512695,4117.436035,4114.871582,4143.589844,4105.128418,4104.615234,768.000000,4.000000,,,,0.000000,4.000000,4.000000,4.000000,4.000000,4.000000,4.000000,4.000000,4.000000,4.000000,4.000000,4.000000,4.000000,4.000000,4.000000,100.000000
1602006497.524629,0.000000,0.000000,4152.820313,4152.820313,4136.922852,4138.974121,4125.128418,4119.487305,4124.615234,4131.282227,4140.512695,4130.769043,4111.794922,4146.153809,4104.615234,4107.692383,793.000000,4.000000,,,,0.000000,4.000000,4.000000,4.000000,4.000000,4.000000,4.000000,4.000000,4.000000,4.000000,4.000000,4.000000,4.000000,4.000000,4.000000,100.000000
1602006497.532510,1.000000,0.000000,4153.846191,4155.384766,4137.436035,4137.436035,4130.769043,4125.128418,4125.128418,4142.563965,4139.487305,4130.256348,4104.615234,4152.307617,4100.000000,4119.487305,783.000000,4.000000,,,,0.000000,4.000000,4.000000,4.000000,4.000000,4.000000,4.000000,4.000000,4.000000,4.000000,4.000000,4.000000,4.000000,4.000000,4.000000,100.000000
1602006497.540392,2.000000,0.000000,4157.948730,4160.512695,4138.461426,4140.512695,4132.820313,4125.128418,4127.692383,4145.128418,4136.922852,4124.102539,4107.179688,4152.307617,4102.563965,4113.333496,858.000000,4.000000,,,,0.000000,4.000000,4.000000,4.000000,4.000000,4.000000,4.000000,4.000000,4.000000,4.000000,4.000000,4.000000,4.000000,4.000000,4.000000,100.000000
1602006497.548273,3.000000,0.000000,4169.230957,4168.717773,4148.717773,4152.820313,4134.871582,4120.000000,4125.128418,4136.922852,4126.666504,4120.512695,4121.025879,4154.871582,4110.769043,4107.692383,865.000000,4.000000,,,,0.000000,4.000000,4.000000,4.000000,4.000000,4.000000,4.000000,4.000000,4.000000,4.000000,4.000000,4.000000,4.000000,4.000000,4.000000,100.000000
1602006497.556054,4.000000,0.000000,4170.256348,4169.743652,4148.717773,4152.820313,4137.436035,4122.051270,4121.025879,4123.077148,4109.230957,4115.897461,4115.384766,4150.256348,4102.563965,4109.743652,814.000000,4.000000,,,,0.000000,4.000000,4.000000,4.000000,4.000000,4.000000,4.000000,4.000000,4.000000,4.000000,4.000000,4.000000,4.000000,4.000000,4.000000,100.000000
1602006497.563936,5.000000,0.000000,4167.692383,4168.205078,4138.461426,4146.153809,4138.974121,4128.717773,4126.666504,4110.769043,4098.974121,4102.051270,4100.512695,4135.897461,4089.743652,4107.692383,822.000000,4.000000,,,,0.000000,4.000000,4.000000,4.000000,4.000000,4.000000,4.000000,4.000000,4.000000,4.000000,4.000000,4.000000,4.000000,4.000000,4.000000,100.000000
1602006497.571817,6.000000,0.000000,4168.205078,4172.820313,4140.000000,4154.871582,4141.538574,4137.436035,4138.461426,4110.769043,4102.051270,4093.333252,4111.282227,4141.025879,4099.487305,4113.846191,771.000000,4.000000,,,,0.000000,4.000000,4.000000,4.000000,4.000000,4.000000,4.000000,4.000000,4.000000,4.000000,4.000000,4.000000,4.000000,4.000000,4.000000,100.000000
1602006497.579698,7.000000,0.000000,4162.051270,4175.897461,4144.615234,4162.051270,4142.051270,4141.025879,4142.563965,4118.974121,4112.820313,4098.461426,4125.128418,4154.358887,4109.743652,4122.563965,670.000000,4.000000,,,,0.000000,4.000000,4.000000,4.000000,4.000000,4.000000,4.000000,4.000000,4.000000,4.000000,4.000000,4.000000,4.000000,4.000000,4.000000,100.000000
1602006497.587579,8.000000,0.000000,4154.358887,4168.205078,4138.461426,4149.743652,4136.410156,4140.000000,4141.025879,4121.538574,4120.000000,4108.205078,4111.282227,4144.102539,4094.871826,4111.282227,786.000000,4.000000,,,,0.000000,4.000000,4.000000,4.000000,4.000000,4.000000,4.000000,4.000000,4.000000,4.000000,4.000000,4.000000,4.000000,4.000000,4.000000,100.000000
1602006497.595561,9.000000,0.000000,4151.282227,4156.922852,4134.871582,4136.922852,4135.384766,4137.948730,4138.461426,4120.512695,4127.179688,4114.871582,4100.512695,4130.256348,4083.076904,4099.487305,836.000000,4.000000,,,,0.000000,4.000000,4.000000,4.000000,4.000000,4.000000,4.000000,4.000000,4.000000,4.000000,4.000000,4.000000,4.000000,4.000000,4.000000,100.000000
1602006497.603442,10.000000,0.000000,4147.179688,4152.307617,4136.922852,4137.948730,4137.948730,4137.436035,4130.769043,4124.615234,4135.384766,4121.025879,4115.384766,4135.384766,4092.307617,4108.717773,869.000000,4.000000,,,,0.000000,4.000000,4.000000,4.000000,4.000000,4.000000,4.000000,4.000000,4.000000,4.000000,4.000000,4.000000,4.000000,4.000000,4.000000,100.000000
1602006497.611324,11.000000,0.000000,4138.974121,4147.179688,4128.205078,4138.974121,4132.820313,4135.384766,4124.102539,4129.230957,4140.512695,4134.358887,4121.025879,4140.000000,4096.410156,4108.717773,835.000000,4.000000,,,,0.000000,4.000000,4.000000,4.000000,4.000000,4.000000,4.000000,4.000000,4.000000,4.000000,4.000000,4.000000,4.000000,4.000000,4.000000,100.000000
1602006497.619206,12.000000,0.000000,4128.205078,4140.000000,4117.436035,4134.871582,4123.589844,4129.230957,4120.512695,4126.153809,4136.410156,4136.410156,4108.205078,4131.282227,4085.128174,4094.358887,768.000000,4.000000,,,,0.000000,4.000000,4.000000,4.000000,4.000000,4.000000,4.000000,4.000000,4.000000,4.000000,4.000000,4.000000,4.000000,4.000000,4.000000,100.000000
1602006497.627087,13.000000,0.000000,4126.153809,4140.512695,4118.974121,4133.333496,4126.666504,4129.230957,4120.000000,4127.692383,4127.179688,4119.487305,4103.077148,4121.538574,4075.897461,4087.692383,737.000000,4.000000,,,,0.000000,4.000000,4.000000,4.000000,4.000000,4.000000,4.000000,4.000000,4.000000,4.000000,4.000000,4.000000,4.000000,4.000000,4.000000,100.000000
1602006497.634969,14.000000,0.000000,4134.871582,4144.615234,4124.102539,4135.897461,4136.410156,4137.436035,4125.641113,4135.897461,4128.717773,4103.077148,4109.230957,4120.512695,4080.000000,4091.281982,869.000000,4.000000,,,,0.000000,4.000000,4.000000,4.000000,4.000000,4.000000,4.000000,4.000000,4.000000,4.000000,4.000000,4.000000,4.000000,4.000000,4.000000,100.000000
1602006497.642850,15.000000,0.000000,4140.000000,4148.205078,4121.538574,4135.897461,4135.897461,4137.948730,4135.897461,4138.974121,4135.897461,4096.410156,4109.743652,4122.563965,4084.615479,4093.333252,835.000000,4.000000,,,,0.000000,4.000000,4.000000,4.000000,4.000000,4.000000,4.000000,4.000000,4.000000,4.000000,4.000000,4.000000,4.000000,4.000000,4.000000,100.000000
1602006497.650732,16.000000,0.000000,4136.410156,4152.307617,4118.974121,4135.897461,4133.333496,4135.384766,4140.512695,4134.871582,4133.333496,4102.051270,4104.615234,4122.563965,4077.435791,4088.205078,0.000000,4.000000,,,,0.000000,4.000000,4.000000,4.000000,4.000000,4.000000,4.000000,4.000000,4.000000,4.000000,4.000000,4.000000,4.000000,4.000000,4.000000,100.000000
1602006497.658614,17.000000,0.000000,4137.948730,4152.820313,4127.692383,4139.487305,4138.461426,4143.589844,4140.512695,4134.871582,4125.641113,4104.102539,4106.666504,4124.615234,4076.410156,4087.692383,0.000000,4.000000,,,,0.000000,4.000000,4.000000,4.000000,4.000000,4.000000,4.000000,4.000000,4.000000,4.000000,4.000000,4.000000,4.000000,4.000000,4.000000,100.000000
1602006497.666395,18.000000,0.000000,4142.563965,4152.307617,4137.436035,4141.538574,4140.512695,4148.205078,4139.487305,4138.461426,4122.563965,4098.461426,4110.769043,4127.179688,4082.051270,4097.436035,0.000000,4.000000,,,,0.000000,4.000000,4.000000,4.000000,4.000000,4.000000,4.000000,4.000000,4.000000,4.000000,4.000000,4.000000,4.000000,4.000000,4.000000,100.000000
1602006497.674277,19.000000,0.000000,4144.102539,4155.897461,4140.000000,4141.538574,4138.461426,4142.563965,4140.512695,4132.820313,4115.897461,4103.589844,4109.743652,4126.153809,4077.948730,4098.974121,0.000000,4.000000,,,,0.000000,4.000000,4.000000,4.000000,4.000000,4.000000,4.000000,4.000000,4.000000,4.000000,4.000000,4.000000,4.000000,4.000000,4.000000,100.000000
1602006497.682159,20.000000,0.000000,4138.974121,4150.769043,4136.922852,4138.974121,4137.436035,4140.000000,4140.000000,4125.128418,4107.179688,4122.051270,4102.563965,4126.153809,4072.307617,4084.615479,0.000000,4.000000,,,,0.000000,4.000000,4.000000,4.000000,4.000000,4.000000,4.000000,4.000000,4.000000,4.000000,4.000000,4.000000,4.000000,4.000000,4.000000,100.000000
1602006497.690040,21.000000,0.000000,4128.717773,4140.000000,4128.717773,4130.769043,4132.307617,4137.948730,4134.358887,4125.128418,4103.077148,4117.948730,4091.794922,4124.615234,4072.307617,4076.923096,0.000000,4.000000,,,,0.000000,4.000000,4.000000,4.000000,4.000000,4.000000,4.000000,4.000000,4.000000,4.000000,4.000000,4.000000,4.000000,4.000000,4.000000,100.000000
1602006497.697922,22.000000,0.000000,4129.230957,4138.974121,4121.538574,4126.153809,4124.102539,4128.205078,4127.179688,4127.179688,4104.102539,4096.922852,4087.692383,4121.025879,4070.769287,4086.153809,0.000000,4.000000,,,,0.000000,4.000000,4.000000,4.000000,4.000000,4.000000,4.000000,4.000000,4.000000,4.000000,4.000000,4.000000,4.000000,4.000000,4.000000,100.000000
1602006497.705804,23.000000,0.000000,4138.974121,4139.487305,4123.589844,4128.205078,4121.538574,4120.512695,4124.102539,4125.641113,4114.358887,4107.179688,4096.922852,4123.077148,4071.794922,4091.794922,0.000000,4.000000,,,,0.000000,4.000000,4.000000,4.000000,4.000000,4.000000,4.000000,4.000000,4.000000,4.000000,4.000000,4.000000,4.000000,4.000000,4.000000,100.000000
1602006497.713685,24.000000,0.000000,4136.410156,4136.922852,4126.666504,4125.128418,4122.563965,4120.000000,4126.666504,4127.692383,4119.487305,4127.179688,4105.641113,4124.615234,4077.435791,4087.179443,0.000000,4.000000,,,,0.000000,4.000000,4.000000,4.000000,4.000000,4.000000,4.000000,4.000000,4.000000,4.000000,4.000000,4.000000,4.000000,4.000000,4.000000,100.000000
1602006497.721567,25.000000,0.000000,4125.641113,4133.333496,4125.641113,4121.025879,4122.563965,4118.461426,4132.820313,4135.384766,4116.922852,4105.641113,4105.128418,4121.025879,4078.974365,4086.666748,0.000000,4.000000,,,,0.000000,4.000000,4.000000,4.000000,4.000000,4.000000,4.000000,4.000000,4.000000,4.000000,4.000000,4.000000,4.000000,4.000000,4.000000,100.000000
1602006497.729548,26.000000,0.000000,4121.538574,4131.794922,4126.153809,4126.666504,4122.051270,4120.512695,4135.897461,4138.974121,4121.538574,4080.000000,4104.102539,4119.487305,4075.897461,4090.256348,0.000000,4.000000,,,,0.000000,4.000000,4.000000,4.000000,4.000000,4.000000,4.000000,4.000000,4.000000,4.000000,4.000000,4.000000,4.000000,4.000000,4.000000,100.000000
1602006497.737429,27.000000,0.000000,4123.077148,4135.384766,4126.153809,4135.897461,4126.153809,4132.820313,4135.384766,4140.000000,4128.717773,4105.641113,4106.153809,4120.512695,4075.897461,4090.256348,0.000000,4.000000,,,,0.000000,4.000000,4.000000,4.000000,4.000000,4.000000,4.000000,4.000000,4.000000,4.000000,4.000000,4.000000,4.000000,4.000000,4.000000,100.000000
1602006497.745310,28.000000,0.000000,4123.589844,4140.000000,4128.205078,4137.436035,4127.692383,4140.512695,4136.410156,4140.000000,4126.153809,4135.384766,4104.615234,4119.487305,4075.384521,4088.718018,0.000000,4.000000,,,,0.000000,4.000000,4.000000,4.000000,4.000000,4.000000,4.000000,4.000000,4.000000,4.000000,4.000000,4.000000,4.000000,4.000000,4.000000,100.000000
1602006497.753091,29.000000,0.000000,4128.205078,4138.461426,4136.410156,4136.922852,4125.641113,4137.436035,4137.436035,4136.922852,4121.538574,4120.512695,4104.615234,4120.000000,4076.410156,4088.718018,0.000000,4.000000,,,,0.000000,4.000000,4.000000,4.000000,4.000000,4.000000,4.000000,4.000000,4.000000,4.000000,4.000000,4.000000,4.000000,4.000000,4.000000,100.000000
1602006497.760972,30.000000,0.000000,4135.384766,4137.436035,4138.974121,4138.461426,4128.717773,4135.384766,4136.922852,4140.512695,4129.230957,4107.179688,4109.230957,4124.615234,4084.615479,4092.820557,0.000000,4.000000,,,,0.000000,4.000000,4.000000,4.000000,4.000000,4.000000,4.000000,4.000000,4.000000,4.000000,4.000000,4.000000,4.000000,4.000000,4.000000,100.000000
1602006497.768953,31.000000,0.000000,4136.410156,4144.615234,4130.769043,4141.538574,4136.410156,4138.974121,4137.948730,4152.820313,4138.461426,4124.615234,4109.230957,4128.205078,4092.820557,4094.871826,0.000000,4.000000,,,,0.000000,4.000000,4.000000,4.000000,4.000000,4.000000,4.000000,4.000000,4.000000,4.000000,4.000000,4.000000,4.000000,4.000000,4.000000,100.000000
1602006497.776835,32.000000,0.000000,4128.205078,4151.282227,4126.153809,4145.128418,4138.461426,4141.538574,4138.974121,4155.384766,4136.410156,4140.000000,4106.666504,4126.666504,4092.307617,4096.922852,0.000000,4.000000,,,,0.000000,4.000000,4.000000,4.000000,4.000000,4.000000,4.000000,4.000000,4.000000,4.000000,4.000000,4.000000,4.000000,4.000000,4.000000,100.000000
1602006497.784815,33.000000,0.000000,4124.615234,4151.794922,4128.205078,4143.589844,4135.897461,4137.436035,4135.897461,4145.641113,4125.641113,4130.769043,4107.179688,4124.102539,4089.230713,4099.487305,0.000000,4.000000,,,,0.000000,4.000000,4.000000,4.000000,4.000000,4.000000,4.000000,4.000000,4.000000,4.000000,4.000000,4.000000,4.000000,4.000000,4.000000,100.000000
1602006497.792796,34.000000,0.000000,4133.333496,4150.769043,4126.666504,4141.025879,4136.922852,4130.769043,4128.717773,4138.461426,4119.487305,4106.666504,4108.717773,4124.102539,4090.256348,4101.025879,0.000000,4.000000,,,,0.000000,4.000000,4.000000,4.000000,4.000000,4.000000,4.000000,4.000000,4.000000,4.000000,4.000000,4.000000,4.000000,4.000000,4.000000,100.000000
1602006497.800678,35.000000,0.000000,4140.512695,4150.256348,4125.128418,4144.615234,4140.512695,4127.179688,4124.102539,4137.948730,4120.000000,4095.384521,4108.717773,4126.666504,4097.948730,4104.615234,0.000000,4.000000,,,,0.000000,4.000000,4.000000,4.000000,4.000000,4.000000,4.000000,4.000000,4.000000,4.000000,4.000000,4.000000,4.000000,4.000000,4.000000,100.000000
1602006497.808559,36.000000,0.000000,4140.000000,4148.205078,4131.794922,4148.717773,4135.384766,4125.641113,4124.615234,4137.948730,4122.563965,4112.307617,4106.153809,4128.717773,4104.102539,4109.743652,0.000000,4.000000,,,,0.000000,4.000000,4.000000,4.000000,4.000000,4.000000,4.000000,4.000000,4.000000,4.000000,4.000000,4.000000,4.000000,4.000000,4.000000,100.000000
1602006497.816440,37.000000,0.000000,4140.000000,4141.025879,4136.410156,4143.077148,4125.641113,4120.512695,4123.589844,4133.846191,4126.666504,4134.358887,4107.692383,4127.179688,4101.025879,4109.743652,0.000000,4.000000,,,,0.000000,4.000000,4.000000,4.000000,4.000000,4.000000,4.000000,4.000000,4.000000,4.000000,4.000000,4.000000,4.000000,4.000000,4.000000,100.000000
1602006497.824321,38.000000,0.000000,4139.487305,4140.000000,4135.384766,4135.897461,4123.077148,4118.461426,4119.487305,4133.846191,4125.128418,4142.563965,4116.410156,4130.769043,4098.974121,4103.589844,0.000000,4.000000,,,,0.000000,4.000000,4.000000,4.000000,4.000000,4.000000,4.000000,4.000000,4.000000,4.000000,4.000000,4.000000,4.000000,4.000000,4.000000,100.000000
1602006497.832103,39.000000,0.000000,4141.025879,4149.743652,4139.487305,4145.128418,4125.641113,4123.077148,4129.230957,4145.128418,4125.128418,4140.512695,4123.077148,4142.051270,4108.205078,4112.820313,0.000000,4.000000,,,,0.000000,4.000000,4.000000,4.000000,4.000000,4.000000,4.000000,4.000000,4.000000,4.000000,4.000000,4.000000,4.000000,4.000000,4.000000,100.000000
1602006497.839984,40.000000,0.000000,4142.051270,4153.333496,4142.563965,4154.358887,4123.077148,4123.589844,4141.025879,4153.846191,4126.666504,4131.282227,4116.410156,4143.589844,4107.179688,4120.512695,0.000000,4.000000,,,,0.000000,4.000000,4.000000,4.000000,4.000000,4.000000,4.000000,4.000000,4.000000,4.000000,4.000000,4.000000,4.000000,4.000000,4.000000,100.000000
1602006497.847866,41.000000,0.000000,4134.358887,4142.563965,4140.000000,4145.128418,4121.025879,4121.538574,4134.871582,4152.307617,4122.051270,4116.922852,4100.000000,4130.769043,4093.333252,4103.589844,0.000000,4.000000,,,,0.000000,4.000000,4.000000,4.000000,4.000000,4.000000,4.000000,4.000000,4.000000,4.000000,4.000000,4.000000,4.000000,4.000000,4.000000,100.000000
1602006497.855748,42.000000,0.000000,4125.641113,4133.333496,4138.974121,4134.358887,4123.589844,4121.538574,4128.205078,4150.769043,4118.461426,4106.666504,4093.846191,4127.179688,4088.205078,4093.846191,0.000000,4.000000,,,,0.000000,4.000000,4.000000,4.000000,4.000000,4.000000,4.000000,4.000000,4.000000,4.000000,4.000000,4.000000,4.000000,4.000000,4.000000,100.000000
1602006497.863629,43.000000,0.000000,4126.666504,4136.410156,4138.974121,4137.948730,4124.615234,4124.102539,4132.820313,4149.230957,4120.512695,4100.000000,4101.538574,4135.897461,4091.281982,4106.666504,0.000000,4.000000,,,,0.000000,4.000000,4.000000,4.000000,4.000000,4.000000,4.000000,4.000000,4.000000,4.000000,4.000000,4.000000,4.000000,4.000000,4.000000,100.000000
1602006497.871511,44.000000,0.000000,4129.230957,4137.436035,4138.461426,4141.538574,4126.153809,4128.205078,4131.282227,4140.512695,4120.512695,4094.358887,4109.230957,4141.025879,4093.333252,4111.282227,0.000000,4.000000,,,,0.000000,4.000000,4.000000,4.000000,4.000000,4.000000,4.000000,4.000000,4.000000,4.000000,4.000000,4.000000,4.000000,4.000000,4.000000,100.000000
1602006497.879393,45.000000,0.000000,4125.641113,4135.384766,4136.410156,4135.897461,4128.717773,4126.153809,4121.538574,4134.358887,4122.051270,4099.487305,4107.692383,4135.384766,4089.743652,4102.563965,0.000000,4.000000,,,,0.000000,4.000000,4.000000,4.000000,4.000000,4.000000,4.000000,4.000000,4.000000,4.000000,4.000000,4.000000,4.000000,4.000000,4.000000,100.000000
1602006497.887274,46.000000,0.000000,4121.025879,4134.871582,4126.666504,4135.384766,4132.307617,4121.025879,4120.512695,4135.384766,4131.282227,4118.974121,4101.025879,4124.615234,4089.743652,4104.615234,0.000000,4.000000,,,,0.000000,4.000000,4.000000,4.000000,4.000000,4.000000,4.000000,4.000000,4.000000,4.000000,4.000000,4.000000,4.000000,4.000000,4.000000,100.000000
1602006497.895156,47.000000,0.000000,4123.077148,4138.461426,4122.051270,4140.000000,4137.436035,4128.205078,4121.538574,4137.436035,4141.538574,4143.077148,4105.641113,4120.000000,4101.538574,4109.743652,0.000000,4.000000,,,,0.000000,4.000000,4.000000,4.000000,4.000000,4.000000,4.000000,4.000000,4.000000,4.000000,4.000000,4.000000,4.000000,4.000000,4.000000,100.000000
1602006497.902938,48.000000,0.000000,4128.717773,4147.179688,4128.205078,4141.538574,4140.512695,4137.436035,4118.461426,4138.974121,4152.820313,4157.436035,4111.282227,4125.128418,4110.769043,4109.230957,0.000000,4.000000,,,,0.000000,4.000000,4.000000,4.000000,4.000000,4.000000,4.000000,4.000000,4.000000,4.000000,4.000000,4.000000,4.000000,4.000000,4.000000,100.000000
1602006497.910819,49.000000,0.000000,4128.717773,4150.256348,4127.179688,4138.974121,4140.000000,4130.256348,4118.974121,4139.487305,4153.846191,4152.307617,4102.563965,4128.205078,4104.615234,4109.743652,0.000000,4.000000,,,,0.000000,4.000000,4.000000,4.000000,4.000000,4.000000,4.000000,4.000000,4.000000,4.000000,4.000000,4.000000,4.000000,4.000000,4.000000,100.000000
1602006497.918701,50.000000,0.000000,4121.538574,4143.589844,4120.000000,4138.461426,4137.436035,4122.563965,4121.538574,4139.487305,4142.563965,4138.461426,4094.871826,4116.922852,4096.410156,4104.615234,0.000000,4.000000,,,,0.000000,4.000000,4.000000,4.000000,4.000000,4.000000,4.000000,4.000000,4.000000,4.000000,4.000000,4.000000,4.000000,4.000000,4.000000,100.000000
1602006497.926583,51.000000,0.000000,4120.000000,4140.000000,4121.538574,4140.000000,4132.307617,4126.153809,4124.615234,4141.025879,4133.846191,4126.153809,4103.077148,4110.256348,4094.871826,4096.922852,0.000000,4.000000,,,,0.000000,4.000000,4.000000,4.000000,4.000000,4.000000,4.000000,4.000000,4.000000,4.000000,4.000000,4.000000,4.000000,4.000000,4.000000,100.000000
1602006497.934464,52.000000,0.000000,4123.077148,4135.384766,4124.102539,4132.307617,4125.641113,4128.205078,4126.153809,4142.051270,4127.692383,4106.666504,4103.589844,4117.436035,4091.281982,4091.281982,0.000000,4.000000,,,,0.000000,4.000000,4.000000,4.000000,4.000000,4.000000,4.000000,4.000000,4.000000,4.000000,4.000000,4.000000,4.000000,4.000000,4.000000,100.000000
1602006497.942346,53.000000,0.000000,4123.077148,4126.666504,4122.563965,4125.128418,4120.000000,4121.025879,4128.205078,4141.025879,4117.948730,4088.718018,4090.256348,4124.615234,4086.153809,4088.205078,0.000000,4.000000,,,,0.000000,4.000000,4.000000,4.000000,4.000000,4.000000,4.000000,4.000000,4.000000,4.000000,4.000000,4.000000,4.000000,4.000000,4.000000,100.000000
1602006497.950228,54.000000,0.000000,4121.538574,4130.769043,4123.077148,4129.230957,4120.000000,4113.333496,4129.743652,4137.948730,4115.897461,4100.512695,4089.743652,4122.051270,4087.179443,4094.358887,0.000000,4.000000,,,,0.000000,4.000000,4.000000,4.000000,4.000000,4.000000,4.000000,4.000000,4.000000,4.000000,4.000000,4.000000,4.000000,4.000000,4.000000,100.000000
1602006497.958109,55.000000,0.000000,4122.563965,4139.487305,4125.128418,4136.410156,4126.153809,4114.358887,4126.153809,4137.436035,4126.153809,4125.641113,4102.563965,4118.974121,4093.846191,4104.102539,0.000000,4.000000,,,,0.000000,4.000000,4.000000,4.000000,4.000000,4.000000,4.000000,4.000000,4.000000,4.000000,4.000000,4.000000,4.000000,4.000000,4.000000,100.000000
1602006497.966091,56.000000,0.000000,4129.230957,4138.974121,4131.282227,4138.974121,4133.846191,4121.025879,4121.025879,4138.461426,4138.461426,4140.000000,4113.846191,4125.641113,4103.077148,4109.230957,0.000000,4.000000,,,,0.000000,4.000000,4.000000,4.000000,4.000000,4.000000,4.000000,4.000000,4.000000,4.000000,4.000000,4.000000,4.000000,4.000000,4.000000,100.000000
1602006497.973972,57.000000,0.000000,4140.000000,4146.153809,4140.512695,4141.538574,4137.436035,4122.051270,4121.025879,4139.487305,4145.128418,4153.333496,4121.025879,4134.871582,4107.692383,4113.846191,0.000000,4.000000,,,,0.000000,4.000000,4.000000,4.000000,4.000000,4.000000,4.000000,4.000000,4.000000,4.000000,4.000000,4.000000,4.000000,4.000000,4.000000,100.000000
1602006497.981854,58.000000,0.000000,4143.077148,4158.461426,4143.589844,4146.666504,4138.974121,4123.589844,4126.153809,4145.641113,4142.051270,4144.615234,4121.538574,4139.487305,4109.743652,4113.333496,0.000000,4.000000,,,,0.000000,4.000000,4.000000,4.000000,4.000000,4.000000,4.000000,4.000000,4.000000,4.000000,4.000000,4.000000,4.000000,4.000000,4.000000,100.000000
1602006497.989736,59.000000,0.000000,4134.358887,4149.743652,4138.461426,4146.666504,4138.974121,4128.717773,4126.153809,4146.666504,4137.436035,4121.025879,4118.461426,4138.461426,4108.717773,4104.615234,0.000000,4.000000,,,,0.000000,4.000000,4.000000,4.000000,4.000000,4.000000,4.000000,4.000000,4.000000,4.000000,4.000000,4.000000,4.000000,4.000000,4.000000,100.000000
1602006497.997617,60.000000,0.000000,4126.666504,4137.436035,4134.358887,4142.051270,4138.974121,4128.717773,4122.563965,4144.615234,4142.563965,4129.230957,4123.589844,4133.333496,4106.153809,4110.256348,0.000000,4.000000,,,,0.000000,4.000000,4.000000,4.000000,4.000000,4.000000,4.000000,4.000000,4.000000,4.000000,4.000000,4.000000,4.000000,4.000000,4.000000,100.000000
1602006498.005499,61.000000,0.000000,4119.487305,4137.948730,4130.769043,4135.384766,4133.846191,4123.077148,4121.538574,4145.641113,4140.000000,4143.589844,4123.589844,4127.692383,4106.666504,4121.538574,0.000000,4.000000,,,,0.000000,4.000000,4.000000,4.000000,4.000000,4.000000,4.000000,4.000000,4.000000,4.000000,4.000000,4.000000,4.000000,4.000000,4.000000,100.000000
1602006498.013381,62.000000,0.000000,4111.794922,4133.333496,4125.128418,4128.205078,4125.128418,4120.512695,4123.077148,4147.179688,4126.666504,4132.820313,4109.743652,4122.563965,4105.128418,4110.769043,0.000000,4.000000,,,,0.000000,4.000000,4.000000,4.000000,4.000000,4.000000,4.000000,4.000000,4.000000,4.000000,4.000000,4.000000,4.000000,4.000000,4.000000,100.000000
1602006498.021262,63.000000,0.000000,4115.897461,4127.692383,4122.563965,4129.743652,4128.205078,4122.563965,4125.128418,4144.615234,4123.077148,4132.307617,4108.717773,4121.025879,4101.538574,4096.922852,0.000000,4.000000,,,,0.000000,4.000000,4.000000,4.000000,4.000000,4.000000,4.000000,4.000000,4.000000,4.000000,4.000000,4.000000,4.000000,4.000000,4.000000,100.000000
1602006498.029144,64.000000,0.000000,4121.538574,4135.897461,4122.563965,4137.948730,4133.846191,4124.615234,4125.128418,4141.025879,4127.179688,4139.487305,4126.153809,4123.589844,4105.128418,4103.589844,793.000000,4.000000,,,,0.000000,4.000000,4.000000,4.000000,4.000000,4.000000,4.000000,4.000000,4.000000,4.000000,4.000000,4.000000,4.000000,4.000000,4.000000,100.000000
1602006498.037026,65.000000,0.000000,4122.051270,4140.000000,4124.615234,4137.436035,4128.205078,4122.051270,4120.512695,4138.461426,4124.615234,4125.641113,4133.333496,4123.589844,4111.794922,4117.436035,785.000000,4.000000,,,,0.000000,4.000000,4.000000,4.000000,4.000000,4.000000,4.000000,4.000000,4.000000,4.000000,4.000000,4.000000,4.000000,4.000000,4.000000,100.000000
1602006498.044807,66.000000,0.000000,4122.051270,4129.230957,4125.128418,4126.153809,4122.563965,4120.512695,4120.000000,4135.897461,4122.563965,4114.871582,4124.615234,4123.589844,4110.769043,4119.487305,858.000000,4.000000,,,,0.000000,4.000000,4.000000,4.000000,4.000000,4.000000,4.000000,4.000000,4.000000,4.000000,4.000000,4.000000,4.000000,4.000000,4.000000,100.000000
1602006498.052688,67.000000,0.000000,4117.948730,4120.512695,4116.922852,4118.974121,4122.051270,4121.025879,4124.615234,4136.410156,4126.666504,4122.051270,4114.358887,4121.538574,4105.641113,4107.179688,865.000000,4.000000,,,,0.000000,4.000000,4.000000,4.000000,4.000000,4.000000,4.000000,4.000000,4.000000,4.000000,4.000000,4.000000,4.000000,4.000000,4.000000,100.000000
1602006498.060570,68.000000,0.000000,4114.358887,4125.641113,4111.794922,4123.589844,4121.025879,4123.077148,4126.153809,4137.436035,4134.358887,4135.384766,4113.333496,4118.974121,4106.153809,4105.641113,814.000000,4.000000,,,,0.000000,4.000000,4.000000,4.000000,4.000000,4.000000,4.000000,4.000000,4.000000,4.000000,4.000000,4.000000,4.000000,4.000000,4.000000,100.000000
1602006498.068451,69.000000,0.000000,4122.051270,4136.922852,4119.487305,4131.282227,4130.256348,4133.333496,4128.717773,4137.436035,4141.025879,4149.743652,4125.128418,4126.153809,4111.794922,4120.512695,822.000000,4.000000,,,,0.000000,4.000000,4.000000,4.000000,4.000000,4.000000,4.000000,4.000000,4.000000,4.000000,4.000000,4.000000,4.000000,4.000000,4.000000,100.000000
1602006498.076333,70.000000,0.000000,4127.179688,4140.512695,4125.641113,4130.256348,4140.512695,4143.589844,4130.769043,4137.948730,4135.897461,4142.563965,4131.282227,4136.922852,4111.794922,4127.179688,769.000000,4.000000,,,,0.000000,4.000000,4.000000,4.000000,4.000000,4.000000,4.000000,4.000000,4.000000,4.000000,4.000000,4.000000,4.000000,4.000000,4.000000,100.000000
1602006498.084214,71.000000,0.000000,4123.077148,4135.384766,4122.051270,4125.641113,4136.922852,4137.948730,4126.666504,4134.358887,4125.641113,4124.102539,4115.384766,4133.846191,4108.205078,4120.512695,670.000000,4.000000,,,,0.000000,4.000000,4.000000,4.000000,4.000000,4.000000,4.000000,4.000000,4.000000,4.000000,4.000000,4.000000,4.000000,4.000000,4.000000,100.000000
1602006498.091996,72.000000,0.000000,4118.461426,4133.846191,4117.948730,4131.282227,4135.384766,4132.307617,4122.051270,4126.153809,4122.563965,4124.615234,4103.589844,4124.615234,4103.589844,4106.153809,784.000000,4.000000,,,,0.000000,4.000000,4.000000,4.000000,4.000000,4.000000,4.000000,4.000000,4.000000,4.000000,4.000000,4.000000,4.000000,4.000000,4.000000,100.000000
1602006498.099877,73.000000,0.000000,4111.794922,4136.410156,4120.512695,4135.384766,4137.948730,4135.384766,4122.051270,4122.051270,4116.922852,4123.077148,4107.179688,4123.077148,4094.358887,4097.436035,836.000000,4.000000,,,,0.000000,4.000000,4.000000,4.000000,4.000000,4.000000,4.000000,4.000000,4.000000,4.000000,4.000000,4.000000,4.000000,4.000000,4.000000,100.000000
1602006498.107759,74.000000,0.000000,4103.077148,4135.384766,4117.436035,4125.641113,4132.307617,4132.307617,4123.077148,4123.589844,4111.794922,4109.743652,4105.128418,4123.077148,4090.769287,4099.487305,869.000000,4.000000,,,,0.000000,4.000000,4.000000,4.000000,4.000000,4.000000,4.000000,4.000000,4.000000,4.000000,4.000000,4.000000,4.000000,4.000000,4.000000,100.000000
1602006498.115641,75.000000,0.000000,4104.615234,4134.871582,4110.769043,4121.025879,4128.205078,4122.051270,4122.563965,4125.641113,4117.436035,4109.230957,4102.563965,4123.589844,4101.538574,4098.974121,835.000000,4.000000,,,,0.000000,4.000000,4.000000,4.000000,4.000000,4.000000,4.000000,4.000000,4.000000,4.000000,4.000000,4.000000,4.000000,4.000000,4.000000,100.000000
1602006498.123522,76.000000,0.000000,4115.384766,4137.436035,4113.333496,4131.282227,4134.871582,4122.051270,4125.641113,4130.256348,4130.769043,4135.897461,4114.871582,4132.820313,4115.897461,4103.077148,768.000000,4.000000,,,,0.000000,4.000000,4.000000,4.000000,4.000000,4.000000,4.000000,4.000000,4.000000,4.000000,4.000000,4.000000,4.000000,4.000000,4.000000,100.000000
1602006498.131404,77.000000,0.000000,4125.128418,4141.538574,4121.538574,4140.000000,4139.487305,4132.307617,4128.205078,4136.922852,4141.025879,4154.871582,4124.615234,4146.153809,4123.077148,4122.051270,737.000000,4.000000,,,,0.000000,4.000000,4.000000,4.000000,4.000000,4.000000,4.000000,4.000000,4.000000,4.000000,4.000000,4.000000,4.000000,4.000000,4.000000,100.000000
1602006498.139286,78.000000,0.000000,4131.282227,4142.051270,4126.666504,4137.948730,4139.487305,4136.922852,4125.641113,4134.871582,4136.410156,4144.615234,4118.974121,4155.897461,4126.666504,4128.717773,869.000000,4.000000,,,,0.000000,4.000000,4.000000,4.000000,4.000000,4.000000,4.000000,4.000000,4.000000,4.000000,4.000000,4.000000,4.000000,4.000000,4.000000,100.000000
1602006498.147167,79.000000,0.000000,4135.384766,4132.820313,4133.333496,4133.333496,4135.384766,4127.179688,4120.512695,4122.051270,4122.051270,4122.563965,4111.794922,4157.436035,4121.025879,4113.333496,835.000000,4.000000,,,,0.000000,4.000000,4.000000,4.000000,4.000000,4.000000,4.000000,4.000000,4.000000,4.000000,4.000000,4.000000,4.000000,4.000000,4.000000,100.000000
1602006498.155049,80.000000,0.000000,4137.948730,4123.077148,4140.512695,4130.769043,4129.743652,4123.589844,4119.487305,4112.820313,4118.461426,4104.615234,4107.692383,4155.897461,4108.205078,4104.102539,768.000000,4.000000,,,,0.000000,4.000000,4.000000,4.000000,4.000000,4.000000,4.000000,4.000000,4.000000,4.000000,4.000000,4.000000,4.000000,4.000000,4.000000,100.000000
1602006498.162831,81.000000,0.000000,4135.897461,4122.051270,4141.538574,4127.692383,4131.282227,4135.384766,4127.179688,4113.333496,4120.512695,4108.717773,4106.666504,4155.384766,4104.102539,4107.692383,737.000000,4.000000,,,,0.000000,4.000000,4.000000,4.000000,4.000000,4.000000,4.000000,4.000000,4.000000,4.000000,4.000000,4.000000,4.000000,4.000000,4.000000,100.000000
1602006498.170712,82.000000,0.000000,4129.230957,4126.153809,4139.487305,4127.692383,4137.436035,4142.051270,4135.897461,4119.487305,4120.000000,4112.820313,4108.205078,4156.922852,4103.589844,4112.307617,869.000000,4.000000,,,,0.000000,4.000000,4.000000,4.000000,4.000000,4.000000,4.000000,4.000000,4.000000,4.000000,4.000000,4.000000,4.000000,4.000000,4.000000,100.000000
1602006498.178594,83.000000,0.000000,4123.589844,4130.769043,4132.307617,4133.846191,4139.487305,4140.512695,4140.512695,4125.641113,4130.256348,4108.717773,4111.794922,4160.512695,4101.538574,4106.153809,835.000000,4.000000,,,,0.000000,4.000000,4.000000,4.000000,4.000000,4.000000,4.000000,4.000000,4.000000,4.000000,4.000000,4.000000,4.000000,4.000000,4.000000,100.000000
1602006498.186476,84.000000,0.000000,4128.205078,4137.948730,4122.563965,4137.948730,4144.102539,4144.102539,4140.000000,4129.230957,4134.871582,4120.000000,4118.461426,4161.025879,4107.179688,4105.641113,768.000000,4.000000,,,,0.000000,4.000000,4.000000,4.000000,4.000000,4.000000,4.000000,4.000000,4.000000,4.000000,4.000000,4.000000,4.000000,4.000000,4.000000,100.000000
1602006498.194357,85.000000,0.000000,4137.436035,4142.051270,4123.589844,4138.974121,4152.307617,4141.538574,4133.846191,4125.641113,4122.563965,4143.589844,4124.615234,4155.384766,4120.512695,4118.974121,737.000000,4.000000,,,,0.000000,4.000000,4.000000,4.000000,4.000000,4.000000,4.000000,4.000000,4.000000,4.000000,4.000000,4.000000,4.000000,4.000000,4.000000,100.000000
1602006498.202239,86.000000,0.000000,4134.358887,4139.487305,4132.820313,4138.974121,4154.871582,4130.769043,4124.102539,4121.538574,4117.436035,4145.128418,4122.051270,4153.333496,4131.282227,4128.205078,869.000000,4.000000,,,,0.000000,4.000000,4.000000,4.000000,4.000000,4.000000,4.000000,4.000000,4.000000,4.000000,4.000000,4.000000,4.000000,4.000000,4.000000,100.000000
1602006498.210120,87.000000,0.000000,4126.153809,4140.000000,4138.974121,4141.025879,4149.743652,4125.641113,4119.487305,4122.563965,4122.563965,4128.205078,4121.025879,4158.461426,4142.051270,4130.256348,835.000000,4.000000,,,,0.000000,4.000000,4.000000,4.000000,4.000000,4.000000,4.000000,4.000000,4.000000,4.000000,4.000000,4.000000,4.000000,4.000000,4.000000,100.000000
1602006498.218002,88.000000,0.000000,4115.897461,4136.922852,4137.948730,4141.025879,4142.051270,4127.179688,4121.538574,4121.025879,4124.615234,4130.769043,4132.307617,4163.077148,4152.307617,4134.358887,768.000000,4.000000,,,,0.000000,4.000000,4.000000,4.000000,4.000000,4.000000,4.000000,4.000000,4.000000,4.000000,4.000000,4.000000,4.000000,4.000000,4.000000,100.000000
1602006498.225884,89.000000,0.000000,4109.230957,4125.128418,4140.000000,4137.436035,4134.871582,4132.307617,4127.179688,4118.974121,4128.717773,4148.717773,4148.205078,4172.820313,4163.589844,4147.179688,737.000000,4.000000,,,,0.000000,4.000000,4.000000,4.000000,4.000000,4.000000,4.000000,4.000000,4.000000,4.000000,4.000000,4.000000,4.000000,4.000000,4.000000,100.000000
1602006498.233665,90.000000,0.000000,4123.589844,4122.051270,4149.230957,4136.922852,4135.897461,4137.948730,4138.461426,4129.743652,4141.025879,4162.051270,4163.077148,4186.153809,4182.563965,4161.538574,869.000000,4.000000,,,,0.000000,4.000000,4.000000,4.000000,4.000000,4.000000,4.000000,4.000000,4.000000,4.000000,4.000000,4.000000,4.000000,4.000000,4.000000,100.000000
1602006498.241546,91.000000,0.000000,4131.282227,4122.051270,4149.743652,4132.820313,4137.948730,4135.384766,4141.538574,4136.922852,4142.563965,4150.256348,4161.538574,4189.230957,4187.692383,4163.589844,835.000000,4.000000,,,,0.000000,4.000000,4.000000,4.000000,4.000000,4.000000,4.000000,4.000000,4.000000,4.000000,4.000000,4.000000,4.000000,4.000000,4.000000,100.000000
1602006498.249527,92.000000,0.000000,4109.743652,4109.230957,4137.436035,4118.461426,4137.436035,4134.358887,4136.922852,4130.256348,4138.974121,4137.948730,4144.615234,4185.128418,4172.820313,4152.307617,768.000000,4.000000,,,,0.000000,4.000000,4.000000,4.000000,4.000000,4.000000,4.000000,4.000000,4.000000,4.000000,4.000000,4.000000,4.000000,4.000000,4.000000,100.000000
1602006498.257408,93.000000,0.000000,4095.897461,4096.410156,4122.563965,4109.230957,4146.153809,4135.384766,4140.000000,4126.153809,4141.025879,4153.846191,4137.948730,4183.589844,4166.666504,4146.153809,737.000000,4.000000,,,,0.000000,4.000000,4.000000,4.000000,4.000000,4.000000,4.000000,4.000000,4.000000,4.000000,4.000000,4.000000,4.000000,4.000000,4.000000,100.000000
1602006498.265289,94.000000,0.000000,4093.333252,4094.358887,4111.794922,4111.282227,4152.820313,4126.153809,4137.436035,4125.128418,4133.846191,4152.820313,4135.897461,4174.358887,4160.000000,4142.051270,869.000000,4.000000,,,,0.000000,4.000000,4.000000,4.000000,4.000000,4.000000,4.000000,4.000000,4.000000,4.000000,4.000000,4.000000,4.000000,4.000000,4.000000,100.000000
1602006498.273170,95.000000,0.000000,4077.948730,4091.281982,4105.641113,4112.307617,4145.641113,4123.077148,4122.563965,4113.333496,4120.000000,4122.051270,4121.538574,4157.436035,4141.025879,4126.666504,835.000000,4.000000,,,,0.000000,4.000000,4.000000,4.000000,4.000000,4.000000,4.000000,4.000000,4.000000,4.000000,4.000000,4.000000,4.000000,4.000000,4.000000,100.000000
1602006498.281152,96.000000,0.000000,4069.743652,4091.794922,4105.641113,4116.922852,4140.000000,4135.897461,4116.410156,4103.589844,4116.922852,4112.307617,4108.205078,4147.692383,4131.282227,4111.282227,768.000000,4.000000,,,,0.000000,4.000000,4.000000,4.000000,4.000000,4.000000,4.000000,4.000000,4.000000,4.000000,4.000000,4.000000,4.000000,4.000000,4.000000,100.000000
1602006498.289033,97.000000,0.000000,4071.794922,4097.948730,4111.282227,4121.025879,4137.948730,4136.922852,4121.025879,4108.205078,4120.512695,4125.128418,4106.153809,4146.666504,4132.820313,4109.743652,737.000000,4.000000,,,,0.000000,4.000000,4.000000,4.000000,4.000000,4.000000,4.000000,4.000000,4.000000,4.000000,4.000000,4.000000,4.000000,4.000000,4.000000,100.000000
1602006498.296915,98.000000,0.000000,4074.871826,4101.538574,4118.974121,4116.410156,4129.230957,4128.205078,4125.641113,4116.922852,4124.102539,4123.077148,4108.717773,4147.692383,4132.307617,4120.000000,869.000000,4.000000,,,,0.000000,4.000000,4.000000,4.000000,4.000000,4.000000,4.000000,4.000000,4.000000,4.000000,4.000000,4.000000,4.000000,4.000000,4.000000,100.000000
1602006498.304797,99.000000,0.000000,4093.846191,4104.615234,4125.641113,4116.410156,4120.512695,4133.333496,4134.358887,4128.717773,4138.974121,4120.512695,4120.512695,4152.307617,4140.512695,4134.358887,835.000000,4.000000,,,,0.000000,4.000000,4.000000,4.000000,4.000000,4.000000,4.000000,4.000000,4.000000,4.000000,4.000000,4.000000,4.000000,4.000000,4.000000,100.000000
1602006498.312678,100.000000,0.000000,4110.256348,4109.230957,4125.641113,4124.615234,4120.512695,4144.102539,4143.589844,4141.538574,4150.769043,4141.538574,4137.948730,4155.897461,4155.897461,4138.974121,768.000000,4.000000,,,,0.000000,4.000000,4.000000,4.000000,4.000000,4.000000,4.000000,4.000000,4.000000,4.000000,4.000000,4.000000,4.000000,4.000000,4.000000,100.000000
1602006498.320560,101.000000,0.000000,4102.051270,4107.179688,4118.461426,4124.102539,4121.025879,4142.051270,4143.077148,4144.615234,4148.205078,4157.436035,4137.436035,4149.743652,4158.974121,4128.205078,737.000000,4.000000,,,,0.000000,4.000000,4.000000,4.000000,4.000000,4.000000,4.000000,4.000000,4.000000,4.000000,4.000000,4.000000,4.000000,4.000000,4.000000,100.000000
1602006498.328442,102.000000,0.000000,4096.410156,4097.948730,4109.230957,4113.333496,4118.974121,4136.410156,4138.974121,4133.846191,4141.025879,4144.615234,4125.641113,4137.436035,4148.205078,4117.436035,869.000000,4.000000,,,,0.000000,4.000000,4.000000,4.000000,4.000000,4.000000,4.000000,4.000000,4.000000,4.000000,4.000000,4.000000,4.000000,4.000000,4.000000,100.000000
1602006498.336323,103.000000,0.000000,4104.102539,4091.794922,4103.589844,4109.230957,4119.487305,4137.948730,4135.897461,4128.717773,4136.922852,4134.871582,4129.743652,4137.436035,4145.128418,4123.589844,835.000000,4.000000,,,,0.000000,4.000000,4.000000,4.000000,4.000000,4.000000,4.000000,4.000000,4.000000,4.000000,4.000000,4.000000,4.000000,4.000000,4.000000,100.000000
1602006498.344205,104.000000,0.000000,4106.666504,4096.922852,4102.051270,4116.922852,4128.205078,4141.538574,4136.410156,4136.410156,4142.051270,4155.897461,4147.692383,4149.743652,4155.384766,4129.743652,768.000000,4.000000,,,,0.000000,4.000000,4.000000,4.000000,4.000000,4.000000,4.000000,4.000000,4.000000,4.000000,4.000000,4.000000,4.000000,4.000000,4.000000,100.000000
1602006498.351986,105.000000,0.000000,4104.615234,4105.128418,4105.128418,4121.538574,4136.922852,4140.512695,4137.948730,4142.563965,4155.897461,4171.794922,4153.846191,4156.410156,4160.000000,4125.128418,737.000000,4.000000,,,,0.000000,4.000000,4.000000,4.000000,4.000000,4.000000,4.000000,4.000000,4.000000,4.000000,4.000000,4.000000,4.000000,4.000000,4.000000,100.000000
1602006498.359867,106.000000,0.000000,4111.282227,4112.820313,4118.974121,4121.025879,4140.512695,4140.000000,4138.974121,4146.153809,4159.487305,4156.922852,4145.641113,4160.512695,4156.922852,4132.307617,869.000000,4.000000,,,,0.000000,4.000000,4.000000,4.000000,4.000000,4.000000,4.000000,4.000000,4.000000,4.000000,4.000000,4.000000,4.000000,4.000000,4.000000,100.000000
1602006498.367848,107.000000,0.000000,4113.846191,4116.922852,4136.410156,4124.615234,4136.922852,4139.487305,4140.512695,4147.179688,4148.205078,4139.487305,4141.025879,4162.051270,4153.333496,4137.948730,835.000000,4.000000,,,,0.000000,4.000000,4.000000,4.000000,4.000000,4.000000,4.000000,4.000000,4.000000,4.000000,4.000000,4.000000,4.000000,4.000000,4.000000,100.000000
1602006498.375730,108.000000,0.000000,4108.205078,4111.794922,4141.025879,4127.692383,4127.179688,4132.820313,4139.487305,4141.025879,4139.487305,4141.025879,4134.871582,4155.384766,4145.128418,4124.102539,768.000000,4.000000,,,,0.000000,4.000000,4.000000,4.000000,4.000000,4.000000,4.000000,4.000000,4.000000,4.000000,4.000000,4.000000,4.000000,4.000000,4.000000,100.000000
1602006498.383611,109.000000,0.000000,4109.230957,4105.128418,4133.333496,4123.077148,4118.974121,4131.282227,4138.461426,4129.743652,4131.794922,4143.589844,4124.102539,4149.743652,4136.410156,4117.436035,737.000000,4.000000,,,,0.000000,4.000000,4.000000,4.000000,4.000000,4.000000,4.000000,4.000000,4.000000,4.000000,4.000000,4.000000,4.000000,4.000000,4.000000,100.000000
1602006498.391392,110.000000,0.000000,4111.794922,4106.153809,4127.179688,4121.538574,4121.025879,4138.461426,4140.512695,4123.589844,4122.563965,4128.717773,4118.461426,4152.307617,4135.384766,4124.102539,869.000000,4.000000,,,,0.000000,4.000000,4.000000,4.000000,4.000000,4.000000,4.000000,4.000000,4.000000,4.000000,4.000000,4.000000,4.000000,4.000000,4.000000,100.000000
1602006498.399173,111.000000,0.000000,4102.051270,4108.205078,4121.025879,4124.102539,4124.102539,4139.487305,4144.102539,4123.077148,4119.487305,4112.307617,4128.717773,4158.461426,4141.025879,4124.102539,835.000000,4.000000,,,,0.000000,4.000000,4.000000,4.000000,4.000000,4.000000,4.000000,4.000000,4.000000,4.000000,4.000000,4.000000,4.000000,4.000000,4.000000,100.000000
1602006498.407055,112.000000,0.000000,4095.897461,4107.179688,4113.333496,4121.538574,4122.563965,4135.897461,4142.563965,4123.589844,4121.538574,4121.538574,4144.615234,4167.179688,4150.256348,4129.743652,768.000000,4.000000,,,,0.000000,4.000000,4.000000,4.000000,4.000000,4.000000,4.000000,4.000000,4.000000,4.000000,4.000000,4.000000,4.000000,4.000000,4.000000,100.000000
1602006498.414936,113.000000,0.000000,4110.769043,4108.717773,4117.436035,4120.512695,4130.769043,4139.487305,4141.025879,4127.692383,4128.205078,4141.538574,4148.205078,4172.820313,4159.487305,4144.615234,737.000000,4.000000,,,,0.000000,4.000000,4.000000,4.000000,4.000000,4.000000,4.000000,4.000000,4.000000,4.000000,4.000000,4.000000,4.000000,4.000000,4.000000,100.000000
1602006498.422818,114.000000,0.000000,4121.025879,4108.205078,4124.615234,4123.589844,4135.384766,4143.589844,4141.025879,4133.846191,4134.358887,4141.025879,4143.077148,4173.333496,4161.538574,4145.641113,869.000000,4.000000,,,,0.000000,4.000000,4.000000,4.000000,4.000000,4.000000,4.000000,4.000000,4.000000,4.000000,4.000000,4.000000,4.000000,4.000000,4.000000,100.000000
1602006498.430699,115.000000,0.000000,4113.846191,4106.666504,4123.589844,4125.128418,4126.153809,4138.974121,4136.410156,4139.487305,4136.410156,4134.358887,4140.000000,4168.205078,4155.384766,4142.563965,835.000000,4.000000,,,,0.000000,4.000000,4.000000,4.000000,4.000000,4.000000,4.000000,4.000000,4.000000,4.000000,4.000000,4.000000,4.000000,4.000000,4.000000,100.000000
1602006498.438580,116.000000,0.000000,4108.717773,4104.615234,4118.461426,4122.563965,4122.051270,4130.769043,4133.333496,4140.000000,4136.410156,4146.666504,4140.512695,4159.487305,4146.153809,4146.153809,768.000000,4.000000,,,,0.000000,4.000000,4.000000,4.000000,4.000000,4.000000,4.000000,4.000000,4.000000,4.000000,4.000000,4.000000,4.000000,4.000000,4.000000,100.000000
1602006498.446562,117.000000,0.000000,4108.717773,4105.641113,4112.820313,4122.051270,4121.025879,4128.717773,4135.384766,4141.025879,4138.461426,4155.384766,4138.461426,4154.358887,4138.461426,4137.436035,737.000000,4.000000,,,,0.000000,4.000000,4.000000,4.000000,4.000000,4.000000,4.000000,4.000000,4.000000,4.000000,4.000000,4.000000,4.000000,4.000000,4.000000,100.000000
1602006498.454444,118.000000,0.000000,4110.256348,4109.230957,4110.769043,4122.051270,4110.256348,4126.153809,4135.384766,4141.538574,4137.948730,4147.692383,4130.256348,4151.282227,4138.461426,4127.692383,869.000000,4.000000,,,,0.000000,4.000000,4.000000,4.000000,4.000000,4.000000,4.000000,4.000000,4.000000,4.000000,4.000000,4.000000,4.000000,4.000000,4.000000,100.000000
1602006498.462325,119.000000,0.000000,4115.384766,4107.179688,4120.000000,4120.000000,4102.563965,4120.000000,4134.358887,4140.512695,4140.512695,4142.563965,4124.102539,4140.512695,4138.974121,4133.333496,835.000000,4.000000,,,,0.000000,4.000000,4.000000,4.000000,4.000000,4.000000,4.000000,4.000000,4.000000,4.000000,4.000000,4.000000,4.000000,4.000000,4.000000,100.000000
1602006498.470207,120.000000,0.000000,4123.077148,4111.794922,4136.410156,4125.128418,4106.153809,4126.666504,4146.666504,4142.563965,4147.692383,4140.000000,4133.333496,4138.461426,4138.461426,4137.948730,768.000000,4.000000,,,,0.000000,4.000000,4.000000,4.000000,4.000000,4.000000,4.000000,4.000000,4.000000,4.000000,4.000000,4.000000,4.000000,4.000000,4.000000,100.000000
1602006498.478088,121.000000,0.000000,4126.153809,4122.051270,4148.205078,4132.820313,4108.205078,4140.000000,4153.333496,4144.102539,4145.641113,4137.948730,4146.153809,4150.769043,4143.077148,4134.358887,737.000000,4.000000,,,,0.000000,4.000000,4.000000,4.000000,4.000000,4.000000,4.000000,4.000000,4.000000,4.000000,4.000000,4.000000,4.000000,4.000000,4.000000,100.000000
1602006498.485970,122.000000,0.000000,4127.179688,4118.461426,4146.153809,4128.717773,4105.641113,4136.410156,4144.102539,4140.512695,4140.512695,4135.897461,4144.615234,4151.794922,4144.615234,4134.358887,869.000000,4.000000,,,,0.000000,4.000000,4.000000,4.000000,4.000000,4.000000,4.000000,4.000000,4.000000,4.000000,4.000000,4.000000,4.000000,4.000000,4.000000,100.000000
1602006498.493852,123.000000,0.000000,4125.128418,4106.666504,4131.794922,4121.025879,4103.589844,4123.077148,4132.820313,4134.358887,4138.974121,4114.871582,4137.436035,4143.589844,4140.000000,4138.461426,835.000000,4.000000,,,,0.000000,4.000000,4.000000,4.000000,4.000000,4.000000,4.000000,4.000000,4.000000,4.000000,4.000000,4.000000,4.000000,4.000000,4.000000,100.000000
1602006498.501733,124.000000,0.000000,4113.846191,4104.615234,4120.512695,4120.000000,4111.794922,4121.025879,4125.641113,4127.692383,4137.948730,4100.000000,4138.974121,4141.538574,4136.922852,4135.897461,768.000000,4.000000,,,,0.000000,4.000000,4.000000,4.000000,4.000000,4.000000,4.000000,4.000000,4.000000,4.000000,4.000000,4.000000,4.000000,4.000000,4.000000,100.000000
1602006498.509615,125.000000,0.000000,4106.153809,4109.230957,4116.410156,4124.615234,4130.256348,4130.256348,4121.025879,4123.589844,4138.974121,4131.794922,4144.102539,4142.563965,4139.487305,4130.769043,737.000000,4.000000,,,,0.000000,4.000000,4.000000,4.000000,4.000000,4.000000,4.000000,4.000000,4.000000,4.000000,4.000000,4.000000,4.000000,4.000000,4.000000,100.000000
1602006498.517596,126.000000,0.000000,4108.717773,4108.717773,4110.256348,4128.205078,4141.025879,4134.358887,4120.000000,4123.589844,4146.153809,4165.128418,4142.563965,4145.641113,4140.512695,4129.230957,869.000000,4.000000,,,,0.000000,4.000000,4.000000,4.000000,4.000000,4.000000,4.000000,4.000000,4.000000,4.000000,4.000000,4.000000,4.000000,4.000000,4.000000,100.000000
1602006498.525477,127.000000,0.000000,4108.717773,4108.717773,4110.769043,4125.641113,4138.461426,4123.589844,4114.358887,4123.077148,4138.974121,4153.333496,4134.358887,4151.794922,4138.461426,4131.282227,835.000000,4.000000,,,,0.000000,4.000000,4.000000,4.000000,4.000000,4.000000,4.000000,4.000000,4.000000,4.000000,4.000000,4.000000,4.000000,4.000000,4.000000,100.000000
1602006498.533358,128.000000,0.000000,4110.769043,4114.871582,4126.666504,4128.717773,4134.358887,4113.846191,4107.692383,4123.589844,4122.051270,4139.487305,4135.384766,4154.358887,4140.512695,4135.384766,768.000000,4.000000,,,,0.000000,4.000000,4.000000,4.000000,4.000000,4.000000,4.000000,4.000000,4.000000,4.000000,4.000000,4.000000,4.000000,4.000000,4.000000,100.000000
1602006498.541240,0.000000,0.000000,4120.512695,4122.563965,4146.666504,4138.461426,4133.846191,4118.461426,4115.897461,4135.384766,4125.128418,4154.871582,4149.230957,4161.538574,4148.717773,4143.077148,793.000000,4.000000,,,,0.000000,4.000000,4.000000,4.000000,4.000000,4.000000,4.000000,4.000000,4.000000,4.000000,4.000000,4.000000,4.000000,4.000000,4.000000,100.000000
1602006498.549121,1.000000,0.000000,4134.871582,4124.615234,4161.538574,4138.974121,4129.743652,4123.589844,4131.282227,4151.282227,4145.128418,4161.538574,4157.436035,4179.487305,4163.077148,4152.307617,785.000000,4.000000,,,,0.000000,4.000000,4.000000,4.000000,4.000000,4.000000,4.000000,4.000000,4.000000,4.000000,4.000000,4.000000,4.000000,4.000000,4.000000,100.000000
1602006498.557002,2.000000,0.000000,4143.589844,4124.102539,4173.846191,4131.282227,4123.077148,4120.512695,4137.436035,4157.436035,4155.897461,4140.000000,4156.922852,4191.794922,4173.333496,4164.615234,857.000000,4.000000,,,,0.000000,4.000000,4.000000,4.000000,4.000000,4.000000,4.000000,4.000000,4.000000,4.000000,4.000000,4.000000,4.000000,4.000000,4.000000,100.000000
1602006498.564883,3.000000,0.000000,4140.000000,4123.077148,4174.358887,4128.205078,4120.000000,4122.051270,4143.077148,4157.948730,4148.205078,4124.102539,4160.000000,4183.589844,4163.589844,4171.794922,866.000000,4.000000,,,,0.000000,4.000000,4.000000,4.000000,4.000000,4.000000,4.000000,4.000000,4.000000,4.000000,4.000000,4.000000,4.000000,4.000000,4.000000,100.000000
1602006498.572864,4.000000,0.000000,4117.436035,4108.717773,4150.256348,4124.102539,4119.487305,4128.717773,4148.205078,4152.820313,4140.000000,4140.512695,4151.282227,4161.538574,4140.512695,4151.282227,814.000000,4.000000,,,,0.000000,4.000000,4.000000,4.000000,4.000000,4.000000,4.000000,4.000000,4.000000,4.000000,4.000000,4.000000,4.000000,4.000000,4.000000,100.000000
1602006498.580745,5.000000,0.000000,4091.794922,4095.384521,4120.512695,4117.948730,4119.487305,4136.922852,4144.615234,4140.512695,4138.461426,4152.820313,4127.179688,4138.461426,4123.589844,4121.025879,822.000000,4.000000,,,,0.000000,4.000000,4.000000,4.000000,4.000000,4.000000,4.000000,4.000000,4.000000,4.000000,4.000000,4.000000,4.000000,4.000000,4.000000,100.000000
1602006498.588726,6.000000,0.000000,4086.666748,4097.948730,4112.307617,4117.948730,4121.025879,4138.461426,4140.000000,4134.358887,4137.948730,4138.461426,4115.897461,4128.205078,4116.922852,4108.205078,769.000000,4.000000,,,,0.000000,4.000000,4.000000,4.000000,4.000000,4.000000,4.000000,4.000000,4.000000,4.000000,4.000000,4.000000,4.000000,4.000000,4.000000,100.000000
1602006498.596607,7.000000,0.000000,4094.358887,4105.128418,4118.461426,4122.051270,4122.051270,4129.743652,4133.846191,4136.410156,4133.333496,4126.666504,4122.563965,4131.282227,4118.461426,4108.205078,670.000000,4.000000,,,,0.000000,4.000000,4.000000,4.000000,4.000000,4.000000,4.000000,4.000000,4.000000,4.000000,4.000000,4.000000,4.000000,4.000000,4.000000,100.000000
1602006498.604588,8.000000,0.000000,4100.512695,4112.820313,4128.205078,4131.794922,4124.615234,4124.102539,4126.153809,4138.461426,4133.333496,4137.948730,4130.256348,4137.948730,4130.769043,4120.512695,784.000000,4.000000,,,,0.000000,4.000000,4.000000,4.000000,4.000000,4.000000,4.000000,4.000000,4.000000,4.000000,4.000000,4.000000,4.000000,4.000000,4.000000,100.000000
1602006498.612470,9.000000,0.000000,4110.256348,4121.025879,4137.436035,4138.974121,4127.179688,4124.102539,4120.512695,4136.922852,4137.436035,4150.769043,4137.436035,4140.512695,4141.025879,4139.487305,836.000000,4.000000,,,,0.000000,4.000000,4.000000,4.000000,4.000000,4.000000,4.000000,4.000000,4.000000,4.000000,4.000000,4.000000,4.000000,4.000000,4.000000,100.000000
1602006498.620351,10.000000,0.000000,4128.717773,4125.128418,4146.666504,4137.948730,4126.153809,4120.512695,4120.000000,4135.384766,4136.410156,4134.871582,4142.563965,4141.025879,4141.025879,4142.563965,869.000000,4.000000,,,,0.000000,4.000000,4.000000,4.000000,4.000000,4.000000,4.000000,4.000000,4.000000,4.000000,4.000000,4.000000,4.000000,4.000000,4.000000,100.000000
1602006498.628233,11.000000,0.000000,4142.563965,4128.205078,4159.487305,4138.461426,4130.256348,4117.948730,4125.641113,4143.589844,4138.461426,4120.512695,4143.077148,4145.641113,4139.487305,4138.461426,835.000000,4.000000,,,,0.000000,4.000000,4.000000,4.000000,4.000000,4.000000,4.000000,4.000000,4.000000,4.000000,4.000000,4.000000,4.000000,4.000000,4.000000,100.000000
1602006498.636114,12.000000,0.000000,4143.589844,4130.256348,4168.717773,4143.077148,4134.871582,4124.102539,4136.410156,4155.897461,4145.641113,4142.051270,4144.102539,4153.846191,4142.051270,4144.102539,731.000000,4.000000,,,,0.000000,4.000000,4.000000,4.000000,4.000000,4.000000,4.000000,4.000000,4.000000,4.000000,4.000000,4.000000,4.000000,4.000000,4.000000,100.000000
1602006498.643995,13.000000,0.000000,4143.077148,4127.692383,4164.102539,4142.563965,4129.743652,4124.615234,4139.487305,4153.846191,4145.641113,4163.077148,4137.436035,4155.384766,4142.563965,4147.179688,737.000000,4.000000,,,,0.000000,4.000000,4.000000,4.000000,4.000000,4.000000,4.000000,4.000000,4.000000,4.000000,4.000000,4.000000,4.000000,4.000000,4.000000,100.000000
1602006498.651777,14.000000,0.000000,4138.461426,4125.128418,4150.256348,4134.871582,4124.102539,4117.948730,4131.794922,4141.025879,4134.871582,4147.692383,4125.641113,4148.205078,4134.358887,4136.922852,869.000000,4.000000,,,,0.000000,4.000000,4.000000,4.000000,4.000000,4.000000,4.000000,4.000000,4.000000,4.000000,4.000000,4.000000,4.000000,4.000000,4.000000,100.000000
1602006498.659659,15.000000,0.000000,4121.025879,4120.000000,4142.051270,4127.179688,4123.077148,4116.410156,4128.205078,4136.922852,4123.077148,4127.179688,4120.512695,4135.384766,4125.128418,4123.077148,835.000000,4.000000,,,,0.000000,4.000000,4.000000,4.000000,4.000000,4.000000,4.000000,4.000000,4.000000,4.000000,4.000000,4.000000,4.000000,4.000000,4.000000,100.000000
1602006498.667540,16.000000,0.000000,4105.128418,4110.256348,4137.948730,4123.589844,4120.512695,4120.000000,4126.666504,4138.974121,4119.487305,4124.102539,4121.538574,4127.692383,4118.974121,4120.000000,0.000000,4.000000,,,,0.000000,4.000000,4.000000,4.000000,4.000000,4.000000,4.000000,4.000000,4.000000,4.000000,4.000000,4.000000,4.000000,4.000000,4.000000,100.000000
1602006498.675422,17.000000,0.000000,4108.717773,4106.153809,4137.436035,4125.641113,4116.410156,4122.563965,4123.589844,4137.436035,4123.077148,4117.436035,4121.025879,4130.256348,4116.410156,4122.563965,0.000000,4.000000,,,,0.000000,4.000000,4.000000,4.000000,4.000000,4.000000,4.000000,4.000000,4.000000,4.000000,4.000000,4.000000,4.000000,4.000000,4.000000,100.000000
1602006498.683304,18.000000,0.000000,4117.948730,4108.205078,4139.487305,4127.179688,4119.487305,4121.538574,4122.051270,4137.436035,4130.769043,4106.666504,4118.461426,4137.948730,4117.436035,4124.102539,0.000000,4.000000,,,,0.000000,4.000000,4.000000,4.000000,4.000000,4.000000,4.000000,4.000000,4.000000,4.000000,4.000000,4.000000,4.000000,4.000000,4.000000,100.000000
1602006498.691185,19.000000,0.000000,4120.000000,4111.794922,4143.589844,4126.153809,4124.615234,4121.025879,4119.487305,4138.461426,4135.897461,4108.717773,4129.230957,4143.589844,4126.666504,4132.820313,0.000000,4.000000,,,,0.000000,4.000000,4.000000,4.000000,4.000000,4.000000,4.000000,4.000000,4.000000,4.000000,4.000000,4.000000,4.000000,4.000000,4.000000,100.000000
1602006498.699067,20.000000,0.000000,4122.051270,4113.333496,4144.102539,4124.615234,4125.641113,4123.077148,4120.000000,4137.436035,4138.461426,4127.692383,4140.512695,4150.256348,4138.974121,4144.102539,0.000000,4.000000,,,,0.000000,4.000000,4.000000,4.000000,4.000000,4.000000,4.000000,4.000000,4.000000,4.000000,4.000000,4.000000,4.000000,4.000000,4.000000,100.000000
1602006498.706949,21.000000,0.000000,4121.025879,4112.307617,4141.538574,4125.128418,4128.205078,4128.717773,4128.205078,4139.487305,4142.051270,4144.102539,4127.179688,4156.922852,4137.436035,4144.615234,0.000000,4.000000,,,,0.000000,4.000000,4.000000,4.000000,4.000000,4.000000,4.000000,4.000000,4.000000,4.000000,4.000000,4.000000,4.000000,4.000000,4.000000,100.000000
1602006498.714930,22.000000,0.000000,4111.282227,4108.717773,4138.461426,4126.666504,4136.922852,4136.410156,4133.846191,4138.974121,4137.948730,4142.563965,4111.794922,4151.794922,4129.743652,4140.000000,0.000000,4.000000,,,,0.000000,4.000000,4.000000,4.000000,4.000000,4.000000,4.000000,4.000000,4.000000,4.000000,4.000000,4.000000,4.000000,4.000000,4.000000,100.000000
1602006498.722811,23.000000,0.000000,4105.128418,4108.205078,4131.282227,4122.563965,4136.922852,4135.384766,4128.717773,4132.307617,4126.666504,4136.922852,4120.512695,4142.563965,4127.692383,4142.051270,0.000000,4.000000,,,,0.000000,4.000000,4.000000,4.000000,4.000000,4.000000,4.000000,4.000000,4.000000,4.000000,4.000000,4.000000,4.000000,4.000000,4.000000,100.000000
1602006498.730693,24.000000,0.000000,4108.717773,4115.384766,4130.769043,4121.025879,4129.743652,4125.641113,4122.051270,4132.820313,4120.512695,4131.794922,4132.307617,4144.615234,4127.179688,4141.538574,0.000000,4.000000,,,,0.000000,4.000000,4.000000,4.000000,4.000000,4.000000,4.000000,4.000000,4.000000,4.000000,4.000000,4.000000,4.000000,4.000000,4.000000,100.000000
1602006498.738574,25.000000,0.000000,4108.717773,4121.538574,4140.512695,4130.769043,4127.179688,4117.436035,4121.538574,4134.871582,4122.051270,4125.128418,4126.153809,4145.641113,4122.563965,4131.282227,0.000000,4.000000,,,,0.000000,4.000000,4.000000,4.000000,4.000000,4.000000,4.000000,4.000000,4.000000,4.000000,4.000000,4.000000,4.000000,4.000000,4.000000,100.000000
1602006498.746455,26.000000,0.000000,4109.743652,4122.563965,4144.615234,4137.436035,4126.666504,4114.358887,4122.563965,4131.794922,4125.641113,4126.666504,4125.128418,4139.487305,4126.666504,4127.692383,0.000000,4.000000,,,,0.000000,4.000000,4.000000,4.000000,4.000000,4.000000,4.000000,4.000000,4.000000,4.000000,4.000000,4.000000,4.000000,4.000000,4.000000,100.000000
1602006498.754337,27.000000,0.000000,4119.487305,4120.512695,4141.025879,4130.769043,4126.153809,4117.436035,4127.692383,4133.846191,4133.333496,4135.384766,4135.897461,4138.974121,4137.436035,4136.410156,0.000000,4.000000,,,,0.000000,4.000000,4.000000,4.000000,4.000000,4.000000,4.000000,4.000000,4.000000,4.000000,4.000000,4.000000,4.000000,4.000000,4.000000,100.000000
1602006498.762218,28.000000,0.000000,4125.128418,4113.846191,4140.000000,4122.563965,4127.692383,4125.641113,4130.256348,4139.487305,4137.948730,4140.000000,4140.000000,4142.563965,4139.487305,4141.025879,0.000000,4.000000,,,,0.000000,4.000000,4.000000,4.000000,4.000000,4.000000,4.000000,4.000000,4.000000,4.000000,4.000000,4.000000,4.000000,4.000000,4.000000,100.000000
1602006498.770000,29.000000,0.000000,4122.051270,4106.153809,4140.512695,4123.589844,4125.128418,4129.230957,4123.589844,4137.948730,4133.333496,4137.948730,4132.307617,4139.487305,4132.307617,4136.922852,0.000000,4.000000,,,,0.000000,4.000000,4.000000,4.000000,4.000000,4.000000,4.000000,4.000000,4.000000,4.000000,4.000000,4.000000,4.000000,4.000000,4.000000,100.000000
1602006498.777881,30.000000,0.000000,4111.794922,4106.666504,4134.871582,4122.563965,4123.077148,4123.589844,4118.461426,4131.282227,4130.256348,4130.256348,4125.128418,4133.333496,4125.641113,4131.282227,0.000000,4.000000,,,,0.000000,4.000000,4.000000,4.000000,4.000000,4.000000,4.000000,4.000000,4.000000,4.000000,4.000000,4.000000,4.000000,4.000000,4.000000,100.000000
1602006498.785763,31.000000,0.000000,4098.974121,4102.051270,4124.615234,4113.333496,4122.051270,4119.487305,4115.897461,4123.589844,4127.179688,4123.077148,4122.051270,4124.615234,4114.871582,4122.563965,0.000000,4.000000,,,,0.000000,4.000000,4.000000,4.000000,4.000000,4.000000,4.000000,4.000000,4.000000,4.000000,4.000000,4.000000,4.000000,4.000000,4.000000,100.000000
1602006498.793644,32.000000,0.000000,4098.461426,4094.358887,4119.487305,4112.820313,4119.487305,4117.948730,4113.333496,4122.563965,4118.461426,4120.512695,4122.563965,4121.025879,4110.769043,4115.897461,0.000000,4.000000,,,,0.000000,4.000000,4.000000,4.000000,4.000000,4.000000,4.000000,4.000000,4.000000,4.000000,4.000000,4.000000,4.000000,4.000000,4.000000,100.000000
1602006498.801525,33.000000,0.000000,4115.384766,4107.692383,4128.205078,4123.589844,4122.563965,4119.487305,4122.051270,4134.871582,4121.538574,4128.717773,4132.820313,4131.794922,4124.102539,4126.153809,0.000000,4.000000,,,,0.000000,4.000000,4.000000,4.000000,4.000000,4.000000,4.000000,4.000000,4.000000,4.000000,4.000000,4.000000,4.000000,4.000000,4.000000,100.000000
1602006498.809507,34.000000,0.000000,4124.102539,4123.589844,4135.897461,4126.666504,4132.307617,4129.743652,4136.410156,4140.512695,4138.461426,4141.538574,4140.000000,4145.128418,4137.948730,4138.974121,0.000000,4.000000,,,,0.000000,4.000000,4.000000,4.000000,4.000000,4.000000,4.000000,4.000000,4.000000,4.000000,4.000000,4.000000,4.000000,4.000000,4.000000,100.000000
1602006498.817389,35.000000,0.000000,4121.025879,4126.666504,4137.436035,4128.717773,4140.512695,4141.025879,4138.974121,4139.487305,4147.692383,4155.897461,4140.000000,4153.333496,4149.230957,4144.102539,0.000000,4.000000,,,,0.000000,4.000000,4.000000,4.000000,4.000000,4.000000,4.000000,4.000000,4.000000,4.000000,4.000000,4.000000,4.000000,4.000000,4.000000,100.000000
1602006498.825270,36.000000,0.000000,4124.102539,4128.717773,4140.512695,4136.922852,4137.948730,4132.820313,4130.769043,4138.974121,4141.025879,4165.128418,4140.512695,4152.820313,4152.307617,4145.641113,0.000000,4.000000,,,,0.000000,4.000000,4.000000,4.000000,4.000000,4.000000,4.000000,4.000000,4.000000,4.000000,4.000000,4.000000,4.000000,4.000000,4.000000,100.000000
1602006498.833152,37.000000,0.000000,4125.641113,4127.179688,4141.025879,4137.436035,4130.769043,4105.128418,4122.563965,4137.436035,4134.358887,4149.230957,4133.333496,4141.538574,4141.025879,4142.051270,0.000000,4.000000,,,,0.000000,4.000000,4.000000,4.000000,4.000000,4.000000,4.000000,4.000000,4.000000,4.000000,4.000000,4.000000,4.000000,4.000000,4.000000,100.000000
1602006498.841034,38.000000,0.000000,4121.025879,4122.051270,4138.974121,4133.846191,4132.307617,4096.410156,4117.948730,4135.897461,4137.948730,4125.641113,4127.179688,4134.871582,4133.333496,4140.512695,0.000000,4.000000,,,,0.000000,4.000000,4.000000,4.000000,4.000000,4.000000,4.000000,4.000000,4.000000,4.000000,4.000000,4.000000,4.000000,4.000000,4.000000,100.000000
1602006498.848915,39.000000,0.000000,4122.051270,4125.128418,4138.974121,4132.307617,4135.897461,4115.384766,4115.897461,4131.282227,4133.846191,4122.051270,4130.769043,4137.436035,4132.820313,4140.512695,0.000000,4.000000,,,,0.000000,4.000000,4.000000,4.000000,4.000000,4.000000,4.000000,4.000000,4.000000,4.000000,4.000000,4.000000,4.000000,4.000000,4.000000,100.000000
1602006498.856797,40.000000,0.000000,4125.641113,4126.153809,4141.025879,4132.307617,4136.410156,4135.384766,4117.948730,4129.743652,4124.615234,4132.820313,4133.846191,4134.871582,4129.743652,4140.512695,0.000000,4.000000,,,,0.000000,4.000000,4.000000,4.000000,4.000000,4.000000,4.000000,4.000000,4.000000,4.000000,4.000000,4.000000,4.000000,4.000000,4.000000,100.000000
1602006498.864678,41.000000,0.000000,4123.589844,4121.538574,4140.512695,4133.846191,4136.410156,4139.487305,4123.077148,4135.384766,4128.717773,4139.487305,4135.384766,4132.307617,4132.820313,4146.666504,0.000000,4.000000,,,,0.000000,4.000000,4.000000,4.000000,4.000000,4.000000,4.000000,4.000000,4.000000,4.000000,4.000000,4.000000,4.000000,4.000000,4.000000,100.000000
1602006498.872660,42.000000,0.000000,4123.077148,4122.051270,4140.512695,4132.820313,4133.333496,4132.307617,4125.641113,4138.974121,4138.461426,4142.051270,4137.948730,4135.897461,4141.025879,4155.384766,0.000000,4.000000,,,,0.000000,4.000000,4.000000,4.000000,4.000000,4.000000,4.000000,4.000000,4.000000,4.000000,4.000000,4.000000,4.000000,4.000000,4.000000,100.000000
1602006498.880541,43.000000,0.000000,4127.692383,4124.615234,4141.025879,4133.846191,4127.179688,4126.666504,4125.641113,4134.871582,4138.974121,4142.051270,4138.974121,4138.974121,4139.487305,4153.846191,0.000000,4.000000,,,,0.000000,4.000000,4.000000,4.000000,4.000000,4.000000,4.000000,4.000000,4.000000,4.000000,4.000000,4.000000,4.000000,4.000000,4.000000,100.000000
1602006498.888423,44.000000,0.000000,4129.230957,4124.102539,4140.512695,4133.333496,4125.641113,4123.589844,4128.205078,4134.871582,4136.410156,4137.948730,4137.436035,4140.000000,4137.436035,4151.282227,0.000000,4.000000,,,,0.000000,4.000000,4.000000,4.000000,4.000000,4.000000,4.000000,4.000000,4.000000,4.000000,4.000000,4.000000,4.000000,4.000000,4.000000,100.000000
1602006498.896304,45.000000,0.000000,4123.077148,4123.589844,4141.538574,4126.153809,4125.641113,4121.025879,4128.205078,4137.436035,4138.461426,4142.563965,4127.179688,4140.512695,4137.436035,4151.282227,0.000000,4.000000,,,,0.000000,4.000000,4.000000,4.000000,4.000000,4.000000,4.000000,4.000000,4.000000,4.000000,4.000000,4.000000,4.000000,4.000000,4.000000,100.000000
1602006498.904185,46.000000,0.000000,4120.512695,4125.128418,4141.025879,4126.153809,4123.589844,4120.000000,4126.153809,4137.948730,4133.846191,4142.051270,4119.487305,4136.922852,4133.333496,4143.077148,0.000000,4.000000,,,,0.000000,4.000000,4.000000,4.000000,4.000000,4.000000,4.000000,4.000000,4.000000,4.000000,4.000000,4.000000,4.000000,4.000000,4.000000,100.000000
1602006498.912067,47.000000,0.000000,4131.282227,4128.205078,4140.000000,4137.436035,4125.128418,4123.589844,4125.641113,4137.436035,4127.179688,4122.563965,4133.333496,4135.384766,4135.384766,4143.077148,0.000000,4.000000,,,,0.000000,4.000000,4.000000,4.000000,4.000000,4.000000,4.000000,4.000000,4.000000,4.000000,4.000000,4.000000,4.000000,4.000000,4.000000,100.000000
1602006498.919848,48.000000,0.000000,4134.871582,4129.743652,4140.000000,4138.461426,4124.615234,4126.666504,4122.051270,4135.897461,4128.717773,4113.846191,4146.153809,4135.897461,4140.000000,4155.897461,0.000000,4.000000,,,,0.000000,4.000000,4.000000,4.000000,4.000000,4.000000,4.000000,4.000000,4.000000,4.000000,4.000000,4.000000,4.000000,4.000000,4.000000,100.000000
1602006498.927730,49.000000,0.000000,4127.179688,4124.615234,4138.974121,4134.871582,4124.102539,4119.487305,4111.794922,4135.384766,4137.948730,4139.487305,4138.461426,4137.436035,4138.461426,4153.846191,0.000000,4.000000,,,,0.000000,4.000000,4.000000,4.000000,4.000000,4.000000,4.000000,4.000000,4.000000,4.000000,4.000000,4.000000,4.000000,4.000000,4.000000,100.000000
1602006498.935612,50.000000,0.000000,4130.769043,4121.538574,4138.974121,4137.948730,4124.102539,4108.717773,4108.205078,4134.358887,4143.589844,4163.077148,4138.974121,4144.615234,4142.051270,4146.666504,0.000000,4.000000,,,,0.000000,4.000000,4.000000,4.000000,4.000000,4.000000,4.000000,4.000000,4.000000,4.000000,4.000000,4.000000,4.000000,4.000000,4.000000,100.000000
1602006498.943493,51.000000,0.000000,4145.641113,4130.769043,4148.717773,4138.461426,4122.563965,4109.743652,4116.410156,4135.384766,4141.538574,4154.871582,4153.333496,4156.922852,4154.358887,4160.000000,0.000000,4.000000,,,,0.000000,4.000000,4.000000,4.000000,4.000000,4.000000,4.000000,4.000000,4.000000,4.000000,4.000000,4.000000,4.000000,4.000000,4.000000,100.000000
1602006498.951375,52.000000,0.000000,4152.307617,4142.563965,4165.641113,4144.102539,4127.692383,4120.000000,4123.589844,4138.461426,4138.974121,4155.897461,4157.948730,4168.717773,4160.512695,4172.820313,0.000000,4.000000,,,,0.000000,4.000000,4.000000,4.000000,4.000000,4.000000,4.000000,4.000000,4.000000,4.000000,4.000000,4.000000,4.000000,4.000000,4.000000,100.000000
1602006498.959257,53.000000,0.000000,4152.820313,4143.589844,4173.846191,4150.256348,4136.922852,4123.077148,4124.615234,4138.461426,4140.000000,4169.743652,4154.871582,4166.666504,4156.922852,4170.256348,0.000000,4.000000,,,,0.000000,4.000000,4.000000,4.000000,4.000000,4.000000,4.000000,4.000000,4.000000,4.000000,4.000000,4.000000,4.000000,4.000000,4.000000,100.000000
1602006498.967138,54.000000,0.000000,4156.410156,4142.563965,4171.794922,4148.205078,4136.922852,4123.077148,4128.205078,4140.000000,4147.179688,4160.512695,4156.410156,4157.436035,4156.410156,4172.820313,0.000000,4.000000,,,,0.000000,4.000000,4.000000,4.000000,4.000000,4.000000,4.000000,4.000000,4.000000,4.000000,4.000000,4.000000,4.000000,4.000000,4.000000,100.000000
1602006498.975020,55.000000,0.000000,4149.743652,4139.487305,4157.948730,4137.948730,4129.230957,4129.230957,4136.410156,4144.102539,4147.179688,4142.051270,4153.333496,4153.846191,4151.282227,4173.846191,0.000000,4.000000,,,,0.000000,4.000000,4.000000,4.000000,4.000000,4.000000,4.000000,4.000000,4.000000,4.000000,4.000000,4.000000,4.000000,4.000000,4.000000,100.000000
1602006498.983002,56.000000,0.000000,4130.769043,4126.666504,4135.384766,4124.102539,4127.692383,4133.846191,4141.538574,4143.077148,4132.307617,4132.820313,4140.000000,4149.230957,4137.436035,4155.384766,0.000000,4.000000,,,,0.000000,4.000000,4.000000,4.000000,4.000000,4.000000,4.000000,4.000000,4.000000,4.000000,4.000000,4.000000,4.000000,4.000000,4.000000,100.000000
1602006498.990883,57.000000,0.000000,4116.410156,4120.512695,4124.102539,4123.589844,4135.897461,4136.922852,4142.051270,4142.051270,4127.179688,4127.692383,4133.846191,4140.000000,4132.307617,4138.461426,0.000000,4.000000,,,,0.000000,4.000000,4.000000,4.000000,4.000000,4.000000,4.000000,4.000000,4.000000,4.000000,4.000000,4.000000,4.000000,4.000000,4.000000,100.000000
1602006498.998765,58.000000,0.000000,4119.487305,4129.743652,4129.743652,4136.922852,4148.205078,4140.000000,4138.974121,4143.589844,4143.077148,4133.846191,4136.410156,4138.974121,4137.436035,4136.922852,0.000000,4.000000,,,,0.000000,4.000000,4.000000,4.000000,4.000000,4.000000,4.000000,4.000000,4.000000,4.000000,4.000000,4.000000,4.000000,4.000000,4.000000,100.000000
1602006499.006646,59.000000,0.000000,4134.358887,4138.974121,4143.077148,4144.102539,4151.794922,4139.487305,4136.410156,4142.563965,4152.820313,4148.717773,4134.871582,4148.717773,4138.974121,4137.948730,0.000000,4.000000,,,,0.000000,4.000000,4.000000,4.000000,4.000000,4.000000,4.000000,4.000000,4.000000,4.000000,4.000000,4.000000,4.000000,4.000000,4.000000,100.000000
1602006499.014528,60.000000,0.000000,4142.051270,4137.436035,4149.230957,4141.538574,4144.615234,4137.436035,4134.871582,4140.000000,4145.128418,4153.333496,4134.358887,4152.307617,4136.922852,4137.948730,0.000000,4.000000,,,,0.000000,4.000000,4.000000,4.000000,4.000000,4.000000,4.000000,4.000000,4.000000,4.000000,4.000000,4.000000,4.000000,4.000000,4.000000,100.000000
1602006499.022410,61.000000,0.000000,4131.794922,4128.717773,4143.589844,4136.410156,4137.436035,4133.333496,4127.692383,4133.333496,4137.436035,4149.743652,4138.974121,4151.282227,4137.948730,4135.897461,0.000000,4.000000,,,,0.000000,4.000000,4.000000,4.000000,4.000000,4.000000,4.000000,4.000000,4.000000,4.000000,4.000000,4.000000,4.000000,4.000000,4.000000,100.000000
1602006499.030291,62.000000,0.000000,4122.051270,4120.512695,4135.897461,4127.692383,4129.230957,4123.589844,4120.000000,4122.051270,4133.846191,4137.948730,4132.820313,4151.794922,4135.897461,4133.846191,0.000000,4.000000,,,,0.000000,4.000000,4.000000,4.000000,4.000000,4.000000,4.000000,4.000000,4.000000,4.000000,4.000000,4.000000,4.000000,4.000000,4.000000,100.000000
1602006499.038173,63.000000,0.000000,4121.538574,4118.974121,4135.384766,4126.666504,4123.077148,4118.974121,4125.128418,4118.974121,4127.692383,4121.025879,4118.974121,4150.256348,4128.205078,4134.358887,0.000000,4.000000,,,,0.000000,4.000000,4.000000,4.000000,4.000000,4.000000,4.000000,4.000000,4.000000,4.000000,4.000000,4.000000,4.000000,4.000000,4.000000,100.000000
1602006499.046055,64.000000,0.000000,4122.563965,4121.025879,4140.000000,4135.384766,4127.179688,4127.692383,4135.897461,4129.230957,4131.282227,4122.051270,4124.615234,4153.333496,4129.230957,4135.897461,793.000000,4.000000,,,,0.000000,4.000000,4.000000,4.000000,4.000000,4.000000,4.000000,4.000000,4.000000,4.000000,4.000000,4.000000,4.000000,4.000000,4.000000,100.000000
1602006499.053836,65.000000,0.000000,4129.743652,4124.615234,4144.615234,4138.461426,4136.410156,4135.897461,4143.077148,4139.487305,4151.794922,4143.589844,4147.179688,4172.307617,4146.666504,4141.025879,785.000000,4.000000,,,,0.000000,4.000000,4.000000,4.000000,4.000000,4.000000,4.000000,4.000000,4.000000,4.000000,4.000000,4.000000,4.000000,4.000000,4.000000,100.000000
1602006499.061717,66.000000,0.000000,4140.512695,4127.179688,4144.615234,4137.948730,4137.948730,4141.538574,4145.128418,4145.641113,4171.282227,4168.205078,4157.948730,4188.205078,4157.948730,4149.743652,854.000000,4.000000,,,,0.000000,4.000000,4.000000,4.000000,4.000000,4.000000,4.000000,4.000000,4.000000,4.000000,4.000000,4.000000,4.000000,4.000000,4.000000,100.000000
1602006499.069598,67.000000,0.000000,4139.487305,4129.230957,4140.512695,4136.410156,4139.487305,4150.769043,4144.615234,4147.692383,4172.820313,4184.102539,4154.358887,4179.487305,4155.897461,4154.871582,866.000000,4.000000,,,,0.000000,4.000000,4.000000,4.000000,4.000000,4.000000,4.000000,4.000000,4.000000,4.000000,4.000000,4.000000,4.000000,4.000000,4.000000,100.000000
1602006499.077379,68.000000,0.000000,4135.897461,4133.846191,4142.051270,4135.897461,4146.153809,4154.358887,4140.000000,4139.487305,4158.974121,4182.051270,4152.820313,4168.717773,4155.897461,4155.897461,814.000000,4.000000,,,,0.000000,4.000000,4.000000,4.000000,4.000000,4.000000,4.000000,4.000000,4.000000,4.000000,4.000000,4.000000,4.000000,4.000000,4.000000,100.000000
1602006499.085260,69.000000,0.000000,4138.974121,4139.487305,4146.153809,4138.461426,4151.794922,4151.282227,4134.871582,4126.666504,4140.512695,4159.487305,4145.641113,4167.179688,4150.769043,4149.743652,822.000000,4.000000,,,,0.000000,4.000000,4.000000,4.000000,4.000000,4.000000,4.000000,4.000000,4.000000,4.000000,4.000000,4.000000,4.000000,4.000000,4.000000,100.000000
1602006499.093041,70.000000,0.000000,4138.461426,4141.538574,4141.025879,4140.512695,4154.358887,4151.282227,4134.871582,4119.487305,4133.846191,4136.922852,4135.897461,4162.051270,4142.051270,4144.102539,769.000000,4.000000,,,,0.000000,4.000000,4.000000,4.000000,4.000000,4.000000,4.000000,4.000000,4.000000,4.000000,4.000000,4.000000,4.000000,4.000000,4.000000,100.000000
1602006499.100823,71.000000,0.000000,4135.384766,4142.563965,4134.871582,4141.025879,4153.846191,4147.692383,4134.358887,4121.025879,4138.974121,4137.436035,4141.538574,4155.897461,4146.153809,4149.230957,670.000000,4.000000,,,,0.000000,4.000000,4.000000,4.000000,4.000000,4.000000,4.000000,4.000000,4.000000,4.000000,4.000000,4.000000,4.000000,4.000000,4.000000,100.000000
1602006499.108704,72.000000,0.000000,4135.897461,4142.563965,4136.410156,4141.025879,4151.794922,4135.897461,4127.179688,4122.563965,4140.512695,4147.179688,4154.358887,4156.922852,4158.974121,4154.871582,784.000000,4.000000,,,,0.000000,4.000000,4.000000,4.000000,4.000000,4.000000,4.000000,4.000000,4.000000,4.000000,4.000000,4.000000,4.000000,4.000000,4.000000,100.000000
1602006499.116586,73.000000,0.000000,4135.384766,4139.487305,4134.358887,4138.974121,4152.820313,4132.307617,4123.077148,4123.077148,4137.948730,4146.666504,4154.871582,4156.410156,4162.051270,4152.820313,836.000000,4.000000,,,,0.000000,4.000000,4.000000,4.000000,4.000000,4.000000,4.000000,4.000000,4.000000,4.000000,4.000000,4.000000,4.000000,4.000000,4.000000,100.000000
1602006499.124467,74.000000,0.000000,4135.384766,4135.897461,4129.230957,4138.461426,4150.256348,4135.897461,4129.743652,4123.589844,4140.512695,4146.153809,4144.102539,4153.333496,4157.436035,4152.820313,869.000000,4.000000,,,,0.000000,4.000000,4.000000,4.000000,4.000000,4.000000,4.000000,4.000000,4.000000,4.000000,4.000000,4.000000,4.000000,4.000000,4.000000,100.000000
1602006499.132348,75.000000,0.000000,4137.948730,4137.436035,4131.282227,4140.000000,4142.563965,4136.410156,4138.461426,4126.153809,4140.512695,4158.974121,4137.948730,4158.461426,4153.846191,4155.897461,835.000000,4.000000,,,,0.000000,4.000000,4.000000,4.000000,4.000000,4.000000,4.000000,4.000000,4.000000,4.000000,4.000000,4.000000,4.000000,4.000000,4.000000,100.000000
1602006499.140230,76.000000,0.000000,4141.025879,4138.461426,4141.538574,4140.512695,4138.974121,4137.948730,4140.000000,4132.307617,4141.025879,4171.794922,4144.102539,4168.717773,4152.307617,4153.333496,756.000000,4.000000,,,,0.000000,4.000000,4.000000,4.000000,4.000000,4.000000,4.000000,4.000000,4.000000,4.000000,4.000000,4.000000,4.000000,4.000000,4.000000,100.000000
1602006499.148211,77.000000,0.000000,4147.692383,4141.538574,4151.794922,4142.563965,4141.538574,4134.871582,4140.000000,4139.487305,4152.820313,4174.358887,4152.820313,4177.948730,4160.512695,4153.333496,737.000000,4.000000,,,,0.000000,4.000000,4.000000,4.000000,4.000000,4.000000,4.000000,4.000000,4.000000,4.000000,4.000000,4.000000,4.000000,4.000000,4.000000,100.000000
1602006499.156092,78.000000,0.000000,4156.922852,4147.692383,4158.974121,4144.615234,4140.512695,4125.128418,4141.025879,4142.563965,4160.512695,4167.692383,4155.897461,4186.666504,4172.820313,4165.128418,869.000000,4.000000,,,,0.000000,4.000000,4.000000,4.000000,4.000000,4.000000,4.000000,4.000000,4.000000,4.000000,4.000000,4.000000,4.000000,4.000000,4.000000,100.000000
1602006499.163973,79.000000,0.000000,4161.025879,4149.230957,4158.461426,4143.077148,4137.948730,4123.589844,4138.461426,4138.974121,4155.384766,4155.897461,4153.846191,4187.692383,4171.794922,4171.794922,835.000000,4.000000,,,,0.000000,4.000000,4.000000,4.000000,4.000000,4.000000,4.000000,4.000000,4.000000,4.000000,4.000000,4.000000,4.000000,4.000000,4.000000,100.000000
1602006499.171854,80.000000,0.000000,4152.820313,4142.051270,4150.769043,4141.025879,4138.974121,4134.358887,4137.436035,4128.717773,4148.205078,4155.384766,4148.717773,4177.436035,4158.461426,4157.948730,756.000000,4.000000,,,,0.000000,4.000000,4.000000,4.000000,4.000000,4.000000,4.000000,4.000000,4.000000,4.000000,4.000000,4.000000,4.000000,4.000000,4.000000,100.000000
1602006499.179636,81.000000,0.000000,4133.333496,4129.743652,4139.487305,4137.948730,4140.000000,4142.051270,4134.358887,4121.538574,4138.461426,4156.922852,4138.461426,4165.128418,4147.179688,4138.461426,737.000000,4.000000,,,,0.000000,4.000000,4.000000,4.000000,4.000000,4.000000,4.000000,4.000000,4.000000,4.000000,4.000000,4.000000,4.000000,4.000000,4.000000,100.000000
1602006499.187517,82.000000,0.000000,4115.384766,4120.000000,4125.128418,4127.692383,4132.307617,4140.512695,4128.205078,4119.487305,4121.538574,4131.794922,4122.563965,4155.897461,4132.820313,4131.282227,869.000000,4.000000,,,,0.000000,4.000000,4.000000,4.000000,4.000000,4.000000,4.000000,4.000000,4.000000,4.000000,4.000000,4.000000,4.000000,4.000000,4.000000,100.000000
1602006499.195399,83.000000,0.000000,4112.820313,4116.922852,4121.538574,4119.487305,4125.128418,4140.512695,4129.743652,4118.974121,4115.384766,4104.615234,4113.333496,4149.743652,4120.000000,4125.128418,835.000000,4.000000,,,,0.000000,4.000000,4.000000,4.000000,4.000000,4.000000,4.000000,4.000000,4.000000,4.000000,4.000000,4.000000,4.000000,4.000000,4.000000,100.000000
1602006499.203280,84.000000,0.000000,4127.179688,4123.589844,4131.282227,4128.205078,4132.820313,4144.102539,4137.948730,4122.051270,4126.153809,4118.974121,4123.589844,4154.871582,4126.153809,4127.692383,756.000000,4.000000,,,,0.000000,4.000000,4.000000,4.000000,4.000000,4.000000,4.000000,4.000000,4.000000,4.000000,4.000000,4.000000,4.000000,4.000000,4.000000,100.000000
1602006499.211161,85.000000,0.000000,4144.615234,4134.358887,4142.563965,4139.487305,4142.563965,4145.641113,4140.000000,4133.333496,4138.461426,4144.102539,4146.153809,4167.692383,4140.512695,4144.615234,737.000000,4.000000,,,,0.000000,4.000000,4.000000,4.000000,4.000000,4.000000,4.000000,4.000000,4.000000,4.000000,4.000000,4.000000,4.000000,4.000000,4.000000,100.000000
1602006499.219043,86.000000,0.000000,4150.256348,4141.025879,4150.256348,4141.025879,4141.538574,4137.948730,4137.948730,4141.025879,4148.717773,4144.102539,4156.922852,4174.871582,4148.205078,4157.436035,869.000000,4.000000,,,,0.000000,4.000000,4.000000,4.000000,4.000000,4.000000,4.000000,4.000000,4.000000,4.000000,4.000000,4.000000,4.000000,4.000000,4.000000,100.000000
1602006499.226924,87.000000,0.000000,4143.077148,4137.436035,4154.358887,4143.077148,4138.974121,4128.205078,4136.410156,4140.000000,4157.436035,4145.128418,4154.871582,4174.871582,4153.846191,4158.461426,835.000000,4.000000,,,,0.000000,4.000000,4.000000,4.000000,4.000000,4.000000,4.000000,4.000000,4.000000,4.000000,4.000000,4.000000,4.000000,4.000000,4.000000,100.000000
1602006499.234905,88.000000,0.000000,4134.871582,4125.128418,4154.871582,4142.563965,4133.333496,4116.922852,4127.692383,4135.897461,4148.205078,4155.384766,4154.871582,4172.820313,4153.333496,4150.256348,756.000000,4.000000,,,,0.000000,4.000000,4.000000,4.000000,4.000000,4.000000,4.000000,4.000000,4.000000,4.000000,4.000000,4.000000,4.000000,4.000000,4.000000,100.000000
1602006499.242786,89.000000,0.000000,4136.922852,4120.000000,4152.307617,4135.897461,4124.615234,4111.282227,4120.000000,4136.410156,4137.436035,4160.512695,4156.410156,4170.256348,4151.282227,4144.102539,737.000000,4.000000,,,,0.000000,4.000000,4.000000,4.000000,4.000000,4.000000,4.000000,4.000000,4.000000,4.000000,4.000000,4.000000,4.000000,4.000000,4.000000,100.000000
1602006499.250767,90.000000,0.000000,4135.384766,4122.051270,4147.692383,4129.230957,4121.538574,4115.384766,4127.179688,4140.512695,4145.128418,4162.563965,4157.436035,4167.179688,4152.307617,4145.641113,869.000000,4.000000,,,,0.000000,4.000000,4.000000,4.000000,4.000000,4.000000,4.000000,4.000000,4.000000,4.000000,4.000000,4.000000,4.000000,4.000000,4.000000,100.000000
1602006499.258648,91.000000,0.000000,4121.538574,4120.000000,4132.307617,4122.563965,4117.436035,4118.974121,4134.871582,4138.974121,4148.205078,4153.333496,4155.384766,4156.922852,4143.077148,4136.410156,835.000000,4.000000,,,,0.000000,4.000000,4.000000,4.000000,4.000000,4.000000,4.000000,4.000000,4.000000,4.000000,4.000000,4.000000,4.000000,4.000000,4.000000,100.000000
1602006499.266529,92.000000,0.000000,4114.871582,4117.436035,4118.461426,4123.589844,4115.384766,4127.179688,4136.410156,4135.897461,4139.487305,4137.436035,4141.025879,4144.102539,4126.153809,4119.487305,756.000000,4.000000,,,,0.000000,4.000000,4.000000,4.000000,4.000000,4.000000,4.000000,4.000000,4.000000,4.000000,4.000000,4.000000,4.000000,4.000000,4.000000,100.000000
1602006499.274411,93.000000,0.000000,4128.205078,4126.666504,4124.615234,4134.871582,4120.512695,4141.025879,4137.436035,4136.922852,4134.358887,4132.307617,4124.102539,4136.410156,4122.563965,4118.974121,737.000000,4.000000,,,,0.000000,4.000000,4.000000,4.000000,4.000000,4.000000,4.000000,4.000000,4.000000,4.000000,4.000000,4.000000,4.000000,4.000000,4.000000,100.000000
1602006499.282392,94.000000,0.000000,4136.410156,4137.436035,4135.384766,4140.512695,4128.205078,4144.102539,4135.897461,4133.333496,4134.358887,4135.384766,4127.692383,4138.461426,4127.179688,4128.717773,869.000000,4.000000,,,,0.000000,4.000000,4.000000,4.000000,4.000000,4.000000,4.000000,4.000000,4.000000,4.000000,4.000000,4.000000,4.000000,4.000000,4.000000,100.000000
1602006499.290273,95.000000,0.000000,4135.384766,4137.948730,4136.922852,4137.948730,4134.871582,4139.487305,4129.743652,4124.102539,4135.897461,4138.974121,4140.000000,4145.641113,4123.589844,4130.256348,835.000000,4.000000,,,,0.000000,4.000000,4.000000,4.000000,4.000000,4.000000,4.000000,4.000000,4.000000,4.000000,4.000000,4.000000,4.000000,4.000000,4.000000,100.000000
1602006499.298155,96.000000,0.000000,4145.128418,4135.897461,4136.922852,4138.461426,4138.461426,4136.410156,4127.179688,4121.025879,4132.820313,4141.025879,4140.512695,4151.794922,4124.615234,4135.384766,756.000000,4.000000,,,,0.000000,4.000000,4.000000,4.000000,4.000000,4.000000,4.000000,4.000000,4.000000,4.000000,4.000000,4.000000,4.000000,4.000000,4.000000,100.000000
1602006499.306036,97.000000,0.000000,4156.922852,4137.436035,4141.538574,4141.025879,4136.922852,4124.615234,4124.615234,4121.025879,4122.563965,4136.410156,4136.410156,4150.769043,4137.948730,4144.615234,737.000000,4.000000,,,,0.000000,4.000000,4.000000,4.000000,4.000000,4.000000,4.000000,4.000000,4.000000,4.000000,4.000000,4.000000,4.000000,4.000000,4.000000,100.000000
1602006499.313917,98.000000,0.000000,4155.384766,4138.461426,4145.128418,4140.000000,4135.384766,4108.205078,4119.487305,4121.025879,4120.000000,4134.871582,4138.461426,4149.743652,4141.538574,4143.077148,869.000000,4.000000,,,,0.000000,4.000000,4.000000,4.000000,4.000000,4.000000,4.000000,4.000000,4.000000,4.000000,4.000000,4.000000,4.000000,4.000000,4.000000,100.000000
1602006499.321799,99.000000,0.000000,4153.846191,4138.974121,4151.282227,4140.000000,4137.948730,4111.282227,4118.974121,4128.717773,4131.282227,4142.051270,4145.128418,4161.538574,4141.538574,4143.077148,835.000000,4.000000,,,,0.000000,4.000000,4.000000,4.000000,4.000000,4.000000,4.000000,4.000000,4.000000,4.000000,4.000000,4.000000,4.000000,4.000000,4.000000,100.000000
1602006499.329680,100.000000,0.000000,4161.025879,4143.077148,4158.974121,4144.102539,4139.487305,4120.512695,4121.025879,4136.410156,4138.974121,4144.615234,4154.871582,4175.897461,4154.871582,4157.436035,756.000000,4.000000,,,,0.000000,4.000000,4.000000,4.000000,4.000000,4.000000,4.000000,4.000000,4.000000,4.000000,4.000000,4.000000,4.000000,4.000000,4.000000,100.000000
1602006499.337462,101.000000,0.000000,4155.897461,4137.948730,4152.820313,4144.615234,4134.871582,4123.077148,4119.487305,4137.436035,4143.077148,4150.256348,4161.538574,4173.846191,4158.974121,4163.589844,737.000000,4.000000,,,,0.000000,4.000000,4.000000,4.000000,4.000000,4.000000,4.000000,4.000000,4.000000,4.000000,4.000000,4.000000,4.000000,4.000000,4.000000,100.000000
1602006499.345344,102.000000,0.000000,4135.897461,4127.179688,4130.769043,4132.820313,4127.692383,4126.666504,4121.025879,4137.948730,4146.153809,4156.410156,4153.333496,4156.410156,4140.512695,4144.615234,869.000000,4.000000,,,,0.000000,4.000000,4.000000,4.000000,4.000000,4.000000,4.000000,4.000000,4.000000,4.000000,4.000000,4.000000,4.000000,4.000000,4.000000,100.000000
1602006499.353225,103.000000,0.000000,4118.974121,4120.512695,4111.794922,4121.025879,4127.692383,4136.410156,4130.256348,4136.922852,4144.102539,4153.333496,4140.000000,4141.025879,4125.641113,4121.538574,835.000000,4.000000,,,,0.000000,4.000000,4.000000,4.000000,4.000000,4.000000,4.000000,4.000000,4.000000,4.000000,4.000000,4.000000,4.000000,4.000000,4.000000,100.000000
1602006499.361107,104.000000,0.000000,4111.282227,4115.384766,4107.179688,4121.538574,4129.230957,4149.743652,4136.922852,4128.205078,4132.820313,4140.512695,4134.358887,4135.897461,4124.615234,4118.974121,756.000000,4.000000,,,,0.000000,4.000000,4.000000,4.000000,4.000000,4.000000,4.000000,4.000000,4.000000,4.000000,4.000000,4.000000,4.000000,4.000000,4.000000,100.000000
1602006499.368989,105.000000,0.000000,4114.871582,4110.256348,4106.666504,4123.077148,4124.615234,4155.897461,4134.871582,4127.692383,4121.538574,4121.025879,4131.794922,4132.820313,4125.128418,4120.512695,737.000000,4.000000,,,,0.000000,4.000000,4.000000,4.000000,4.000000,4.000000,4.000000,4.000000,4.000000,4.000000,4.000000,4.000000,4.000000,4.000000,4.000000,100.000000
1602006499.376870,106.000000,0.000000,4118.974121,4110.256348,4109.230957,4118.974121,4123.589844,4148.717773,4136.410156,4135.384766,4121.025879,4116.410156,4124.102539,4130.256348,4120.512695,4109.230957,869.000000,4.000000,,,,0.000000,4.000000,4.000000,4.000000,4.000000,4.000000,4.000000,4.000000,4.000000,4.000000,4.000000,4.000000,4.000000,4.000000,4.000000,100.000000
1602006499.384752,107.000000,0.000000,4113.333496,4110.769043,4117.948730,4118.974121,4124.615234,4140.512695,4141.025879,4133.333496,4125.128418,4126.153809,4123.077148,4132.307617,4118.461426,4103.077148,835.000000,4.000000,,,,0.000000,4.000000,4.000000,4.000000,4.000000,4.000000,4.000000,4.000000,4.000000,4.000000,4.000000,4.000000,4.000000,4.000000,4.000000,100.000000
1602006499.392633,108.000000,0.000000,4108.717773,4110.256348,4121.538574,4120.512695,4117.436035,4132.820313,4134.871582,4130.769043,4123.077148,4113.333496,4134.358887,4136.922852,4121.538574,4114.871582,756.000000,4.000000,,,,0.000000,4.000000,4.000000,4.000000,4.000000,4.000000,4.000000,4.000000,4.000000,4.000000,4.000000,4.000000,4.000000,4.000000,4.000000,100.000000
1602006499.400615,109.000000,0.000000,4121.025879,4116.922852,4121.538574,4120.512695,4109.230957,4118.974121,4123.589844,4134.358887,4117.948730,4096.922852,4136.922852,4142.051270,4121.538574,4129.743652,737.000000,4.000000,,,,0.000000,4.000000,4.000000,4.000000,4.000000,4.000000,4.000000,4.000000,4.000000,4.000000,4.000000,4.000000,4.000000,4.000000,4.000000,100.000000
1602006499.408497,110.000000,0.000000,4137.948730,4127.179688,4131.282227,4128.205078,4112.820313,4112.307617,4121.538574,4136.922852,4125.641113,4126.666504,4136.922852,4151.282227,4127.179688,4143.077148,869.000000,4.000000,,,,0.000000,4.000000,4.000000,4.000000,4.000000,4.000000,4.000000,4.000000,4.000000,4.000000,4.000000,4.000000,4.000000,4.000000,4.000000,100.000000
1602006499.416378,111.000000,0.000000,4149.230957,4135.897461,4141.025879,4139.487305,4122.563965,4122.051270,4123.589844,4140.512695,4149.230957,4174.871582,4150.256348,4154.871582,4147.692383,4155.384766,835.000000,4.000000,,,,0.000000,4.000000,4.000000,4.000000,4.000000,4.000000,4.000000,4.000000,4.000000,4.000000,4.000000,4.000000,4.000000,4.000000,4.000000,100.000000
1602006499.424260,112.000000,0.000000,4154.871582,4143.077148,4139.487305,4142.051270,4127.692383,4127.179688,4123.589844,4144.102539,4158.974121,4174.358887,4162.051270,4145.128418,4161.025879,4154.358887,756.000000,4.000000,,,,0.000000,4.000000,4.000000,4.000000,4.000000,4.000000,4.000000,4.000000,4.000000,4.000000,4.000000,4.000000,4.000000,4.000000,4.000000,100.000000
1602006499.432142,113.000000,0.000000,4149.743652,4139.487305,4136.922852,4139.487305,4125.128418,4120.000000,4118.461426,4139.487305,4138.461426,4140.000000,4154.358887,4137.948730,4150.256348,4143.589844,737.000000,4.000000,,,,0.000000,4.000000,4.000000,4.000000,4.000000,4.000000,4.000000,4.000000,4.000000,4.000000,4.000000,4.000000,4.000000,4.000000,4.000000,100.000000
1602006499.440023,114.000000,0.000000,4138.974121,4127.692383,4137.436035,4131.794922,4122.563965,4117.436035,4113.846191,4133.333496,4123.077148,4130.256348,4140.512695,4138.461426,4134.358887,4132.820313,869.000000,4.000000,,,,0.000000,4.000000,4.000000,4.000000,4.000000,4.000000,4.000000,4.000000,4.000000,4.000000,4.000000,4.000000,4.000000,4.000000,4.000000,100.000000
1602006499.447905,115.000000,0.000000,4136.410156,4127.692383,4137.948730,4123.589844,4121.538574,4121.538574,4116.410156,4136.410156,4132.307617,4137.948730,4135.897461,4137.436035,4128.205078,4123.589844,835.000000,4.000000,,,,0.000000,4.000000,4.000000,4.000000,4.000000,4.000000,4.000000,4.000000,4.000000,4.000000,4.000000,4.000000,4.000000,4.000000,4.000000,100.000000
1602006499.455787,116.000000,0.000000,4139.487305,4135.384766,4138.974121,4126.153809,4120.512695,4125.641113,4124.102539,4137.948730,4132.820313,4126.153809,4136.922852,4137.436035,4126.153809,4127.692383,756.000000,4.000000,,,,0.000000,4.000000,4.000000,4.000000,4.000000,4.000000,4.000000,4.000000,4.000000,4.000000,4.000000,4.000000,4.000000,4.000000,4.000000,100.000000
1602006499.463668,117.000000,0.000000,4139.487305,4131.282227,4131.282227,4128.717773,4120.512695,4132.307617,4131.794922,4135.897461,4120.512695,4110.256348,4136.922852,4140.000000,4124.102539,4134.358887,737.000000,4.000000,,,,0.000000,4.000000,4.000000,4.000000,4.000000,4.000000,4.000000,4.000000,4.000000,4.000000,4.000000,4.000000,4.000000,4.000000,4.000000,100.000000
1602006499.471649,118.000000,0.000000,4136.410156,4126.153809,4125.641113,4124.615234,4121.538574,4136.922852,4135.384766,4136.922852,4114.871582,4121.538574,4132.307617,4139.487305,4125.128418,4127.692383,869.000000,4.000000,,,,0.000000,4.000000,4.000000,4.000000,4.000000,4.000000,4.000000,4.000000,4.000000,4.000000,4.000000,4.000000,4.000000,4.000000,4.000000,100.000000
1602006499.479530,119.000000,0.000000,4137.436035,4132.307617,4132.307617,4127.692383,4122.563965,4136.410156,4135.897461,4134.358887,4111.282227,4137.436035,4134.871582,4140.000000,4132.307617,4127.692383,835.000000,4.000000,,,,0.000000,4.000000,4.000000,4.000000,4.000000,4.000000,4.000000,4.000000,4.000000,4.000000,4.000000,4.000000,4.000000,4.000000,4.000000,100.000000
1602006499.487412,120.000000,0.000000,4146.153809,4137.948730,4138.461426,4137.436035,4122.563965,4133.333496,4134.871582,4125.128418,4105.128418,4137.436035,4146.153809,4147.179688,4144.102539,4141.538574,756.000000,4.000000,,,,0.000000,4.000000,4.000000,4.000000,4.000000,4.000000,4.000000,4.000000,4.000000,4.000000,4.000000,4.000000,4.000000,4.000000,4.000000,100.000000
1602006499.495293,121.000000,0.000000,4151.794922,4142.563965,4143.077148,4143.589844,4128.717773,4128.717773,4128.717773,4125.128418,4107.692383,4132.820313,4152.307617,4151.282227,4152.307617,4148.205078,737.000000,4.000000,,,,0.000000,4.000000,4.000000,4.000000,4.000000,4.000000,4.000000,4.000000,4.000000,4.000000,4.000000,4.000000,4.000000,4.000000,4.000000,100.000000
1602006499.503074,122.000000,0.000000,4156.410156,4152.820313,4158.974121,4150.769043,4136.410156,4126.666504,4124.615234,4143.077148,4127.692383,4137.948730,4154.871582,4152.307617,4158.461426,4154.871582,869.000000,4.000000,,,,0.000000,4.000000,4.000000,4.000000,4.000000,4.000000,4.000000,4.000000,4.000000,4.000000,4.000000,4.000000,4.000000,4.000000,4.000000,100.000000
1602006499.510956,123.000000,0.000000,4167.692383,4162.563965,4172.307617,4162.563965,4137.436035,4135.384766,4131.282227,4162.051270,4158.974121,4169.743652,4169.743652,4165.128418,4174.358887,4174.871582,835.000000,4.000000,,,,0.000000,4.000000,4.000000,4.000000,4.000000,4.000000,4.000000,4.000000,4.000000,4.000000,4.000000,4.000000,4.000000,4.000000,4.000000,100.000000
1602006499.518837,124.000000,0.000000,4176.922852,4172.307617,4173.333496,4169.230957,4138.974121,4140.000000,4142.051270,4172.307617,4180.512695,4205.128418,4188.717773,4185.128418,4197.436035,4192.820313,756.000000,4.000000,,,,0.000000,4.000000,4.000000,4.000000,4.000000,4.000000,4.000000,4.000000,4.000000,4.000000,4.000000,4.000000,4.000000,4.000000,4.000000,100.000000
1602006499.526718,125.000000,0.000000,4172.307617,4174.358887,4167.692383,4164.102539,4144.102539,4128.205078,4139.487305,4171.282227,4175.897461,4208.717773,4187.179688,4189.743652,4207.692383,4196.410156,737.000000,4.000000,,,,0.000000,4.000000,4.000000,4.000000,4.000000,4.000000,4.000000,4.000000,4.000000,4.000000,4.000000,4.000000,4.000000,4.000000,4.000000,100.000000
1602006499.534600,126.000000,0.000000,4152.820313,4156.922852,4152.307617,4148.205078,4135.897461,4116.922852,4126.153809,4153.846191,4152.820313,4185.641113,4168.205078,4172.820313,4189.743652,4175.897461,869.000000,4.000000,,,,0.000000,4.000000,4.000000,4.000000,4.000000,4.000000,4.000000,4.000000,4.000000,4.000000,4.000000,4.000000,4.000000,4.000000,4.000000,100.000000
1602006499.542481,127.000000,0.000000,4129.743652,4133.846191,4133.846191,4132.820313,4122.563965,4119.487305,4117.948730,4133.333496,4123.077148,4158.461426,4151.794922,4153.333496,4158.461426,4142.051270,835.000000,4.000000,,,,0.000000,4.000000,4.000000,4.000000,4.000000,4.000000,4.000000,4.000000,4.000000,4.000000,4.000000,4.000000,4.000000,4.000000,4.000000,100.000000
1602006499.550363,128.000000,0.000000,4111.794922,4121.025879,4125.641113,4125.128418,4120.512695,4125.641113,4116.410156,4120.000000,4097.948730,4129.230957,4142.051270,4142.051270,4132.820313,4125.641113,756.000000,4.000000,,,,0.000000,4.000000,4.000000,4.000000,4.000000,4.000000,4.000000,4.000000,4.000000,4.000000,4.000000,4.000000,4.000000,4.000000,4.000000,100.000000
1602006499.558244,0.000000,0.000000,4093.333252,4106.153809,4117.948730,4116.922852,4117.948730,4124.102539,4115.384766,4110.769043,4084.102539,4104.615234,4131.794922,4129.230957,4114.358887,4123.589844,793.000000,4.000000,,,,0.000000,4.000000,4.000000,4.000000,4.000000,4.000000,4.000000,4.000000,4.000000,4.000000,4.000000,4.000000,4.000000,4.000000,4.000000,100.000000
1602006499.566026,1.000000,0.000000,4076.923096,4086.666748,4114.871582,4104.615234,4107.179688,4118.974121,4117.436035,4110.256348,4077.948730,4098.974121,4124.102539,4120.512695,4102.563965,4111.794922,785.000000,4.000000,,,,0.000000,4.000000,4.000000,4.000000,4.000000,4.000000,4.000000,4.000000,4.000000,4.000000,4.000000,4.000000,4.000000,4.000000,4.000000,100.000000
1602006499.573907,2.000000,0.000000,4084.102539,4085.641113,4129.743652,4101.538574,4108.205078,4124.102539,4132.820313,4127.692383,4087.692383,4112.307617,4127.179688,4128.205078,4105.641113,4108.717773,854.000000,4.000000,,,,0.000000,4.000000,4.000000,4.000000,4.000000,4.000000,4.000000,4.000000,4.000000,4.000000,4.000000,4.000000,4.000000,4.000000,4.000000,100.000000
1602006499.581788,3.000000,0.000000,4105.641113,4101.538574,4143.077148,4115.384766,4120.000000,4138.974121,4152.307617,4151.794922,4113.333496,4132.307617,4137.436035,4140.000000,4119.487305,4124.102539,866.000000,4.000000,,,,0.000000,4.000000,4.000000,4.000000,4.000000,4.000000,4.000000,4.000000,4.000000,4.000000,4.000000,4.000000,4.000000,4.000000,4.000000,100.000000
1602006499.589670,4.000000,0.000000,4114.358887,4108.717773,4141.538574,4124.102539,4120.512695,4141.538574,4158.974121,4162.051270,4128.717773,4137.948730,4140.000000,4139.487305,4124.102539,4121.538574,814.000000,4.000000,,,,0.000000,4.000000,4.000000,4.000000,4.000000,4.000000,4.000000,4.000000,4.000000,4.000000,4.000000,4.000000,4.000000,4.000000,4.000000,100.000000
1602006499.597551,5.000000,0.000000,4120.000000,4113.333496,4145.128418,4124.615234,4115.897461,4135.897461,4157.436035,4160.000000,4130.769043,4132.820313,4139.487305,4137.436035,4124.102539,4114.871582,822.000000,4.000000,,,,0.000000,4.000000,4.000000,4.000000,4.000000,4.000000,4.000000,4.000000,4.000000,4.000000,4.000000,4.000000,4.000000,4.000000,4.000000,100.000000
1602006499.605433,6.000000,0.000000,4131.794922,4124.102539,4155.897461,4130.769043,4119.487305,4140.000000,4150.769043,4159.487305,4134.871582,4131.282227,4141.025879,4143.589844,4126.153809,4132.820313,768.000000,4.000000,,,,0.000000,4.000000,4.000000,4.000000,4.000000,4.000000,4.000000,4.000000,4.000000,4.000000,4.000000,4.000000,4.000000,4.000000,4.000000,100.000000
1602006499.613414,7.000000,0.000000,4138.974121,4127.692383,4157.436035,4136.410156,4123.589844,4137.948730,4133.333496,4155.384766,4131.794922,4137.948730,4139.487305,4144.615234,4125.641113,4138.461426,670.000000,4.000000,,,,0.000000,4.000000,4.000000,4.000000,4.000000,4.000000,4.000000,4.000000,4.000000,4.000000,4.000000,4.000000,4.000000,4.000000,4.000000,100.000000
1602006499.621296,8.000000,0.000000,4140.000000,4132.307617,4154.871582,4137.436035,4123.589844,4125.641113,4111.794922,4140.000000,4125.128418,4145.641113,4141.025879,4135.897461,4123.077148,4122.563965,784.000000,4.000000,,,,0.000000,4.000000,4.000000,4.000000,4.000000,4.000000,4.000000,4.000000,4.000000,4.000000,4.000000,4.000000,4.000000,4.000000,4.000000,100.000000
1602006499.629177,9.000000,0.000000,4134.358887,4135.384766,4152.307617,4137.948730,4122.051270,4117.948730,4102.563965,4124.102539,4120.512695,4138.461426,4140.000000,4125.641113,4114.871582,4116.410156,836.000000,4.000000,,,,0.000000,4.000000,4.000000,4.000000,4.000000,4.000000,4.000000,4.000000,4.000000,4.000000,4.000000,4.000000,4.000000,4.000000,4.000000,100.000000
1602006499.637059,10.000000,0.000000,4123.077148,4125.641113,4141.025879,4134.871582,4115.384766,4114.871582,4101.538574,4112.820313,4098.461426,4111.282227,4119.487305,4118.974121,4096.410156,4111.282227,869.000000,4.000000,,,,0.000000,4.000000,4.000000,4.000000,4.000000,4.000000,4.000000,4.000000,4.000000,4.000000,4.000000,4.000000,4.000000,4.000000,4.000000,100.000000
1602006499.644941,11.000000,0.000000,4120.000000,4118.461426,4136.922852,4133.846191,4111.282227,4116.410156,4109.230957,4107.692383,4075.897461,4089.743652,4100.512695,4119.487305,4086.153809,4100.512695,835.000000,4.000000,,,,0.000000,4.000000,4.000000,4.000000,4.000000,4.000000,4.000000,4.000000,4.000000,4.000000,4.000000,4.000000,4.000000,4.000000,4.000000,100.000000
1602006499.652822,12.000000,0.000000,4123.077148,4122.051270,4143.077148,4134.871582,4117.436035,4121.538574,4125.641113,4111.794922,4079.487061,4084.615479,4109.230957,4124.615234,4095.897461,4106.153809,757.000000,4.000000,,,,0.000000,4.000000,4.000000,4.000000,4.000000,4.000000,4.000000,4.000000,4.000000,4.000000,4.000000,4.000000,4.000000,4.000000,4.000000,100.000000
1602006499.660704,13.000000,0.000000,4126.666504,4125.128418,4141.025879,4128.717773,4121.538574,4123.077148,4136.922852,4115.384766,4086.666748,4078.461426,4125.641113,4133.333496,4106.666504,4120.512695,737.000000,4.000000,,,,0.000000,4.000000,4.000000,4.000000,4.000000,4.000000,4.000000,4.000000,4.000000,4.000000,4.000000,4.000000,4.000000,4.000000,4.000000,100.000000
1602006499.668586,14.000000,0.000000,4136.922852,4135.384766,4142.563965,4131.282227,4124.102539,4132.307617,4142.051270,4123.077148,4086.153809,4083.589844,4133.846191,4146.666504,4117.436035,4135.384766,869.000000,4.000000,,,,0.000000,4.000000,4.000000,4.000000,4.000000,4.000000,4.000000,4.000000,4.000000,4.000000,4.000000,4.000000,4.000000,4.000000,4.000000,100.000000
