Timestamp,EEG.Counter,EEG.Interpolated,EEG.AF3,EEG.F7,EEG.F3,EEG.FC5,EEG.T7,EEG.P7,EEG.O1,EEG.O2,EEG.P8,EEG.T8,EEG.FC6,EEG.F4,EEG.F8,EEG.AF4,EEG.RawCq,EEG.Battery,MarkerIndex,MarkerType,MarkerValueInt,EEG.MarkerHardware,CQ.AF3,CQ.F7,CQ.F3,CQ.FC5,CQ.T7,CQ.P7,CQ.O1,CQ.O2,CQ.P8,CQ.T8,CQ.FC6,CQ.F4,CQ.F8,CQ.AF4,CQ.Overall
1602006515.288392,61.000000,0.000000,4155.384766,4138.974121,4141.025879,4135.897461,4117.948730,4106.666504,4140.512695,4154.358887,4152.820313,4139.487305,4126.666504,4158.974121,4127.692383,4125.641113,0.000000,4.000000,,,,0.000000,4.000000,4.000000,4.000000,4.000000,4.000000,4.000000,4.000000,4.000000,4.000000,4.000000,4.000000,4.000000,4.000000,4.000000,100.000000
1602006515.296174,62.000000,0.000000,4154.871582,4134.358887,4138.461426,4131.794922,4119.487305,4111.282227,4141.025879,4150.256348,4155.897461,4135.897461,4118.974121,4161.538574,4125.641113,4126.153809,0.000000,4.000000,,,,0.000000,4.000000,4.000000,4.000000,4.000000,4.000000,4.000000,4.000000,4.000000,4.000000,4.000000,4.000000,4.000000,4.000000,4.000000,100.000000
1602006515.304055,63.000000,0.000000,4141.025879,4134.358887,4141.025879,4137.436035,4122.051270,4121.025879,4139.487305,4144.102539,4151.794922,4130.769043,4120.512695,4162.051270,4123.589844,4131.794922,0.000000,4.000000,,,,0.000000,4.000000,4.000000,4.000000,4.000000,4.000000,4.000000,4.000000,4.000000,4.000000,4.000000,4.000000,4.000000,4.000000,4.000000,100.000000
1602006515.311937,64.000000,0.000000,4134.358887,4137.436035,4141.025879,4140.000000,4123.589844,4125.641113,4129.743652,4130.769043,4129.743652,4108.717773,4127.179688,4153.846191,4117.948730,4124.102539,789.000000,4.000000,,,,0.000000,4.000000,4.000000,4.000000,4.000000,4.000000,4.000000,4.000000,4.000000,4.000000,4.000000,4.000000,4.000000,4.000000,4.000000,100.000000
1602006515.319818,65.000000,0.000000,4147.692383,4143.077148,4137.948730,4138.974121,4130.769043,4125.641113,4120.000000,4118.974121,4118.974121,4094.871826,4124.102539,4153.333496,4117.948730,4118.974121,787.000000,4.000000,,,,0.000000,4.000000,4.000000,4.000000,4.000000,4.000000,4.000000,4.000000,4.000000,4.000000,4.000000,4.000000,4.000000,4.000000,4.000000,100.000000
1602006515.327699,66.000000,0.000000,4160.512695,4154.358887,4138.974121,4141.538574,4140.512695,4125.641113,4121.538574,4124.615234,4133.333496,4117.948730,4123.077148,4154.871582,4126.666504,4129.230957,852.000000,4.000000,,,,0.000000,4.000000,4.000000,4.000000,4.000000,4.000000,4.000000,4.000000,4.000000,4.000000,4.000000,4.000000,4.000000,4.000000,4.000000,100.000000
1602006515.335581,67.000000,0.000000,4150.769043,4157.948730,4138.461426,4140.000000,4140.512695,4126.153809,4130.769043,4134.871582,4143.589844,4142.563965,4126.153809,4149.743652,4118.974121,4132.820313,866.000000,4.000000,,,,0.000000,4.000000,4.000000,4.000000,4.000000,4.000000,4.000000,4.000000,4.000000,4.000000,4.000000,4.000000,4.000000,4.000000,4.000000,100.000000
1602006515.343562,68.000000,0.000000,4134.871582,4148.205078,4129.743652,4140.000000,4138.461426,4127.179688,4136.410156,4136.410156,4141.025879,4137.436035,4120.000000,4149.230957,4108.717773,4116.410156,809.000000,4.000000,,,,0.000000,4.000000,4.000000,4.000000,4.000000,4.000000,4.000000,4.000000,4.000000,4.000000,4.000000,4.000000,4.000000,4.000000,4.000000,100.000000
1602006515.351443,69.000000,0.000000,4136.410156,4140.000000,4127.692383,4141.025879,4138.974121,4129.230957,4140.000000,4138.974121,4143.077148,4133.333496,4115.897461,4154.358887,4113.846191,4103.589844,822.000000,4.000000,,,,0.000000,4.000000,4.000000,4.000000,4.000000,4.000000,4.000000,4.000000,4.000000,4.000000,4.000000,4.000000,4.000000,4.000000,4.000000,100.000000
1602006515.359324,70.000000,0.000000,4149.743652,4138.461426,4136.410156,4131.794922,4132.307617,4126.666504,4143.589844,4148.717773,4143.077148,4141.538574,4124.102539,4150.256348,4118.461426,4113.333496,768.000000,4.000000,,,,0.000000,4.000000,4.000000,4.000000,4.000000,4.000000,4.000000,4.000000,4.000000,4.000000,4.000000,4.000000,4.000000,4.000000,4.000000,100.000000
1602006515.367205,71.000000,0.000000,4152.820313,4137.948730,4141.025879,4128.205078,4122.563965,4127.179688,4146.666504,4154.358887,4138.974121,4127.179688,4129.230957,4142.563965,4117.436035,4124.615234,660.000000,4.000000,,,,0.000000,4.000000,4.000000,4.000000,4.000000,4.000000,4.000000,4.000000,4.000000,4.000000,4.000000,4.000000,4.000000,4.000000,4.000000,100.000000
1602006515.375187,72.000000,0.000000,4151.282227,4140.512695,4140.000000,4140.000000,4123.589844,4133.846191,4145.641113,4155.897461,4140.512695,4104.102539,4125.641113,4147.179688,4119.487305,4125.641113,784.000000,4.000000,,,,0.000000,4.000000,4.000000,4.000000,4.000000,4.000000,4.000000,4.000000,4.000000,4.000000,4.000000,4.000000,4.000000,4.000000,4.000000,100.000000
1602006515.383069,73.000000,0.000000,4151.794922,4143.589844,4137.948730,4145.128418,4125.128418,4137.948730,4142.051270,4150.256348,4140.000000,4114.358887,4127.179688,4154.358887,4120.000000,4131.794922,836.000000,4.000000,,,,0.000000,4.000000,4.000000,4.000000,4.000000,4.000000,4.000000,4.000000,4.000000,4.000000,4.000000,4.000000,4.000000,4.000000,4.000000,100.000000
1602006515.390950,74.000000,0.000000,4146.153809,4140.512695,4133.333496,4138.974121,4121.538574,4132.820313,4137.948730,4142.563965,4134.358887,4138.974121,4128.205078,4151.282227,4120.000000,4138.461426,867.000000,4.000000,,,,0.000000,4.000000,4.000000,4.000000,4.000000,4.000000,4.000000,4.000000,4.000000,4.000000,4.000000,4.000000,4.000000,4.000000,4.000000,100.000000
1602006515.398832,75.000000,0.000000,4143.589844,4142.051270,4138.974121,4139.487305,4121.538574,4129.230957,4136.922852,4148.205078,4133.846191,4145.641113,4126.153809,4155.897461,4125.641113,4135.384766,835.000000,4.000000,,,,0.000000,4.000000,4.000000,4.000000,4.000000,4.000000,4.000000,4.000000,4.000000,4.000000,4.000000,4.000000,4.000000,4.000000,4.000000,100.000000
1602006515.406714,76.000000,0.000000,4148.717773,4150.256348,4151.282227,4143.589844,4129.743652,4130.256348,4138.461426,4155.384766,4139.487305,4137.948730,4136.410156,4169.230957,4128.717773,4140.512695,764.000000,4.000000,,,,0.000000,4.000000,4.000000,4.000000,4.000000,4.000000,4.000000,4.000000,4.000000,4.000000,4.000000,4.000000,4.000000,4.000000,4.000000,100.000000
1602006515.414595,77.000000,0.000000,4145.128418,4144.102539,4148.717773,4137.948730,4129.230957,4125.641113,4136.922852,4144.102539,4141.025879,4128.717773,4139.487305,4167.692383,4127.179688,4142.051270,730.000000,4.000000,,,,0.000000,4.000000,4.000000,4.000000,4.000000,4.000000,4.000000,4.000000,4.000000,4.000000,4.000000,4.000000,4.000000,4.000000,4.000000,100.000000
1602006515.422477,78.000000,0.000000,4133.846191,4130.256348,4135.384766,4129.743652,4121.538574,4126.153809,4132.820313,4135.384766,4141.538574,4130.256348,4115.384766,4155.897461,4118.461426,4118.974121,867.000000,4.000000,,,,0.000000,4.000000,4.000000,4.000000,4.000000,4.000000,4.000000,4.000000,4.000000,4.000000,4.000000,4.000000,4.000000,4.000000,4.000000,100.000000
1602006515.430358,79.000000,0.000000,4126.666504,4128.205078,4126.153809,4124.615234,4127.692383,4134.871582,4132.307617,4138.461426,4137.436035,4121.538574,4103.077148,4143.589844,4103.589844,4102.563965,835.000000,4.000000,,,,0.000000,4.000000,4.000000,4.000000,4.000000,4.000000,4.000000,4.000000,4.000000,4.000000,4.000000,4.000000,4.000000,4.000000,4.000000,100.000000
1602006515.438240,80.000000,0.000000,4117.436035,4126.153809,4120.000000,4120.512695,4135.384766,4137.948730,4132.820313,4135.897461,4128.205078,4092.820557,4119.487305,4122.563965,4096.922852,4104.102539,764.000000,4.000000,,,,0.000000,4.000000,4.000000,4.000000,4.000000,4.000000,4.000000,4.000000,4.000000,4.000000,4.000000,4.000000,4.000000,4.000000,4.000000,100.000000
1602006515.446122,81.000000,0.000000,4115.384766,4126.153809,4118.461426,4124.615234,4129.230957,4136.410156,4132.820313,4133.333496,4130.256348,4100.000000,4123.077148,4117.436035,4099.487305,4108.717773,730.000000,4.000000,,,,0.000000,4.000000,4.000000,4.000000,4.000000,4.000000,4.000000,4.000000,4.000000,4.000000,4.000000,4.000000,4.000000,4.000000,4.000000,100.000000
1602006515.453903,82.000000,0.000000,4129.230957,4134.871582,4127.692383,4129.743652,4124.102539,4141.538574,4135.384766,4137.436035,4143.077148,4148.205078,4116.922852,4141.025879,4113.846191,4123.589844,867.000000,4.000000,,,,0.000000,4.000000,4.000000,4.000000,4.000000,4.000000,4.000000,4.000000,4.000000,4.000000,4.000000,4.000000,4.000000,4.000000,4.000000,100.000000
1602006515.461784,83.000000,0.000000,4137.948730,4138.461426,4137.436035,4124.615234,4125.128418,4138.974121,4137.948730,4138.974121,4143.077148,4161.538574,4124.615234,4156.922852,4128.717773,4140.512695,835.000000,4.000000,,,,0.000000,4.000000,4.000000,4.000000,4.000000,4.000000,4.000000,4.000000,4.000000,4.000000,4.000000,4.000000,4.000000,4.000000,4.000000,100.000000
1602006515.469665,84.000000,0.000000,4144.102539,4136.410156,4145.128418,4125.641113,4119.487305,4128.717773,4137.948730,4136.410156,4134.358887,4143.589844,4132.307617,4158.461426,4127.692383,4139.487305,764.000000,4.000000,,,,0.000000,4.000000,4.000000,4.000000,4.000000,4.000000,4.000000,4.000000,4.000000,4.000000,4.000000,4.000000,4.000000,4.000000,4.000000,100.000000
1602006515.477647,85.000000,0.000000,4156.922852,4141.538574,4161.025879,4140.512695,4114.871582,4129.230957,4137.948730,4137.948730,4136.922852,4143.589844,4133.333496,4169.743652,4125.128418,4136.922852,730.000000,4.000000,,,,0.000000,4.000000,4.000000,4.000000,4.000000,4.000000,4.000000,4.000000,4.000000,4.000000,4.000000,4.000000,4.000000,4.000000,4.000000,100.000000
1602006515.485529,86.000000,0.000000,4158.974121,4145.641113,4168.717773,4145.128418,4120.512695,4127.692383,4137.948730,4141.538574,4142.563965,4143.077148,4134.871582,4175.384766,4128.205078,4147.692383,867.000000,4.000000,,,,0.000000,4.000000,4.000000,4.000000,4.000000,4.000000,4.000000,4.000000,4.000000,4.000000,4.000000,4.000000,4.000000,4.000000,4.000000,100.000000
1602006515.493410,87.000000,0.000000,4153.333496,4148.205078,4161.025879,4140.000000,4124.102539,4121.538574,4137.948730,4143.589844,4141.025879,4139.487305,4135.897461,4170.769043,4127.179688,4153.846191,835.000000,4.000000,,,,0.000000,4.000000,4.000000,4.000000,4.000000,4.000000,4.000000,4.000000,4.000000,4.000000,4.000000,4.000000,4.000000,4.000000,4.000000,100.000000
1602006515.501292,88.000000,0.000000,4152.820313,4153.333496,4150.256348,4143.589844,4125.641113,4124.102539,4136.410156,4145.641113,4138.974121,4132.307617,4133.846191,4169.230957,4125.128418,4144.102539,764.000000,4.000000,,,,0.000000,4.000000,4.000000,4.000000,4.000000,4.000000,4.000000,4.000000,4.000000,4.000000,4.000000,4.000000,4.000000,4.000000,4.000000,100.000000
1602006515.509173,89.000000,0.000000,4145.128418,4147.692383,4136.410156,4145.128418,4126.666504,4125.641113,4129.230957,4142.051270,4136.410156,4115.897461,4125.641113,4152.820313,4118.461426,4125.128418,730.000000,4.000000,,,,0.000000,4.000000,4.000000,4.000000,4.000000,4.000000,4.000000,4.000000,4.000000,4.000000,4.000000,4.000000,4.000000,4.000000,4.000000,100.000000
1602006515.517055,90.000000,0.000000,4128.205078,4138.461426,4119.487305,4135.897461,4129.743652,4123.589844,4121.538574,4130.769043,4130.769043,4114.358887,4114.358887,4125.128418,4100.512695,4108.205078,867.000000,4.000000,,,,0.000000,4.000000,4.000000,4.000000,4.000000,4.000000,4.000000,4.000000,4.000000,4.000000,4.000000,4.000000,4.000000,4.000000,4.000000,100.000000
1602006515.524937,91.000000,0.000000,4122.051270,4135.897461,4109.230957,4128.205078,4135.384766,4132.307617,4119.487305,4119.487305,4117.948730,4122.563965,4102.051270,4115.384766,4088.205078,4095.897461,835.000000,4.000000,,,,0.000000,4.000000,4.000000,4.000000,4.000000,4.000000,4.000000,4.000000,4.000000,4.000000,4.000000,4.000000,4.000000,4.000000,4.000000,100.000000
1602006515.532818,92.000000,0.000000,4118.461426,4133.846191,4106.666504,4125.128418,4137.948730,4141.025879,4118.974121,4115.897461,4111.794922,4119.487305,4092.307617,4118.461426,4089.743652,4094.871826,764.000000,4.000000,,,,0.000000,4.000000,4.000000,4.000000,4.000000,4.000000,4.000000,4.000000,4.000000,4.000000,4.000000,4.000000,4.000000,4.000000,4.000000,100.000000
1602006515.540700,93.000000,0.000000,4113.333496,4133.333496,4112.820313,4126.153809,4138.974121,4136.922852,4118.974121,4124.102539,4124.102539,4116.410156,4097.948730,4124.615234,4098.461426,4104.615234,730.000000,4.000000,,,,0.000000,4.000000,4.000000,4.000000,4.000000,4.000000,4.000000,4.000000,4.000000,4.000000,4.000000,4.000000,4.000000,4.000000,4.000000,100.000000
1602006515.548681,94.000000,0.000000,4120.512695,4138.461426,4124.102539,4130.769043,4134.871582,4134.871582,4125.128418,4137.948730,4137.948730,4128.205078,4112.820313,4140.512695,4112.307617,4116.410156,867.000000,4.000000,,,,0.000000,4.000000,4.000000,4.000000,4.000000,4.000000,4.000000,4.000000,4.000000,4.000000,4.000000,4.000000,4.000000,4.000000,4.000000,100.000000
1602006515.556563,95.000000,0.000000,4142.563965,4142.563965,4135.897461,4137.948730,4128.205078,4137.436035,4135.384766,4142.051270,4137.436035,4125.128418,4121.538574,4153.333496,4121.025879,4129.743652,835.000000,4.000000,,,,0.000000,4.000000,4.000000,4.000000,4.000000,4.000000,4.000000,4.000000,4.000000,4.000000,4.000000,4.000000,4.000000,4.000000,4.000000,100.000000
1602006515.564444,96.000000,0.000000,4154.871582,4143.077148,4144.102539,4142.051270,4122.051270,4132.820313,4138.974121,4138.974121,4135.384766,4108.717773,4125.641113,4154.871582,4124.102539,4133.333496,764.000000,4.000000,,,,0.000000,4.000000,4.000000,4.000000,4.000000,4.000000,4.000000,4.000000,4.000000,4.000000,4.000000,4.000000,4.000000,4.000000,4.000000,100.000000
1602006515.572326,97.000000,0.000000,4145.641113,4137.436035,4144.615234,4133.846191,4114.871582,4123.077148,4137.436035,4141.538574,4136.410156,4114.358887,4120.512695,4153.333496,4124.102539,4127.692383,730.000000,4.000000,,,,0.000000,4.000000,4.000000,4.000000,4.000000,4.000000,4.000000,4.000000,4.000000,4.000000,4.000000,4.000000,4.000000,4.000000,4.000000,100.000000
1602006515.580207,98.000000,0.000000,4136.410156,4127.179688,4138.974121,4123.077148,4109.230957,4121.538574,4139.487305,4137.436035,4126.153809,4125.641113,4106.666504,4147.692383,4114.358887,4131.282227,867.000000,4.000000,,,,0.000000,4.000000,4.000000,4.000000,4.000000,4.000000,4.000000,4.000000,4.000000,4.000000,4.000000,4.000000,4.000000,4.000000,4.000000,100.000000
1602006515.588088,99.000000,0.000000,4131.794922,4122.051270,4137.948730,4121.538574,4109.743652,4131.282227,4139.487305,4124.615234,4120.512695,4122.051270,4100.000000,4143.077148,4104.102539,4128.205078,835.000000,4.000000,,,,0.000000,4.000000,4.000000,4.000000,4.000000,4.000000,4.000000,4.000000,4.000000,4.000000,4.000000,4.000000,4.000000,4.000000,4.000000,100.000000
1602006515.596070,100.000000,0.000000,4124.615234,4124.102539,4142.051270,4123.589844,4114.358887,4138.461426,4136.410156,4127.692383,4132.307617,4120.512695,4110.256348,4144.615234,4103.589844,4110.256348,764.000000,4.000000,,,,0.000000,4.000000,4.000000,4.000000,4.000000,4.000000,4.000000,4.000000,4.000000,4.000000,4.000000,4.000000,4.000000,4.000000,4.000000,100.000000
1602006515.603952,101.000000,0.000000,4122.051270,4125.128418,4141.538574,4121.538574,4112.820313,4134.871582,4135.384766,4141.025879,4136.922852,4128.205078,4115.897461,4144.615234,4109.230957,4113.846191,730.000000,4.000000,,,,0.000000,4.000000,4.000000,4.000000,4.000000,4.000000,4.000000,4.000000,4.000000,4.000000,4.000000,4.000000,4.000000,4.000000,4.000000,100.000000
1602006515.611833,102.000000,0.000000,4117.436035,4120.512695,4127.179688,4118.461426,4108.205078,4123.589844,4126.666504,4136.922852,4121.538574,4122.051270,4105.128418,4138.974121,4111.282227,4123.589844,867.000000,4.000000,,,,0.000000,4.000000,4.000000,4.000000,4.000000,4.000000,4.000000,4.000000,4.000000,4.000000,4.000000,4.000000,4.000000,4.000000,4.000000,100.000000
1602006515.619715,103.000000,0.000000,4105.641113,4116.922852,4109.743652,4121.025879,4104.102539,4115.384766,4113.846191,4127.179688,4114.871582,4107.692383,4107.179688,4129.743652,4105.641113,4106.666504,835.000000,4.000000,,,,0.000000,4.000000,4.000000,4.000000,4.000000,4.000000,4.000000,4.000000,4.000000,4.000000,4.000000,4.000000,4.000000,4.000000,4.000000,100.000000
1602006515.627596,104.000000,0.000000,4102.051270,4117.436035,4113.333496,4121.538574,4104.615234,4117.948730,4112.307617,4133.846191,4131.282227,4109.743652,4129.743652,4124.102539,4104.615234,4104.615234,764.000000,4.000000,,,,0.000000,4.000000,4.000000,4.000000,4.000000,4.000000,4.000000,4.000000,4.000000,4.000000,4.000000,4.000000,4.000000,4.000000,4.000000,100.000000
1602006515.635478,105.000000,0.000000,4113.333496,4120.000000,4123.077148,4117.948730,4110.769043,4121.025879,4111.282227,4139.487305,4139.487305,4126.666504,4136.410156,4125.641113,4115.384766,4130.256348,730.000000,4.000000,,,,0.000000,4.000000,4.000000,4.000000,4.000000,4.000000,4.000000,4.000000,4.000000,4.000000,4.000000,4.000000,4.000000,4.000000,4.000000,100.000000
1602006515.643360,106.000000,0.000000,4130.256348,4127.692383,4122.051270,4123.589844,4118.974121,4119.487305,4106.153809,4133.333496,4137.948730,4144.102539,4132.307617,4134.358887,4129.743652,4148.717773,867.000000,4.000000,,,,0.000000,4.000000,4.000000,4.000000,4.000000,4.000000,4.000000,4.000000,4.000000,4.000000,4.000000,4.000000,4.000000,4.000000,4.000000,100.000000
1602006515.651241,107.000000,0.000000,4143.589844,4138.461426,4128.205078,4138.974121,4126.666504,4122.563965,4112.820313,4134.358887,4142.563965,4140.512695,4141.538574,4148.717773,4137.436035,4153.846191,835.000000,4.000000,,,,0.000000,4.000000,4.000000,4.000000,4.000000,4.000000,4.000000,4.000000,4.000000,4.000000,4.000000,4.000000,4.000000,4.000000,4.000000,100.000000
1602006515.659123,108.000000,0.000000,4140.512695,4136.922852,4140.000000,4140.000000,4127.179688,4124.615234,4122.563965,4137.948730,4129.743652,4121.538574,4134.358887,4158.461426,4141.025879,4159.487305,764.000000,4.000000,,,,0.000000,4.000000,4.000000,4.000000,4.000000,4.000000,4.000000,4.000000,4.000000,4.000000,4.000000,4.000000,4.000000,4.000000,4.000000,100.000000
1602006515.667105,109.000000,0.000000,4134.358887,4129.230957,4138.974121,4127.179688,4129.743652,4118.461426,4121.025879,4130.256348,4106.153809,4119.487305,4124.102539,4160.000000,4137.948730,4158.461426,730.000000,4.000000,,,,0.000000,4.000000,4.000000,4.000000,4.000000,4.000000,4.000000,4.000000,4.000000,4.000000,4.000000,4.000000,4.000000,4.000000,4.000000,100.000000
1602006515.674986,110.000000,0.000000,4145.641113,4135.384766,4136.410156,4125.641113,4135.384766,4117.948730,4121.025879,4128.717773,4113.333496,4133.333496,4140.512695,4162.563965,4134.871582,4145.128418,867.000000,4.000000,,,,0.000000,4.000000,4.000000,4.000000,4.000000,4.000000,4.000000,4.000000,4.000000,4.000000,4.000000,4.000000,4.000000,4.000000,4.000000,100.000000
1602006515.682868,111.000000,0.000000,4147.692383,4138.974121,4141.025879,4127.692383,4129.743652,4123.589844,4125.641113,4133.333496,4131.282227,4130.256348,4136.410156,4160.512695,4131.794922,4143.077148,835.000000,4.000000,,,,0.000000,4.000000,4.000000,4.000000,4.000000,4.000000,4.000000,4.000000,4.000000,4.000000,4.000000,4.000000,4.000000,4.000000,4.000000,100.000000
1602006515.690749,112.000000,0.000000,4129.230957,4128.717773,4137.948730,4120.512695,4115.897461,4122.563965,4124.615234,4126.666504,4122.051270,4115.384766,4109.230957,4142.563965,4115.384766,4150.256348,764.000000,4.000000,,,,0.000000,4.000000,4.000000,4.000000,4.000000,4.000000,4.000000,4.000000,4.000000,4.000000,4.000000,4.000000,4.000000,4.000000,4.000000,100.000000
1602006515.698631,113.000000,0.000000,4122.563965,4125.128418,4126.153809,4118.461426,4113.846191,4120.000000,4122.563965,4121.538574,4115.384766,4125.128418,4114.358887,4125.641113,4103.589844,4144.102539,730.000000,4.000000,,,,0.000000,4.000000,4.000000,4.000000,4.000000,4.000000,4.000000,4.000000,4.000000,4.000000,4.000000,4.000000,4.000000,4.000000,4.000000,100.000000
1602006515.706513,114.000000,0.000000,4129.230957,4130.256348,4119.487305,4124.615234,4121.025879,4122.051270,4124.615234,4130.256348,4125.128418,4142.051270,4131.794922,4118.461426,4112.307617,4132.307617,867.000000,4.000000,,,,0.000000,4.000000,4.000000,4.000000,4.000000,4.000000,4.000000,4.000000,4.000000,4.000000,4.000000,4.000000,4.000000,4.000000,4.000000,100.000000
1602006515.714394,115.000000,0.000000,4131.794922,4132.820313,4123.077148,4128.717773,4120.000000,4121.538574,4125.128418,4139.487305,4124.615234,4137.436035,4123.077148,4118.974121,4120.000000,4129.743652,835.000000,4.000000,,,,0.000000,4.000000,4.000000,4.000000,4.000000,4.000000,4.000000,4.000000,4.000000,4.000000,4.000000,4.000000,4.000000,4.000000,4.000000,100.000000
1602006515.722276,116.000000,0.000000,4134.358887,4136.410156,4135.897461,4133.846191,4117.436035,4121.538574,4126.153809,4141.025879,4127.179688,4136.410156,4117.948730,4133.333496,4121.538574,4134.871582,764.000000,4.000000,,,,0.000000,4.000000,4.000000,4.000000,4.000000,4.000000,4.000000,4.000000,4.000000,4.000000,4.000000,4.000000,4.000000,4.000000,4.000000,100.000000
1602006515.730158,117.000000,0.000000,4140.512695,4140.000000,4149.743652,4140.000000,4123.077148,4125.641113,4123.077148,4138.461426,4137.948730,4145.641113,4127.692383,4150.769043,4132.307617,4147.179688,730.000000,4.000000,,,,0.000000,4.000000,4.000000,4.000000,4.000000,4.000000,4.000000,4.000000,4.000000,4.000000,4.000000,4.000000,4.000000,4.000000,4.000000,100.000000
1602006515.738139,118.000000,0.000000,4145.641113,4133.333496,4153.846191,4134.871582,4126.666504,4125.128418,4118.974121,4138.461426,4137.948730,4143.077148,4130.256348,4157.948730,4136.922852,4163.077148,867.000000,4.000000,,,,0.000000,4.000000,4.000000,4.000000,4.000000,4.000000,4.000000,4.000000,4.000000,4.000000,4.000000,4.000000,4.000000,4.000000,4.000000,100.000000
1602006515.746020,119.000000,0.000000,4147.692383,4125.128418,4147.179688,4128.205078,4124.615234,4126.666504,4128.717773,4138.974121,4125.128418,4130.769043,4131.794922,4152.307617,4127.179688,4159.487305,835.000000,4.000000,,,,0.000000,4.000000,4.000000,4.000000,4.000000,4.000000,4.000000,4.000000,4.000000,4.000000,4.000000,4.000000,4.000000,4.000000,4.000000,100.000000
1602006515.753902,120.000000,0.000000,4142.563965,4125.128418,4140.000000,4134.358887,4126.153809,4132.820313,4137.948730,4131.282227,4112.307617,4111.794922,4123.589844,4138.461426,4118.461426,4141.538574,764.000000,4.000000,,,,0.000000,4.000000,4.000000,4.000000,4.000000,4.000000,4.000000,4.000000,4.000000,4.000000,4.000000,4.000000,4.000000,4.000000,4.000000,100.000000
1602006515.761783,121.000000,0.000000,4137.436035,4130.769043,4134.358887,4137.436035,4130.769043,4135.384766,4133.846191,4124.615234,4106.153809,4107.179688,4105.641113,4131.794922,4111.794922,4133.333496,730.000000,4.000000,,,,0.000000,4.000000,4.000000,4.000000,4.000000,4.000000,4.000000,4.000000,4.000000,4.000000,4.000000,4.000000,4.000000,4.000000,4.000000,100.000000
1602006515.769665,122.000000,0.000000,4132.820313,4133.846191,4126.666504,4125.641113,4127.179688,4128.717773,4128.205078,4125.641113,4103.077148,4127.179688,4111.794922,4133.846191,4110.769043,4140.000000,867.000000,4.000000,,,,0.000000,4.000000,4.000000,4.000000,4.000000,4.000000,4.000000,4.000000,4.000000,4.000000,4.000000,4.000000,4.000000,4.000000,4.000000,100.000000
1602006515.777546,123.000000,0.000000,4125.641113,4133.846191,4125.128418,4121.538574,4122.051270,4123.589844,4132.820313,4128.717773,4110.256348,4139.487305,4125.641113,4135.384766,4121.025879,4141.538574,835.000000,4.000000,,,,0.000000,4.000000,4.000000,4.000000,4.000000,4.000000,4.000000,4.000000,4.000000,4.000000,4.000000,4.000000,4.000000,4.000000,4.000000,100.000000
1602006515.785427,124.000000,0.000000,4129.743652,4136.922852,4134.358887,4131.794922,4127.692383,4132.307617,4138.461426,4137.948730,4126.153809,4139.487305,4111.282227,4142.051270,4127.692383,4129.230957,764.000000,4.000000,,,,0.000000,4.000000,4.000000,4.000000,4.000000,4.000000,4.000000,4.000000,4.000000,4.000000,4.000000,4.000000,4.000000,4.000000,4.000000,100.000000
1602006515.793209,125.000000,0.000000,4135.897461,4140.000000,4136.922852,4131.794922,4135.897461,4147.179688,4137.948730,4151.282227,4138.974121,4153.333496,4106.153809,4144.615234,4122.051270,4127.692383,730.000000,4.000000,,,,0.000000,4.000000,4.000000,4.000000,4.000000,4.000000,4.000000,4.000000,4.000000,4.000000,4.000000,4.000000,4.000000,4.000000,4.000000,100.000000
1602006515.801090,126.000000,0.000000,4125.641113,4137.948730,4123.077148,4124.102539,4136.410156,4150.769043,4139.487305,4155.897461,4148.717773,4158.461426,4134.358887,4131.282227,4122.563965,4140.512695,867.000000,4.000000,,,,0.000000,4.000000,4.000000,4.000000,4.000000,4.000000,4.000000,4.000000,4.000000,4.000000,4.000000,4.000000,4.000000,4.000000,4.000000,100.000000
1602006515.808972,127.000000,0.000000,4116.922852,4132.820313,4112.820313,4122.563965,4134.871582,4140.512695,4134.871582,4148.717773,4151.282227,4140.000000,4143.077148,4120.000000,4134.358887,4140.512695,835.000000,4.000000,,,,0.000000,4.000000,4.000000,4.000000,4.000000,4.000000,4.000000,4.000000,4.000000,4.000000,4.000000,4.000000,4.000000,4.000000,4.000000,100.000000
1602006515.816853,128.000000,0.000000,4121.538574,4127.692383,4117.436035,4123.589844,4130.256348,4136.922852,4117.948730,4136.922852,4142.563965,4126.153809,4125.641113,4121.025879,4138.461426,4128.205078,764.000000,4.000000,,,,0.000000,4.000000,4.000000,4.000000,4.000000,4.000000,4.000000,4.000000,4.000000,4.000000,4.000000,4.000000,4.000000,4.000000,4.000000,100.000000
1602006515.824734,0.000000,0.000000,4122.563965,4122.563965,4122.051270,4123.077148,4122.051270,4137.948730,4107.692383,4126.153809,4133.333496,4129.743652,4120.512695,4120.000000,4127.692383,4121.025879,789.000000,4.000000,,,,0.000000,4.000000,4.000000,4.000000,4.000000,4.000000,4.000000,4.000000,4.000000,4.000000,4.000000,4.000000,4.000000,4.000000,4.000000,100.000000
1602006515.832616,1.000000,0.000000,4123.077148,4122.563965,4127.692383,4125.128418,4126.666504,4132.307617,4118.974121,4126.666504,4136.410156,4141.538574,4125.128418,4123.077148,4120.000000,4127.692383,787.000000,4.000000,,,,0.000000,4.000000,4.000000,4.000000,4.000000,4.000000,4.000000,4.000000,4.000000,4.000000,4.000000,4.000000,4.000000,4.000000,4.000000,100.000000
1602006515.840397,2.000000,0.000000,4127.692383,4127.692383,4139.487305,4127.692383,4134.358887,4125.128418,4125.641113,4135.384766,4140.000000,4155.897461,4125.128418,4137.436035,4124.615234,4138.461426,852.000000,4.000000,,,,0.000000,4.000000,4.000000,4.000000,4.000000,4.000000,4.000000,4.000000,4.000000,4.000000,4.000000,4.000000,4.000000,4.000000,4.000000,100.000000
1602006515.848279,3.000000,0.000000,4125.128418,4132.820313,4138.974121,4129.230957,4130.256348,4122.051270,4120.000000,4138.461426,4139.487305,4158.461426,4117.948730,4141.538574,4124.102539,4134.358887,866.000000,4.000000,,,,0.000000,4.000000,4.000000,4.000000,4.000000,4.000000,4.000000,4.000000,4.000000,4.000000,4.000000,4.000000,4.000000,4.000000,4.000000,100.000000
1602006515.856160,4.000000,0.000000,4121.025879,4136.410156,4124.615234,4136.410156,4129.743652,4124.615234,4127.692383,4136.922852,4138.974121,4138.461426,4117.436035,4129.230957,4120.512695,4120.512695,809.000000,4.000000,,,,0.000000,4.000000,4.000000,4.000000,4.000000,4.000000,4.000000,4.000000,4.000000,4.000000,4.000000,4.000000,4.000000,4.000000,4.000000,100.000000
1602006515.864042,5.000000,0.000000,4120.512695,4139.487305,4118.974121,4138.974121,4138.974121,4129.743652,4137.948730,4136.922852,4129.230957,4122.563965,4130.769043,4121.538574,4115.897461,4119.487305,822.000000,4.000000,,,,0.000000,4.000000,4.000000,4.000000,4.000000,4.000000,4.000000,4.000000,4.000000,4.000000,4.000000,4.000000,4.000000,4.000000,4.000000,100.000000
1602006515.871923,6.000000,0.000000,4119.487305,4138.461426,4123.077148,4131.794922,4135.897461,4127.179688,4135.384766,4137.948730,4113.846191,4128.205078,4133.846191,4124.102539,4106.666504,4127.179688,768.000000,4.000000,,,,0.000000,4.000000,4.000000,4.000000,4.000000,4.000000,4.000000,4.000000,4.000000,4.000000,4.000000,4.000000,4.000000,4.000000,4.000000,100.000000
1602006515.879804,7.000000,0.000000,4120.512695,4135.384766,4121.025879,4127.692383,4127.179688,4124.615234,4133.846191,4136.922852,4112.307617,4132.820313,4115.384766,4124.615234,4104.615234,4123.077148,661.000000,4.000000,,,,0.000000,4.000000,4.000000,4.000000,4.000000,4.000000,4.000000,4.000000,4.000000,4.000000,4.000000,4.000000,4.000000,4.000000,4.000000,100.000000
1602006515.887686,8.000000,0.000000,4127.179688,4137.948730,4127.179688,4136.922852,4131.794922,4133.846191,4140.000000,4139.487305,4127.179688,4144.102539,4108.205078,4122.563965,4122.563965,4125.641113,784.000000,4.000000,,,,0.000000,4.000000,4.000000,4.000000,4.000000,4.000000,4.000000,4.000000,4.000000,4.000000,4.000000,4.000000,4.000000,4.000000,4.000000,100.000000
1602006515.895567,9.000000,0.000000,4129.743652,4138.974121,4135.384766,4139.487305,4139.487305,4142.051270,4140.512695,4141.025879,4138.461426,4171.282227,4128.205078,4122.563965,4138.461426,4134.358887,836.000000,4.000000,,,,0.000000,4.000000,4.000000,4.000000,4.000000,4.000000,4.000000,4.000000,4.000000,4.000000,4.000000,4.000000,4.000000,4.000000,4.000000,100.000000
1602006515.903348,10.000000,0.000000,4125.641113,4135.897461,4131.794922,4129.743652,4138.461426,4136.410156,4134.871582,4143.077148,4136.410156,4175.384766,4144.102539,4126.153809,4134.358887,4139.487305,868.000000,4.000000,,,,0.000000,4.000000,4.000000,4.000000,4.000000,4.000000,4.000000,4.000000,4.000000,4.000000,4.000000,4.000000,4.000000,4.000000,4.000000,100.000000
1602006515.911230,11.000000,0.000000,4125.641113,4136.410156,4126.153809,4129.743652,4137.948730,4131.794922,4135.384766,4151.282227,4136.410156,4146.666504,4144.102539,4131.794922,4132.307617,4144.102539,835.000000,4.000000,,,,0.000000,4.000000,4.000000,4.000000,4.000000,4.000000,4.000000,4.000000,4.000000,4.000000,4.000000,4.000000,4.000000,4.000000,4.000000,100.000000
1602006515.919111,12.000000,0.000000,4125.128418,4137.436035,4126.153809,4136.410156,4140.000000,4135.897461,4135.897461,4152.820313,4144.615234,4135.897461,4143.077148,4130.256348,4133.846191,4147.692383,764.000000,4.000000,,,,0.000000,4.000000,4.000000,4.000000,4.000000,4.000000,4.000000,4.000000,4.000000,4.000000,4.000000,4.000000,4.000000,4.000000,4.000000,100.000000
1602006515.926992,13.000000,0.000000,4125.128418,4135.384766,4122.051270,4131.794922,4138.974121,4134.358887,4130.769043,4142.051270,4146.153809,4150.769043,4133.846191,4123.077148,4130.256348,4140.000000,730.000000,4.000000,,,,0.000000,4.000000,4.000000,4.000000,4.000000,4.000000,4.000000,4.000000,4.000000,4.000000,4.000000,4.000000,4.000000,4.000000,4.000000,100.000000
1602006515.934873,14.000000,0.000000,4134.871582,4136.922852,4117.948730,4130.256348,4136.410156,4126.666504,4123.077148,4134.358887,4138.461426,4153.846191,4111.282227,4122.051270,4127.179688,4123.589844,868.000000,4.000000,,,,0.000000,4.000000,4.000000,4.000000,4.000000,4.000000,4.000000,4.000000,4.000000,4.000000,4.000000,4.000000,4.000000,4.000000,4.000000,100.000000
1602006515.942655,15.000000,0.000000,4138.974121,4143.077148,4121.538574,4138.461426,4136.922852,4120.512695,4117.948730,4128.717773,4131.794922,4139.487305,4110.769043,4124.102539,4121.025879,4121.025879,835.000000,4.000000,,,,0.000000,4.000000,4.000000,4.000000,4.000000,4.000000,4.000000,4.000000,4.000000,4.000000,4.000000,4.000000,4.000000,4.000000,4.000000,100.000000
1602006515.950536,16.000000,0.000000,4129.230957,4150.256348,4123.589844,4141.538574,4137.436035,4118.461426,4115.384766,4124.615234,4137.436035,4133.333496,4129.743652,4126.153809,4111.794922,4134.871582,0.000000,4.000000,,,,0.000000,4.000000,4.000000,4.000000,4.000000,4.000000,4.000000,4.000000,4.000000,4.000000,4.000000,4.000000,4.000000,4.000000,4.000000,100.000000
1602006515.958417,17.000000,0.000000,4128.717773,4150.256348,4122.051270,4139.487305,4137.948730,4121.025879,4119.487305,4133.333496,4148.717773,4143.077148,4128.205078,4134.871582,4117.948730,4142.051270,0.000000,4.000000,,,,0.000000,4.000000,4.000000,4.000000,4.000000,4.000000,4.000000,4.000000,4.000000,4.000000,4.000000,4.000000,4.000000,4.000000,4.000000,100.000000
1602006515.966299,18.000000,0.000000,4140.000000,4143.077148,4121.538574,4141.538574,4139.487305,4123.589844,4130.769043,4142.563965,4148.717773,4144.615234,4118.974121,4143.077148,4130.769043,4137.948730,0.000000,4.000000,,,,0.000000,4.000000,4.000000,4.000000,4.000000,4.000000,4.000000,4.000000,4.000000,4.000000,4.000000,4.000000,4.000000,4.000000,4.000000,100.000000
1602006515.974180,19.000000,0.000000,4143.589844,4140.000000,4122.051270,4137.948730,4139.487305,4123.077148,4133.846191,4138.461426,4140.000000,4136.410156,4131.794922,4144.102539,4128.205078,4142.563965,0.000000,4.000000,,,,0.000000,4.000000,4.000000,4.000000,4.000000,4.000000,4.000000,4.000000,4.000000,4.000000,4.000000,4.000000,4.000000,4.000000,4.000000,100.000000
1602006515.982062,20.000000,0.000000,4142.051270,4140.512695,4122.051270,4134.871582,4138.461426,4127.692383,4127.179688,4135.384766,4136.922852,4137.948730,4132.820313,4145.128418,4125.641113,4144.102539,0.000000,4.000000,,,,0.000000,4.000000,4.000000,4.000000,4.000000,4.000000,4.000000,4.000000,4.000000,4.000000,4.000000,4.000000,4.000000,4.000000,4.000000,100.000000
1602006515.989943,21.000000,0.000000,4139.487305,4134.871582,4121.025879,4140.000000,4135.897461,4137.948730,4126.666504,4135.384766,4141.025879,4140.000000,4112.820313,4144.102539,4126.153809,4125.641113,0.000000,4.000000,,,,0.000000,4.000000,4.000000,4.000000,4.000000,4.000000,4.000000,4.000000,4.000000,4.000000,4.000000,4.000000,4.000000,4.000000,4.000000,100.000000
1602006515.997824,22.000000,0.000000,4131.794922,4127.692383,4122.563965,4139.487305,4136.922852,4139.487305,4129.230957,4129.230957,4136.922852,4142.563965,4123.589844,4141.025879,4118.974121,4117.948730,0.000000,4.000000,,,,0.000000,4.000000,4.000000,4.000000,4.000000,4.000000,4.000000,4.000000,4.000000,4.000000,4.000000,4.000000,4.000000,4.000000,4.000000,100.000000
1602006516.005606,23.000000,0.000000,4125.128418,4122.563965,4124.102539,4127.692383,4135.897461,4128.717773,4125.128418,4124.615234,4125.128418,4146.153809,4143.077148,4134.871582,4111.794922,4126.666504,0.000000,4.000000,,,,0.000000,4.000000,4.000000,4.000000,4.000000,4.000000,4.000000,4.000000,4.000000,4.000000,4.000000,4.000000,4.000000,4.000000,4.000000,100.000000
1602006516.013487,24.000000,0.000000,4122.563965,4119.487305,4125.128418,4122.051270,4127.179688,4118.461426,4120.000000,4121.025879,4119.487305,4123.077148,4124.615234,4126.153809,4106.153809,4121.538574,0.000000,4.000000,,,,0.000000,4.000000,4.000000,4.000000,4.000000,4.000000,4.000000,4.000000,4.000000,4.000000,4.000000,4.000000,4.000000,4.000000,4.000000,100.000000
1602006516.021369,25.000000,0.000000,4122.051270,4120.000000,4130.256348,4126.666504,4125.641113,4118.974121,4118.974121,4114.871582,4120.512695,4102.051270,4101.025879,4126.153809,4103.589844,4103.077148,0.000000,4.000000,,,,0.000000,4.000000,4.000000,4.000000,4.000000,4.000000,4.000000,4.000000,4.000000,4.000000,4.000000,4.000000,4.000000,4.000000,4.000000,100.000000
1602006516.029250,26.000000,0.000000,4119.487305,4122.051270,4136.922852,4130.769043,4135.897461,4122.051270,4122.051270,4115.384766,4128.717773,4123.589844,4105.641113,4139.487305,4105.128418,4101.025879,0.000000,4.000000,,,,0.000000,4.000000,4.000000,4.000000,4.000000,4.000000,4.000000,4.000000,4.000000,4.000000,4.000000,4.000000,4.000000,4.000000,4.000000,100.000000
1602006516.037132,27.000000,0.000000,4117.436035,4123.589844,4132.820313,4132.307617,4138.974121,4125.641113,4129.743652,4121.538574,4138.461426,4145.128418,4117.436035,4152.820313,4108.717773,4116.922852,0.000000,4.000000,,,,0.000000,4.000000,4.000000,4.000000,4.000000,4.000000,4.000000,4.000000,4.000000,4.000000,4.000000,4.000000,4.000000,4.000000,4.000000,100.000000
1602006516.045013,28.000000,0.000000,4117.436035,4121.025879,4117.948730,4128.717773,4129.230957,4129.230957,4130.769043,4122.563965,4135.384766,4137.436035,4121.538574,4150.769043,4106.666504,4124.615234,0.000000,4.000000,,,,0.000000,4.000000,4.000000,4.000000,4.000000,4.000000,4.000000,4.000000,4.000000,4.000000,4.000000,4.000000,4.000000,4.000000,4.000000,100.000000
1602006516.052894,29.000000,0.000000,4113.333496,4114.358887,4105.128418,4122.563965,4122.563965,4125.641113,4123.589844,4120.000000,4122.563965,4133.333496,4119.487305,4139.487305,4104.615234,4119.487305,0.000000,4.000000,,,,0.000000,4.000000,4.000000,4.000000,4.000000,4.000000,4.000000,4.000000,4.000000,4.000000,4.000000,4.000000,4.000000,4.000000,4.000000,100.000000
1602006516.060675,30.000000,0.000000,4106.153809,4109.230957,4102.563965,4120.000000,4121.025879,4119.487305,4120.000000,4118.974121,4120.000000,4132.307617,4107.179688,4133.846191,4105.128418,4114.871582,0.000000,4.000000,,,,0.000000,4.000000,4.000000,4.000000,4.000000,4.000000,4.000000,4.000000,4.000000,4.000000,4.000000,4.000000,4.000000,4.000000,4.000000,100.000000
1602006516.068657,31.000000,0.000000,4102.563965,4108.717773,4106.153809,4123.589844,4120.000000,4125.641113,4124.102539,4120.000000,4128.205078,4120.512695,4100.512695,4132.820313,4106.153809,4103.077148,0.000000,4.000000,,,,0.000000,4.000000,4.000000,4.000000,4.000000,4.000000,4.000000,4.000000,4.000000,4.000000,4.000000,4.000000,4.000000,4.000000,4.000000,100.000000
1602006516.076539,32.000000,0.000000,4105.641113,4116.410156,4108.717773,4127.692383,4127.692383,4138.974121,4133.846191,4122.563965,4135.384766,4116.922852,4103.589844,4127.179688,4105.128418,4093.333252,0.000000,4.000000,,,,0.000000,4.000000,4.000000,4.000000,4.000000,4.000000,4.000000,4.000000,4.000000,4.000000,4.000000,4.000000,4.000000,4.000000,4.000000,100.000000
1602006516.084420,33.000000,0.000000,4113.846191,4122.563965,4108.717773,4125.641113,4136.922852,4141.025879,4137.436035,4123.077148,4136.922852,4118.461426,4107.692383,4126.666504,4103.077148,4107.692383,0.000000,4.000000,,,,0.000000,4.000000,4.000000,4.000000,4.000000,4.000000,4.000000,4.000000,4.000000,4.000000,4.000000,4.000000,4.000000,4.000000,4.000000,100.000000
1602006516.092302,34.000000,0.000000,4121.538574,4123.077148,4114.358887,4124.615234,4138.974121,4138.461426,4132.307617,4122.051270,4134.871582,4122.563965,4120.000000,4140.000000,4111.794922,4126.666504,0.000000,4.000000,,,,0.000000,4.000000,4.000000,4.000000,4.000000,4.000000,4.000000,4.000000,4.000000,4.000000,4.000000,4.000000,4.000000,4.000000,4.000000,100.000000
1602006516.100184,35.000000,0.000000,4130.256348,4129.230957,4130.256348,4134.871582,4138.974121,4141.538574,4132.307617,4124.615234,4141.538574,4140.000000,4129.743652,4153.846191,4128.205078,4125.128418,0.000000,4.000000,,,,0.000000,4.000000,4.000000,4.000000,4.000000,4.000000,4.000000,4.000000,4.000000,4.000000,4.000000,4.000000,4.000000,4.000000,4.000000,100.000000
1602006516.108065,36.000000,0.000000,4137.948730,4137.436035,4140.000000,4142.051270,4142.051270,4140.512695,4133.846191,4125.641113,4142.563965,4142.051270,4123.589844,4156.922852,4127.692383,4126.153809,0.000000,4.000000,,,,0.000000,4.000000,4.000000,4.000000,4.000000,4.000000,4.000000,4.000000,4.000000,4.000000,4.000000,4.000000,4.000000,4.000000,4.000000,100.000000
1602006516.115947,37.000000,0.000000,4137.948730,4137.948730,4137.948730,4136.410156,4141.538574,4137.948730,4127.692383,4120.512695,4128.717773,4133.333496,4124.102539,4153.846191,4121.538574,4140.000000,0.000000,4.000000,,,,0.000000,4.000000,4.000000,4.000000,4.000000,4.000000,4.000000,4.000000,4.000000,4.000000,4.000000,4.000000,4.000000,4.000000,4.000000,100.000000
1602006516.123828,38.000000,0.000000,4136.922852,4136.410156,4139.487305,4133.846191,4133.333496,4133.846191,4124.615234,4113.846191,4123.589844,4143.077148,4137.948730,4156.922852,4132.820313,4147.179688,0.000000,4.000000,,,,0.000000,4.000000,4.000000,4.000000,4.000000,4.000000,4.000000,4.000000,4.000000,4.000000,4.000000,4.000000,4.000000,4.000000,4.000000,100.000000
1602006516.131710,39.000000,0.000000,4140.512695,4134.871582,4141.538574,4134.358887,4129.743652,4124.615234,4124.615234,4107.179688,4127.179688,4145.641113,4139.487305,4155.897461,4135.384766,4137.436035,0.000000,4.000000,,,,0.000000,4.000000,4.000000,4.000000,4.000000,4.000000,4.000000,4.000000,4.000000,4.000000,4.000000,4.000000,4.000000,4.000000,4.000000,100.000000
1602006516.139492,40.000000,0.000000,4136.922852,4130.256348,4131.794922,4136.410156,4132.307617,4125.641113,4125.641113,4106.153809,4121.025879,4126.666504,4130.769043,4142.563965,4123.077148,4123.589844,0.000000,4.000000,,,,0.000000,4.000000,4.000000,4.000000,4.000000,4.000000,4.000000,4.000000,4.000000,4.000000,4.000000,4.000000,4.000000,4.000000,4.000000,100.000000
1602006516.147373,41.000000,0.000000,4125.128418,4125.641113,4122.563965,4135.384766,4130.256348,4132.307617,4127.692383,4113.846191,4117.948730,4117.436035,4128.205078,4140.000000,4120.000000,4130.256348,0.000000,4.000000,,,,0.000000,4.000000,4.000000,4.000000,4.000000,4.000000,4.000000,4.000000,4.000000,4.000000,4.000000,4.000000,4.000000,4.000000,4.000000,100.000000
1602006516.155255,42.000000,0.000000,4124.102539,4123.077148,4123.589844,4127.692383,4125.128418,4124.615234,4125.641113,4120.000000,4124.102539,4119.487305,4116.922852,4150.769043,4114.871582,4135.384766,0.000000,4.000000,,,,0.000000,4.000000,4.000000,4.000000,4.000000,4.000000,4.000000,4.000000,4.000000,4.000000,4.000000,4.000000,4.000000,4.000000,4.000000,100.000000
1602006516.163137,43.000000,0.000000,4132.820313,4128.205078,4129.743652,4129.743652,4131.282227,4123.077148,4122.051270,4120.000000,4124.615234,4114.358887,4104.615234,4151.282227,4111.794922,4118.461426,0.000000,4.000000,,,,0.000000,4.000000,4.000000,4.000000,4.000000,4.000000,4.000000,4.000000,4.000000,4.000000,4.000000,4.000000,4.000000,4.000000,4.000000,100.000000
1602006516.171018,44.000000,0.000000,4139.487305,4138.461426,4136.922852,4139.487305,4142.051270,4138.974121,4127.692383,4122.563965,4130.256348,4124.615234,4125.128418,4151.282227,4132.820313,4124.615234,0.000000,4.000000,,,,0.000000,4.000000,4.000000,4.000000,4.000000,4.000000,4.000000,4.000000,4.000000,4.000000,4.000000,4.000000,4.000000,4.000000,4.000000,100.000000
1602006516.178900,45.000000,0.000000,4138.974121,4132.820313,4140.512695,4136.410156,4141.025879,4143.077148,4128.205078,4125.641113,4141.538574,4144.615234,4144.102539,4158.461426,4145.128418,4155.384766,0.000000,4.000000,,,,0.000000,4.000000,4.000000,4.000000,4.000000,4.000000,4.000000,4.000000,4.000000,4.000000,4.000000,4.000000,4.000000,4.000000,4.000000,100.000000
1602006516.186782,46.000000,0.000000,4135.897461,4122.563965,4138.461426,4130.769043,4137.948730,4135.384766,4127.179688,4124.615234,4135.897461,4144.102539,4132.307617,4163.077148,4132.820313,4156.922852,0.000000,4.000000,,,,0.000000,4.000000,4.000000,4.000000,4.000000,4.000000,4.000000,4.000000,4.000000,4.000000,4.000000,4.000000,4.000000,4.000000,4.000000,100.000000
1602006516.194663,47.000000,0.000000,4136.922852,4126.153809,4137.948730,4135.384766,4140.512695,4138.461426,4133.846191,4125.128418,4123.589844,4134.871582,4127.179688,4167.179688,4131.794922,4150.256348,0.000000,4.000000,,,,0.000000,4.000000,4.000000,4.000000,4.000000,4.000000,4.000000,4.000000,4.000000,4.000000,4.000000,4.000000,4.000000,4.000000,4.000000,100.000000
1602006516.202545,48.000000,0.000000,4138.974121,4127.692383,4138.461426,4135.897461,4137.948730,4140.000000,4130.256348,4126.666504,4128.205078,4134.358887,4139.487305,4173.333496,4141.025879,4154.871582,0.000000,4.000000,,,,0.000000,4.000000,4.000000,4.000000,4.000000,4.000000,4.000000,4.000000,4.000000,4.000000,4.000000,4.000000,4.000000,4.000000,4.000000,100.000000
1602006516.210326,49.000000,0.000000,4142.051270,4126.666504,4138.974121,4133.333496,4134.871582,4130.256348,4119.487305,4122.563965,4137.436035,4141.538574,4139.487305,4173.846191,4143.589844,4141.025879,0.000000,4.000000,,,,0.000000,4.000000,4.000000,4.000000,4.000000,4.000000,4.000000,4.000000,4.000000,4.000000,4.000000,4.000000,4.000000,4.000000,4.000000,100.000000
1602006516.218207,50.000000,0.000000,4144.102539,4131.282227,4140.512695,4137.948730,4132.820313,4121.025879,4118.461426,4117.436035,4134.871582,4140.512695,4134.358887,4167.692383,4142.563965,4133.846191,0.000000,4.000000,,,,0.000000,4.000000,4.000000,4.000000,4.000000,4.000000,4.000000,4.000000,4.000000,4.000000,4.000000,4.000000,4.000000,4.000000,4.000000,100.000000
1602006516.226188,51.000000,0.000000,4135.384766,4129.743652,4140.000000,4139.487305,4129.230957,4124.615234,4122.563965,4118.461426,4132.820313,4130.769043,4140.512695,4160.000000,4136.410156,4153.333496,0.000000,4.000000,,,,0.000000,4.000000,4.000000,4.000000,4.000000,4.000000,4.000000,4.000000,4.000000,4.000000,4.000000,4.000000,4.000000,4.000000,4.000000,100.000000
1602006516.234070,52.000000,0.000000,4122.051270,4122.051270,4132.307617,4129.230957,4126.153809,4127.179688,4121.025879,4123.077148,4141.025879,4132.307617,4137.948730,4153.333496,4126.666504,4148.717773,0.000000,4.000000,,,,0.000000,4.000000,4.000000,4.000000,4.000000,4.000000,4.000000,4.000000,4.000000,4.000000,4.000000,4.000000,4.000000,4.000000,4.000000,100.000000
1602006516.241951,53.000000,0.000000,4117.436035,4119.487305,4120.000000,4125.641113,4124.102539,4120.512695,4119.487305,4124.102539,4142.563965,4140.000000,4122.051270,4150.769043,4118.461426,4118.461426,0.000000,4.000000,,,,0.000000,4.000000,4.000000,4.000000,4.000000,4.000000,4.000000,4.000000,4.000000,4.000000,4.000000,4.000000,4.000000,4.000000,4.000000,100.000000
1602006516.249832,54.000000,0.000000,4124.615234,4125.641113,4122.051270,4134.358887,4129.230957,4118.974121,4121.025879,4125.128418,4135.897461,4141.025879,4117.436035,4150.256348,4118.974121,4123.589844,0.000000,4.000000,,,,0.000000,4.000000,4.000000,4.000000,4.000000,4.000000,4.000000,4.000000,4.000000,4.000000,4.000000,4.000000,4.000000,4.000000,4.000000,100.000000
1602006516.257714,55.000000,0.000000,4126.153809,4126.153809,4135.897461,4130.769043,4132.820313,4123.589844,4124.102539,4128.717773,4137.948730,4140.512695,4130.769043,4152.820313,4125.641113,4141.538574,0.000000,4.000000,,,,0.000000,4.000000,4.000000,4.000000,4.000000,4.000000,4.000000,4.000000,4.000000,4.000000,4.000000,4.000000,4.000000,4.000000,4.000000,100.000000
1602006516.265595,56.000000,0.000000,4120.512695,4122.563965,4140.000000,4122.051270,4129.230957,4123.077148,4124.615234,4130.256348,4141.538574,4142.051270,4135.897461,4154.871582,4127.692383,4123.077148,0.000000,4.000000,,,,0.000000,4.000000,4.000000,4.000000,4.000000,4.000000,4.000000,4.000000,4.000000,4.000000,4.000000,4.000000,4.000000,4.000000,4.000000,100.000000
1602006516.273477,57.000000,0.000000,4127.179688,4130.256348,4133.333496,4131.282227,4129.743652,4124.102539,4121.025879,4125.641113,4140.512695,4140.000000,4133.846191,4150.256348,4134.358887,4121.025879,0.000000,4.000000,,,,0.000000,4.000000,4.000000,4.000000,4.000000,4.000000,4.000000,4.000000,4.000000,4.000000,4.000000,4.000000,4.000000,4.000000,4.000000,100.000000
1602006516.281358,58.000000,0.000000,4135.897461,4135.384766,4126.666504,4136.410156,4135.384766,4127.692383,4121.025879,4123.077148,4142.563965,4140.000000,4142.563965,4148.205078,4147.179688,4152.820313,0.000000,4.000000,,,,0.000000,4.000000,4.000000,4.000000,4.000000,4.000000,4.000000,4.000000,4.000000,4.000000,4.000000,4.000000,4.000000,4.000000,4.000000,100.000000
1602006516.289140,59.000000,0.000000,4125.128418,4124.615234,4124.102539,4126.153809,4134.871582,4124.615234,4121.538574,4123.589844,4143.077148,4140.512695,4144.615234,4152.820313,4150.256348,4153.846191,0.000000,4.000000,,,,0.000000,4.000000,4.000000,4.000000,4.000000,4.000000,4.000000,4.000000,4.000000,4.000000,4.000000,4.000000,4.000000,4.000000,4.000000,100.000000
1602006516.297021,60.000000,0.000000,4110.256348,4118.461426,4125.128418,4124.615234,4133.333496,4125.641113,4121.025879,4124.102539,4136.410156,4136.922852,4133.333496,4153.846191,4148.717773,4132.820313,0.000000,4.000000,,,,0.000000,4.000000,4.000000,4.000000,4.000000,4.000000,4.000000,4.000000,4.000000,4.000000,4.000000,4.000000,4.000000,4.000000,4.000000,100.000000
1602006516.304902,61.000000,0.000000,4108.205078,4122.563965,4125.641113,4127.692383,4138.974121,4130.769043,4121.025879,4123.077148,4134.358887,4141.025879,4133.333496,4151.282227,4147.692383,4133.846191,0.000000,4.000000,,,,0.000000,4.000000,4.000000,4.000000,4.000000,4.000000,4.000000,4.000000,4.000000,4.000000,4.000000,4.000000,4.000000,4.000000,4.000000,100.000000
1602006516.312784,62.000000,0.000000,4101.025879,4116.922852,4124.102539,4123.077148,4135.897461,4126.666504,4121.025879,4121.538574,4136.410156,4148.205078,4142.563965,4152.820313,4144.102539,4132.307617,0.000000,4.000000,,,,0.000000,4.000000,4.000000,4.000000,4.000000,4.000000,4.000000,4.000000,4.000000,4.000000,4.000000,4.000000,4.000000,4.000000,4.000000,100.000000
1602006516.320665,63.000000,0.000000,4095.384521,4106.153809,4118.974121,4120.512695,4125.128418,4120.512695,4120.512695,4128.205078,4133.333496,4141.538574,4134.871582,4152.307617,4142.051270,4118.461426,0.000000,4.000000,,,,0.000000,4.000000,4.000000,4.000000,4.000000,4.000000,4.000000,4.000000,4.000000,4.000000,4.000000,4.000000,4.000000,4.000000,4.000000,100.000000
1602006516.328547,64.000000,0.000000,4102.051270,4107.692383,4118.974121,4123.589844,4126.153809,4121.538574,4123.589844,4137.436035,4139.487305,4137.436035,4129.743652,4154.358887,4145.128418,4117.436035,789.000000,4.000000,,,,0.000000,4.000000,4.000000,4.000000,4.000000,4.000000,4.000000,4.000000,4.000000,4.000000,4.000000,4.000000,4.000000,4.000000,4.000000,100.000000
1602006516.336428,65.000000,0.000000,4105.128418,4110.769043,4130.256348,4122.563965,4135.384766,4123.077148,4127.179688,4141.025879,4154.358887,4152.307617,4149.743652,4166.153809,4148.717773,4132.307617,787.000000,4.000000,,,,0.000000,4.000000,4.000000,4.000000,4.000000,4.000000,4.000000,4.000000,4.000000,4.000000,4.000000,4.000000,4.000000,4.000000,4.000000,100.000000
1602006516.344309,66.000000,0.000000,4104.615234,4111.794922,4135.384766,4122.563965,4133.846191,4122.051270,4125.641113,4139.487305,4153.333496,4154.871582,4158.461426,4168.717773,4155.897461,4147.179688,852.000000,4.000000,,,,0.000000,4.000000,4.000000,4.000000,4.000000,4.000000,4.000000,4.000000,4.000000,4.000000,4.000000,4.000000,4.000000,4.000000,4.000000,100.000000
1602006516.352091,67.000000,0.000000,4106.666504,4116.410156,4124.615234,4125.641113,4129.230957,4127.692383,4124.615234,4134.871582,4142.051270,4140.512695,4140.512695,4156.922852,4155.897461,4150.769043,898.000000,4.000000,,,,0.000000,4.000000,4.000000,4.000000,4.000000,4.000000,4.000000,4.000000,4.000000,4.000000,4.000000,4.000000,4.000000,4.000000,4.000000,100.000000
1602006516.359972,68.000000,0.000000,4105.641113,4121.025879,4120.000000,4126.666504,4134.358887,4136.410156,4127.179688,4126.666504,4131.794922,4136.922852,4128.205078,4152.307617,4145.641113,4142.563965,809.000000,4.000000,,,,0.000000,4.000000,4.000000,4.000000,4.000000,4.000000,4.000000,4.000000,4.000000,4.000000,4.000000,4.000000,4.000000,4.000000,4.000000,100.000000
1602006516.367854,69.000000,0.000000,4100.512695,4121.025879,4129.743652,4129.743652,4138.461426,4138.974121,4126.666504,4122.051270,4122.051270,4135.897461,4142.051270,4156.922852,4146.666504,4137.436035,822.000000,4.000000,,,,0.000000,4.000000,4.000000,4.000000,4.000000,4.000000,4.000000,4.000000,4.000000,4.000000,4.000000,4.000000,4.000000,4.000000,4.000000,100.000000
1602006516.375735,70.000000,0.000000,4104.615234,4121.538574,4135.897461,4136.922852,4134.358887,4136.410156,4129.230957,4124.615234,4125.128418,4138.461426,4154.358887,4153.333496,4155.897461,4137.948730,768.000000,4.000000,,,,0.000000,4.000000,4.000000,4.000000,4.000000,4.000000,4.000000,4.000000,4.000000,4.000000,4.000000,4.000000,4.000000,4.000000,4.000000,100.000000
1602006516.383616,71.000000,0.000000,4118.461426,4126.666504,4136.922852,4140.000000,4133.333496,4137.948730,4136.410156,4126.153809,4140.512695,4162.563965,4144.102539,4148.717773,4159.487305,4139.487305,661.000000,4.000000,,,,0.000000,4.000000,4.000000,4.000000,4.000000,4.000000,4.000000,4.000000,4.000000,4.000000,4.000000,4.000000,4.000000,4.000000,4.000000,100.000000
1602006516.391498,72.000000,0.000000,4121.025879,4127.179688,4131.794922,4131.282227,4136.922852,4142.563965,4137.436035,4124.615234,4135.897461,4166.666504,4133.846191,4153.333496,4156.922852,4135.897461,784.000000,4.000000,,,,0.000000,4.000000,4.000000,4.000000,4.000000,4.000000,4.000000,4.000000,4.000000,4.000000,4.000000,4.000000,4.000000,4.000000,4.000000,100.000000
1602006516.399379,73.000000,0.000000,4107.692383,4122.051270,4122.051270,4127.692383,4133.846191,4143.077148,4129.230957,4124.102539,4119.487305,4138.974121,4138.461426,4153.846191,4153.846191,4123.077148,836.000000,4.000000,,,,0.000000,4.000000,4.000000,4.000000,4.000000,4.000000,4.000000,4.000000,4.000000,4.000000,4.000000,4.000000,4.000000,4.000000,4.000000,100.000000
1602006516.407161,74.000000,0.000000,4102.051270,4120.512695,4122.563965,4132.820313,4125.641113,4140.000000,4122.051270,4127.692383,4125.641113,4139.487305,4138.974121,4149.230957,4152.307617,4127.692383,870.000000,4.000000,,,,0.000000,4.000000,4.000000,4.000000,4.000000,4.000000,4.000000,4.000000,4.000000,4.000000,4.000000,4.000000,4.000000,4.000000,4.000000,100.000000
1602006516.415042,75.000000,0.000000,4111.282227,4124.102539,4134.871582,4137.948730,4128.717773,4141.025879,4125.641113,4136.410156,4142.051270,4153.333496,4135.897461,4159.487305,4153.846191,4154.358887,835.000000,4.000000,,,,0.000000,4.000000,4.000000,4.000000,4.000000,4.000000,4.000000,4.000000,4.000000,4.000000,4.000000,4.000000,4.000000,4.000000,4.000000,100.000000
1602006516.422924,76.000000,0.000000,4112.307617,4126.666504,4143.077148,4137.436035,4138.974121,4144.615234,4134.871582,4142.051270,4145.128418,4142.051270,4142.563965,4174.871582,4159.487305,4154.358887,764.000000,4.000000,,,,0.000000,4.000000,4.000000,4.000000,4.000000,4.000000,4.000000,4.000000,4.000000,4.000000,4.000000,4.000000,4.000000,4.000000,4.000000,100.000000
1602006516.430805,77.000000,0.000000,4102.051270,4120.512695,4134.871582,4128.205078,4133.333496,4138.461426,4136.410156,4134.871582,4133.846191,4142.563965,4144.615234,4168.717773,4150.256348,4126.153809,730.000000,4.000000,,,,0.000000,4.000000,4.000000,4.000000,4.000000,4.000000,4.000000,4.000000,4.000000,4.000000,4.000000,4.000000,4.000000,4.000000,4.000000,100.000000
1602006516.438686,78.000000,0.000000,4102.563965,4117.948730,4126.153809,4128.717773,4122.051270,4133.333496,4134.358887,4129.230957,4122.563965,4158.974121,4138.974121,4155.897461,4136.922852,4124.102539,870.000000,4.000000,,,,0.000000,4.000000,4.000000,4.000000,4.000000,4.000000,4.000000,4.000000,4.000000,4.000000,4.000000,4.000000,4.000000,4.000000,4.000000,100.000000
1602006516.446668,79.000000,0.000000,4110.769043,4123.077148,4125.128418,4138.461426,4128.717773,4138.461426,4137.436035,4135.897461,4122.563965,4149.743652,4134.358887,4158.461426,4139.487305,4146.153809,835.000000,4.000000,,,,0.000000,4.000000,4.000000,4.000000,4.000000,4.000000,4.000000,4.000000,4.000000,4.000000,4.000000,4.000000,4.000000,4.000000,4.000000,100.000000
1602006516.454550,80.000000,0.000000,4109.743652,4123.589844,4122.563965,4135.384766,4136.922852,4141.025879,4140.000000,4136.410156,4130.256348,4136.410156,4127.692383,4155.384766,4142.563965,4141.538574,764.000000,4.000000,,,,0.000000,4.000000,4.000000,4.000000,4.000000,4.000000,4.000000,4.000000,4.000000,4.000000,4.000000,4.000000,4.000000,4.000000,4.000000,100.000000
1602006516.462431,81.000000,0.000000,4105.641113,4120.000000,4119.487305,4128.717773,4132.820313,4136.410156,4136.410156,4129.230957,4137.948730,4145.641113,4121.025879,4142.563965,4137.436035,4124.615234,730.000000,4.000000,,,,0.000000,4.000000,4.000000,4.000000,4.000000,4.000000,4.000000,4.000000,4.000000,4.000000,4.000000,4.000000,4.000000,4.000000,4.000000,100.000000
1602006516.470313,82.000000,0.000000,4106.666504,4120.512695,4121.025879,4134.358887,4130.769043,4135.897461,4132.307617,4128.717773,4135.897461,4139.487305,4119.487305,4139.487305,4139.487305,4131.794922,870.000000,4.000000,,,,0.000000,4.000000,4.000000,4.000000,4.000000,4.000000,4.000000,4.000000,4.000000,4.000000,4.000000,4.000000,4.000000,4.000000,4.000000,100.000000
1602006516.478195,83.000000,0.000000,4109.743652,4122.563965,4123.589844,4138.974121,4136.922852,4141.025879,4134.871582,4128.717773,4125.128418,4122.563965,4126.666504,4144.102539,4146.153809,4137.436035,835.000000,4.000000,,,,0.000000,4.000000,4.000000,4.000000,4.000000,4.000000,4.000000,4.000000,4.000000,4.000000,4.000000,4.000000,4.000000,4.000000,4.000000,100.000000
1602006516.486076,84.000000,0.000000,4111.794922,4122.051270,4122.563965,4136.410156,4140.000000,4144.615234,4134.358887,4123.077148,4118.974121,4130.769043,4139.487305,4142.051270,4143.589844,4124.102539,764.000000,4.000000,,,,0.000000,4.000000,4.000000,4.000000,4.000000,4.000000,4.000000,4.000000,4.000000,4.000000,4.000000,4.000000,4.000000,4.000000,4.000000,100.000000
1602006516.493958,85.000000,0.000000,4109.743652,4118.974121,4121.538574,4136.410156,4139.487305,4141.538574,4125.641113,4120.512695,4122.051270,4137.948730,4137.436035,4140.000000,4138.461426,4123.077148,730.000000,4.000000,,,,0.000000,4.000000,4.000000,4.000000,4.000000,4.000000,4.000000,4.000000,4.000000,4.000000,4.000000,4.000000,4.000000,4.000000,4.000000,100.000000
1602006516.501839,86.000000,0.000000,4107.692383,4124.102539,4122.563965,4137.436035,4140.512695,4136.410156,4125.128418,4120.512695,4123.589844,4128.717773,4124.615234,4147.179688,4142.051270,4140.000000,870.000000,4.000000,,,,0.000000,4.000000,4.000000,4.000000,4.000000,4.000000,4.000000,4.000000,4.000000,4.000000,4.000000,4.000000,4.000000,4.000000,4.000000,100.000000
1602006516.509721,87.000000,0.000000,4116.410156,4136.410156,4125.641113,4140.000000,4138.974121,4137.436035,4135.897461,4125.128418,4128.205078,4133.846191,4135.384766,4156.410156,4149.743652,4145.128418,835.000000,4.000000,,,,0.000000,4.000000,4.000000,4.000000,4.000000,4.000000,4.000000,4.000000,4.000000,4.000000,4.000000,4.000000,4.000000,4.000000,4.000000,100.000000
1602006516.517603,88.000000,0.000000,4128.205078,4136.410156,4125.641113,4142.563965,4135.897461,4140.512695,4139.487305,4136.410156,4138.974121,4145.128418,4148.205078,4155.897461,4148.205078,4139.487305,764.000000,4.000000,,,,0.000000,4.000000,4.000000,4.000000,4.000000,4.000000,4.000000,4.000000,4.000000,4.000000,4.000000,4.000000,4.000000,4.000000,4.000000,100.000000
1602006516.525384,89.000000,0.000000,4126.153809,4126.153809,4122.563965,4139.487305,4134.871582,4137.948730,4134.871582,4140.512695,4141.025879,4137.436035,4133.333496,4147.692383,4136.922852,4143.589844,730.000000,4.000000,,,,0.000000,4.000000,4.000000,4.000000,4.000000,4.000000,4.000000,4.000000,4.000000,4.000000,4.000000,4.000000,4.000000,4.000000,4.000000,100.000000
1602006516.533266,90.000000,0.000000,4118.974121,4123.077148,4126.153809,4139.487305,4134.871582,4136.410156,4135.384766,4131.794922,4137.948730,4135.384766,4124.615234,4142.563965,4131.794922,4139.487305,870.000000,4.000000,,,,0.000000,4.000000,4.000000,4.000000,4.000000,4.000000,4.000000,4.000000,4.000000,4.000000,4.000000,4.000000,4.000000,4.000000,4.000000,100.000000
1602006516.541147,91.000000,0.000000,4115.897461,4124.102539,4129.230957,4140.000000,4134.871582,4136.922852,4136.410156,4124.102539,4132.820313,4141.538574,4131.282227,4143.077148,4134.358887,4123.077148,835.000000,4.000000,,,,0.000000,4.000000,4.000000,4.000000,4.000000,4.000000,4.000000,4.000000,4.000000,4.000000,4.000000,4.000000,4.000000,4.000000,4.000000,100.000000
1602006516.549028,92.000000,0.000000,4112.307617,4122.563965,4124.615234,4135.897461,4135.384766,4137.948730,4134.871582,4121.538574,4124.615234,4131.794922,4127.692383,4141.025879,4137.436035,4115.897461,764.000000,4.000000,,,,0.000000,4.000000,4.000000,4.000000,4.000000,4.000000,4.000000,4.000000,4.000000,4.000000,4.000000,4.000000,4.000000,4.000000,4.000000,100.000000
1602006516.556910,93.000000,0.000000,4106.666504,4119.487305,4121.025879,4134.358887,4137.436035,4142.051270,4134.358887,4121.025879,4121.025879,4124.615234,4117.436035,4135.384766,4133.333496,4124.102539,730.000000,4.000000,,,,0.000000,4.000000,4.000000,4.000000,4.000000,4.000000,4.000000,4.000000,4.000000,4.000000,4.000000,4.000000,4.000000,4.000000,4.000000,100.000000
1602006516.564791,94.000000,0.000000,4102.051270,4111.794922,4123.077148,4135.897461,4135.897461,4144.102539,4136.922852,4121.025879,4123.589844,4127.692383,4120.000000,4135.384766,4124.615234,4131.282227,870.000000,4.000000,,,,0.000000,4.000000,4.000000,4.000000,4.000000,4.000000,4.000000,4.000000,4.000000,4.000000,4.000000,4.000000,4.000000,4.000000,4.000000,100.000000
1602006516.572673,95.000000,0.000000,4111.794922,4110.769043,4128.717773,4137.948730,4130.769043,4142.051270,4137.436035,4122.563965,4124.102539,4124.615234,4124.102539,4139.487305,4121.538574,4127.692383,835.000000,4.000000,,,,0.000000,4.000000,4.000000,4.000000,4.000000,4.000000,4.000000,4.000000,4.000000,4.000000,4.000000,4.000000,4.000000,4.000000,4.000000,100.000000
1602006516.580554,96.000000,0.000000,4121.025879,4120.000000,4135.384766,4138.461426,4132.820313,4143.589844,4130.769043,4125.128418,4123.589844,4124.615234,4122.051270,4138.974121,4122.051270,4125.128418,764.000000,4.000000,,,,0.000000,4.000000,4.000000,4.000000,4.000000,4.000000,4.000000,4.000000,4.000000,4.000000,4.000000,4.000000,4.000000,4.000000,4.000000,100.000000
1602006516.588335,97.000000,0.000000,4116.410156,4125.128418,4137.948730,4140.000000,4137.948730,4142.051270,4124.615234,4125.641113,4125.128418,4137.436035,4129.230957,4137.436035,4128.717773,4134.358887,730.000000,4.000000,,,,0.000000,4.000000,4.000000,4.000000,4.000000,4.000000,4.000000,4.000000,4.000000,4.000000,4.000000,4.000000,4.000000,4.000000,4.000000,100.000000
1602006516.596216,98.000000,0.000000,4112.820313,4123.589844,4135.897461,4142.051270,4137.948730,4133.333496,4120.000000,4123.589844,4126.153809,4150.256348,4134.358887,4140.512695,4142.051270,4141.538574,870.000000,4.000000,,,,0.000000,4.000000,4.000000,4.000000,4.000000,4.000000,4.000000,4.000000,4.000000,4.000000,4.000000,4.000000,4.000000,4.000000,4.000000,100.000000
1602006516.604098,99.000000,0.000000,4123.589844,4124.102539,4133.333496,4142.051270,4135.897461,4130.769043,4114.358887,4120.000000,4122.563965,4143.589844,4131.794922,4145.641113,4152.820313,4140.000000,835.000000,4.000000,,,,0.000000,4.000000,4.000000,4.000000,4.000000,4.000000,4.000000,4.000000,4.000000,4.000000,4.000000,4.000000,4.000000,4.000000,4.000000,100.000000
1602006516.611979,100.000000,0.000000,4133.333496,4130.256348,4131.794922,4143.077148,4136.410156,4137.436035,4115.384766,4120.000000,4119.487305,4135.384766,4133.846191,4151.282227,4154.358887,4144.615234,764.000000,4.000000,,,,0.000000,4.000000,4.000000,4.000000,4.000000,4.000000,4.000000,4.000000,4.000000,4.000000,4.000000,4.000000,4.000000,4.000000,4.000000,100.000000
1602006516.619860,101.000000,0.000000,4131.282227,4137.436035,4134.871582,4143.589844,4136.410156,4138.461426,4122.563965,4122.563965,4129.230957,4149.230957,4146.153809,4153.333496,4153.846191,4156.410156,730.000000,4.000000,,,,0.000000,4.000000,4.000000,4.000000,4.000000,4.000000,4.000000,4.000000,4.000000,4.000000,4.000000,4.000000,4.000000,4.000000,4.000000,100.000000
1602006516.627642,102.000000,0.000000,4129.743652,4136.922852,4138.974121,4141.538574,4135.384766,4132.820313,4124.102539,4126.666504,4139.487305,4161.538574,4155.384766,4153.333496,4156.922852,4155.384766,870.000000,4.000000,,,,0.000000,4.000000,4.000000,4.000000,4.000000,4.000000,4.000000,4.000000,4.000000,4.000000,4.000000,4.000000,4.000000,4.000000,4.000000,100.000000
1602006516.635523,103.000000,0.000000,4126.153809,4129.230957,4131.794922,4140.512695,4136.410156,4127.179688,4121.538574,4129.230957,4130.769043,4155.384766,4151.282227,4148.717773,4156.410156,4141.025879,835.000000,4.000000,,,,0.000000,4.000000,4.000000,4.000000,4.000000,4.000000,4.000000,4.000000,4.000000,4.000000,4.000000,4.000000,4.000000,4.000000,4.000000,100.000000
1602006516.643405,104.000000,0.000000,4124.615234,4124.615234,4122.051270,4141.025879,4137.436035,4127.179688,4124.102539,4129.230957,4125.128418,4149.230957,4141.025879,4141.025879,4150.769043,4136.410156,764.000000,4.000000,,,,0.000000,4.000000,4.000000,4.000000,4.000000,4.000000,4.000000,4.000000,4.000000,4.000000,4.000000,4.000000,4.000000,4.000000,4.000000,100.000000
1602006516.651287,105.000000,0.000000,4121.025879,4124.102539,4122.051270,4137.948730,4135.897461,4129.230957,4124.615234,4126.153809,4130.769043,4150.256348,4133.333496,4137.436035,4152.820313,4138.974121,730.000000,4.000000,,,,0.000000,4.000000,4.000000,4.000000,4.000000,4.000000,4.000000,4.000000,4.000000,4.000000,4.000000,4.000000,4.000000,4.000000,4.000000,100.000000
1602006516.659168,106.000000,0.000000,4109.743652,4121.538574,4124.615234,4134.871582,4133.846191,4127.692383,4123.077148,4124.102539,4128.205078,4149.230957,4136.922852,4138.461426,4154.871582,4126.666504,870.000000,4.000000,,,,0.000000,4.000000,4.000000,4.000000,4.000000,4.000000,4.000000,4.000000,4.000000,4.000000,4.000000,4.000000,4.000000,4.000000,4.000000,100.000000
1602006516.667050,107.000000,0.000000,4108.717773,4121.025879,4124.615234,4137.436035,4135.897461,4128.205078,4124.615234,4127.179688,4119.487305,4146.666504,4141.538574,4141.025879,4141.538574,4121.538574,835.000000,4.000000,,,,0.000000,4.000000,4.000000,4.000000,4.000000,4.000000,4.000000,4.000000,4.000000,4.000000,4.000000,4.000000,4.000000,4.000000,4.000000,100.000000
1602006516.674932,108.000000,0.000000,4120.000000,4123.589844,4128.717773,4138.974121,4132.307617,4128.205078,4124.102539,4128.205078,4120.512695,4144.615234,4138.974121,4147.692383,4136.410156,4138.461426,764.000000,4.000000,,,,0.000000,4.000000,4.000000,4.000000,4.000000,4.000000,4.000000,4.000000,4.000000,4.000000,4.000000,4.000000,4.000000,4.000000,4.000000,100.000000
1602006516.682813,109.000000,0.000000,4125.641113,4125.128418,4136.922852,4136.922852,4123.589844,4122.563965,4122.563965,4123.077148,4127.179688,4144.615234,4136.922852,4154.871582,4152.820313,4143.077148,730.000000,4.000000,,,,0.000000,4.000000,4.000000,4.000000,4.000000,4.000000,4.000000,4.000000,4.000000,4.000000,4.000000,4.000000,4.000000,4.000000,4.000000,100.000000
1602006516.690795,110.000000,0.000000,4121.025879,4125.128418,4139.487305,4136.410156,4121.538574,4123.589844,4126.666504,4124.615234,4128.717773,4151.282227,4140.512695,4153.846191,4162.051270,4138.461426,870.000000,4.000000,,,,0.000000,4.000000,4.000000,4.000000,4.000000,4.000000,4.000000,4.000000,4.000000,4.000000,4.000000,4.000000,4.000000,4.000000,4.000000,100.000000
1602006516.698676,111.000000,0.000000,4118.461426,4124.615234,4139.487305,4138.974121,4124.615234,4127.692383,4129.230957,4135.897461,4122.563965,4153.846191,4145.128418,4147.179688,4153.333496,4147.179688,835.000000,4.000000,,,,0.000000,4.000000,4.000000,4.000000,4.000000,4.000000,4.000000,4.000000,4.000000,4.000000,4.000000,4.000000,4.000000,4.000000,4.000000,100.000000
1602006516.706558,112.000000,0.000000,4120.512695,4124.615234,4137.436035,4139.487305,4126.153809,4123.077148,4127.692383,4138.461426,4120.000000,4148.717773,4136.922852,4141.025879,4145.128418,4143.589844,764.000000,4.000000,,,,0.000000,4.000000,4.000000,4.000000,4.000000,4.000000,4.000000,4.000000,4.000000,4.000000,4.000000,4.000000,4.000000,4.000000,4.000000,100.000000
1602006516.714440,113.000000,0.000000,4122.563965,4124.102539,4129.743652,4136.410156,4130.256348,4125.641113,4132.307617,4132.307617,4125.128418,4141.025879,4121.538574,4138.461426,4135.384766,4123.589844,730.000000,4.000000,,,,0.000000,4.000000,4.000000,4.000000,4.000000,4.000000,4.000000,4.000000,4.000000,4.000000,4.000000,4.000000,4.000000,4.000000,4.000000,100.000000
1602006516.722321,114.000000,0.000000,4116.922852,4121.538574,4123.589844,4135.384766,4137.948730,4137.948730,4138.974121,4129.743652,4123.077148,4126.666504,4116.410156,4137.948730,4121.025879,4119.487305,870.000000,4.000000,,,,0.000000,4.000000,4.000000,4.000000,4.000000,4.000000,4.000000,4.000000,4.000000,4.000000,4.000000,4.000000,4.000000,4.000000,4.000000,100.000000
1602006516.730203,115.000000,0.000000,4106.666504,4120.512695,4130.769043,4136.922852,4142.563965,4142.563965,4140.000000,4125.641113,4111.282227,4114.358887,4124.102539,4137.436035,4116.410156,4125.128418,835.000000,4.000000,,,,0.000000,4.000000,4.000000,4.000000,4.000000,4.000000,4.000000,4.000000,4.000000,4.000000,4.000000,4.000000,4.000000,4.000000,4.000000,100.000000
1602006516.738085,116.000000,0.000000,4105.128418,4122.051270,4136.922852,4138.461426,4138.461426,4139.487305,4141.025879,4122.563965,4108.205078,4107.692383,4126.153809,4136.410156,4125.128418,4125.641113,764.000000,4.000000,,,,0.000000,4.000000,4.000000,4.000000,4.000000,4.000000,4.000000,4.000000,4.000000,4.000000,4.000000,4.000000,4.000000,4.000000,4.000000,100.000000
1602006516.745966,117.000000,0.000000,4104.615234,4121.025879,4133.333496,4133.333496,4131.794922,4133.333496,4134.871582,4123.077148,4104.615234,4108.205078,4119.487305,4141.025879,4126.153809,4123.077148,730.000000,4.000000,,,,0.000000,4.000000,4.000000,4.000000,4.000000,4.000000,4.000000,4.000000,4.000000,4.000000,4.000000,4.000000,4.000000,4.000000,4.000000,100.000000
1602006516.753848,118.000000,0.000000,4104.615234,4121.025879,4132.307617,4128.717773,4132.820313,4125.128418,4120.512695,4118.461426,4089.743652,4115.384766,4128.205078,4149.743652,4117.436035,4128.205078,870.000000,4.000000,,,,0.000000,4.000000,4.000000,4.000000,4.000000,4.000000,4.000000,4.000000,4.000000,4.000000,4.000000,4.000000,4.000000,4.000000,4.000000,100.000000
1602006516.761629,119.000000,0.000000,4110.256348,4122.051270,4138.974121,4133.846191,4133.846191,4121.025879,4114.871582,4113.846191,4092.307617,4130.769043,4143.589844,4155.897461,4126.666504,4135.897461,835.000000,4.000000,,,,0.000000,4.000000,4.000000,4.000000,4.000000,4.000000,4.000000,4.000000,4.000000,4.000000,4.000000,4.000000,4.000000,4.000000,4.000000,100.000000
1602006516.769511,120.000000,0.000000,4109.743652,4114.871582,4136.922852,4134.358887,4123.077148,4119.487305,4118.974121,4118.974121,4117.436035,4138.974121,4134.358887,4155.384766,4136.922852,4132.307617,764.000000,4.000000,,,,0.000000,4.000000,4.000000,4.000000,4.000000,4.000000,4.000000,4.000000,4.000000,4.000000,4.000000,4.000000,4.000000,4.000000,4.000000,100.000000
1602006516.777392,121.000000,0.000000,4108.205078,4112.307617,4126.153809,4125.128418,4120.512695,4119.487305,4123.589844,4123.077148,4125.641113,4127.179688,4118.974121,4154.358887,4126.666504,4121.538574,730.000000,4.000000,,,,0.000000,4.000000,4.000000,4.000000,4.000000,4.000000,4.000000,4.000000,4.000000,4.000000,4.000000,4.000000,4.000000,4.000000,4.000000,100.000000
1602006516.785274,122.000000,0.000000,4115.384766,4120.512695,4123.589844,4126.666504,4131.282227,4124.102539,4125.641113,4121.025879,4118.974121,4119.487305,4126.666504,4154.358887,4122.563965,4120.000000,870.000000,4.000000,,,,0.000000,4.000000,4.000000,4.000000,4.000000,4.000000,4.000000,4.000000,4.000000,4.000000,4.000000,4.000000,4.000000,4.000000,4.000000,100.000000
1602006516.793155,123.000000,0.000000,4121.025879,4124.102539,4131.794922,4137.436035,4131.794922,4128.205078,4127.692383,4122.051270,4128.205078,4117.436035,4142.051270,4153.846191,4137.948730,4129.230957,835.000000,4.000000,,,,0.000000,4.000000,4.000000,4.000000,4.000000,4.000000,4.000000,4.000000,4.000000,4.000000,4.000000,4.000000,4.000000,4.000000,4.000000,100.000000
1602006516.801136,124.000000,0.000000,4128.717773,4128.717773,4136.922852,4140.512695,4126.666504,4125.128418,4130.256348,4126.153809,4139.487305,4115.384766,4152.307617,4162.051270,4155.897461,4145.641113,764.000000,4.000000,,,,0.000000,4.000000,4.000000,4.000000,4.000000,4.000000,4.000000,4.000000,4.000000,4.000000,4.000000,4.000000,4.000000,4.000000,4.000000,100.000000
1602006516.809017,125.000000,0.000000,4140.000000,4137.436035,4134.358887,4137.436035,4133.333496,4120.000000,4132.307617,4124.102539,4136.922852,4126.153809,4150.769043,4169.230957,4163.077148,4159.487305,730.000000,4.000000,,,,0.000000,4.000000,4.000000,4.000000,4.000000,4.000000,4.000000,4.000000,4.000000,4.000000,4.000000,4.000000,4.000000,4.000000,4.000000,100.000000
1602006516.816898,126.000000,0.000000,4141.538574,4142.563965,4135.384766,4141.025879,4139.487305,4123.589844,4132.307617,4121.025879,4134.358887,4145.641113,4133.846191,4163.589844,4160.512695,4153.333496,870.000000,4.000000,,,,0.000000,4.000000,4.000000,4.000000,4.000000,4.000000,4.000000,4.000000,4.000000,4.000000,4.000000,4.000000,4.000000,4.000000,4.000000,100.000000
1602006516.824780,127.000000,0.000000,4141.538574,4144.615234,4138.461426,4149.230957,4138.461426,4136.922852,4130.769043,4121.538574,4137.436035,4154.871582,4127.179688,4154.358887,4155.897461,4139.487305,835.000000,4.000000,,,,0.000000,4.000000,4.000000,4.000000,4.000000,4.000000,4.000000,4.000000,4.000000,4.000000,4.000000,4.000000,4.000000,4.000000,4.000000,100.000000
1602006516.832761,128.000000,0.000000,4144.615234,4145.641113,4133.846191,4154.358887,4139.487305,4142.051270,4128.717773,4116.410156,4137.948730,4160.000000,4144.102539,4152.307617,4154.358887,4137.436035,764.000000,4.000000,,,,0.000000,4.000000,4.000000,4.000000,4.000000,4.000000,4.000000,4.000000,4.000000,4.000000,4.000000,4.000000,4.000000,4.000000,4.000000,100.000000
1602006516.840643,0.000000,0.000000,4139.487305,4141.538574,4129.230957,4151.282227,4143.077148,4141.538574,4127.179688,4109.230957,4138.974121,4149.230957,4155.384766,4153.333496,4154.358887,4141.538574,790.000000,4.000000,,,,0.000000,4.000000,4.000000,4.000000,4.000000,4.000000,4.000000,4.000000,4.000000,4.000000,4.000000,4.000000,4.000000,4.000000,4.000000,100.000000
1602006516.848524,1.000000,0.000000,4133.333496,4138.461426,4133.333496,4143.589844,4142.051270,4142.051270,4124.102539,4107.179688,4134.871582,4113.333496,4145.641113,4152.820313,4154.871582,4141.025879,787.000000,4.000000,,,,0.000000,4.000000,4.000000,4.000000,4.000000,4.000000,4.000000,4.000000,4.000000,4.000000,4.000000,4.000000,4.000000,4.000000,4.000000,100.000000
1602006516.856406,2.000000,0.000000,4135.897461,4137.436035,4137.948730,4140.512695,4140.000000,4131.794922,4121.025879,4107.179688,4116.922852,4102.563965,4136.922852,4149.230957,4150.256348,4135.897461,852.000000,4.000000,,,,0.000000,4.000000,4.000000,4.000000,4.000000,4.000000,4.000000,4.000000,4.000000,4.000000,4.000000,4.000000,4.000000,4.000000,4.000000,100.000000
1602006516.864288,3.000000,0.000000,4135.897461,4135.384766,4135.384766,4141.538574,4138.461426,4120.000000,4123.077148,4111.794922,4106.666504,4127.179688,4139.487305,4150.769043,4146.153809,4132.307617,881.000000,4.000000,,,,0.000000,4.000000,4.000000,4.000000,4.000000,4.000000,4.000000,4.000000,4.000000,4.000000,4.000000,4.000000,4.000000,4.000000,4.000000,100.000000
1602006516.872169,4.000000,0.000000,4132.820313,4136.922852,4134.871582,4137.436035,4134.358887,4116.922852,4127.179688,4122.051270,4115.897461,4140.000000,4136.922852,4164.615234,4148.205078,4137.436035,809.000000,4.000000,,,,0.000000,4.000000,4.000000,4.000000,4.000000,4.000000,4.000000,4.000000,4.000000,4.000000,4.000000,4.000000,4.000000,4.000000,4.000000,100.000000
1602006516.880051,5.000000,0.000000,4135.897461,4135.897461,4145.641113,4137.436035,4131.794922,4109.743652,4127.179688,4125.128418,4122.051270,4134.358887,4136.410156,4173.846191,4151.282227,4147.179688,822.000000,4.000000,,,,0.000000,4.000000,4.000000,4.000000,4.000000,4.000000,4.000000,4.000000,4.000000,4.000000,4.000000,4.000000,4.000000,4.000000,4.000000,100.000000
1602006516.887933,6.000000,0.000000,4148.717773,4135.897461,4157.436035,4149.743652,4134.871582,4103.589844,4126.153809,4123.077148,4120.000000,4143.077148,4157.436035,4168.717773,4160.000000,4161.538574,708.000000,4.000000,,,,0.000000,4.000000,4.000000,4.000000,4.000000,4.000000,4.000000,4.000000,4.000000,4.000000,4.000000,4.000000,4.000000,4.000000,4.000000,100.000000
1602006516.895814,7.000000,0.000000,4158.461426,4141.538574,4152.307617,4153.333496,4135.897461,4108.205078,4121.538574,4124.102539,4122.563965,4161.025879,4178.461426,4165.641113,4173.333496,4168.717773,661.000000,4.000000,,,,0.000000,4.000000,4.000000,4.000000,4.000000,4.000000,4.000000,4.000000,4.000000,4.000000,4.000000,4.000000,4.000000,4.000000,4.000000,100.000000
1602006516.903596,8.000000,0.000000,4147.692383,4142.563965,4141.025879,4144.102539,4136.410156,4115.897461,4116.410156,4116.922852,4127.692383,4153.846191,4170.769043,4167.179688,4173.333496,4156.922852,784.000000,4.000000,,,,0.000000,4.000000,4.000000,4.000000,4.000000,4.000000,4.000000,4.000000,4.000000,4.000000,4.000000,4.000000,4.000000,4.000000,4.000000,100.000000
1602006516.911477,9.000000,0.000000,4135.897461,4140.000000,4136.922852,4144.102539,4140.512695,4126.666504,4118.461426,4109.230957,4130.256348,4133.333496,4154.871582,4159.487305,4164.615234,4149.230957,805.000000,4.000000,,,,0.000000,4.000000,4.000000,4.000000,4.000000,4.000000,4.000000,4.000000,4.000000,4.000000,4.000000,4.000000,4.000000,4.000000,4.000000,100.000000
1602006516.919359,10.000000,0.000000,4138.974121,4140.512695,4129.743652,4144.102539,4142.563965,4144.615234,4126.666504,4111.282227,4135.897461,4135.897461,4147.692383,4150.769043,4159.487305,4153.333496,871.000000,4.000000,,,,0.000000,4.000000,4.000000,4.000000,4.000000,4.000000,4.000000,4.000000,4.000000,4.000000,4.000000,4.000000,4.000000,4.000000,4.000000,100.000000
1602006516.927240,11.000000,0.000000,4133.333496,4135.897461,4119.487305,4132.820313,4140.000000,4147.179688,4129.230957,4109.743652,4141.538574,4155.897461,4137.436035,4149.743652,4145.641113,4144.102539,835.000000,4.000000,,,,0.000000,4.000000,4.000000,4.000000,4.000000,4.000000,4.000000,4.000000,4.000000,4.000000,4.000000,4.000000,4.000000,4.000000,4.000000,100.000000
1602006516.935121,12.000000,0.000000,4120.512695,4126.666504,4117.948730,4129.230957,4135.897461,4130.256348,4125.641113,4108.717773,4134.871582,4157.436035,4134.871582,4150.256348,4136.922852,4133.846191,764.000000,4.000000,,,,0.000000,4.000000,4.000000,4.000000,4.000000,4.000000,4.000000,4.000000,4.000000,4.000000,4.000000,4.000000,4.000000,4.000000,4.000000,100.000000
1602006516.943003,13.000000,0.000000,4123.077148,4122.563965,4124.615234,4137.436035,4129.230957,4120.512695,4123.077148,4118.974121,4128.717773,4140.000000,4136.410156,4153.333496,4142.563965,4138.974121,730.000000,4.000000,,,,0.000000,4.000000,4.000000,4.000000,4.000000,4.000000,4.000000,4.000000,4.000000,4.000000,4.000000,4.000000,4.000000,4.000000,4.000000,100.000000
1602006516.950884,14.000000,0.000000,4132.820313,4122.563965,4133.333496,4138.461426,4120.000000,4123.589844,4123.077148,4125.641113,4134.871582,4125.641113,4124.615234,4157.436035,4141.538574,4136.410156,871.000000,4.000000,,,,0.000000,4.000000,4.000000,4.000000,4.000000,4.000000,4.000000,4.000000,4.000000,4.000000,4.000000,4.000000,4.000000,4.000000,4.000000,100.000000
1602006516.958666,15.000000,0.000000,4133.846191,4126.666504,4141.538574,4134.871582,4110.256348,4121.025879,4123.589844,4122.563965,4135.897461,4112.307617,4123.077148,4156.410156,4133.846191,4128.205078,835.000000,4.000000,,,,0.000000,4.000000,4.000000,4.000000,4.000000,4.000000,4.000000,4.000000,4.000000,4.000000,4.000000,4.000000,4.000000,4.000000,4.000000,100.000000
1602006516.966548,16.000000,0.000000,4135.384766,4133.333496,4142.563965,4137.436035,4105.128418,4109.230957,4122.563965,4123.589844,4124.615234,4109.743652,4136.922852,4154.358887,4138.461426,4134.871582,0.000000,4.000000,,,,0.000000,4.000000,4.000000,4.000000,4.000000,4.000000,4.000000,4.000000,4.000000,4.000000,4.000000,4.000000,4.000000,4.000000,4.000000,100.000000
1602006516.974429,17.000000,0.000000,4138.461426,4132.820313,4133.846191,4142.051270,4110.256348,4109.230957,4123.589844,4123.077148,4117.436035,4113.846191,4133.333496,4156.922852,4142.051270,4144.102539,0.000000,4.000000,,,,0.000000,4.000000,4.000000,4.000000,4.000000,4.000000,4.000000,4.000000,4.000000,4.000000,4.000000,4.000000,4.000000,4.000000,4.000000,100.000000
1602006516.982311,18.000000,0.000000,4122.563965,4120.512695,4116.410156,4132.307617,4118.974121,4123.077148,4125.641113,4113.333496,4117.436035,4112.307617,4117.436035,4150.256348,4130.769043,4136.410156,0.000000,4.000000,,,,0.000000,4.000000,4.000000,4.000000,4.000000,4.000000,4.000000,4.000000,4.000000,4.000000,4.000000,4.000000,4.000000,4.000000,4.000000,100.000000
1602006516.990192,19.000000,0.000000,4104.615234,4113.846191,4104.102539,4121.025879,4128.717773,4134.871582,4129.743652,4110.256348,4124.615234,4120.000000,4126.153809,4137.948730,4130.769043,4118.461426,0.000000,4.000000,,,,0.000000,4.000000,4.000000,4.000000,4.000000,4.000000,4.000000,4.000000,4.000000,4.000000,4.000000,4.000000,4.000000,4.000000,4.000000,100.000000
1602006516.998074,20.000000,0.000000,4111.794922,4121.025879,4107.692383,4123.589844,4138.461426,4140.512695,4130.256348,4116.922852,4139.487305,4143.589844,4141.538574,4136.410156,4142.563965,4118.974121,0.000000,4.000000,,,,0.000000,4.000000,4.000000,4.000000,4.000000,4.000000,4.000000,4.000000,4.000000,4.000000,4.000000,4.000000,4.000000,4.000000,4.000000,100.000000
1602006517.005956,21.000000,0.000000,4125.128418,4122.563965,4114.358887,4130.256348,4136.410156,4136.410156,4127.692383,4120.512695,4148.205078,4154.358887,4138.461426,4138.461426,4140.512695,4138.974121,0.000000,4.000000,,,,0.000000,4.000000,4.000000,4.000000,4.000000,4.000000,4.000000,4.000000,4.000000,4.000000,4.000000,4.000000,4.000000,4.000000,4.000000,100.000000
1602006517.013837,22.000000,0.000000,4122.563965,4114.358887,4115.384766,4128.205078,4127.179688,4124.615234,4124.615234,4118.461426,4141.538574,4134.358887,4136.410156,4140.000000,4136.410156,4142.051270,0.000000,4.000000,,,,0.000000,4.000000,4.000000,4.000000,4.000000,4.000000,4.000000,4.000000,4.000000,4.000000,4.000000,4.000000,4.000000,4.000000,4.000000,100.000000
1602006517.021719,23.000000,0.000000,4119.487305,4112.307617,4118.974121,4124.102539,4122.051270,4121.538574,4121.025879,4118.974121,4126.666504,4113.846191,4135.384766,4145.128418,4142.051270,4131.794922,0.000000,4.000000,,,,0.000000,4.000000,4.000000,4.000000,4.000000,4.000000,4.000000,4.000000,4.000000,4.000000,4.000000,4.000000,4.000000,4.000000,4.000000,100.000000
1602006517.029501,24.000000,0.000000,4125.128418,4122.051270,4123.589844,4127.692383,4122.563965,4132.820313,4126.153809,4121.538574,4125.641113,4131.282227,4134.871582,4151.794922,4142.563965,4144.615234,0.000000,4.000000,,,,0.000000,4.000000,4.000000,4.000000,4.000000,4.000000,4.000000,4.000000,4.000000,4.000000,4.000000,4.000000,4.000000,4.000000,4.000000,100.000000
1602006517.037382,25.000000,0.000000,4124.615234,4126.153809,4126.153809,4134.871582,4123.077148,4136.410156,4135.897461,4123.589844,4138.461426,4160.000000,4140.512695,4157.436035,4138.974121,4155.384766,0.000000,4.000000,,,,0.000000,4.000000,4.000000,4.000000,4.000000,4.000000,4.000000,4.000000,4.000000,4.000000,4.000000,4.000000,4.000000,4.000000,4.000000,100.000000
1602006517.045263,26.000000,0.000000,4122.051270,4122.563965,4124.615234,4136.922852,4122.051270,4124.615234,4131.794922,4125.128418,4136.410156,4142.563965,4141.025879,4158.461426,4138.974121,4143.077148,0.000000,4.000000,,,,0.000000,4.000000,4.000000,4.000000,4.000000,4.000000,4.000000,4.000000,4.000000,4.000000,4.000000,4.000000,4.000000,4.000000,4.000000,100.000000
1602006517.053145,27.000000,0.000000,4127.179688,4127.179688,4123.077148,4134.358887,4122.563965,4118.461426,4120.000000,4123.589844,4120.512695,4109.743652,4136.410156,4154.358887,4138.974121,4135.897461,0.000000,4.000000,,,,0.000000,4.000000,4.000000,4.000000,4.000000,4.000000,4.000000,4.000000,4.000000,4.000000,4.000000,4.000000,4.000000,4.000000,4.000000,100.000000
1602006517.061026,28.000000,0.000000,4136.410156,4135.897461,4128.717773,4135.384766,4122.563965,4127.179688,4121.538574,4123.589844,4116.922852,4133.846191,4142.051270,4151.794922,4137.436035,4138.974121,0.000000,4.000000,,,,0.000000,4.000000,4.000000,4.000000,4.000000,4.000000,4.000000,4.000000,4.000000,4.000000,4.000000,4.000000,4.000000,4.000000,4.000000,100.000000
1602006517.068908,29.000000,0.000000,4138.974121,4137.948730,4136.922852,4140.000000,4124.102539,4137.948730,4124.102539,4122.051270,4130.256348,4164.615234,4145.128418,4154.358887,4138.461426,4145.128418,0.000000,4.000000,,,,0.000000,4.000000,4.000000,4.000000,4.000000,4.000000,4.000000,4.000000,4.000000,4.000000,4.000000,4.000000,4.000000,4.000000,4.000000,100.000000
1602006517.076789,30.000000,0.000000,4134.871582,4136.410156,4138.974121,4140.512695,4130.769043,4136.922852,4117.436035,4114.871582,4137.436035,4138.974121,4136.410156,4155.384766,4147.692383,4151.794922,0.000000,4.000000,,,,0.000000,4.000000,4.000000,4.000000,4.000000,4.000000,4.000000,4.000000,4.000000,4.000000,4.000000,4.000000,4.000000,4.000000,4.000000,100.000000
1602006517.084570,31.000000,0.000000,4139.487305,4138.461426,4136.410156,4140.000000,4135.897461,4132.307617,4122.563965,4113.333496,4127.179688,4119.487305,4138.974121,4153.846191,4155.384766,4150.256348,0.000000,4.000000,,,,0.000000,4.000000,4.000000,4.000000,4.000000,4.000000,4.000000,4.000000,4.000000,4.000000,4.000000,4.000000,4.000000,4.000000,4.000000,100.000000
1602006517.092452,32.000000,0.000000,4142.051270,4138.974121,4135.384766,4140.000000,4135.384766,4132.820313,4136.410156,4120.000000,4120.512695,4142.051270,4147.692383,4148.205078,4148.717773,4142.563965,0.000000,4.000000,,,,0.000000,4.000000,4.000000,4.000000,4.000000,4.000000,4.000000,4.000000,4.000000,4.000000,4.000000,4.000000,4.000000,4.000000,4.000000,100.000000
1602006517.100333,33.000000,0.000000,4126.666504,4129.743652,4124.615234,4135.897461,4134.871582,4136.410156,4140.000000,4121.025879,4131.794922,4148.205078,4142.563965,4136.410156,4136.922852,4134.358887,0.000000,4.000000,,,,0.000000,4.000000,4.000000,4.000000,4.000000,4.000000,4.000000,4.000000,4.000000,4.000000,4.000000,4.000000,4.000000,4.000000,4.000000,100.000000
1602006517.108215,34.000000,0.000000,4114.358887,4124.102539,4109.230957,4131.794922,4132.307617,4135.384766,4136.922852,4122.563965,4139.487305,4132.820313,4136.922852,4129.743652,4140.000000,4125.128418,0.000000,4.000000,,,,0.000000,4.000000,4.000000,4.000000,4.000000,4.000000,4.000000,4.000000,4.000000,4.000000,4.000000,4.000000,4.000000,4.000000,4.000000,100.000000
1602006517.116096,35.000000,0.000000,4120.000000,4128.205078,4109.743652,4135.384766,4126.666504,4133.333496,4139.487305,4133.333496,4133.333496,4146.666504,4138.974121,4132.307617,4144.102539,4128.717773,0.000000,4.000000,,,,0.000000,4.000000,4.000000,4.000000,4.000000,4.000000,4.000000,4.000000,4.000000,4.000000,4.000000,4.000000,4.000000,4.000000,4.000000,100.000000
1602006517.124077,36.000000,0.000000,4121.538574,4121.025879,4117.436035,4134.358887,4129.230957,4136.410156,4142.051270,4142.051270,4136.922852,4164.615234,4142.051270,4137.948730,4130.256348,4135.384766,0.000000,4.000000,,,,0.000000,4.000000,4.000000,4.000000,4.000000,4.000000,4.000000,4.000000,4.000000,4.000000,4.000000,4.000000,4.000000,4.000000,4.000000,100.000000
1602006517.131959,37.000000,0.000000,4115.384766,4110.256348,4117.436035,4122.563965,4138.461426,4140.000000,4138.974121,4142.051270,4143.589844,4147.179688,4142.563965,4141.538574,4120.512695,4124.615234,0.000000,4.000000,,,,0.000000,4.000000,4.000000,4.000000,4.000000,4.000000,4.000000,4.000000,4.000000,4.000000,4.000000,4.000000,4.000000,4.000000,4.000000,100.000000
1602006517.139840,38.000000,0.000000,4126.153809,4122.563965,4112.820313,4121.025879,4136.410156,4135.897461,4135.897461,4137.948730,4139.487305,4128.717773,4133.846191,4140.000000,4126.666504,4117.948730,0.000000,4.000000,,,,0.000000,4.000000,4.000000,4.000000,4.000000,4.000000,4.000000,4.000000,4.000000,4.000000,4.000000,4.000000,4.000000,4.000000,4.000000,100.000000
1602006517.147722,39.000000,0.000000,4148.717773,4141.025879,4115.897461,4131.282227,4129.743652,4129.230957,4135.897461,4136.410156,4138.461426,4135.384766,4120.512695,4137.436035,4123.589844,4126.666504,0.000000,4.000000,,,,0.000000,4.000000,4.000000,4.000000,4.000000,4.000000,4.000000,4.000000,4.000000,4.000000,4.000000,4.000000,4.000000,4.000000,4.000000,100.000000
1602006517.155603,40.000000,0.000000,4159.487305,4148.205078,4119.487305,4135.897461,4131.282227,4123.589844,4134.871582,4134.358887,4136.410156,4142.563965,4119.487305,4135.384766,4111.794922,4122.563965,0.000000,4.000000,,,,0.000000,4.000000,4.000000,4.000000,4.000000,4.000000,4.000000,4.000000,4.000000,4.000000,4.000000,4.000000,4.000000,4.000000,4.000000,100.000000
1602006517.163484,41.000000,0.000000,4165.641113,4160.000000,4121.538574,4141.025879,4135.384766,4124.615234,4129.230957,4127.692383,4125.641113,4127.692383,4131.282227,4137.948730,4114.871582,4118.974121,0.000000,4.000000,,,,0.000000,4.000000,4.000000,4.000000,4.000000,4.000000,4.000000,4.000000,4.000000,4.000000,4.000000,4.000000,4.000000,4.000000,4.000000,100.000000
1602006517.171366,42.000000,0.000000,4182.051270,4180.512695,4132.820313,4154.871582,4137.436035,4136.922852,4127.179688,4123.589844,4120.512695,4114.358887,4140.512695,4143.077148,4125.128418,4137.948730,0.000000,4.000000,,,,0.000000,4.000000,4.000000,4.000000,4.000000,4.000000,4.000000,4.000000,4.000000,4.000000,4.000000,4.000000,4.000000,4.000000,4.000000,100.000000
1602006517.179347,43.000000,0.000000,4194.358887,4185.641113,4145.128418,4160.000000,4140.512695,4138.974121,4126.666504,4122.051270,4126.153809,4121.538574,4136.922852,4143.589844,4127.179688,4142.563965,0.000000,4.000000,,,,0.000000,4.000000,4.000000,4.000000,4.000000,4.000000,4.000000,4.000000,4.000000,4.000000,4.000000,4.000000,4.000000,4.000000,4.000000,100.000000
1602006517.187228,44.000000,0.000000,4186.153809,4173.333496,4144.102539,4153.846191,4140.000000,4125.641113,4115.897461,4116.410156,4125.128418,4129.743652,4127.179688,4138.974121,4116.922852,4127.692383,0.000000,4.000000,,,,0.000000,4.000000,4.000000,4.000000,4.000000,4.000000,4.000000,4.000000,4.000000,4.000000,4.000000,4.000000,4.000000,4.000000,4.000000,100.000000
1602006517.195109,45.000000,0.000000,4160.512695,4155.384766,4130.769043,4140.512695,4130.769043,4119.487305,4110.256348,4115.384766,4115.384766,4121.538574,4115.384766,4131.282227,4098.461426,4117.948730,0.000000,4.000000,,,,0.000000,4.000000,4.000000,4.000000,4.000000,4.000000,4.000000,4.000000,4.000000,4.000000,4.000000,4.000000,4.000000,4.000000,4.000000,100.000000
1602006517.202990,46.000000,0.000000,4137.948730,4141.025879,4121.538574,4125.641113,4122.563965,4122.051270,4117.436035,4121.538574,4106.153809,4108.205078,4103.077148,4125.128418,4086.153809,4108.717773,0.000000,4.000000,,,,0.000000,4.000000,4.000000,4.000000,4.000000,4.000000,4.000000,4.000000,4.000000,4.000000,4.000000,4.000000,4.000000,4.000000,4.000000,100.000000
1602006517.210872,47.000000,0.000000,4133.846191,4135.897461,4115.384766,4120.000000,4122.051270,4121.025879,4122.563965,4123.077148,4104.615234,4104.102539,4103.077148,4122.563965,4085.641113,4100.512695,0.000000,4.000000,,,,0.000000,4.000000,4.000000,4.000000,4.000000,4.000000,4.000000,4.000000,4.000000,4.000000,4.000000,4.000000,4.000000,4.000000,4.000000,100.000000
1602006517.218653,48.000000,0.000000,4131.794922,4135.384766,4105.641113,4123.077148,4125.641113,4121.538574,4124.102539,4123.589844,4111.282227,4095.897461,4107.179688,4117.436035,4082.051270,4102.563965,0.000000,4.000000,,,,0.000000,4.000000,4.000000,4.000000,4.000000,4.000000,4.000000,4.000000,4.000000,4.000000,4.000000,4.000000,4.000000,4.000000,4.000000,100.000000
1602006517.226533,49.000000,0.000000,4127.179688,4133.846191,4102.051270,4122.563965,4124.615234,4122.051270,4129.230957,4125.128418,4103.077148,4077.435791,4094.358887,4110.769043,4079.487061,4108.717773,0.000000,4.000000,,,,0.000000,4.000000,4.000000,4.000000,4.000000,4.000000,4.000000,4.000000,4.000000,4.000000,4.000000,4.000000,4.000000,4.000000,4.000000,100.000000
1602006517.234315,50.000000,0.000000,4136.410156,4136.922852,4111.794922,4123.589844,4118.974121,4122.051270,4131.282227,4124.102539,4095.384521,4077.948730,4093.846191,4115.384766,4091.281982,4112.820313,0.000000,4.000000,,,,0.000000,4.000000,4.000000,4.000000,4.000000,4.000000,4.000000,4.000000,4.000000,4.000000,4.000000,4.000000,4.000000,4.000000,4.000000,100.000000
1602006517.242196,51.000000,0.000000,4155.384766,4151.282227,4123.077148,4132.307617,4122.563965,4131.282227,4134.871582,4129.230957,4117.948730,4117.948730,4117.436035,4133.333496,4107.692383,4118.974121,0.000000,4.000000,,,,0.000000,4.000000,4.000000,4.000000,4.000000,4.000000,4.000000,4.000000,4.000000,4.000000,4.000000,4.000000,4.000000,4.000000,4.000000,100.000000
1602006517.250078,52.000000,0.000000,4163.077148,4159.487305,4129.230957,4138.461426,4129.743652,4144.102539,4141.538574,4137.436035,4143.077148,4149.230957,4129.743652,4142.051270,4113.846191,4127.692383,0.000000,4.000000,,,,0.000000,4.000000,4.000000,4.000000,4.000000,4.000000,4.000000,4.000000,4.000000,4.000000,4.000000,4.000000,4.000000,4.000000,4.000000,100.000000
1602006517.257959,53.000000,0.000000,4159.487305,4155.384766,4136.922852,4138.461426,4128.717773,4140.512695,4136.922852,4136.410156,4140.000000,4129.743652,4128.717773,4140.512695,4108.717773,4136.922852,0.000000,4.000000,,,,0.000000,4.000000,4.000000,4.000000,4.000000,4.000000,4.000000,4.000000,4.000000,4.000000,4.000000,4.000000,4.000000,4.000000,4.000000,100.000000
1602006517.265841,54.000000,0.000000,4156.922852,4154.358887,4137.948730,4138.461426,4125.641113,4126.666504,4123.077148,4133.846191,4134.358887,4107.692383,4125.641113,4136.410156,4109.230957,4136.922852,0.000000,4.000000,,,,0.000000,4.000000,4.000000,4.000000,4.000000,4.000000,4.000000,4.000000,4.000000,4.000000,4.000000,4.000000,4.000000,4.000000,4.000000,100.000000
1602006517.273722,55.000000,0.000000,4154.358887,4152.307617,4129.743652,4138.974121,4124.102539,4123.589844,4120.000000,4136.922852,4140.512695,4118.974121,4112.820313,4130.256348,4108.717773,4123.077148,0.000000,4.000000,,,,0.000000,4.000000,4.000000,4.000000,4.000000,4.000000,4.000000,4.000000,4.000000,4.000000,4.000000,4.000000,4.000000,4.000000,4.000000,100.000000
1602006517.281603,56.000000,0.000000,4154.358887,4144.102539,4124.102539,4136.922852,4124.615234,4135.897461,4130.256348,4137.948730,4137.948730,4116.922852,4107.179688,4120.512695,4096.922852,4113.846191,0.000000,4.000000,,,,0.000000,4.000000,4.000000,4.000000,4.000000,4.000000,4.000000,4.000000,4.000000,4.000000,4.000000,4.000000,4.000000,4.000000,4.000000,100.000000
1602006517.289584,57.000000,0.000000,4149.230957,4136.410156,4113.846191,4130.769043,4126.666504,4148.717773,4139.487305,4136.922852,4127.692383,4090.769287,4108.717773,4112.307617,4087.179443,4108.717773,0.000000,4.000000,,,,0.000000,4.000000,4.000000,4.000000,4.000000,4.000000,4.000000,4.000000,4.000000,4.000000,4.000000,4.000000,4.000000,4.000000,4.000000,100.000000
1602006517.297466,58.000000,0.000000,4137.436035,4133.846191,4101.025879,4128.205078,4126.153809,4148.717773,4147.179688,4139.487305,4119.487305,4086.666748,4096.922852,4113.846191,4086.666748,4100.512695,0.000000,4.000000,,,,0.000000,4.000000,4.000000,4.000000,4.000000,4.000000,4.000000,4.000000,4.000000,4.000000,4.000000,4.000000,4.000000,4.000000,4.000000,100.000000
1602006517.305347,59.000000,0.000000,4142.563965,4138.974121,4109.743652,4134.358887,4125.128418,4146.153809,4153.333496,4141.025879,4123.077148,4113.846191,4098.974121,4121.538574,4093.846191,4106.153809,0.000000,4.000000,,,,0.000000,4.000000,4.000000,4.000000,4.000000,4.000000,4.000000,4.000000,4.000000,4.000000,4.000000,4.000000,4.000000,4.000000,4.000000,100.000000
1602006517.313228,60.000000,0.000000,4156.922852,4143.077148,4127.692383,4138.461426,4127.692383,4150.256348,4155.897461,4140.000000,4136.922852,4132.820313,4123.589844,4123.077148,4105.128418,4120.512695,0.000000,4.000000,,,,0.000000,4.000000,4.000000,4.000000,4.000000,4.000000,4.000000,4.000000,4.000000,4.000000,4.000000,4.000000,4.000000,4.000000,4.000000,100.000000
1602006517.321010,61.000000,0.000000,4160.512695,4141.538574,4128.205078,4135.897461,4127.692383,4154.871582,4154.871582,4140.000000,4138.974121,4124.615234,4126.666504,4120.512695,4110.256348,4120.512695,0.000000,4.000000,,,,0.000000,4.000000,4.000000,4.000000,4.000000,4.000000,4.000000,4.000000,4.000000,4.000000,4.000000,4.000000,4.000000,4.000000,4.000000,100.000000
1602006517.328891,62.000000,0.000000,4154.871582,4139.487305,4123.077148,4133.333496,4124.102539,4149.743652,4150.256348,4140.000000,4124.615234,4116.922852,4109.230957,4121.538574,4106.153809,4115.897461,0.000000,4.000000,,,,0.000000,4.000000,4.000000,4.000000,4.000000,4.000000,4.000000,4.000000,4.000000,4.000000,4.000000,4.000000,4.000000,4.000000,4.000000,100.000000
1602006517.336773,63.000000,0.000000,4153.846191,4141.538574,4124.102539,4134.871582,4126.666504,4138.461426,4142.051270,4140.000000,4118.974121,4122.051270,4105.128418,4122.051270,4103.589844,4118.974121,0.000000,4.000000,,,,0.000000,4.000000,4.000000,4.000000,4.000000,4.000000,4.000000,4.000000,4.000000,4.000000,4.000000,4.000000,4.000000,4.000000,4.000000,100.000000
1602006517.344655,64.000000,0.000000,4160.512695,4148.205078,4122.051270,4136.922852,4133.846191,4129.743652,4134.358887,4135.897461,4126.153809,4122.563965,4112.307617,4120.000000,4107.179688,4121.025879,790.000000,4.000000,,,,0.000000,4.000000,4.000000,4.000000,4.000000,4.000000,4.000000,4.000000,4.000000,4.000000,4.000000,4.000000,4.000000,4.000000,4.000000,100.000000
1602006517.352536,65.000000,0.000000,4166.153809,4155.897461,4123.077148,4140.000000,4137.948730,4124.615234,4134.871582,4136.922852,4132.307617,4126.666504,4119.487305,4126.153809,4117.948730,4125.128418,787.000000,4.000000,,,,0.000000,4.000000,4.000000,4.000000,4.000000,4.000000,4.000000,4.000000,4.000000,4.000000,4.000000,4.000000,4.000000,4.000000,4.000000,100.000000
1602006517.360418,66.000000,0.000000,4166.666504,4156.922852,4133.846191,4147.179688,4142.051270,4133.333496,4138.974121,4146.153809,4133.333496,4138.974121,4123.589844,4139.487305,4125.128418,4135.384766,852.000000,4.000000,,,,0.000000,4.000000,4.000000,4.000000,4.000000,4.000000,4.000000,4.000000,4.000000,4.000000,4.000000,4.000000,4.000000,4.000000,4.000000,100.000000
1602006517.368300,67.000000,0.000000,4168.205078,4158.974121,4142.563965,4152.307617,4142.563965,4141.025879,4139.487305,4145.641113,4124.615234,4123.589844,4115.897461,4145.128418,4112.307617,4138.461426,874.000000,4.000000,,,,0.000000,4.000000,4.000000,4.000000,4.000000,4.000000,4.000000,4.000000,4.000000,4.000000,4.000000,4.000000,4.000000,4.000000,4.000000,100.000000
1602006517.376181,68.000000,0.000000,4169.743652,4164.102539,4147.692383,4149.743652,4136.922852,4136.922852,4137.436035,4134.358887,4111.794922,4095.897461,4110.256348,4137.948730,4100.512695,4135.384766,809.000000,4.000000,,,,0.000000,4.000000,4.000000,4.000000,4.000000,4.000000,4.000000,4.000000,4.000000,4.000000,4.000000,4.000000,4.000000,4.000000,4.000000,100.000000
1602006517.384063,69.000000,0.000000,4174.358887,4162.563965,4149.743652,4148.717773,4133.333496,4134.871582,4138.461426,4132.307617,4113.333496,4108.717773,4120.000000,4135.384766,4104.615234,4136.922852,822.000000,4.000000,,,,0.000000,4.000000,4.000000,4.000000,4.000000,4.000000,4.000000,4.000000,4.000000,4.000000,4.000000,4.000000,4.000000,4.000000,4.000000,100.000000
1602006517.391844,70.000000,0.000000,4179.487305,4158.461426,4145.128418,4150.256348,4138.461426,4138.974121,4140.512695,4139.487305,4122.563965,4125.128418,4120.000000,4142.563965,4108.717773,4137.948730,754.000000,4.000000,,,,0.000000,4.000000,4.000000,4.000000,4.000000,4.000000,4.000000,4.000000,4.000000,4.000000,4.000000,4.000000,4.000000,4.000000,4.000000,100.000000
1602006517.399726,71.000000,0.000000,4177.436035,4160.512695,4133.333496,4143.077148,4140.000000,4139.487305,4137.436035,4134.358887,4122.563965,4122.563965,4105.128418,4138.461426,4112.307617,4142.051270,661.000000,4.000000,,,,0.000000,4.000000,4.000000,4.000000,4.000000,4.000000,4.000000,4.000000,4.000000,4.000000,4.000000,4.000000,4.000000,4.000000,4.000000,100.000000
1602006517.407607,72.000000,0.000000,4166.153809,4157.436035,4124.615234,4134.358887,4133.333496,4136.410156,4133.846191,4126.666504,4121.538574,4132.307617,4109.230957,4122.051270,4120.512695,4140.000000,784.000000,4.000000,,,,0.000000,4.000000,4.000000,4.000000,4.000000,4.000000,4.000000,4.000000,4.000000,4.000000,4.000000,4.000000,4.000000,4.000000,4.000000,100.000000
1602006517.415489,73.000000,0.000000,4161.538574,4152.307617,4117.948730,4135.384766,4133.846191,4134.358887,4132.820313,4132.307617,4127.179688,4138.461426,4122.563965,4121.538574,4122.051270,4125.641113,827.000000,4.000000,,,,0.000000,4.000000,4.000000,4.000000,4.000000,4.000000,4.000000,4.000000,4.000000,4.000000,4.000000,4.000000,4.000000,4.000000,4.000000,100.000000
1602006517.423370,74.000000,0.000000,4158.461426,4154.358887,4118.461426,4141.538574,4136.410156,4136.410156,4133.333496,4136.922852,4129.230957,4131.794922,4115.384766,4137.436035,4119.487305,4128.205078,871.000000,4.000000,,,,0.000000,4.000000,4.000000,4.000000,4.000000,4.000000,4.000000,4.000000,4.000000,4.000000,4.000000,4.000000,4.000000,4.000000,4.000000,100.000000
1602006517.431251,75.000000,0.000000,4154.871582,4155.384766,4128.205078,4143.077148,4129.230957,4136.922852,4136.410156,4133.846191,4123.077148,4121.538574,4109.743652,4140.512695,4120.000000,4140.000000,835.000000,4.000000,,,,0.000000,4.000000,4.000000,4.000000,4.000000,4.000000,4.000000,4.000000,4.000000,4.000000,4.000000,4.000000,4.000000,4.000000,4.000000,100.000000
1602006517.439133,76.000000,0.000000,4161.538574,4152.820313,4138.461426,4142.051270,4118.461426,4125.641113,4134.358887,4131.282227,4117.436035,4105.641113,4117.948730,4135.897461,4119.487305,4136.410156,764.000000,4.000000,,,,0.000000,4.000000,4.000000,4.000000,4.000000,4.000000,4.000000,4.000000,4.000000,4.000000,4.000000,4.000000,4.000000,4.000000,4.000000,100.000000
1602006517.447014,77.000000,0.000000,4169.743652,4154.358887,4144.102539,4141.025879,4118.461426,4116.410156,4135.384766,4138.461426,4122.051270,4109.230957,4125.128418,4140.512695,4121.538574,4142.051270,730.000000,4.000000,,,,0.000000,4.000000,4.000000,4.000000,4.000000,4.000000,4.000000,4.000000,4.000000,4.000000,4.000000,4.000000,4.000000,4.000000,4.000000,100.000000
1602006517.454796,78.000000,0.000000,4168.205078,4156.410156,4142.563965,4138.461426,4121.538574,4128.205078,4149.230957,4146.666504,4134.358887,4145.128418,4134.871582,4143.077148,4126.153809,4154.871582,871.000000,4.000000,,,,0.000000,4.000000,4.000000,4.000000,4.000000,4.000000,4.000000,4.000000,4.000000,4.000000,4.000000,4.000000,4.000000,4.000000,4.000000,100.000000
1602006517.462678,79.000000,0.000000,4159.487305,4149.230957,4138.461426,4137.436035,4118.974121,4140.512695,4153.333496,4151.282227,4146.666504,4168.205078,4137.948730,4139.487305,4126.153809,4136.922852,835.000000,4.000000,,,,0.000000,4.000000,4.000000,4.000000,4.000000,4.000000,4.000000,4.000000,4.000000,4.000000,4.000000,4.000000,4.000000,4.000000,4.000000,100.000000
1602006517.470559,80.000000,0.000000,4153.846191,4141.025879,4136.922852,4138.461426,4120.000000,4136.922852,4146.666504,4153.846191,4155.897461,4156.922852,4129.230957,4135.897461,4122.051270,4117.948730,764.000000,4.000000,,,,0.000000,4.000000,4.000000,4.000000,4.000000,4.000000,4.000000,4.000000,4.000000,4.000000,4.000000,4.000000,4.000000,4.000000,4.000000,100.000000
1602006517.478441,81.000000,0.000000,4154.871582,4140.000000,4134.358887,4131.794922,4124.615234,4135.384766,4147.692383,4149.230957,4150.256348,4143.077148,4122.563965,4126.153809,4115.897461,4130.256348,730.000000,4.000000,,,,0.000000,4.000000,4.000000,4.000000,4.000000,4.000000,4.000000,4.000000,4.000000,4.000000,4.000000,4.000000,4.000000,4.000000,4.000000,100.000000
1602006517.486322,82.000000,0.000000,4148.205078,4140.000000,4132.820313,4122.563965,4125.128418,4140.000000,4153.846191,4141.538574,4134.358887,4136.922852,4122.563965,4120.000000,4106.666504,4136.922852,871.000000,4.000000,,,,0.000000,4.000000,4.000000,4.000000,4.000000,4.000000,4.000000,4.000000,4.000000,4.000000,4.000000,4.000000,4.000000,4.000000,4.000000,100.000000
1602006517.494204,83.000000,0.000000,4143.589844,4138.461426,4135.897461,4128.205078,4123.589844,4141.025879,4154.358887,4143.589844,4133.333496,4121.025879,4123.589844,4125.641113,4106.153809,4127.179688,835.000000,4.000000,,,,0.000000,4.000000,4.000000,4.000000,4.000000,4.000000,4.000000,4.000000,4.000000,4.000000,4.000000,4.000000,4.000000,4.000000,4.000000,100.000000
1602006517.502086,84.000000,0.000000,4150.256348,4138.974121,4140.512695,4138.461426,4124.102539,4136.410156,4148.205078,4144.615234,4135.897461,4101.025879,4119.487305,4126.153809,4107.692383,4119.487305,764.000000,4.000000,,,,0.000000,4.000000,4.000000,4.000000,4.000000,4.000000,4.000000,4.000000,4.000000,4.000000,4.000000,4.000000,4.000000,4.000000,4.000000,100.000000
1602006517.509967,85.000000,0.000000,4155.384766,4140.512695,4142.563965,4137.436035,4124.615234,4132.307617,4140.000000,4142.051270,4130.256348,4109.230957,4116.410156,4125.641113,4102.563965,4121.538574,730.000000,4.000000,,,,0.000000,4.000000,4.000000,4.000000,4.000000,4.000000,4.000000,4.000000,4.000000,4.000000,4.000000,4.000000,4.000000,4.000000,4.000000,100.000000
1602006517.517949,86.000000,0.000000,4153.846191,4142.563965,4144.615234,4137.948730,4124.102539,4130.256348,4136.922852,4147.692383,4133.846191,4138.974121,4126.666504,4136.410156,4111.282227,4135.897461,871.000000,4.000000,,,,0.000000,4.000000,4.000000,4.000000,4.000000,4.000000,4.000000,4.000000,4.000000,4.000000,4.000000,4.000000,4.000000,4.000000,4.000000,100.000000
1602006517.525831,87.000000,0.000000,4154.871582,4144.102539,4144.102539,4141.025879,4122.563965,4127.692383,4137.436035,4151.282227,4136.922852,4142.563965,4133.333496,4141.538574,4123.077148,4144.615234,835.000000,4.000000,,,,0.000000,4.000000,4.000000,4.000000,4.000000,4.000000,4.000000,4.000000,4.000000,4.000000,4.000000,4.000000,4.000000,4.000000,4.000000,100.000000
1602006517.533712,88.000000,0.000000,4150.256348,4138.461426,4140.000000,4132.820313,4121.538574,4127.179688,4135.897461,4146.153809,4128.717773,4127.179688,4129.743652,4138.461426,4114.871582,4133.846191,764.000000,4.000000,,,,0.000000,4.000000,4.000000,4.000000,4.000000,4.000000,4.000000,4.000000,4.000000,4.000000,4.000000,4.000000,4.000000,4.000000,4.000000,100.000000
1602006517.541594,89.000000,0.000000,4138.974121,4126.153809,4134.871582,4122.051270,4121.538574,4128.205078,4137.948730,4147.179688,4127.692383,4128.717773,4131.282227,4133.333496,4104.615234,4126.666504,730.000000,4.000000,,,,0.000000,4.000000,4.000000,4.000000,4.000000,4.000000,4.000000,4.000000,4.000000,4.000000,4.000000,4.000000,4.000000,4.000000,4.000000,100.000000
1602006517.549475,90.000000,0.000000,4134.358887,4122.563965,4127.692383,4121.025879,4120.000000,4122.563965,4138.974121,4145.128418,4126.666504,4126.666504,4127.692383,4125.641113,4107.179688,4135.384766,871.000000,4.000000,,,,0.000000,4.000000,4.000000,4.000000,4.000000,4.000000,4.000000,4.000000,4.000000,4.000000,4.000000,4.000000,4.000000,4.000000,4.000000,100.000000
1602006517.557357,91.000000,0.000000,4138.974121,4134.358887,4123.077148,4126.666504,4120.000000,4122.563965,4135.384766,4134.871582,4115.897461,4114.871582,4123.589844,4120.512695,4109.743652,4140.512695,835.000000,4.000000,,,,0.000000,4.000000,4.000000,4.000000,4.000000,4.000000,4.000000,4.000000,4.000000,4.000000,4.000000,4.000000,4.000000,4.000000,4.000000,100.000000
1602006517.565239,92.000000,0.000000,4145.128418,4143.077148,4124.102539,4136.922852,4122.051270,4134.871582,4136.922852,4132.820313,4116.410156,4120.000000,4131.794922,4124.615234,4106.666504,4133.333496,764.000000,4.000000,,,,0.000000,4.000000,4.000000,4.000000,4.000000,4.000000,4.000000,4.000000,4.000000,4.000000,4.000000,4.000000,4.000000,4.000000,4.000000,100.000000
1602006517.573120,93.000000,0.000000,4144.615234,4137.948730,4122.563965,4141.025879,4123.589844,4139.487305,4137.948730,4136.410156,4123.077148,4125.128418,4128.205078,4123.589844,4103.077148,4121.025879,730.000000,4.000000,,,,0.000000,4.000000,4.000000,4.000000,4.000000,4.000000,4.000000,4.000000,4.000000,4.000000,4.000000,4.000000,4.000000,4.000000,4.000000,100.000000
1602006517.581002,94.000000,0.000000,4140.512695,4137.948730,4120.000000,4133.333496,4119.487305,4133.846191,4133.846191,4134.871582,4116.410156,4120.512695,4117.948730,4116.922852,4105.641113,4120.000000,871.000000,4.000000,,,,0.000000,4.000000,4.000000,4.000000,4.000000,4.000000,4.000000,4.000000,4.000000,4.000000,4.000000,4.000000,4.000000,4.000000,4.000000,100.000000
1602006517.588784,95.000000,0.000000,4138.974121,4136.922852,4120.000000,4123.077148,4110.256348,4135.897461,4134.871582,4135.897461,4105.128418,4123.077148,4123.077148,4118.461426,4107.179688,4123.589844,835.000000,4.000000,,,,0.000000,4.000000,4.000000,4.000000,4.000000,4.000000,4.000000,4.000000,4.000000,4.000000,4.000000,4.000000,4.000000,4.000000,4.000000,100.000000
1602006517.596665,96.000000,0.000000,4134.871582,4124.615234,4119.487305,4123.589844,4106.666504,4137.436035,4141.025879,4137.436035,4106.666504,4113.846191,4120.000000,4121.025879,4086.666748,4110.769043,764.000000,4.000000,,,,0.000000,4.000000,4.000000,4.000000,4.000000,4.000000,4.000000,4.000000,4.000000,4.000000,4.000000,4.000000,4.000000,4.000000,4.000000,100.000000
1602006517.604546,97.000000,0.000000,4137.436035,4125.641113,4126.153809,4131.794922,4115.897461,4132.820313,4140.512695,4137.436035,4119.487305,4093.333252,4118.461426,4123.077148,4081.538574,4113.846191,730.000000,4.000000,,,,0.000000,4.000000,4.000000,4.000000,4.000000,4.000000,4.000000,4.000000,4.000000,4.000000,4.000000,4.000000,4.000000,4.000000,4.000000,100.000000
1602006517.612428,98.000000,0.000000,4155.384766,4143.077148,4138.974121,4140.000000,4130.769043,4135.897461,4134.358887,4143.589844,4129.743652,4109.230957,4145.128418,4135.897461,4125.128418,4154.871582,871.000000,4.000000,,,,0.000000,4.000000,4.000000,4.000000,4.000000,4.000000,4.000000,4.000000,4.000000,4.000000,4.000000,4.000000,4.000000,4.000000,4.000000,100.000000
1602006517.620309,99.000000,0.000000,4161.025879,4146.666504,4141.025879,4138.974121,4139.487305,4136.410156,4131.282227,4151.282227,4135.384766,4148.717773,4166.666504,4147.692383,4160.000000,4179.487305,835.000000,4.000000,,,,0.000000,4.000000,4.000000,4.000000,4.000000,4.000000,4.000000,4.000000,4.000000,4.000000,4.000000,4.000000,4.000000,4.000000,4.000000,100.000000
1602006517.628191,100.000000,0.000000,4146.666504,4130.256348,4135.897461,4130.769043,4138.461426,4127.179688,4130.256348,4153.333496,4146.666504,4160.000000,4160.512695,4147.179688,4160.000000,4174.871582,764.000000,4.000000,,,,0.000000,4.000000,4.000000,4.000000,4.000000,4.000000,4.000000,4.000000,4.000000,4.000000,4.000000,4.000000,4.000000,4.000000,4.000000,100.000000
1602006517.636072,101.000000,0.000000,4138.974121,4118.974121,4140.512695,4125.128418,4135.897461,4131.794922,4134.358887,4151.794922,4158.974121,4158.974121,4155.384766,4146.153809,4166.153809,4184.102539,730.000000,4.000000,,,,0.000000,4.000000,4.000000,4.000000,4.000000,4.000000,4.000000,4.000000,4.000000,4.000000,4.000000,4.000000,4.000000,4.000000,4.000000,100.000000
1602006517.643953,102.000000,0.000000,4134.358887,4120.512695,4145.641113,4125.641113,4142.051270,4151.282227,4148.717773,4150.769043,4154.871582,4162.563965,4160.000000,4149.743652,4178.974121,4188.205078,871.000000,4.000000,,,,0.000000,4.000000,4.000000,4.000000,4.000000,4.000000,4.000000,4.000000,4.000000,4.000000,4.000000,4.000000,4.000000,4.000000,4.000000,100.000000
1602006517.651735,103.000000,0.000000,4120.000000,4119.487305,4136.922852,4124.615234,4141.025879,4154.871582,4153.333496,4144.615234,4143.589844,4152.820313,4154.358887,4140.000000,4170.256348,4158.461426,835.000000,4.000000,,,,0.000000,4.000000,4.000000,4.000000,4.000000,4.000000,4.000000,4.000000,4.000000,4.000000,4.000000,4.000000,4.000000,4.000000,4.000000,100.000000
1602006517.659617,104.000000,0.000000,4110.769043,4111.794922,4122.563965,4121.538574,4125.641113,4143.077148,4141.025879,4129.743652,4133.846191,4137.436035,4138.461426,4122.051270,4155.897461,4134.871582,764.000000,4.000000,,,,0.000000,4.000000,4.000000,4.000000,4.000000,4.000000,4.000000,4.000000,4.000000,4.000000,4.000000,4.000000,4.000000,4.000000,4.000000,100.000000
1602006517.667498,105.000000,0.000000,4105.128418,4111.282227,4121.025879,4120.000000,4123.077148,4140.000000,4135.384766,4125.641113,4123.589844,4133.846191,4132.820313,4120.512695,4150.769043,4138.974121,730.000000,4.000000,,,,0.000000,4.000000,4.000000,4.000000,4.000000,4.000000,4.000000,4.000000,4.000000,4.000000,4.000000,4.000000,4.000000,4.000000,4.000000,100.000000
1602006517.675380,106.000000,0.000000,4105.128418,4119.487305,4131.282227,4123.077148,4136.410156,4142.051270,4141.025879,4134.871582,4125.128418,4146.153809,4141.538574,4138.974121,4149.743652,4148.717773,871.000000,4.000000,,,,0.000000,4.000000,4.000000,4.000000,4.000000,4.000000,4.000000,4.000000,4.000000,4.000000,4.000000,4.000000,4.000000,4.000000,4.000000,100.000000
1602006517.683262,107.000000,0.000000,4116.922852,4126.153809,4138.974121,4131.282227,4143.589844,4140.512695,4138.974121,4137.948730,4136.922852,4160.000000,4151.794922,4153.333496,4161.025879,4156.410156,835.000000,4.000000,,,,0.000000,4.000000,4.000000,4.000000,4.000000,4.000000,4.000000,4.000000,4.000000,4.000000,4.000000,4.000000,4.000000,4.000000,4.000000,100.000000
1602006517.691143,108.000000,0.000000,4127.692383,4131.282227,4139.487305,4139.487305,4143.077148,4139.487305,4133.846191,4133.333496,4138.974121,4158.974121,4155.897461,4154.358887,4168.205078,4166.666504,764.000000,4.000000,,,,0.000000,4.000000,4.000000,4.000000,4.000000,4.000000,4.000000,4.000000,4.000000,4.000000,4.000000,4.000000,4.000000,4.000000,4.000000,100.000000
1602006517.699025,109.000000,0.000000,4125.641113,4131.794922,4139.487305,4135.897461,4142.051270,4137.948730,4135.384766,4133.846191,4136.922852,4144.615234,4155.384766,4152.820313,4160.512695,4174.358887,730.000000,4.000000,,,,0.000000,4.000000,4.000000,4.000000,4.000000,4.000000,4.000000,4.000000,4.000000,4.000000,4.000000,4.000000,4.000000,4.000000,4.000000,100.000000
1602006517.706907,110.000000,0.000000,4121.538574,4125.128418,4141.538574,4125.128418,4136.410156,4135.897461,4135.384766,4137.436035,4137.436035,4141.538574,4154.871582,4156.410156,4160.000000,4166.666504,871.000000,4.000000,,,,0.000000,4.000000,4.000000,4.000000,4.000000,4.000000,4.000000,4.000000,4.000000,4.000000,4.000000,4.000000,4.000000,4.000000,4.000000,100.000000
1602006517.714888,111.000000,0.000000,4119.487305,4121.538574,4143.589844,4124.102539,4128.205078,4135.384766,4136.922852,4135.384766,4133.333496,4151.794922,4155.897461,4158.974121,4170.256348,4156.922852,835.000000,4.000000,,,,0.000000,4.000000,4.000000,4.000000,4.000000,4.000000,4.000000,4.000000,4.000000,4.000000,4.000000,4.000000,4.000000,4.000000,4.000000,100.000000
1602006517.722770,112.000000,0.000000,4121.025879,4123.077148,4142.051270,4127.179688,4127.179688,4141.025879,4146.666504,4136.410156,4137.436035,4155.897461,4158.974121,4161.025879,4172.820313,4163.077148,764.000000,4.000000,,,,0.000000,4.000000,4.000000,4.000000,4.000000,4.000000,4.000000,4.000000,4.000000,4.000000,4.000000,4.000000,4.000000,4.000000,4.000000,100.000000
1602006517.730651,113.000000,0.000000,4123.589844,4122.051270,4140.000000,4124.615234,4125.641113,4145.128418,4154.358887,4143.589844,4158.461426,4158.974121,4154.358887,4164.102539,4169.230957,4166.153809,730.000000,4.000000,,,,0.000000,4.000000,4.000000,4.000000,4.000000,4.000000,4.000000,4.000000,4.000000,4.000000,4.000000,4.000000,4.000000,4.000000,4.000000,100.000000
1602006517.738533,114.000000,0.000000,4112.307617,4122.051270,4135.384766,4124.615234,4122.051270,4140.512695,4153.333496,4146.153809,4170.769043,4155.384766,4145.128418,4161.538574,4169.743652,4156.410156,871.000000,4.000000,,,,0.000000,4.000000,4.000000,4.000000,4.000000,4.000000,4.000000,4.000000,4.000000,4.000000,4.000000,4.000000,4.000000,4.000000,4.000000,100.000000
1602006517.746415,115.000000,0.000000,4098.461426,4121.538574,4128.205078,4129.743652,4127.692383,4141.025879,4145.128418,4139.487305,4172.307617,4152.307617,4154.358887,4152.307617,4170.769043,4148.205078,835.000000,4.000000,,,,0.000000,4.000000,4.000000,4.000000,4.000000,4.000000,4.000000,4.000000,4.000000,4.000000,4.000000,4.000000,4.000000,4.000000,4.000000,100.000000
1602006517.754296,116.000000,0.000000,4090.769287,4110.769043,4115.384766,4123.589844,4129.743652,4141.538574,4135.384766,4128.205078,4168.717773,4162.051270,4161.025879,4136.410156,4165.641113,4137.436035,764.000000,4.000000,,,,0.000000,4.000000,4.000000,4.000000,4.000000,4.000000,4.000000,4.000000,4.000000,4.000000,4.000000,4.000000,4.000000,4.000000,4.000000,100.000000
1602006517.762178,117.000000,0.000000,4086.153809,4100.512695,4103.077148,4112.820313,4125.128418,4134.358887,4130.769043,4122.051270,4154.358887,4160.000000,4137.948730,4125.128418,4152.307617,4120.512695,730.000000,4.000000,,,,0.000000,4.000000,4.000000,4.000000,4.000000,4.000000,4.000000,4.000000,4.000000,4.000000,4.000000,4.000000,4.000000,4.000000,4.000000,100.000000
1602006517.770060,118.000000,0.000000,4095.897461,4104.615234,4107.692383,4118.461426,4132.307617,4136.922852,4134.871582,4124.102539,4142.051270,4138.461426,4119.487305,4130.256348,4138.974121,4120.512695,871.000000,4.000000,,,,0.000000,4.000000,4.000000,4.000000,4.000000,4.000000,4.000000,4.000000,4.000000,4.000000,4.000000,4.000000,4.000000,4.000000,4.000000,100.000000
1602006517.777941,119.000000,0.000000,4108.205078,4109.743652,4120.000000,4126.666504,4140.512695,4141.538574,4135.897461,4125.128418,4140.512695,4132.820313,4129.230957,4138.461426,4137.436035,4125.641113,835.000000,4.000000,,,,0.000000,4.000000,4.000000,4.000000,4.000000,4.000000,4.000000,4.000000,4.000000,4.000000,4.000000,4.000000,4.000000,4.000000,4.000000,100.000000
1602006517.785823,120.000000,0.000000,4100.512695,4104.102539,4119.487305,4117.948730,4130.256348,4129.230957,4131.794922,4119.487305,4135.897461,4135.384766,4130.256348,4133.333496,4134.358887,4112.307617,764.000000,4.000000,,,,0.000000,4.000000,4.000000,4.000000,4.000000,4.000000,4.000000,4.000000,4.000000,4.000000,4.000000,4.000000,4.000000,4.000000,4.000000,100.000000
1602006517.793604,121.000000,0.000000,4099.487305,4103.589844,4116.410156,4111.794922,4127.692383,4125.641113,4132.820313,4120.512695,4135.384766,4123.589844,4116.410156,4131.794922,4128.205078,4110.769043,730.000000,4.000000,,,,0.000000,4.000000,4.000000,4.000000,4.000000,4.000000,4.000000,4.000000,4.000000,4.000000,4.000000,4.000000,4.000000,4.000000,4.000000,100.000000
1602006517.801486,122.000000,0.000000,4125.641113,4118.974121,4132.820313,4127.692383,4140.512695,4144.102539,4141.025879,4138.461426,4153.333496,4131.794922,4129.230957,4149.743652,4143.077148,4141.025879,871.000000,4.000000,,,,0.000000,4.000000,4.000000,4.000000,4.000000,4.000000,4.000000,4.000000,4.000000,4.000000,4.000000,4.000000,4.000000,4.000000,4.000000,100.000000
