Timestamp,EEG.Counter,EEG.Interpolated,EEG.AF3,EEG.F7,EEG.F3,EEG.FC5,EEG.T7,EEG.P7,EEG.O1,EEG.O2,EEG.P8,EEG.T8,EEG.FC6,EEG.F4,EEG.F8,EEG.AF4,EEG.RawCq,EEG.Battery,MarkerIndex,MarkerType,MarkerValueInt,EEG.MarkerHardware,CQ.AF3,CQ.F7,CQ.F3,CQ.FC5,CQ.T7,CQ.P7,CQ.O1,CQ.O2,CQ.P8,CQ.T8,CQ.FC6,CQ.F4,CQ.F8,CQ.AF4,CQ.Overall
1602006553.815696,48.000000,0.000000,4132.820313,4137.436035,4137.948730,4132.820313,4128.717773,4127.179688,4123.077148,4138.974121,4145.128418,4141.025879,4140.512695,4140.512695,4133.846191,4138.461426,0.000000,4.000000,,,,0.000000,4.000000,4.000000,4.000000,4.000000,4.000000,4.000000,4.000000,4.000000,4.000000,4.000000,4.000000,4.000000,4.000000,4.000000,100.000000
1602006553.823477,49.000000,0.000000,4145.641113,4140.512695,4138.974121,4137.948730,4136.410156,4138.974121,4127.179688,4144.615234,4157.436035,4158.974121,4153.333496,4149.743652,4144.615234,4134.871582,0.000000,4.000000,,,,0.000000,4.000000,4.000000,4.000000,4.000000,4.000000,4.000000,4.000000,4.000000,4.000000,4.000000,4.000000,4.000000,4.000000,4.000000,100.000000
1602006553.831358,50.000000,0.000000,4141.025879,4139.487305,4138.974121,4140.000000,4137.948730,4138.974121,4125.641113,4147.179688,4146.666504,4161.538574,4157.436035,4154.871582,4154.871582,4145.641113,0.000000,4.000000,,,,0.000000,4.000000,4.000000,4.000000,4.000000,4.000000,4.000000,4.000000,4.000000,4.000000,4.000000,4.000000,4.000000,4.000000,4.000000,100.000000
1602006553.839239,51.000000,0.000000,4133.333496,4136.410156,4140.000000,4135.897461,4136.922852,4133.333496,4120.512695,4142.563965,4134.871582,4147.692383,4146.666504,4154.358887,4152.307617,4154.871582,0.000000,4.000000,,,,0.000000,4.000000,4.000000,4.000000,4.000000,4.000000,4.000000,4.000000,4.000000,4.000000,4.000000,4.000000,4.000000,4.000000,4.000000,100.000000
1602006553.847120,52.000000,0.000000,4140.512695,4141.538574,4143.589844,4140.000000,4140.512695,4136.410156,4122.563965,4134.358887,4129.743652,4150.256348,4142.563965,4153.333496,4151.282227,4153.846191,0.000000,4.000000,,,,0.000000,4.000000,4.000000,4.000000,4.000000,4.000000,4.000000,4.000000,4.000000,4.000000,4.000000,4.000000,4.000000,4.000000,4.000000,100.000000
1602006553.855001,53.000000,0.000000,4145.641113,4146.666504,4142.563965,4147.179688,4142.051270,4140.512695,4125.128418,4131.282227,4124.615234,4154.358887,4144.102539,4146.153809,4156.922852,4149.230957,0.000000,4.000000,,,,0.000000,4.000000,4.000000,4.000000,4.000000,4.000000,4.000000,4.000000,4.000000,4.000000,4.000000,4.000000,4.000000,4.000000,4.000000,100.000000
1602006553.862883,54.000000,0.000000,4132.307617,4143.589844,4137.948730,4143.589844,4138.461426,4138.974121,4122.051270,4131.794922,4126.666504,4151.794922,4138.461426,4136.410156,4154.358887,4142.563965,0.000000,4.000000,,,,0.000000,4.000000,4.000000,4.000000,4.000000,4.000000,4.000000,4.000000,4.000000,4.000000,4.000000,4.000000,4.000000,4.000000,4.000000,100.000000
1602006553.870764,55.000000,0.000000,4128.205078,4143.077148,4144.102539,4139.487305,4142.051270,4140.512695,4128.205078,4137.436035,4136.922852,4158.461426,4142.563965,4138.461426,4152.307617,4142.051270,0.000000,4.000000,,,,0.000000,4.000000,4.000000,4.000000,4.000000,4.000000,4.000000,4.000000,4.000000,4.000000,4.000000,4.000000,4.000000,4.000000,4.000000,100.000000
1602006553.878645,56.000000,0.000000,4139.487305,4144.615234,4153.333496,4141.025879,4142.563965,4141.025879,4140.000000,4141.538574,4138.974121,4150.256348,4154.871582,4143.077148,4155.897461,4152.307617,0.000000,4.000000,,,,0.000000,4.000000,4.000000,4.000000,4.000000,4.000000,4.000000,4.000000,4.000000,4.000000,4.000000,4.000000,4.000000,4.000000,4.000000,100.000000
1602006553.886526,57.000000,0.000000,4140.512695,4138.974121,4147.179688,4142.051270,4136.410156,4135.897461,4135.897461,4138.461426,4136.922852,4136.410156,4152.820313,4138.461426,4153.333496,4153.333496,0.000000,4.000000,,,,0.000000,4.000000,4.000000,4.000000,4.000000,4.000000,4.000000,4.000000,4.000000,4.000000,4.000000,4.000000,4.000000,4.000000,4.000000,100.000000
1602006553.894307,58.000000,0.000000,4134.871582,4142.563965,4138.974121,4143.077148,4144.615234,4135.384766,4131.282227,4140.000000,4148.717773,4154.871582,4149.230957,4141.538574,4152.307617,4152.307617,0.000000,4.000000,,,,0.000000,4.000000,4.000000,4.000000,4.000000,4.000000,4.000000,4.000000,4.000000,4.000000,4.000000,4.000000,4.000000,4.000000,4.000000,100.000000
1602006553.902189,59.000000,0.000000,4137.436035,4150.769043,4141.025879,4143.077148,4157.436035,4140.512695,4137.948730,4143.589844,4164.615234,4179.487305,4158.461426,4150.769043,4156.410156,4157.436035,0.000000,4.000000,,,,0.000000,4.000000,4.000000,4.000000,4.000000,4.000000,4.000000,4.000000,4.000000,4.000000,4.000000,4.000000,4.000000,4.000000,4.000000,100.000000
1602006553.910070,60.000000,0.000000,4132.820313,4142.563965,4134.871582,4138.974121,4153.333496,4141.025879,4136.410156,4139.487305,4162.051270,4176.410156,4157.436035,4148.717773,4154.871582,4149.743652,0.000000,4.000000,,,,0.000000,4.000000,4.000000,4.000000,4.000000,4.000000,4.000000,4.000000,4.000000,4.000000,4.000000,4.000000,4.000000,4.000000,4.000000,100.000000
1602006553.917951,61.000000,0.000000,4115.384766,4133.333496,4121.538574,4133.846191,4148.717773,4137.948730,4129.230957,4136.922852,4145.128418,4164.102539,4145.641113,4141.538574,4154.871582,4137.436035,0.000000,4.000000,,,,0.000000,4.000000,4.000000,4.000000,4.000000,4.000000,4.000000,4.000000,4.000000,4.000000,4.000000,4.000000,4.000000,4.000000,4.000000,100.000000
1602006553.925832,62.000000,0.000000,4108.717773,4137.948730,4119.487305,4128.717773,4153.846191,4141.025879,4133.333496,4141.025879,4144.102539,4156.922852,4134.358887,4143.077148,4153.846191,4133.846191,0.000000,4.000000,,,,0.000000,4.000000,4.000000,4.000000,4.000000,4.000000,4.000000,4.000000,4.000000,4.000000,4.000000,4.000000,4.000000,4.000000,4.000000,100.000000
1602006553.933713,63.000000,0.000000,4113.846191,4137.948730,4124.102539,4126.153809,4154.358887,4144.102539,4138.461426,4141.538574,4155.384766,4155.897461,4127.692383,4145.128418,4143.589844,4128.205078,0.000000,4.000000,,,,0.000000,4.000000,4.000000,4.000000,4.000000,4.000000,4.000000,4.000000,4.000000,4.000000,4.000000,4.000000,4.000000,4.000000,4.000000,100.000000
1602006553.941594,64.000000,0.000000,4113.333496,4128.717773,4124.102539,4128.205078,4149.743652,4144.102539,4136.410156,4140.000000,4150.769043,4162.051270,4133.333496,4143.589844,4135.897461,4122.563965,798.000000,4.000000,,,,0.000000,4.000000,4.000000,4.000000,4.000000,4.000000,4.000000,4.000000,4.000000,4.000000,4.000000,4.000000,4.000000,4.000000,4.000000,100.000000
1602006553.949476,65.000000,0.000000,4107.179688,4122.051270,4120.512695,4127.179688,4143.077148,4140.512695,4135.384766,4136.922852,4135.897461,4149.230957,4140.512695,4140.000000,4135.897461,4120.000000,790.000000,4.000000,,,,0.000000,4.000000,4.000000,4.000000,4.000000,4.000000,4.000000,4.000000,4.000000,4.000000,4.000000,4.000000,4.000000,4.000000,4.000000,100.000000
1602006553.957357,66.000000,0.000000,4112.307617,4128.205078,4121.538574,4130.769043,4142.051270,4137.948730,4136.410156,4136.922852,4135.384766,4131.282227,4136.922852,4138.461426,4135.897461,4120.512695,851.000000,4.000000,,,,0.000000,4.000000,4.000000,4.000000,4.000000,4.000000,4.000000,4.000000,4.000000,4.000000,4.000000,4.000000,4.000000,4.000000,4.000000,100.000000
1602006553.965138,67.000000,0.000000,4124.102539,4137.948730,4126.153809,4140.000000,4150.769043,4140.512695,4140.000000,4139.487305,4140.512695,4140.000000,4134.871582,4142.051270,4137.436035,4131.282227,866.000000,4.000000,,,,0.000000,4.000000,4.000000,4.000000,4.000000,4.000000,4.000000,4.000000,4.000000,4.000000,4.000000,4.000000,4.000000,4.000000,4.000000,100.000000
1602006553.973019,68.000000,0.000000,4127.692383,4137.948730,4128.717773,4138.461426,4151.794922,4139.487305,4134.871582,4131.282227,4134.871582,4141.025879,4139.487305,4144.615234,4138.461426,4138.974121,807.000000,4.000000,,,,0.000000,4.000000,4.000000,4.000000,4.000000,4.000000,4.000000,4.000000,4.000000,4.000000,4.000000,4.000000,4.000000,4.000000,4.000000,100.000000
1602006553.980900,69.000000,0.000000,4130.256348,4142.563965,4135.384766,4141.538574,4146.153809,4136.410156,4125.128418,4125.641113,4132.307617,4136.922852,4142.051270,4149.230957,4143.077148,4136.922852,824.000000,4.000000,,,,0.000000,4.000000,4.000000,4.000000,4.000000,4.000000,4.000000,4.000000,4.000000,4.000000,4.000000,4.000000,4.000000,4.000000,4.000000,100.000000
1602006553.988782,70.000000,0.000000,4141.025879,4157.948730,4145.128418,4155.384766,4150.256348,4141.538574,4125.641113,4134.358887,4143.589844,4161.025879,4139.487305,4157.948730,4154.358887,4140.512695,770.000000,4.000000,,,,0.000000,4.000000,4.000000,4.000000,4.000000,4.000000,4.000000,4.000000,4.000000,4.000000,4.000000,4.000000,4.000000,4.000000,4.000000,100.000000
1602006553.996663,71.000000,0.000000,4144.102539,4155.384766,4146.666504,4151.794922,4153.333496,4143.077148,4129.230957,4138.974121,4152.307617,4175.384766,4137.436035,4159.487305,4157.436035,4143.077148,672.000000,4.000000,,,,0.000000,4.000000,4.000000,4.000000,4.000000,4.000000,4.000000,4.000000,4.000000,4.000000,4.000000,4.000000,4.000000,4.000000,4.000000,100.000000
1602006554.004544,72.000000,0.000000,4131.794922,4141.538574,4141.025879,4137.948730,4147.179688,4137.948730,4132.307617,4136.410156,4153.846191,4157.436035,4141.538574,4155.897461,4151.282227,4137.436035,784.000000,4.000000,,,,0.000000,4.000000,4.000000,4.000000,4.000000,4.000000,4.000000,4.000000,4.000000,4.000000,4.000000,4.000000,4.000000,4.000000,4.000000,100.000000
1602006554.012425,73.000000,0.000000,4129.743652,4148.717773,4135.384766,4137.436035,4148.717773,4138.974121,4137.948730,4142.051270,4153.846191,4156.922852,4145.128418,4154.358887,4154.358887,4139.487305,836.000000,4.000000,,,,0.000000,4.000000,4.000000,4.000000,4.000000,4.000000,4.000000,4.000000,4.000000,4.000000,4.000000,4.000000,4.000000,4.000000,4.000000,100.000000
1602006554.020306,74.000000,0.000000,4134.871582,4156.922852,4128.717773,4142.051270,4150.769043,4142.051270,4134.358887,4145.641113,4147.692383,4162.051270,4136.922852,4149.230957,4152.307617,4137.948730,875.000000,4.000000,,,,0.000000,4.000000,4.000000,4.000000,4.000000,4.000000,4.000000,4.000000,4.000000,4.000000,4.000000,4.000000,4.000000,4.000000,4.000000,100.000000
1602006554.028187,75.000000,0.000000,4127.179688,4145.128418,4117.436035,4139.487305,4143.077148,4138.461426,4123.589844,4133.846191,4138.461426,4138.461426,4125.128418,4138.461426,4140.000000,4118.974121,842.000000,4.000000,,,,0.000000,4.000000,4.000000,4.000000,4.000000,4.000000,4.000000,4.000000,4.000000,4.000000,4.000000,4.000000,4.000000,4.000000,4.000000,100.000000
1602006554.035968,76.000000,0.000000,4107.692383,4135.897461,4106.153809,4135.897461,4138.461426,4136.410156,4121.538574,4123.077148,4138.461426,4129.230957,4120.000000,4133.846191,4136.410156,4110.256348,767.000000,4.000000,,,,0.000000,4.000000,4.000000,4.000000,4.000000,4.000000,4.000000,4.000000,4.000000,4.000000,4.000000,4.000000,4.000000,4.000000,4.000000,100.000000
1602006554.043849,77.000000,0.000000,4098.461426,4136.922852,4105.641113,4133.333496,4140.512695,4136.922852,4124.102539,4121.025879,4137.436035,4145.641113,4122.563965,4136.922852,4136.410156,4118.974121,731.000000,4.000000,,,,0.000000,4.000000,4.000000,4.000000,4.000000,4.000000,4.000000,4.000000,4.000000,4.000000,4.000000,4.000000,4.000000,4.000000,4.000000,100.000000
1602006554.051730,78.000000,0.000000,4112.307617,4136.410156,4119.487305,4135.897461,4137.948730,4135.897461,4122.563965,4121.025879,4133.333496,4145.641113,4127.179688,4140.000000,4130.256348,4124.102539,875.000000,4.000000,,,,0.000000,4.000000,4.000000,4.000000,4.000000,4.000000,4.000000,4.000000,4.000000,4.000000,4.000000,4.000000,4.000000,4.000000,4.000000,100.000000
1602006554.059611,79.000000,0.000000,4124.102539,4131.794922,4127.179688,4138.461426,4134.358887,4135.384766,4116.922852,4120.512695,4137.436035,4137.948730,4120.512695,4137.436035,4126.666504,4121.025879,842.000000,4.000000,,,,0.000000,4.000000,4.000000,4.000000,4.000000,4.000000,4.000000,4.000000,4.000000,4.000000,4.000000,4.000000,4.000000,4.000000,4.000000,100.000000
1602006554.067492,80.000000,0.000000,4115.384766,4125.128418,4115.384766,4130.256348,4135.384766,4126.666504,4112.820313,4115.384766,4136.410156,4142.563965,4111.282227,4130.769043,4125.128418,4121.025879,767.000000,4.000000,,,,0.000000,4.000000,4.000000,4.000000,4.000000,4.000000,4.000000,4.000000,4.000000,4.000000,4.000000,4.000000,4.000000,4.000000,4.000000,100.000000
1602006554.075373,81.000000,0.000000,4104.615234,4122.051270,4105.641113,4121.538574,4132.307617,4116.922852,4115.384766,4110.256348,4124.102539,4127.179688,4119.487305,4129.230957,4121.538574,4120.000000,731.000000,4.000000,,,,0.000000,4.000000,4.000000,4.000000,4.000000,4.000000,4.000000,4.000000,4.000000,4.000000,4.000000,4.000000,4.000000,4.000000,4.000000,100.000000
1602006554.083254,82.000000,0.000000,4117.436035,4129.743652,4107.179688,4123.077148,4130.256348,4125.641113,4121.538574,4114.871582,4123.589844,4113.333496,4129.230957,4135.384766,4128.205078,4119.487305,875.000000,4.000000,,,,0.000000,4.000000,4.000000,4.000000,4.000000,4.000000,4.000000,4.000000,4.000000,4.000000,4.000000,4.000000,4.000000,4.000000,4.000000,100.000000
1602006554.091135,83.000000,0.000000,4124.102539,4133.333496,4109.743652,4125.641113,4135.384766,4141.538574,4124.102539,4127.179688,4137.436035,4135.897461,4123.589844,4142.051270,4140.512695,4126.666504,842.000000,4.000000,,,,0.000000,4.000000,4.000000,4.000000,4.000000,4.000000,4.000000,4.000000,4.000000,4.000000,4.000000,4.000000,4.000000,4.000000,4.000000,100.000000
1602006554.098916,84.000000,0.000000,4107.692383,4125.641113,4107.179688,4123.077148,4138.974121,4144.615234,4130.256348,4130.769043,4137.436035,4143.077148,4119.487305,4137.436035,4138.461426,4122.051270,767.000000,4.000000,,,,0.000000,4.000000,4.000000,4.000000,4.000000,4.000000,4.000000,4.000000,4.000000,4.000000,4.000000,4.000000,4.000000,4.000000,4.000000,100.000000
1602006554.106797,85.000000,0.000000,4102.051270,4122.563965,4105.641113,4123.077148,4136.922852,4138.461426,4137.948730,4125.128418,4130.769043,4117.436035,4125.641113,4125.128418,4127.179688,4110.256348,731.000000,4.000000,,,,0.000000,4.000000,4.000000,4.000000,4.000000,4.000000,4.000000,4.000000,4.000000,4.000000,4.000000,4.000000,4.000000,4.000000,4.000000,100.000000
1602006554.114678,86.000000,0.000000,4104.615234,4123.589844,4106.153809,4124.102539,4134.871582,4139.487305,4136.922852,4123.589844,4136.922852,4122.051270,4127.179688,4117.948730,4124.615234,4116.922852,875.000000,4.000000,,,,0.000000,4.000000,4.000000,4.000000,4.000000,4.000000,4.000000,4.000000,4.000000,4.000000,4.000000,4.000000,4.000000,4.000000,4.000000,100.000000
1602006554.122559,87.000000,0.000000,4094.871826,4121.025879,4104.615234,4120.512695,4135.897461,4149.743652,4131.794922,4125.128418,4136.922852,4142.051270,4112.820313,4118.461426,4124.102539,4120.512695,842.000000,4.000000,,,,0.000000,4.000000,4.000000,4.000000,4.000000,4.000000,4.000000,4.000000,4.000000,4.000000,4.000000,4.000000,4.000000,4.000000,4.000000,100.000000
1602006554.130440,88.000000,0.000000,4086.153809,4119.487305,4103.589844,4117.948730,4136.922852,4152.820313,4128.717773,4123.589844,4126.153809,4127.179688,4099.487305,4119.487305,4120.000000,4105.128418,767.000000,4.000000,,,,0.000000,4.000000,4.000000,4.000000,4.000000,4.000000,4.000000,4.000000,4.000000,4.000000,4.000000,4.000000,4.000000,4.000000,4.000000,100.000000
1602006554.138320,89.000000,0.000000,4089.230713,4120.512695,4104.102539,4120.000000,4137.948730,4144.615234,4126.666504,4118.974121,4126.153809,4118.461426,4109.743652,4120.512695,4117.948730,4099.487305,731.000000,4.000000,,,,0.000000,4.000000,4.000000,4.000000,4.000000,4.000000,4.000000,4.000000,4.000000,4.000000,4.000000,4.000000,4.000000,4.000000,4.000000,100.000000
1602006554.146201,90.000000,0.000000,4095.384521,4118.461426,4103.589844,4120.512695,4136.922852,4134.358887,4120.000000,4117.948730,4129.743652,4135.384766,4122.563965,4121.025879,4117.948730,4109.230957,875.000000,4.000000,,,,0.000000,4.000000,4.000000,4.000000,4.000000,4.000000,4.000000,4.000000,4.000000,4.000000,4.000000,4.000000,4.000000,4.000000,4.000000,100.000000
1602006554.154082,91.000000,0.000000,4103.077148,4124.102539,4106.153809,4121.025879,4136.410156,4128.205078,4110.769043,4120.512695,4128.205078,4147.692383,4117.436035,4123.589844,4123.077148,4110.256348,842.000000,4.000000,,,,0.000000,4.000000,4.000000,4.000000,4.000000,4.000000,4.000000,4.000000,4.000000,4.000000,4.000000,4.000000,4.000000,4.000000,4.000000,100.000000
1602006554.161863,92.000000,0.000000,4108.205078,4134.871582,4114.871582,4127.692383,4137.436035,4122.051270,4109.230957,4119.487305,4132.820313,4147.179688,4120.000000,4134.358887,4134.871582,4115.384766,767.000000,4.000000,,,,0.000000,4.000000,4.000000,4.000000,4.000000,4.000000,4.000000,4.000000,4.000000,4.000000,4.000000,4.000000,4.000000,4.000000,4.000000,100.000000
1602006554.169744,93.000000,0.000000,4114.358887,4142.051270,4126.153809,4137.436035,4138.974121,4121.538574,4117.948730,4126.666504,4141.538574,4147.179688,4140.512695,4146.153809,4145.641113,4136.922852,731.000000,4.000000,,,,0.000000,4.000000,4.000000,4.000000,4.000000,4.000000,4.000000,4.000000,4.000000,4.000000,4.000000,4.000000,4.000000,4.000000,4.000000,100.000000
1602006554.177625,94.000000,0.000000,4126.153809,4140.512695,4129.230957,4140.000000,4138.461426,4121.538574,4121.538574,4137.436035,4147.179688,4139.487305,4141.538574,4145.641113,4147.179688,4146.153809,875.000000,4.000000,,,,0.000000,4.000000,4.000000,4.000000,4.000000,4.000000,4.000000,4.000000,4.000000,4.000000,4.000000,4.000000,4.000000,4.000000,4.000000,100.000000
1602006554.185506,95.000000,0.000000,4123.077148,4130.769043,4125.128418,4131.794922,4136.410156,4111.282227,4118.461426,4134.871582,4148.717773,4130.769043,4124.102539,4133.846191,4137.948730,4132.820313,842.000000,4.000000,,,,0.000000,4.000000,4.000000,4.000000,4.000000,4.000000,4.000000,4.000000,4.000000,4.000000,4.000000,4.000000,4.000000,4.000000,4.000000,100.000000
1602006554.193387,96.000000,0.000000,4107.692383,4124.615234,4118.974121,4124.102539,4135.384766,4110.256348,4120.000000,4130.769043,4149.743652,4145.641113,4126.153809,4130.769043,4135.384766,4122.563965,767.000000,4.000000,,,,0.000000,4.000000,4.000000,4.000000,4.000000,4.000000,4.000000,4.000000,4.000000,4.000000,4.000000,4.000000,4.000000,4.000000,4.000000,100.000000
1602006554.201268,97.000000,0.000000,4105.641113,4125.128418,4110.256348,4121.538574,4134.871582,4121.538574,4124.102539,4133.846191,4148.717773,4155.384766,4136.410156,4134.871582,4138.461426,4123.077148,731.000000,4.000000,,,,0.000000,4.000000,4.000000,4.000000,4.000000,4.000000,4.000000,4.000000,4.000000,4.000000,4.000000,4.000000,4.000000,4.000000,4.000000,100.000000
1602006554.209149,98.000000,0.000000,4108.717773,4125.641113,4102.563965,4120.512695,4134.871582,4129.230957,4124.102539,4130.769043,4144.102539,4140.000000,4129.743652,4131.282227,4131.794922,4121.025879,875.000000,4.000000,,,,0.000000,4.000000,4.000000,4.000000,4.000000,4.000000,4.000000,4.000000,4.000000,4.000000,4.000000,4.000000,4.000000,4.000000,4.000000,100.000000
1602006554.217030,99.000000,0.000000,4108.205078,4124.615234,4103.589844,4121.538574,4135.384766,4128.205078,4120.512695,4123.077148,4138.461426,4134.871582,4118.461426,4125.128418,4123.077148,4123.077148,842.000000,4.000000,,,,0.000000,4.000000,4.000000,4.000000,4.000000,4.000000,4.000000,4.000000,4.000000,4.000000,4.000000,4.000000,4.000000,4.000000,4.000000,100.000000
1602006554.224811,100.000000,0.000000,4114.358887,4125.641113,4110.256348,4125.128418,4132.307617,4128.205078,4118.974121,4117.948730,4131.794922,4137.948730,4115.384766,4126.666504,4125.128418,4128.717773,767.000000,4.000000,,,,0.000000,4.000000,4.000000,4.000000,4.000000,4.000000,4.000000,4.000000,4.000000,4.000000,4.000000,4.000000,4.000000,4.000000,4.000000,100.000000
1602006554.232692,101.000000,0.000000,4113.846191,4122.563965,4115.384766,4124.615234,4126.153809,4132.820313,4118.461426,4112.820313,4121.025879,4117.436035,4111.282227,4125.641113,4114.871582,4112.820313,731.000000,4.000000,,,,0.000000,4.000000,4.000000,4.000000,4.000000,4.000000,4.000000,4.000000,4.000000,4.000000,4.000000,4.000000,4.000000,4.000000,4.000000,100.000000
1602006554.240573,102.000000,0.000000,4107.692383,4121.025879,4118.461426,4122.563965,4124.102539,4137.436035,4119.487305,4115.384766,4123.589844,4093.333252,4105.128418,4121.025879,4093.846191,4098.974121,875.000000,4.000000,,,,0.000000,4.000000,4.000000,4.000000,4.000000,4.000000,4.000000,4.000000,4.000000,4.000000,4.000000,4.000000,4.000000,4.000000,4.000000,100.000000
1602006554.248454,103.000000,0.000000,4111.282227,4122.563965,4123.589844,4124.615234,4123.077148,4135.384766,4123.077148,4124.102539,4142.051270,4101.025879,4106.666504,4122.051270,4096.922852,4111.282227,842.000000,4.000000,,,,0.000000,4.000000,4.000000,4.000000,4.000000,4.000000,4.000000,4.000000,4.000000,4.000000,4.000000,4.000000,4.000000,4.000000,4.000000,100.000000
1602006554.256335,104.000000,0.000000,4110.256348,4118.974121,4123.077148,4122.051270,4120.000000,4124.615234,4124.615234,4124.615234,4137.948730,4118.974121,4108.717773,4123.589844,4108.205078,4118.974121,767.000000,4.000000,,,,0.000000,4.000000,4.000000,4.000000,4.000000,4.000000,4.000000,4.000000,4.000000,4.000000,4.000000,4.000000,4.000000,4.000000,4.000000,100.000000
1602006554.264216,105.000000,0.000000,4106.153809,4120.512695,4120.512695,4118.974121,4124.615234,4126.666504,4125.641113,4123.589844,4121.538574,4122.051270,4111.794922,4128.717773,4107.179688,4114.871582,731.000000,4.000000,,,,0.000000,4.000000,4.000000,4.000000,4.000000,4.000000,4.000000,4.000000,4.000000,4.000000,4.000000,4.000000,4.000000,4.000000,4.000000,100.000000
1602006554.272096,106.000000,0.000000,4120.000000,4127.179688,4122.563965,4122.563965,4132.307617,4140.000000,4129.743652,4125.641113,4129.743652,4120.000000,4120.000000,4144.102539,4110.256348,4111.282227,875.000000,4.000000,,,,0.000000,4.000000,4.000000,4.000000,4.000000,4.000000,4.000000,4.000000,4.000000,4.000000,4.000000,4.000000,4.000000,4.000000,4.000000,100.000000
1602006554.279977,107.000000,0.000000,4129.230957,4125.641113,4124.615234,4125.128418,4129.743652,4137.436035,4128.205078,4124.102539,4136.922852,4124.615234,4124.615234,4151.282227,4113.333496,4107.179688,842.000000,4.000000,,,,0.000000,4.000000,4.000000,4.000000,4.000000,4.000000,4.000000,4.000000,4.000000,4.000000,4.000000,4.000000,4.000000,4.000000,4.000000,100.000000
1602006554.287758,108.000000,0.000000,4116.410156,4120.512695,4125.128418,4122.051270,4123.077148,4122.051270,4118.974121,4122.051270,4122.563965,4116.922852,4121.538574,4144.102539,4110.769043,4112.820313,767.000000,4.000000,,,,0.000000,4.000000,4.000000,4.000000,4.000000,4.000000,4.000000,4.000000,4.000000,4.000000,4.000000,4.000000,4.000000,4.000000,4.000000,100.000000
1602006554.295639,109.000000,0.000000,4108.205078,4122.051270,4126.666504,4122.563965,4122.563965,4117.948730,4112.307617,4122.563965,4123.077148,4108.717773,4123.077148,4137.436035,4110.256348,4121.538574,731.000000,4.000000,,,,0.000000,4.000000,4.000000,4.000000,4.000000,4.000000,4.000000,4.000000,4.000000,4.000000,4.000000,4.000000,4.000000,4.000000,4.000000,100.000000
1602006554.303520,110.000000,0.000000,4110.769043,4123.077148,4127.692383,4124.102539,4127.179688,4122.563965,4111.282227,4123.077148,4140.000000,4131.282227,4127.179688,4132.820313,4110.769043,4109.743652,875.000000,4.000000,,,,0.000000,4.000000,4.000000,4.000000,4.000000,4.000000,4.000000,4.000000,4.000000,4.000000,4.000000,4.000000,4.000000,4.000000,4.000000,100.000000
1602006554.311400,111.000000,0.000000,4112.820313,4123.077148,4118.974121,4122.563965,4127.179688,4121.025879,4110.256348,4115.384766,4129.230957,4137.948730,4113.846191,4117.948730,4105.128418,4088.718018,842.000000,4.000000,,,,0.000000,4.000000,4.000000,4.000000,4.000000,4.000000,4.000000,4.000000,4.000000,4.000000,4.000000,4.000000,4.000000,4.000000,4.000000,100.000000
1602006554.319181,112.000000,0.000000,4112.820313,4126.666504,4107.179688,4123.077148,4123.589844,4117.436035,4112.820313,4105.128418,4103.077148,4097.436035,4096.922852,4105.641113,4098.974121,4093.846191,767.000000,4.000000,,,,0.000000,4.000000,4.000000,4.000000,4.000000,4.000000,4.000000,4.000000,4.000000,4.000000,4.000000,4.000000,4.000000,4.000000,4.000000,100.000000
1602006554.327061,113.000000,0.000000,4099.487305,4114.358887,4102.051270,4115.384766,4121.538574,4121.538574,4122.051270,4108.205078,4108.205078,4085.641113,4100.000000,4112.307617,4099.487305,4103.589844,731.000000,4.000000,,,,0.000000,4.000000,4.000000,4.000000,4.000000,4.000000,4.000000,4.000000,4.000000,4.000000,4.000000,4.000000,4.000000,4.000000,4.000000,100.000000
1602006554.334842,114.000000,0.000000,4094.358887,4104.102539,4103.077148,4109.230957,4122.563965,4131.794922,4135.384766,4121.538574,4126.153809,4124.102539,4116.922852,4127.179688,4108.205078,4105.641113,875.000000,4.000000,,,,0.000000,4.000000,4.000000,4.000000,4.000000,4.000000,4.000000,4.000000,4.000000,4.000000,4.000000,4.000000,4.000000,4.000000,4.000000,100.000000
1602006554.342723,115.000000,0.000000,4116.922852,4130.256348,4112.820313,4125.128418,4124.615234,4138.974121,4137.948730,4128.205078,4125.128418,4131.282227,4127.692383,4135.897461,4121.538574,4118.461426,842.000000,4.000000,,,,0.000000,4.000000,4.000000,4.000000,4.000000,4.000000,4.000000,4.000000,4.000000,4.000000,4.000000,4.000000,4.000000,4.000000,4.000000,100.000000
1602006554.350604,116.000000,0.000000,4131.794922,4157.436035,4128.205078,4141.025879,4124.102539,4136.922852,4127.179688,4128.205078,4117.436035,4112.820313,4124.102539,4139.487305,4123.077148,4121.025879,767.000000,4.000000,,,,0.000000,4.000000,4.000000,4.000000,4.000000,4.000000,4.000000,4.000000,4.000000,4.000000,4.000000,4.000000,4.000000,4.000000,4.000000,100.000000
1602006554.358485,117.000000,0.000000,4123.077148,4156.410156,4139.487305,4137.948730,4123.589844,4134.871582,4126.666504,4133.333496,4130.769043,4129.743652,4123.589844,4141.538574,4119.487305,4110.769043,731.000000,4.000000,,,,0.000000,4.000000,4.000000,4.000000,4.000000,4.000000,4.000000,4.000000,4.000000,4.000000,4.000000,4.000000,4.000000,4.000000,4.000000,100.000000
1602006554.366366,118.000000,0.000000,4122.051270,4155.897461,4143.589844,4137.948730,4128.205078,4141.025879,4137.436035,4141.538574,4153.846191,4166.153809,4135.897461,4143.589844,4124.615234,4105.128418,875.000000,4.000000,,,,0.000000,4.000000,4.000000,4.000000,4.000000,4.000000,4.000000,4.000000,4.000000,4.000000,4.000000,4.000000,4.000000,4.000000,4.000000,100.000000
1602006554.374247,119.000000,0.000000,4125.128418,4162.051270,4135.384766,4140.512695,4127.692383,4137.436035,4130.256348,4144.615234,4146.666504,4165.128418,4135.384766,4141.538574,4124.102539,4097.948730,842.000000,4.000000,,,,0.000000,4.000000,4.000000,4.000000,4.000000,4.000000,4.000000,4.000000,4.000000,4.000000,4.000000,4.000000,4.000000,4.000000,4.000000,100.000000
1602006554.382128,120.000000,0.000000,4113.846191,4151.794922,4121.025879,4131.794922,4121.025879,4118.461426,4113.846191,4136.410156,4126.153809,4130.256348,4118.461426,4130.769043,4110.769043,4086.153809,767.000000,4.000000,,,,0.000000,4.000000,4.000000,4.000000,4.000000,4.000000,4.000000,4.000000,4.000000,4.000000,4.000000,4.000000,4.000000,4.000000,4.000000,100.000000
1602006554.390009,121.000000,0.000000,4110.256348,4147.692383,4118.461426,4131.282227,4127.179688,4110.769043,4113.846191,4127.692383,4123.077148,4107.692383,4116.410156,4126.666504,4103.589844,4088.718018,731.000000,4.000000,,,,0.000000,4.000000,4.000000,4.000000,4.000000,4.000000,4.000000,4.000000,4.000000,4.000000,4.000000,4.000000,4.000000,4.000000,4.000000,100.000000
1602006554.397790,122.000000,0.000000,4122.563965,4165.128418,4123.589844,4140.000000,4141.025879,4127.692383,4123.077148,4131.794922,4116.410156,4109.743652,4130.256348,4136.410156,4108.717773,4094.871826,875.000000,4.000000,,,,0.000000,4.000000,4.000000,4.000000,4.000000,4.000000,4.000000,4.000000,4.000000,4.000000,4.000000,4.000000,4.000000,4.000000,4.000000,100.000000
1602006554.405671,123.000000,0.000000,4127.179688,4171.282227,4124.102539,4141.025879,4141.025879,4143.077148,4131.282227,4137.436035,4104.615234,4117.436035,4122.051270,4144.102539,4109.743652,4088.718018,842.000000,4.000000,,,,0.000000,4.000000,4.000000,4.000000,4.000000,4.000000,4.000000,4.000000,4.000000,4.000000,4.000000,4.000000,4.000000,4.000000,4.000000,100.000000
1602006554.413552,124.000000,0.000000,4115.384766,4157.436035,4128.717773,4137.948730,4133.846191,4144.102539,4137.948730,4136.922852,4115.897461,4124.102539,4101.025879,4138.461426,4106.153809,4094.871826,767.000000,4.000000,,,,0.000000,4.000000,4.000000,4.000000,4.000000,4.000000,4.000000,4.000000,4.000000,4.000000,4.000000,4.000000,4.000000,4.000000,4.000000,100.000000
1602006554.421433,125.000000,0.000000,4109.230957,4151.282227,4134.358887,4134.871582,4136.922852,4143.589844,4141.025879,4138.461426,4128.717773,4143.589844,4110.256348,4132.820313,4105.641113,4107.179688,731.000000,4.000000,,,,0.000000,4.000000,4.000000,4.000000,4.000000,4.000000,4.000000,4.000000,4.000000,4.000000,4.000000,4.000000,4.000000,4.000000,4.000000,100.000000
1602006554.429315,126.000000,0.000000,4111.282227,4154.871582,4129.230957,4128.717773,4135.384766,4143.077148,4140.000000,4140.512695,4127.179688,4155.384766,4123.077148,4124.615234,4109.230957,4099.487305,875.000000,4.000000,,,,0.000000,4.000000,4.000000,4.000000,4.000000,4.000000,4.000000,4.000000,4.000000,4.000000,4.000000,4.000000,4.000000,4.000000,4.000000,100.000000
1602006554.437196,127.000000,0.000000,4098.461426,4142.051270,4115.384766,4121.538574,4125.128418,4137.436035,4137.436035,4137.436035,4131.282227,4146.153809,4113.333496,4108.717773,4106.153809,4077.948730,842.000000,4.000000,,,,0.000000,4.000000,4.000000,4.000000,4.000000,4.000000,4.000000,4.000000,4.000000,4.000000,4.000000,4.000000,4.000000,4.000000,4.000000,100.000000
1602006554.445077,128.000000,0.000000,4082.051270,4125.128418,4102.563965,4117.948730,4120.512695,4129.230957,4135.897461,4137.436035,4138.461426,4144.102539,4105.641113,4101.025879,4097.436035,4069.743652,767.000000,4.000000,,,,0.000000,4.000000,4.000000,4.000000,4.000000,4.000000,4.000000,4.000000,4.000000,4.000000,4.000000,4.000000,4.000000,4.000000,4.000000,100.000000
1602006554.452958,0.000000,0.000000,4085.128174,4129.743652,4106.666504,4120.512695,4124.615234,4123.077148,4135.384766,4141.025879,4141.538574,4140.000000,4112.307617,4111.794922,4101.025879,4080.512939,798.000000,4.000000,,,,0.000000,4.000000,4.000000,4.000000,4.000000,4.000000,4.000000,4.000000,4.000000,4.000000,4.000000,4.000000,4.000000,4.000000,4.000000,100.000000
1602006554.460839,1.000000,0.000000,4099.487305,4134.358887,4120.000000,4122.563965,4127.692383,4122.051270,4131.282227,4142.563965,4143.077148,4125.128418,4116.410156,4129.743652,4110.769043,4087.179443,790.000000,4.000000,,,,0.000000,4.000000,4.000000,4.000000,4.000000,4.000000,4.000000,4.000000,4.000000,4.000000,4.000000,4.000000,4.000000,4.000000,4.000000,100.000000
1602006554.468620,2.000000,0.000000,4104.102539,4131.282227,4124.102539,4122.563965,4124.102539,4120.000000,4121.538574,4137.436035,4138.974121,4128.205078,4120.000000,4136.922852,4104.102539,4085.128174,851.000000,4.000000,,,,0.000000,4.000000,4.000000,4.000000,4.000000,4.000000,4.000000,4.000000,4.000000,4.000000,4.000000,4.000000,4.000000,4.000000,4.000000,100.000000
1602006554.476501,3.000000,0.000000,4105.641113,4140.512695,4128.717773,4132.307617,4123.589844,4119.487305,4123.077148,4138.461426,4143.589844,4149.230957,4130.769043,4141.025879,4105.128418,4091.281982,866.000000,4.000000,,,,0.000000,4.000000,4.000000,4.000000,4.000000,4.000000,4.000000,4.000000,4.000000,4.000000,4.000000,4.000000,4.000000,4.000000,4.000000,100.000000
1602006554.484382,4.000000,0.000000,4115.897461,4156.922852,4141.538574,4143.077148,4134.358887,4127.692383,4135.897461,4152.820313,4159.487305,4161.538574,4137.948730,4153.846191,4128.717773,4104.102539,807.000000,4.000000,,,,0.000000,4.000000,4.000000,4.000000,4.000000,4.000000,4.000000,4.000000,4.000000,4.000000,4.000000,4.000000,4.000000,4.000000,4.000000,100.000000
1602006554.492263,5.000000,0.000000,4123.077148,4160.512695,4146.666504,4141.025879,4141.538574,4135.897461,4137.436035,4156.922852,4156.922852,4165.641113,4141.538574,4156.410156,4138.974121,4110.769043,824.000000,4.000000,,,,0.000000,4.000000,4.000000,4.000000,4.000000,4.000000,4.000000,4.000000,4.000000,4.000000,4.000000,4.000000,4.000000,4.000000,4.000000,100.000000
1602006554.500144,6.000000,0.000000,4113.333496,4148.205078,4137.436035,4136.410156,4135.384766,4133.846191,4125.641113,4137.436035,4132.307617,4161.025879,4132.820313,4143.589844,4123.077148,4110.769043,770.000000,4.000000,,,,0.000000,4.000000,4.000000,4.000000,4.000000,4.000000,4.000000,4.000000,4.000000,4.000000,4.000000,4.000000,4.000000,4.000000,4.000000,100.000000
1602006554.508025,7.000000,0.000000,4097.436035,4137.436035,4126.153809,4133.846191,4132.307617,4128.717773,4122.051270,4124.102539,4120.000000,4137.948730,4117.948730,4132.820313,4111.282227,4098.974121,670.000000,4.000000,,,,0.000000,4.000000,4.000000,4.000000,4.000000,4.000000,4.000000,4.000000,4.000000,4.000000,4.000000,4.000000,4.000000,4.000000,4.000000,100.000000
1602006554.515906,8.000000,0.000000,4092.820557,4137.436035,4120.000000,4128.717773,4136.922852,4127.692383,4123.077148,4123.077148,4122.051270,4113.846191,4108.717773,4123.077148,4105.641113,4083.076904,784.000000,4.000000,,,,0.000000,4.000000,4.000000,4.000000,4.000000,4.000000,4.000000,4.000000,4.000000,4.000000,4.000000,4.000000,4.000000,4.000000,4.000000,100.000000
1602006554.523787,9.000000,0.000000,4090.256348,4132.820313,4120.512695,4120.512695,4130.769043,4123.077148,4115.384766,4113.846191,4120.000000,4107.692383,4096.922852,4109.230957,4093.333252,4078.974365,836.000000,4.000000,,,,0.000000,4.000000,4.000000,4.000000,4.000000,4.000000,4.000000,4.000000,4.000000,4.000000,4.000000,4.000000,4.000000,4.000000,4.000000,100.000000
1602006554.531568,10.000000,0.000000,4082.051270,4122.563965,4120.000000,4116.922852,4124.102539,4116.410156,4113.333496,4109.230957,4119.487305,4124.615234,4091.281982,4108.717773,4084.615479,4077.435791,875.000000,4.000000,,,,0.000000,4.000000,4.000000,4.000000,4.000000,4.000000,4.000000,4.000000,4.000000,4.000000,4.000000,4.000000,4.000000,4.000000,4.000000,100.000000
1602006554.539449,11.000000,0.000000,4085.128174,4132.820313,4117.436035,4126.666504,4130.256348,4124.102539,4122.051270,4119.487305,4121.538574,4134.871582,4099.487305,4120.000000,4093.333252,4069.743652,842.000000,4.000000,,,,0.000000,4.000000,4.000000,4.000000,4.000000,4.000000,4.000000,4.000000,4.000000,4.000000,4.000000,4.000000,4.000000,4.000000,4.000000,100.000000
1602006554.547330,12.000000,0.000000,4104.615234,4155.384766,4121.025879,4141.025879,4138.461426,4140.000000,4128.717773,4129.230957,4121.538574,4132.820313,4114.358887,4125.128418,4105.128418,4078.974365,767.000000,4.000000,,,,0.000000,4.000000,4.000000,4.000000,4.000000,4.000000,4.000000,4.000000,4.000000,4.000000,4.000000,4.000000,4.000000,4.000000,4.000000,100.000000
1602006554.555211,13.000000,0.000000,4115.897461,4158.974121,4125.641113,4143.589844,4138.974121,4142.051270,4129.230957,4134.358887,4128.717773,4144.102539,4120.000000,4128.717773,4111.794922,4101.538574,731.000000,4.000000,,,,0.000000,4.000000,4.000000,4.000000,4.000000,4.000000,4.000000,4.000000,4.000000,4.000000,4.000000,4.000000,4.000000,4.000000,4.000000,100.000000
1602006554.563092,14.000000,0.000000,4109.230957,4154.871582,4127.692383,4138.461426,4137.436035,4136.410156,4126.153809,4137.948730,4137.948730,4149.230957,4123.077148,4127.692383,4117.436035,4114.871582,875.000000,4.000000,,,,0.000000,4.000000,4.000000,4.000000,4.000000,4.000000,4.000000,4.000000,4.000000,4.000000,4.000000,4.000000,4.000000,4.000000,4.000000,100.000000
1602006554.570972,15.000000,0.000000,4107.179688,4156.410156,4131.794922,4138.974121,4137.948730,4139.487305,4122.563965,4136.922852,4140.512695,4136.410156,4136.410156,4125.641113,4130.769043,4122.563965,842.000000,4.000000,,,,0.000000,4.000000,4.000000,4.000000,4.000000,4.000000,4.000000,4.000000,4.000000,4.000000,4.000000,4.000000,4.000000,4.000000,4.000000,100.000000
1602006554.578853,16.000000,0.000000,4111.282227,4154.358887,4132.820313,4137.436035,4137.948730,4134.871582,4123.077148,4136.922852,4135.897461,4142.051270,4141.538574,4132.820313,4138.461426,4121.538574,0.000000,4.000000,,,,0.000000,4.000000,4.000000,4.000000,4.000000,4.000000,4.000000,4.000000,4.000000,4.000000,4.000000,4.000000,4.000000,4.000000,4.000000,100.000000
1602006554.586734,17.000000,0.000000,4108.717773,4150.769043,4128.205078,4134.358887,4141.538574,4127.179688,4127.692383,4136.410156,4126.666504,4155.384766,4128.205078,4136.410156,4131.794922,4111.282227,0.000000,4.000000,,,,0.000000,4.000000,4.000000,4.000000,4.000000,4.000000,4.000000,4.000000,4.000000,4.000000,4.000000,4.000000,4.000000,4.000000,4.000000,100.000000
1602006554.594515,18.000000,0.000000,4109.743652,4150.256348,4121.025879,4135.897461,4146.153809,4134.358887,4129.743652,4129.743652,4120.000000,4140.512695,4110.256348,4127.179688,4122.051270,4108.205078,0.000000,4.000000,,,,0.000000,4.000000,4.000000,4.000000,4.000000,4.000000,4.000000,4.000000,4.000000,4.000000,4.000000,4.000000,4.000000,4.000000,4.000000,100.000000
1602006554.602396,19.000000,0.000000,4106.666504,4146.153809,4113.846191,4134.871582,4141.025879,4138.974121,4125.641113,4123.077148,4116.410156,4129.230957,4107.179688,4117.436035,4117.436035,4100.000000,0.000000,4.000000,,,,0.000000,4.000000,4.000000,4.000000,4.000000,4.000000,4.000000,4.000000,4.000000,4.000000,4.000000,4.000000,4.000000,4.000000,4.000000,100.000000
1602006554.610277,20.000000,0.000000,4084.615479,4137.948730,4107.179688,4130.256348,4128.205078,4125.128418,4120.000000,4119.487305,4110.256348,4129.230957,4108.717773,4111.794922,4105.641113,4072.820557,0.000000,4.000000,,,,0.000000,4.000000,4.000000,4.000000,4.000000,4.000000,4.000000,4.000000,4.000000,4.000000,4.000000,4.000000,4.000000,4.000000,4.000000,100.000000
1602006554.618158,21.000000,0.000000,4062.051270,4130.256348,4101.538574,4123.077148,4120.512695,4117.436035,4121.538574,4118.461426,4103.589844,4108.717773,4100.512695,4105.128418,4086.153809,4061.538574,0.000000,4.000000,,,,0.000000,4.000000,4.000000,4.000000,4.000000,4.000000,4.000000,4.000000,4.000000,4.000000,4.000000,4.000000,4.000000,4.000000,4.000000,100.000000
1602006554.626039,22.000000,0.000000,4060.512939,4123.077148,4096.922852,4115.384766,4123.077148,4127.692383,4123.077148,4117.436035,4103.077148,4103.077148,4094.358887,4103.077148,4079.487061,4081.025635,0.000000,4.000000,,,,0.000000,4.000000,4.000000,4.000000,4.000000,4.000000,4.000000,4.000000,4.000000,4.000000,4.000000,4.000000,4.000000,4.000000,4.000000,100.000000
1602006554.633920,23.000000,0.000000,4073.846191,4122.563965,4101.538574,4114.871582,4123.589844,4135.897461,4123.589844,4117.948730,4109.743652,4129.230957,4101.538574,4113.333496,4093.333252,4100.512695,0.000000,4.000000,,,,0.000000,4.000000,4.000000,4.000000,4.000000,4.000000,4.000000,4.000000,4.000000,4.000000,4.000000,4.000000,4.000000,4.000000,4.000000,100.000000
1602006554.641801,24.000000,0.000000,4087.179443,4131.282227,4115.897461,4122.563965,4121.538574,4136.922852,4131.282227,4128.205078,4123.077148,4137.436035,4116.410156,4126.666504,4107.692383,4105.128418,0.000000,4.000000,,,,0.000000,4.000000,4.000000,4.000000,4.000000,4.000000,4.000000,4.000000,4.000000,4.000000,4.000000,4.000000,4.000000,4.000000,4.000000,100.000000
1602006554.649682,25.000000,0.000000,4098.974121,4135.897461,4128.717773,4126.666504,4128.205078,4137.948730,4139.487305,4137.436035,4133.333496,4128.717773,4122.563965,4133.846191,4109.743652,4106.666504,0.000000,4.000000,,,,0.000000,4.000000,4.000000,4.000000,4.000000,4.000000,4.000000,4.000000,4.000000,4.000000,4.000000,4.000000,4.000000,4.000000,4.000000,100.000000
1602006554.657563,26.000000,0.000000,4107.692383,4135.897461,4138.461426,4125.641113,4136.922852,4139.487305,4138.461426,4139.487305,4136.410156,4133.333496,4122.051270,4135.897461,4113.333496,4114.358887,0.000000,4.000000,,,,0.000000,4.000000,4.000000,4.000000,4.000000,4.000000,4.000000,4.000000,4.000000,4.000000,4.000000,4.000000,4.000000,4.000000,4.000000,100.000000
1602006554.665344,27.000000,0.000000,4115.384766,4138.974121,4144.102539,4128.205078,4136.922852,4139.487305,4137.948730,4146.153809,4149.230957,4143.077148,4121.538574,4141.025879,4123.589844,4116.922852,0.000000,4.000000,,,,0.000000,4.000000,4.000000,4.000000,4.000000,4.000000,4.000000,4.000000,4.000000,4.000000,4.000000,4.000000,4.000000,4.000000,4.000000,100.000000
1602006554.673225,28.000000,0.000000,4121.025879,4140.000000,4141.025879,4132.307617,4134.871582,4137.436035,4136.922852,4149.230957,4160.000000,4142.051270,4122.051270,4141.025879,4125.641113,4107.692383,0.000000,4.000000,,,,0.000000,4.000000,4.000000,4.000000,4.000000,4.000000,4.000000,4.000000,4.000000,4.000000,4.000000,4.000000,4.000000,4.000000,4.000000,100.000000
1602006554.681106,29.000000,0.000000,4121.025879,4143.077148,4145.641113,4137.948730,4134.358887,4137.948730,4128.717773,4140.000000,4151.282227,4135.897461,4126.153809,4136.922852,4121.025879,4102.051270,0.000000,4.000000,,,,0.000000,4.000000,4.000000,4.000000,4.000000,4.000000,4.000000,4.000000,4.000000,4.000000,4.000000,4.000000,4.000000,4.000000,4.000000,100.000000
1602006554.688988,30.000000,0.000000,4121.538574,4155.384766,4158.974121,4144.102539,4133.846191,4141.538574,4130.256348,4136.922852,4148.205078,4140.000000,4127.692383,4140.512695,4123.589844,4113.333496,0.000000,4.000000,,,,0.000000,4.000000,4.000000,4.000000,4.000000,4.000000,4.000000,4.000000,4.000000,4.000000,4.000000,4.000000,4.000000,4.000000,4.000000,100.000000
1602006554.696869,31.000000,0.000000,4126.153809,4161.025879,4157.436035,4142.051270,4130.256348,4134.871582,4136.410156,4141.025879,4156.410156,4150.769043,4124.102539,4137.436035,4123.077148,4125.128418,0.000000,4.000000,,,,0.000000,4.000000,4.000000,4.000000,4.000000,4.000000,4.000000,4.000000,4.000000,4.000000,4.000000,4.000000,4.000000,4.000000,4.000000,100.000000
1602006554.704750,32.000000,0.000000,4129.743652,4154.358887,4144.102539,4138.461426,4125.128418,4124.615234,4132.307617,4138.461426,4153.333496,4150.769043,4121.025879,4126.666504,4114.871582,4124.615234,0.000000,4.000000,,,,0.000000,4.000000,4.000000,4.000000,4.000000,4.000000,4.000000,4.000000,4.000000,4.000000,4.000000,4.000000,4.000000,4.000000,4.000000,100.000000
1602006554.712631,33.000000,0.000000,4128.717773,4148.717773,4137.436035,4138.461426,4128.205078,4132.307617,4131.282227,4133.333496,4141.025879,4141.025879,4122.563965,4124.615234,4111.282227,4115.384766,0.000000,4.000000,,,,0.000000,4.000000,4.000000,4.000000,4.000000,4.000000,4.000000,4.000000,4.000000,4.000000,4.000000,4.000000,4.000000,4.000000,4.000000,100.000000
1602006554.720512,34.000000,0.000000,4123.589844,4141.538574,4132.820313,4133.846191,4137.436035,4148.205078,4134.871582,4128.205078,4130.769043,4126.666504,4118.974121,4124.102539,4102.563965,4107.692383,0.000000,4.000000,,,,0.000000,4.000000,4.000000,4.000000,4.000000,4.000000,4.000000,4.000000,4.000000,4.000000,4.000000,4.000000,4.000000,4.000000,4.000000,100.000000
1602006554.728393,35.000000,0.000000,4109.743652,4130.256348,4119.487305,4123.589844,4137.436035,4147.179688,4127.179688,4120.512695,4120.000000,4107.692383,4108.205078,4111.282227,4089.743652,4102.563965,0.000000,4.000000,,,,0.000000,4.000000,4.000000,4.000000,4.000000,4.000000,4.000000,4.000000,4.000000,4.000000,4.000000,4.000000,4.000000,4.000000,4.000000,100.000000
1602006554.736174,36.000000,0.000000,4103.077148,4123.589844,4110.256348,4121.538574,4132.820313,4136.410156,4122.563965,4122.563965,4117.948730,4106.666504,4102.051270,4104.615234,4091.794922,4094.871826,0.000000,4.000000,,,,0.000000,4.000000,4.000000,4.000000,4.000000,4.000000,4.000000,4.000000,4.000000,4.000000,4.000000,4.000000,4.000000,4.000000,4.000000,100.000000
1602006554.744055,37.000000,0.000000,4117.436035,4125.128418,4114.871582,4127.179688,4138.974121,4138.461426,4129.230957,4131.282227,4124.615234,4123.077148,4101.025879,4115.897461,4104.102539,4095.384521,0.000000,4.000000,,,,0.000000,4.000000,4.000000,4.000000,4.000000,4.000000,4.000000,4.000000,4.000000,4.000000,4.000000,4.000000,4.000000,4.000000,4.000000,100.000000
1602006554.751936,38.000000,0.000000,4122.051270,4126.666504,4120.512695,4128.205078,4140.512695,4141.025879,4126.153809,4134.871582,4125.128418,4122.563965,4109.743652,4122.051270,4109.230957,4109.230957,0.000000,4.000000,,,,0.000000,4.000000,4.000000,4.000000,4.000000,4.000000,4.000000,4.000000,4.000000,4.000000,4.000000,4.000000,4.000000,4.000000,4.000000,100.000000
1602006554.759816,39.000000,0.000000,4111.282227,4123.077148,4120.512695,4125.641113,4129.230957,4129.743652,4124.102539,4136.922852,4129.230957,4121.025879,4127.692383,4126.666504,4113.846191,4120.000000,0.000000,4.000000,,,,0.000000,4.000000,4.000000,4.000000,4.000000,4.000000,4.000000,4.000000,4.000000,4.000000,4.000000,4.000000,4.000000,4.000000,4.000000,100.000000
1602006554.767697,40.000000,0.000000,4120.512695,4126.666504,4126.666504,4125.641113,4124.615234,4126.666504,4135.897461,4145.128418,4144.615234,4150.256348,4141.025879,4145.128418,4133.333496,4130.256348,0.000000,4.000000,,,,0.000000,4.000000,4.000000,4.000000,4.000000,4.000000,4.000000,4.000000,4.000000,4.000000,4.000000,4.000000,4.000000,4.000000,4.000000,100.000000
1602006554.775478,41.000000,0.000000,4146.153809,4138.974121,4139.487305,4128.205078,4126.153809,4138.461426,4143.077148,4154.871582,4157.436035,4182.051270,4148.717773,4161.538574,4149.230957,4149.743652,0.000000,4.000000,,,,0.000000,4.000000,4.000000,4.000000,4.000000,4.000000,4.000000,4.000000,4.000000,4.000000,4.000000,4.000000,4.000000,4.000000,4.000000,100.000000
1602006554.783358,42.000000,0.000000,4158.461426,4138.974121,4150.769043,4128.717773,4117.948730,4140.000000,4143.589844,4157.948730,4158.461426,4168.717773,4151.794922,4163.077148,4147.692383,4162.051270,0.000000,4.000000,,,,0.000000,4.000000,4.000000,4.000000,4.000000,4.000000,4.000000,4.000000,4.000000,4.000000,4.000000,4.000000,4.000000,4.000000,4.000000,100.000000
1602006554.791239,43.000000,0.000000,4153.333496,4127.692383,4151.794922,4128.205078,4106.666504,4139.487305,4146.153809,4152.307617,4148.205078,4128.717773,4143.589844,4155.384766,4136.410156,4157.436035,0.000000,4.000000,,,,0.000000,4.000000,4.000000,4.000000,4.000000,4.000000,4.000000,4.000000,4.000000,4.000000,4.000000,4.000000,4.000000,4.000000,4.000000,100.000000
1602006554.799120,44.000000,0.000000,4143.077148,4125.641113,4142.051270,4125.641113,4109.743652,4141.025879,4143.077148,4142.051270,4141.538574,4124.102539,4120.512695,4137.436035,4124.102539,4134.871582,0.000000,4.000000,,,,0.000000,4.000000,4.000000,4.000000,4.000000,4.000000,4.000000,4.000000,4.000000,4.000000,4.000000,4.000000,4.000000,4.000000,4.000000,100.000000
1602006554.806900,45.000000,0.000000,4133.333496,4132.820313,4127.179688,4121.538574,4118.974121,4129.743652,4128.205078,4133.846191,4139.487305,4150.769043,4099.487305,4114.871582,4112.307617,4109.230957,0.000000,4.000000,,,,0.000000,4.000000,4.000000,4.000000,4.000000,4.000000,4.000000,4.000000,4.000000,4.000000,4.000000,4.000000,4.000000,4.000000,4.000000,100.000000
1602006554.814781,46.000000,0.000000,4124.102539,4137.948730,4114.871582,4125.641113,4128.717773,4117.436035,4112.820313,4123.077148,4127.179688,4142.051270,4093.846191,4105.641113,4096.922852,4100.000000,0.000000,4.000000,,,,0.000000,4.000000,4.000000,4.000000,4.000000,4.000000,4.000000,4.000000,4.000000,4.000000,4.000000,4.000000,4.000000,4.000000,4.000000,100.000000
1602006554.822562,47.000000,0.000000,4109.230957,4137.948730,4105.641113,4133.846191,4137.948730,4118.974121,4105.641113,4110.769043,4111.282227,4107.179688,4101.025879,4100.000000,4091.281982,4102.051270,0.000000,4.000000,,,,0.000000,4.000000,4.000000,4.000000,4.000000,4.000000,4.000000,4.000000,4.000000,4.000000,4.000000,4.000000,4.000000,4.000000,4.000000,100.000000
1602006554.830443,48.000000,0.000000,4098.461426,4137.948730,4107.692383,4136.922852,4140.512695,4121.025879,4105.128418,4111.794922,4105.641113,4105.128418,4113.846191,4101.538574,4100.512695,4103.589844,0.000000,4.000000,,,,0.000000,4.000000,4.000000,4.000000,4.000000,4.000000,4.000000,4.000000,4.000000,4.000000,4.000000,4.000000,4.000000,4.000000,4.000000,100.000000
1602006554.838324,49.000000,0.000000,4108.717773,4144.615234,4120.000000,4138.974121,4140.000000,4121.538574,4107.692383,4118.461426,4106.666504,4122.051270,4119.487305,4117.436035,4108.205078,4111.794922,0.000000,4.000000,,,,0.000000,4.000000,4.000000,4.000000,4.000000,4.000000,4.000000,4.000000,4.000000,4.000000,4.000000,4.000000,4.000000,4.000000,4.000000,100.000000
1602006554.846205,50.000000,0.000000,4123.077148,4153.333496,4127.692383,4143.077148,4141.538574,4125.128418,4112.307617,4114.358887,4109.230957,4120.512695,4115.384766,4128.205078,4106.666504,4122.563965,0.000000,4.000000,,,,0.000000,4.000000,4.000000,4.000000,4.000000,4.000000,4.000000,4.000000,4.000000,4.000000,4.000000,4.000000,4.000000,4.000000,4.000000,100.000000
1602006554.854085,51.000000,0.000000,4126.666504,4156.410156,4134.358887,4141.538574,4142.051270,4127.692383,4121.025879,4114.358887,4116.922852,4114.358887,4113.846191,4131.794922,4109.743652,4131.794922,0.000000,4.000000,,,,0.000000,4.000000,4.000000,4.000000,4.000000,4.000000,4.000000,4.000000,4.000000,4.000000,4.000000,4.000000,4.000000,4.000000,4.000000,100.000000
1602006554.861966,52.000000,0.000000,4128.717773,4149.230957,4141.025879,4140.000000,4139.487305,4140.000000,4133.333496,4129.230957,4124.615234,4126.153809,4120.512695,4145.128418,4127.179688,4144.102539,0.000000,4.000000,,,,0.000000,4.000000,4.000000,4.000000,4.000000,4.000000,4.000000,4.000000,4.000000,4.000000,4.000000,4.000000,4.000000,4.000000,4.000000,100.000000
1602006554.869747,53.000000,0.000000,4137.948730,4142.051270,4143.077148,4139.487305,4138.974121,4154.358887,4141.538574,4141.025879,4132.820313,4150.256348,4128.205078,4157.948730,4136.922852,4146.666504,0.000000,4.000000,,,,0.000000,4.000000,4.000000,4.000000,4.000000,4.000000,4.000000,4.000000,4.000000,4.000000,4.000000,4.000000,4.000000,4.000000,4.000000,100.000000
1602006554.877628,54.000000,0.000000,4137.436035,4135.897461,4140.512695,4130.769043,4133.846191,4152.307617,4142.563965,4141.538574,4149.230957,4168.205078,4127.179688,4155.384766,4129.230957,4136.922852,0.000000,4.000000,,,,0.000000,4.000000,4.000000,4.000000,4.000000,4.000000,4.000000,4.000000,4.000000,4.000000,4.000000,4.000000,4.000000,4.000000,4.000000,100.000000
1602006554.885509,55.000000,0.000000,4127.179688,4131.282227,4132.307617,4124.615234,4129.230957,4142.563965,4140.000000,4138.974121,4154.871582,4152.820313,4116.410156,4146.666504,4122.563965,4133.846191,0.000000,4.000000,,,,0.000000,4.000000,4.000000,4.000000,4.000000,4.000000,4.000000,4.000000,4.000000,4.000000,4.000000,4.000000,4.000000,4.000000,4.000000,100.000000
1602006554.893390,56.000000,0.000000,4120.512695,4132.820313,4123.589844,4126.153809,4134.358887,4138.461426,4135.897461,4138.974121,4142.051270,4121.025879,4110.256348,4141.538574,4122.051270,4132.307617,0.000000,4.000000,,,,0.000000,4.000000,4.000000,4.000000,4.000000,4.000000,4.000000,4.000000,4.000000,4.000000,4.000000,4.000000,4.000000,4.000000,4.000000,100.000000
1602006554.901271,57.000000,0.000000,4120.512695,4136.922852,4122.051270,4128.205078,4138.461426,4136.410156,4128.717773,4138.974121,4135.897461,4129.743652,4127.692383,4138.461426,4121.025879,4124.615234,0.000000,4.000000,,,,0.000000,4.000000,4.000000,4.000000,4.000000,4.000000,4.000000,4.000000,4.000000,4.000000,4.000000,4.000000,4.000000,4.000000,4.000000,100.000000
1602006554.909152,58.000000,0.000000,4128.717773,4138.974121,4127.692383,4133.333496,4136.410156,4138.461426,4123.589844,4131.794922,4136.410156,4145.641113,4141.538574,4138.461426,4123.077148,4124.102539,0.000000,4.000000,,,,0.000000,4.000000,4.000000,4.000000,4.000000,4.000000,4.000000,4.000000,4.000000,4.000000,4.000000,4.000000,4.000000,4.000000,4.000000,100.000000
1602006554.917033,59.000000,0.000000,4127.179688,4132.820313,4130.769043,4137.436035,4135.897461,4134.358887,4129.230957,4121.025879,4124.615234,4123.077148,4123.077148,4136.922852,4114.358887,4120.000000,0.000000,4.000000,,,,0.000000,4.000000,4.000000,4.000000,4.000000,4.000000,4.000000,4.000000,4.000000,4.000000,4.000000,4.000000,4.000000,4.000000,4.000000,100.000000
1602006554.924914,60.000000,0.000000,4117.436035,4128.205078,4127.179688,4136.410156,4136.922852,4121.538574,4135.897461,4116.922852,4114.871582,4115.384766,4113.333496,4140.000000,4105.128418,4114.358887,0.000000,4.000000,,,,0.000000,4.000000,4.000000,4.000000,4.000000,4.000000,4.000000,4.000000,4.000000,4.000000,4.000000,4.000000,4.000000,4.000000,4.000000,100.000000
1602006554.932795,61.000000,0.000000,4130.256348,4141.025879,4127.692383,4139.487305,4136.922852,4125.128418,4135.384766,4120.512695,4125.128418,4140.000000,4132.820313,4154.871582,4128.205078,4133.333496,0.000000,4.000000,,,,0.000000,4.000000,4.000000,4.000000,4.000000,4.000000,4.000000,4.000000,4.000000,4.000000,4.000000,4.000000,4.000000,4.000000,4.000000,100.000000
1602006554.940576,62.000000,0.000000,4152.820313,4153.333496,4136.410156,4143.589844,4138.974121,4141.025879,4134.871582,4121.538574,4136.410156,4138.461426,4143.589844,4169.230957,4161.025879,4164.102539,0.000000,4.000000,,,,0.000000,4.000000,4.000000,4.000000,4.000000,4.000000,4.000000,4.000000,4.000000,4.000000,4.000000,4.000000,4.000000,4.000000,4.000000,100.000000
1602006554.948457,63.000000,0.000000,4158.461426,4147.692383,4140.000000,4140.512695,4141.538574,4141.538574,4137.948730,4117.948730,4143.077148,4130.256348,4142.051270,4170.769043,4172.820313,4172.820313,0.000000,4.000000,,,,0.000000,4.000000,4.000000,4.000000,4.000000,4.000000,4.000000,4.000000,4.000000,4.000000,4.000000,4.000000,4.000000,4.000000,4.000000,100.000000
1602006554.956338,64.000000,0.000000,4152.307617,4138.461426,4136.410156,4135.897461,4140.000000,4140.512695,4138.461426,4124.615234,4157.436035,4164.615234,4148.717773,4167.692383,4182.563965,4171.282227,754.000000,4.000000,,,,0.000000,4.000000,4.000000,4.000000,4.000000,4.000000,4.000000,4.000000,4.000000,4.000000,4.000000,4.000000,4.000000,4.000000,4.000000,100.000000
1602006554.964220,65.000000,0.000000,4144.102539,4132.307617,4135.384766,4133.333496,4137.436035,4153.333496,4138.461426,4144.102539,4176.410156,4195.897461,4161.025879,4170.769043,4193.333496,4180.000000,790.000000,4.000000,,,,0.000000,4.000000,4.000000,4.000000,4.000000,4.000000,4.000000,4.000000,4.000000,4.000000,4.000000,4.000000,4.000000,4.000000,4.000000,100.000000
1602006554.972101,66.000000,0.000000,4138.461426,4122.563965,4140.512695,4126.153809,4136.922852,4155.384766,4143.589844,4157.948730,4187.692383,4186.153809,4165.128418,4176.410156,4195.384766,4181.025879,851.000000,4.000000,,,,0.000000,4.000000,4.000000,4.000000,4.000000,4.000000,4.000000,4.000000,4.000000,4.000000,4.000000,4.000000,4.000000,4.000000,4.000000,100.000000
1602006554.979982,67.000000,0.000000,4135.384766,4120.000000,4143.077148,4121.025879,4136.922852,4144.615234,4141.025879,4153.333496,4190.769043,4183.589844,4165.641113,4175.897461,4201.538574,4171.282227,866.000000,4.000000,,,,0.000000,4.000000,4.000000,4.000000,4.000000,4.000000,4.000000,4.000000,4.000000,4.000000,4.000000,4.000000,4.000000,4.000000,4.000000,100.000000
1602006554.987863,68.000000,0.000000,4125.641113,4116.410156,4134.358887,4121.025879,4135.897461,4135.384766,4127.179688,4142.563965,4185.641113,4191.282227,4171.282227,4170.769043,4201.538574,4168.205078,807.000000,4.000000,,,,0.000000,4.000000,4.000000,4.000000,4.000000,4.000000,4.000000,4.000000,4.000000,4.000000,4.000000,4.000000,4.000000,4.000000,4.000000,100.000000
1602006554.995744,69.000000,0.000000,4118.974121,4103.589844,4121.025879,4119.487305,4134.358887,4125.128418,4120.000000,4134.358887,4167.692383,4172.820313,4173.846191,4167.179688,4190.256348,4171.282227,824.000000,4.000000,,,,0.000000,4.000000,4.000000,4.000000,4.000000,4.000000,4.000000,4.000000,4.000000,4.000000,4.000000,4.000000,4.000000,4.000000,4.000000,100.000000
1602006555.003625,70.000000,0.000000,4121.538574,4106.666504,4118.974121,4118.974121,4135.384766,4130.769043,4126.153809,4127.179688,4152.820313,4156.922852,4162.563965,4170.256348,4188.717773,4159.487305,770.000000,4.000000,,,,0.000000,4.000000,4.000000,4.000000,4.000000,4.000000,4.000000,4.000000,4.000000,4.000000,4.000000,4.000000,4.000000,4.000000,4.000000,100.000000
1602006555.011406,71.000000,0.000000,4110.769043,4121.025879,4114.358887,4120.000000,4139.487305,4146.153809,4134.871582,4117.948730,4145.128418,4162.051270,4141.025879,4166.153809,4186.153809,4137.948730,668.000000,4.000000,,,,0.000000,4.000000,4.000000,4.000000,4.000000,4.000000,4.000000,4.000000,4.000000,4.000000,4.000000,4.000000,4.000000,4.000000,4.000000,100.000000
1602006555.019287,72.000000,0.000000,4102.051270,4120.512695,4103.077148,4118.461426,4141.025879,4145.128418,4140.512695,4108.717773,4136.922852,4158.461426,4131.282227,4152.307617,4173.333496,4137.436035,784.000000,4.000000,,,,0.000000,4.000000,4.000000,4.000000,4.000000,4.000000,4.000000,4.000000,4.000000,4.000000,4.000000,4.000000,4.000000,4.000000,4.000000,100.000000
1602006555.027168,73.000000,0.000000,4120.000000,4123.077148,4111.282227,4127.692383,4137.436035,4134.871582,4136.410156,4102.563965,4129.743652,4142.563965,4141.538574,4152.307617,4165.641113,4156.922852,836.000000,4.000000,,,,0.000000,4.000000,4.000000,4.000000,4.000000,4.000000,4.000000,4.000000,4.000000,4.000000,4.000000,4.000000,4.000000,4.000000,4.000000,100.000000
1602006555.035048,74.000000,0.000000,4137.436035,4143.077148,4138.461426,4148.717773,4139.487305,4136.922852,4125.641113,4102.563965,4130.256348,4131.282227,4149.743652,4173.333496,4172.307617,4175.897461,875.000000,4.000000,,,,0.000000,4.000000,4.000000,4.000000,4.000000,4.000000,4.000000,4.000000,4.000000,4.000000,4.000000,4.000000,4.000000,4.000000,4.000000,100.000000
1602006555.042929,75.000000,0.000000,4149.230957,4158.974121,4154.871582,4158.461426,4151.794922,4142.563965,4118.461426,4115.897461,4150.769043,4126.666504,4151.794922,4193.846191,4188.717773,4192.307617,842.000000,4.000000,,,,0.000000,4.000000,4.000000,4.000000,4.000000,4.000000,4.000000,4.000000,4.000000,4.000000,4.000000,4.000000,4.000000,4.000000,4.000000,100.000000
1602006555.050710,76.000000,0.000000,4168.205078,4162.051270,4153.333496,4155.384766,4158.974121,4140.000000,4115.897461,4132.820313,4178.461426,4151.282227,4161.025879,4196.922852,4205.641113,4201.025879,767.000000,4.000000,,,,0.000000,4.000000,4.000000,4.000000,4.000000,4.000000,4.000000,4.000000,4.000000,4.000000,4.000000,4.000000,4.000000,4.000000,4.000000,100.000000
1602006555.058591,77.000000,0.000000,4168.205078,4158.974121,4141.538574,4150.769043,4155.897461,4138.461426,4115.897461,4141.538574,4191.282227,4196.410156,4175.384766,4186.666504,4209.743652,4198.461426,731.000000,4.000000,,,,0.000000,4.000000,4.000000,4.000000,4.000000,4.000000,4.000000,4.000000,4.000000,4.000000,4.000000,4.000000,4.000000,4.000000,4.000000,100.000000
1602006555.066472,78.000000,0.000000,4140.000000,4147.692383,4123.077148,4140.000000,4154.871582,4137.948730,4118.974121,4147.179688,4199.487305,4211.282227,4173.846191,4170.256348,4199.487305,4186.153809,875.000000,4.000000,,,,0.000000,4.000000,4.000000,4.000000,4.000000,4.000000,4.000000,4.000000,4.000000,4.000000,4.000000,4.000000,4.000000,4.000000,4.000000,100.000000
1602006555.074353,79.000000,0.000000,4121.025879,4133.846191,4106.666504,4125.128418,4158.461426,4143.589844,4127.692383,4155.897461,4204.615234,4195.384766,4158.461426,4156.922852,4187.692383,4167.179688,842.000000,4.000000,,,,0.000000,4.000000,4.000000,4.000000,4.000000,4.000000,4.000000,4.000000,4.000000,4.000000,4.000000,4.000000,4.000000,4.000000,4.000000,100.000000
1602006555.082234,80.000000,0.000000,4122.051270,4125.641113,4101.538574,4118.974121,4152.820313,4154.871582,4139.487305,4155.384766,4190.256348,4177.948730,4152.820313,4153.846191,4180.512695,4155.897461,767.000000,4.000000,,,,0.000000,4.000000,4.000000,4.000000,4.000000,4.000000,4.000000,4.000000,4.000000,4.000000,4.000000,4.000000,4.000000,4.000000,4.000000,100.000000
1602006555.090115,81.000000,0.000000,4115.384766,4114.358887,4103.077148,4120.512695,4139.487305,4158.461426,4146.153809,4143.589844,4175.384766,4169.743652,4151.282227,4157.948730,4171.282227,4154.358887,731.000000,4.000000,,,,0.000000,4.000000,4.000000,4.000000,4.000000,4.000000,4.000000,4.000000,4.000000,4.000000,4.000000,4.000000,4.000000,4.000000,4.000000,100.000000
1602006555.097996,82.000000,0.000000,4102.563965,4105.128418,4109.230957,4120.512695,4135.384766,4155.897461,4142.563965,4130.769043,4165.641113,4152.820313,4144.615234,4155.897461,4158.974121,4138.974121,875.000000,4.000000,,,,0.000000,4.000000,4.000000,4.000000,4.000000,4.000000,4.000000,4.000000,4.000000,4.000000,4.000000,4.000000,4.000000,4.000000,4.000000,100.000000
1602006555.105876,83.000000,0.000000,4101.025879,4104.615234,4112.820313,4113.333496,4140.512695,4154.871582,4137.948730,4121.538574,4141.025879,4124.615234,4128.717773,4142.051270,4146.666504,4122.051270,842.000000,4.000000,,,,0.000000,4.000000,4.000000,4.000000,4.000000,4.000000,4.000000,4.000000,4.000000,4.000000,4.000000,4.000000,4.000000,4.000000,4.000000,100.000000
1602006555.113658,84.000000,0.000000,4107.692383,4104.102539,4109.743652,4110.256348,4141.025879,4149.230957,4135.384766,4120.000000,4129.743652,4109.743652,4110.256348,4136.410156,4137.436035,4129.743652,767.000000,4.000000,,,,0.000000,4.000000,4.000000,4.000000,4.000000,4.000000,4.000000,4.000000,4.000000,4.000000,4.000000,4.000000,4.000000,4.000000,4.000000,100.000000
1602006555.121539,85.000000,0.000000,4110.256348,4109.230957,4108.205078,4119.487305,4142.051270,4139.487305,4129.743652,4121.025879,4137.948730,4125.641113,4112.307617,4136.410156,4137.948730,4137.436035,731.000000,4.000000,,,,0.000000,4.000000,4.000000,4.000000,4.000000,4.000000,4.000000,4.000000,4.000000,4.000000,4.000000,4.000000,4.000000,4.000000,4.000000,100.000000
1602006555.129420,86.000000,0.000000,4105.641113,4119.487305,4102.563965,4125.128418,4146.666504,4137.948730,4123.589844,4116.922852,4130.769043,4142.563965,4116.922852,4125.128418,4142.051270,4128.205078,875.000000,4.000000,,,,0.000000,4.000000,4.000000,4.000000,4.000000,4.000000,4.000000,4.000000,4.000000,4.000000,4.000000,4.000000,4.000000,4.000000,4.000000,100.000000
1602006555.137301,87.000000,0.000000,4111.282227,4123.077148,4092.820557,4125.128418,4144.102539,4138.974121,4118.974121,4114.358887,4115.897461,4120.512695,4107.692383,4117.948730,4137.948730,4116.922852,842.000000,4.000000,,,,0.000000,4.000000,4.000000,4.000000,4.000000,4.000000,4.000000,4.000000,4.000000,4.000000,4.000000,4.000000,4.000000,4.000000,4.000000,100.000000
1602006555.145182,88.000000,0.000000,4123.077148,4128.717773,4101.025879,4134.871582,4143.077148,4134.871582,4118.974121,4116.410156,4118.974121,4111.794922,4114.358887,4132.307617,4141.538574,4125.128418,767.000000,4.000000,,,,0.000000,4.000000,4.000000,4.000000,4.000000,4.000000,4.000000,4.000000,4.000000,4.000000,4.000000,4.000000,4.000000,4.000000,4.000000,100.000000
1602006555.153064,89.000000,0.000000,4127.692383,4141.538574,4126.666504,4146.666504,4151.282227,4136.410156,4120.512695,4125.641113,4139.487305,4152.820313,4143.589844,4155.897461,4163.589844,4149.230957,731.000000,4.000000,,,,0.000000,4.000000,4.000000,4.000000,4.000000,4.000000,4.000000,4.000000,4.000000,4.000000,4.000000,4.000000,4.000000,4.000000,4.000000,100.000000
1602006555.160945,90.000000,0.000000,4131.794922,4146.153809,4140.000000,4144.102539,4151.794922,4136.922852,4121.025879,4135.384766,4154.358887,4163.589844,4156.922852,4170.769043,4176.410156,4160.000000,875.000000,4.000000,,,,0.000000,4.000000,4.000000,4.000000,4.000000,4.000000,4.000000,4.000000,4.000000,4.000000,4.000000,4.000000,4.000000,4.000000,4.000000,100.000000
1602006555.168826,91.000000,0.000000,4136.410156,4135.897461,4139.487305,4140.512695,4141.025879,4129.230957,4125.641113,4138.461426,4153.333496,4128.717773,4153.333496,4170.256348,4165.641113,4156.410156,842.000000,4.000000,,,,0.000000,4.000000,4.000000,4.000000,4.000000,4.000000,4.000000,4.000000,4.000000,4.000000,4.000000,4.000000,4.000000,4.000000,4.000000,100.000000
1602006555.176707,92.000000,0.000000,4131.794922,4123.589844,4139.487305,4136.922852,4133.333496,4127.692383,4141.538574,4139.487305,4153.846191,4143.077148,4151.282227,4160.512695,4155.897461,4149.743652,767.000000,4.000000,,,,0.000000,4.000000,4.000000,4.000000,4.000000,4.000000,4.000000,4.000000,4.000000,4.000000,4.000000,4.000000,4.000000,4.000000,4.000000,100.000000
1602006555.184488,93.000000,0.000000,4124.102539,4113.846191,4136.922852,4125.641113,4128.717773,4138.974121,4155.384766,4142.051270,4160.512695,4171.794922,4135.384766,4159.487305,4156.922852,4138.974121,731.000000,4.000000,,,,0.000000,4.000000,4.000000,4.000000,4.000000,4.000000,4.000000,4.000000,4.000000,4.000000,4.000000,4.000000,4.000000,4.000000,4.000000,100.000000
1602006555.192369,94.000000,0.000000,4125.128418,4106.153809,4128.205078,4118.461426,4126.666504,4142.563965,4155.897461,4142.051270,4152.307617,4134.871582,4124.615234,4163.077148,4156.410156,4135.897461,875.000000,4.000000,,,,0.000000,4.000000,4.000000,4.000000,4.000000,4.000000,4.000000,4.000000,4.000000,4.000000,4.000000,4.000000,4.000000,4.000000,4.000000,100.000000
1602006555.200250,95.000000,0.000000,4124.615234,4106.153809,4122.563965,4122.051270,4126.666504,4132.820313,4150.769043,4139.487305,4135.384766,4115.897461,4133.846191,4154.871582,4155.384766,4147.179688,842.000000,4.000000,,,,0.000000,4.000000,4.000000,4.000000,4.000000,4.000000,4.000000,4.000000,4.000000,4.000000,4.000000,4.000000,4.000000,4.000000,4.000000,100.000000
1602006555.208131,96.000000,0.000000,4120.000000,4114.358887,4122.563965,4126.666504,4125.641113,4129.230957,4146.153809,4140.000000,4133.333496,4148.205078,4142.051270,4151.282227,4161.538574,4159.487305,767.000000,4.000000,,,,0.000000,4.000000,4.000000,4.000000,4.000000,4.000000,4.000000,4.000000,4.000000,4.000000,4.000000,4.000000,4.000000,4.000000,4.000000,100.000000
1602006555.216012,97.000000,0.000000,4123.077148,4124.102539,4123.589844,4131.282227,4129.743652,4137.436035,4138.461426,4141.538574,4138.974121,4150.256348,4141.025879,4165.128418,4171.282227,4163.589844,731.000000,4.000000,,,,0.000000,4.000000,4.000000,4.000000,4.000000,4.000000,4.000000,4.000000,4.000000,4.000000,4.000000,4.000000,4.000000,4.000000,4.000000,100.000000
1602006555.223893,98.000000,0.000000,4129.743652,4127.692383,4123.077148,4138.461426,4136.922852,4144.102539,4128.205078,4135.384766,4140.000000,4130.256348,4137.948730,4170.256348,4171.794922,4163.077148,875.000000,4.000000,,,,0.000000,4.000000,4.000000,4.000000,4.000000,4.000000,4.000000,4.000000,4.000000,4.000000,4.000000,4.000000,4.000000,4.000000,4.000000,100.000000
1602006555.231774,99.000000,0.000000,4125.641113,4127.692383,4122.563965,4136.410156,4141.538574,4142.563965,4120.000000,4126.153809,4137.948730,4139.487305,4136.410156,4157.436035,4161.025879,4154.358887,842.000000,4.000000,,,,0.000000,4.000000,4.000000,4.000000,4.000000,4.000000,4.000000,4.000000,4.000000,4.000000,4.000000,4.000000,4.000000,4.000000,4.000000,100.000000
1602006555.239655,100.000000,0.000000,4118.461426,4125.128418,4123.077148,4131.282227,4146.666504,4142.563965,4124.102539,4126.666504,4139.487305,4150.256348,4141.538574,4150.769043,4158.974121,4147.179688,767.000000,4.000000,,,,0.000000,4.000000,4.000000,4.000000,4.000000,4.000000,4.000000,4.000000,4.000000,4.000000,4.000000,4.000000,4.000000,4.000000,4.000000,100.000000
1602006555.247536,101.000000,0.000000,4129.743652,4124.102539,4123.589844,4135.384766,4148.205078,4144.102539,4136.410156,4137.948730,4148.717773,4151.794922,4151.794922,4157.436035,4171.794922,4156.410156,731.000000,4.000000,,,,0.000000,4.000000,4.000000,4.000000,4.000000,4.000000,4.000000,4.000000,4.000000,4.000000,4.000000,4.000000,4.000000,4.000000,4.000000,100.000000
1602006555.255316,102.000000,0.000000,4138.974121,4123.589844,4120.512695,4136.922852,4141.538574,4138.461426,4136.410156,4142.051270,4156.410156,4157.436035,4142.051270,4154.871582,4170.256348,4167.179688,875.000000,4.000000,,,,0.000000,4.000000,4.000000,4.000000,4.000000,4.000000,4.000000,4.000000,4.000000,4.000000,4.000000,4.000000,4.000000,4.000000,4.000000,100.000000
1602006555.263197,103.000000,0.000000,4129.230957,4122.051270,4117.948730,4126.666504,4136.410156,4135.384766,4128.717773,4135.384766,4150.256348,4149.230957,4121.538574,4142.563965,4156.922852,4160.000000,842.000000,4.000000,,,,0.000000,4.000000,4.000000,4.000000,4.000000,4.000000,4.000000,4.000000,4.000000,4.000000,4.000000,4.000000,4.000000,4.000000,4.000000,100.000000
1602006555.270977,104.000000,0.000000,4128.717773,4123.077148,4120.512695,4124.615234,4136.410156,4138.461426,4131.794922,4135.897461,4151.794922,4145.641113,4129.743652,4138.461426,4163.077148,4148.717773,767.000000,4.000000,,,,0.000000,4.000000,4.000000,4.000000,4.000000,4.000000,4.000000,4.000000,4.000000,4.000000,4.000000,4.000000,4.000000,4.000000,4.000000,100.000000
1602006555.278858,105.000000,0.000000,4141.538574,4127.692383,4125.641113,4134.871582,4135.384766,4134.871582,4142.563965,4151.282227,4166.153809,4153.846191,4155.897461,4145.128418,4178.461426,4151.282227,731.000000,4.000000,,,,0.000000,4.000000,4.000000,4.000000,4.000000,4.000000,4.000000,4.000000,4.000000,4.000000,4.000000,4.000000,4.000000,4.000000,4.000000,100.000000
1602006555.286739,106.000000,0.000000,4143.077148,4127.692383,4132.307617,4140.512695,4136.922852,4126.153809,4145.641113,4157.436035,4162.563965,4146.666504,4162.051270,4153.333496,4178.461426,4158.461426,875.000000,4.000000,,,,0.000000,4.000000,4.000000,4.000000,4.000000,4.000000,4.000000,4.000000,4.000000,4.000000,4.000000,4.000000,4.000000,4.000000,4.000000,100.000000
1602006555.294619,107.000000,0.000000,4135.384766,4126.666504,4137.948730,4135.384766,4136.922852,4125.128418,4142.563965,4143.589844,4141.538574,4139.487305,4153.333496,4151.794922,4165.641113,4157.436035,842.000000,4.000000,,,,0.000000,4.000000,4.000000,4.000000,4.000000,4.000000,4.000000,4.000000,4.000000,4.000000,4.000000,4.000000,4.000000,4.000000,4.000000,100.000000
1602006555.302500,108.000000,0.000000,4137.948730,4133.333496,4140.000000,4135.897461,4133.333496,4128.717773,4143.077148,4135.384766,4133.846191,4146.666504,4148.205078,4151.794922,4157.436035,4155.897461,767.000000,4.000000,,,,0.000000,4.000000,4.000000,4.000000,4.000000,4.000000,4.000000,4.000000,4.000000,4.000000,4.000000,4.000000,4.000000,4.000000,4.000000,100.000000
1602006555.310281,109.000000,0.000000,4137.436035,4138.974121,4142.051270,4142.051270,4134.871582,4126.153809,4136.922852,4135.384766,4136.922852,4138.461426,4138.461426,4156.410156,4150.769043,4155.384766,731.000000,4.000000,,,,0.000000,4.000000,4.000000,4.000000,4.000000,4.000000,4.000000,4.000000,4.000000,4.000000,4.000000,4.000000,4.000000,4.000000,4.000000,100.000000
1602006555.318162,110.000000,0.000000,4121.538574,4131.282227,4137.436035,4136.410156,4140.000000,4122.563965,4123.077148,4123.589844,4129.230957,4122.563965,4121.025879,4149.743652,4133.846191,4148.717773,875.000000,4.000000,,,,0.000000,4.000000,4.000000,4.000000,4.000000,4.000000,4.000000,4.000000,4.000000,4.000000,4.000000,4.000000,4.000000,4.000000,4.000000,100.000000
1602006555.326042,111.000000,0.000000,4105.128418,4115.897461,4123.589844,4126.666504,4139.487305,4122.051270,4118.974121,4115.897461,4121.025879,4130.769043,4115.897461,4137.436035,4118.974121,4133.333496,842.000000,4.000000,,,,0.000000,4.000000,4.000000,4.000000,4.000000,4.000000,4.000000,4.000000,4.000000,4.000000,4.000000,4.000000,4.000000,4.000000,4.000000,100.000000
1602006555.333923,112.000000,0.000000,4096.922852,4107.692383,4110.256348,4122.051270,4135.384766,4115.384766,4122.051270,4118.461426,4121.538574,4124.615234,4120.000000,4132.820313,4117.948730,4117.436035,767.000000,4.000000,,,,0.000000,4.000000,4.000000,4.000000,4.000000,4.000000,4.000000,4.000000,4.000000,4.000000,4.000000,4.000000,4.000000,4.000000,4.000000,100.000000
1602006555.341804,113.000000,0.000000,4097.948730,4107.179688,4105.128418,4122.051270,4136.922852,4106.153809,4115.384766,4117.948730,4118.974121,4093.333252,4116.922852,4132.307617,4123.589844,4112.820313,731.000000,4.000000,,,,0.000000,4.000000,4.000000,4.000000,4.000000,4.000000,4.000000,4.000000,4.000000,4.000000,4.000000,4.000000,4.000000,4.000000,4.000000,100.000000
1602006555.349584,114.000000,0.000000,4110.256348,4113.846191,4111.282227,4128.205078,4141.538574,4111.794922,4115.897461,4125.641113,4129.743652,4110.769043,4126.153809,4142.051270,4136.922852,4128.717773,875.000000,4.000000,,,,0.000000,4.000000,4.000000,4.000000,4.000000,4.000000,4.000000,4.000000,4.000000,4.000000,4.000000,4.000000,4.000000,4.000000,4.000000,100.000000
1602006555.357465,115.000000,0.000000,4125.641113,4131.282227,4129.743652,4137.948730,4143.077148,4127.179688,4134.871582,4150.256348,4164.615234,4178.461426,4156.922852,4166.666504,4164.102539,4160.512695,842.000000,4.000000,,,,0.000000,4.000000,4.000000,4.000000,4.000000,4.000000,4.000000,4.000000,4.000000,4.000000,4.000000,4.000000,4.000000,4.000000,4.000000,100.000000
1602006555.365346,116.000000,0.000000,4129.230957,4138.461426,4140.000000,4143.077148,4140.512695,4130.256348,4143.077148,4163.589844,4178.974121,4202.563965,4167.692383,4177.436035,4177.948730,4177.948730,767.000000,4.000000,,,,0.000000,4.000000,4.000000,4.000000,4.000000,4.000000,4.000000,4.000000,4.000000,4.000000,4.000000,4.000000,4.000000,4.000000,4.000000,100.000000
1602006555.373226,117.000000,0.000000,4121.025879,4126.666504,4130.769043,4139.487305,4136.922852,4122.051270,4134.871582,4151.282227,4152.820313,4166.666504,4141.025879,4164.102539,4163.077148,4165.128418,731.000000,4.000000,,,,0.000000,4.000000,4.000000,4.000000,4.000000,4.000000,4.000000,4.000000,4.000000,4.000000,4.000000,4.000000,4.000000,4.000000,4.000000,100.000000
1602006555.381007,118.000000,0.000000,4108.205078,4119.487305,4121.025879,4129.230957,4136.410156,4123.589844,4135.384766,4136.922852,4133.333496,4136.922852,4119.487305,4149.230957,4141.538574,4140.000000,875.000000,4.000000,,,,0.000000,4.000000,4.000000,4.000000,4.000000,4.000000,4.000000,4.000000,4.000000,4.000000,4.000000,4.000000,4.000000,4.000000,4.000000,100.000000
1602006555.388887,119.000000,0.000000,4099.487305,4118.461426,4120.512695,4123.589844,4132.820313,4132.820313,4142.563965,4137.948730,4136.922852,4131.794922,4123.589844,4144.102539,4131.794922,4125.128418,842.000000,4.000000,,,,0.000000,4.000000,4.000000,4.000000,4.000000,4.000000,4.000000,4.000000,4.000000,4.000000,4.000000,4.000000,4.000000,4.000000,4.000000,100.000000
1602006555.396668,120.000000,0.000000,4099.487305,4109.230957,4114.358887,4124.615234,4127.179688,4137.948730,4141.538574,4138.461426,4138.461426,4133.846191,4126.666504,4137.436035,4129.743652,4123.077148,767.000000,4.000000,,,,0.000000,4.000000,4.000000,4.000000,4.000000,4.000000,4.000000,4.000000,4.000000,4.000000,4.000000,4.000000,4.000000,4.000000,4.000000,100.000000
1602006555.404548,121.000000,0.000000,4093.333252,4102.051270,4101.025879,4116.410156,4126.666504,4132.820313,4136.922852,4134.358887,4137.436035,4136.410156,4122.563965,4124.615234,4124.615234,4123.077148,731.000000,4.000000,,,,0.000000,4.000000,4.000000,4.000000,4.000000,4.000000,4.000000,4.000000,4.000000,4.000000,4.000000,4.000000,4.000000,4.000000,4.000000,100.000000
1602006555.412329,122.000000,0.000000,4085.128174,4104.615234,4098.461426,4105.641113,4129.743652,4128.717773,4137.948730,4134.871582,4135.384766,4137.436035,4122.563965,4126.666504,4123.589844,4122.051270,875.000000,4.000000,,,,0.000000,4.000000,4.000000,4.000000,4.000000,4.000000,4.000000,4.000000,4.000000,4.000000,4.000000,4.000000,4.000000,4.000000,4.000000,100.000000
1602006555.420210,123.000000,0.000000,4087.692383,4104.615234,4105.128418,4114.358887,4126.153809,4135.897461,4142.563965,4129.230957,4123.589844,4129.743652,4121.538574,4135.384766,4124.102539,4120.000000,842.000000,4.000000,,,,0.000000,4.000000,4.000000,4.000000,4.000000,4.000000,4.000000,4.000000,4.000000,4.000000,4.000000,4.000000,4.000000,4.000000,4.000000,100.000000
1602006555.428091,124.000000,0.000000,4088.205078,4102.563965,4108.717773,4123.589844,4125.128418,4143.077148,4141.538574,4115.897461,4112.820313,4117.948730,4118.974121,4127.692383,4117.436035,4114.871582,767.000000,4.000000,,,,0.000000,4.000000,4.000000,4.000000,4.000000,4.000000,4.000000,4.000000,4.000000,4.000000,4.000000,4.000000,4.000000,4.000000,4.000000,100.000000
1602006555.435972,125.000000,0.000000,4086.666748,4108.205078,4113.333496,4121.025879,4134.358887,4138.974121,4137.436035,4120.512695,4122.051270,4124.102539,4123.589844,4126.666504,4119.487305,4112.820313,731.000000,4.000000,,,,0.000000,4.000000,4.000000,4.000000,4.000000,4.000000,4.000000,4.000000,4.000000,4.000000,4.000000,4.000000,4.000000,4.000000,4.000000,100.000000
1602006555.443853,126.000000,0.000000,4096.922852,4119.487305,4122.563965,4124.102539,4139.487305,4140.000000,4142.051270,4138.461426,4142.051270,4147.692383,4134.358887,4150.256348,4136.922852,4127.179688,875.000000,4.000000,,,,0.000000,4.000000,4.000000,4.000000,4.000000,4.000000,4.000000,4.000000,4.000000,4.000000,4.000000,4.000000,4.000000,4.000000,4.000000,100.000000
1602006555.451734,127.000000,0.000000,4109.230957,4126.153809,4121.538574,4131.282227,4138.974121,4153.333496,4152.307617,4144.615234,4154.871582,4164.102539,4145.641113,4164.615234,4151.794922,4140.512695,842.000000,4.000000,,,,0.000000,4.000000,4.000000,4.000000,4.000000,4.000000,4.000000,4.000000,4.000000,4.000000,4.000000,4.000000,4.000000,4.000000,4.000000,100.000000
1602006555.459515,128.000000,0.000000,4105.641113,4122.051270,4114.358887,4127.179688,4138.974121,4153.846191,4156.410156,4142.051270,4164.102539,4165.641113,4150.769043,4154.871582,4154.871582,4140.512695,767.000000,4.000000,,,,0.000000,4.000000,4.000000,4.000000,4.000000,4.000000,4.000000,4.000000,4.000000,4.000000,4.000000,4.000000,4.000000,4.000000,4.000000,100.000000
1602006555.467397,0.000000,0.000000,4103.077148,4120.000000,4124.615234,4125.128418,4139.487305,4140.512695,4150.769043,4142.563965,4168.205078,4171.794922,4144.102539,4150.769043,4159.487305,4142.563965,777.000000,4.000000,,,,0.000000,4.000000,4.000000,4.000000,4.000000,4.000000,4.000000,4.000000,4.000000,4.000000,4.000000,4.000000,4.000000,4.000000,4.000000,100.000000
1602006555.475278,1.000000,0.000000,4115.384766,4125.641113,4141.538574,4135.897461,4138.974121,4138.974121,4141.538574,4144.615234,4156.922852,4161.538574,4136.410156,4154.358887,4158.974121,4145.641113,790.000000,4.000000,,,,0.000000,4.000000,4.000000,4.000000,4.000000,4.000000,4.000000,4.000000,4.000000,4.000000,4.000000,4.000000,4.000000,4.000000,4.000000,100.000000
1602006555.483159,2.000000,0.000000,4119.487305,4126.666504,4143.589844,4141.025879,4136.922852,4140.512695,4135.897461,4139.487305,4136.922852,4126.666504,4141.538574,4149.743652,4145.128418,4138.974121,851.000000,4.000000,,,,0.000000,4.000000,4.000000,4.000000,4.000000,4.000000,4.000000,4.000000,4.000000,4.000000,4.000000,4.000000,4.000000,4.000000,4.000000,100.000000
1602006555.491040,3.000000,0.000000,4110.256348,4123.589844,4132.820313,4133.846191,4136.410156,4130.769043,4134.871582,4127.692383,4131.282227,4115.897461,4140.000000,4137.436035,4133.846191,4131.794922,866.000000,4.000000,,,,0.000000,4.000000,4.000000,4.000000,4.000000,4.000000,4.000000,4.000000,4.000000,4.000000,4.000000,4.000000,4.000000,4.000000,4.000000,100.000000
1602006555.498921,4.000000,0.000000,4110.256348,4123.077148,4124.102539,4129.743652,4138.461426,4128.205078,4136.922852,4122.051270,4137.948730,4138.974121,4124.615234,4130.256348,4136.410156,4136.410156,807.000000,4.000000,,,,0.000000,4.000000,4.000000,4.000000,4.000000,4.000000,4.000000,4.000000,4.000000,4.000000,4.000000,4.000000,4.000000,4.000000,4.000000,100.000000
1602006555.506802,5.000000,0.000000,4111.282227,4122.563965,4118.974121,4131.282227,4137.948730,4134.871582,4134.358887,4121.538574,4130.769043,4150.769043,4118.461426,4127.692383,4140.000000,4135.384766,824.000000,4.000000,,,,0.000000,4.000000,4.000000,4.000000,4.000000,4.000000,4.000000,4.000000,4.000000,4.000000,4.000000,4.000000,4.000000,4.000000,4.000000,100.000000
1602006555.514684,6.000000,0.000000,4109.743652,4118.974121,4115.897461,4131.794922,4134.871582,4136.410156,4132.820313,4121.025879,4117.948730,4140.000000,4130.256348,4125.641113,4135.897461,4123.589844,769.000000,4.000000,,,,0.000000,4.000000,4.000000,4.000000,4.000000,4.000000,4.000000,4.000000,4.000000,4.000000,4.000000,4.000000,4.000000,4.000000,4.000000,100.000000
1602006555.522565,7.000000,0.000000,4125.641113,4126.153809,4128.205078,4136.922852,4138.461426,4140.000000,4137.436035,4130.769043,4126.666504,4134.358887,4149.230957,4131.282227,4144.615234,4131.282227,668.000000,4.000000,,,,0.000000,4.000000,4.000000,4.000000,4.000000,4.000000,4.000000,4.000000,4.000000,4.000000,4.000000,4.000000,4.000000,4.000000,4.000000,100.000000
1602006555.530345,8.000000,0.000000,4141.538574,4140.512695,4144.102539,4141.025879,4141.025879,4145.128418,4142.563965,4142.563965,4140.000000,4137.436035,4156.922852,4144.102539,4157.436035,4157.436035,784.000000,4.000000,,,,0.000000,4.000000,4.000000,4.000000,4.000000,4.000000,4.000000,4.000000,4.000000,4.000000,4.000000,4.000000,4.000000,4.000000,4.000000,100.000000
1602006555.538226,9.000000,0.000000,4128.205078,4135.384766,4144.615234,4137.436035,4129.743652,4140.512695,4143.077148,4140.000000,4137.436035,4141.538574,4154.358887,4153.846191,4147.179688,4157.436035,836.000000,4.000000,,,,0.000000,4.000000,4.000000,4.000000,4.000000,4.000000,4.000000,4.000000,4.000000,4.000000,4.000000,4.000000,4.000000,4.000000,4.000000,100.000000
1602006555.546107,10.000000,0.000000,4122.051270,4123.589844,4145.128418,4134.871582,4127.179688,4135.897461,4145.128418,4136.922852,4142.051270,4140.512695,4150.256348,4161.025879,4138.974121,4138.461426,875.000000,4.000000,,,,0.000000,4.000000,4.000000,4.000000,4.000000,4.000000,4.000000,4.000000,4.000000,4.000000,4.000000,4.000000,4.000000,4.000000,4.000000,100.000000
1602006555.553988,11.000000,0.000000,4135.384766,4129.230957,4153.333496,4140.000000,4136.922852,4135.897461,4145.641113,4141.538574,4151.282227,4141.025879,4147.179688,4163.589844,4149.230957,4143.589844,842.000000,4.000000,,,,0.000000,4.000000,4.000000,4.000000,4.000000,4.000000,4.000000,4.000000,4.000000,4.000000,4.000000,4.000000,4.000000,4.000000,4.000000,100.000000
1602006555.561868,12.000000,0.000000,4132.307617,4132.820313,4147.692383,4140.512695,4133.333496,4135.897461,4139.487305,4133.846191,4142.051270,4149.743652,4140.000000,4158.974121,4146.153809,4158.974121,767.000000,4.000000,,,,0.000000,4.000000,4.000000,4.000000,4.000000,4.000000,4.000000,4.000000,4.000000,4.000000,4.000000,4.000000,4.000000,4.000000,4.000000,100.000000
1602006555.569649,13.000000,0.000000,4120.512695,4125.641113,4135.384766,4132.820313,4127.692383,4135.897461,4137.948730,4125.641113,4132.307617,4160.512695,4135.384766,4149.743652,4136.410156,4149.743652,731.000000,4.000000,,,,0.000000,4.000000,4.000000,4.000000,4.000000,4.000000,4.000000,4.000000,4.000000,4.000000,4.000000,4.000000,4.000000,4.000000,4.000000,100.000000
1602006555.577530,14.000000,0.000000,4123.589844,4125.641113,4138.461426,4132.307617,4131.282227,4136.410156,4139.487305,4134.358887,4141.025879,4156.410156,4137.948730,4143.589844,4149.230957,4135.897461,875.000000,4.000000,,,,0.000000,4.000000,4.000000,4.000000,4.000000,4.000000,4.000000,4.000000,4.000000,4.000000,4.000000,4.000000,4.000000,4.000000,4.000000,100.000000
1602006555.585411,15.000000,0.000000,4127.179688,4126.666504,4138.461426,4136.922852,4128.205078,4136.922852,4138.974121,4140.000000,4145.128418,4140.000000,4137.436035,4141.538574,4156.922852,4140.512695,842.000000,4.000000,,,,0.000000,4.000000,4.000000,4.000000,4.000000,4.000000,4.000000,4.000000,4.000000,4.000000,4.000000,4.000000,4.000000,4.000000,4.000000,100.000000
1602006555.593292,16.000000,0.000000,4122.051270,4120.512695,4124.102539,4129.230957,4121.025879,4138.974121,4141.025879,4133.846191,4134.871582,4136.410156,4136.922852,4136.410156,4140.512695,4136.922852,0.000000,4.000000,,,,0.000000,4.000000,4.000000,4.000000,4.000000,4.000000,4.000000,4.000000,4.000000,4.000000,4.000000,4.000000,4.000000,4.000000,4.000000,100.000000
1602006555.601173,17.000000,0.000000,4119.487305,4118.974121,4118.461426,4121.538574,4124.102539,4138.974121,4142.051270,4133.846191,4124.615234,4134.871582,4142.563965,4134.871582,4132.820313,4126.153809,0.000000,4.000000,,,,0.000000,4.000000,4.000000,4.000000,4.000000,4.000000,4.000000,4.000000,4.000000,4.000000,4.000000,4.000000,4.000000,4.000000,4.000000,100.000000
1602006555.609054,18.000000,0.000000,4123.077148,4121.538574,4127.692383,4129.230957,4125.641113,4136.410156,4138.461426,4139.487305,4122.051270,4121.025879,4145.641113,4142.051270,4138.461426,4135.384766,0.000000,4.000000,,,,0.000000,4.000000,4.000000,4.000000,4.000000,4.000000,4.000000,4.000000,4.000000,4.000000,4.000000,4.000000,4.000000,4.000000,4.000000,100.000000
1602006555.616935,19.000000,0.000000,4131.282227,4126.666504,4137.436035,4137.948730,4125.641113,4136.922852,4137.436035,4138.461426,4128.205078,4121.538574,4141.538574,4150.769043,4140.000000,4154.358887,0.000000,4.000000,,,,0.000000,4.000000,4.000000,4.000000,4.000000,4.000000,4.000000,4.000000,4.000000,4.000000,4.000000,4.000000,4.000000,4.000000,4.000000,100.000000
1602006555.624816,20.000000,0.000000,4137.948730,4136.410156,4143.589844,4138.974121,4133.846191,4136.922852,4140.512695,4138.974121,4137.436035,4145.641113,4141.538574,4159.487305,4142.563965,4165.128418,0.000000,4.000000,,,,0.000000,4.000000,4.000000,4.000000,4.000000,4.000000,4.000000,4.000000,4.000000,4.000000,4.000000,4.000000,4.000000,4.000000,4.000000,100.000000
1602006555.632597,21.000000,0.000000,4137.948730,4140.000000,4148.717773,4139.487305,4135.384766,4136.922852,4141.025879,4141.538574,4141.025879,4149.743652,4135.384766,4166.153809,4142.563965,4164.102539,0.000000,4.000000,,,,0.000000,4.000000,4.000000,4.000000,4.000000,4.000000,4.000000,4.000000,4.000000,4.000000,4.000000,4.000000,4.000000,4.000000,4.000000,100.000000
1602006555.640478,22.000000,0.000000,4142.563965,4135.897461,4151.794922,4142.051270,4128.717773,4138.974121,4140.000000,4137.948730,4138.461426,4136.922852,4123.589844,4161.025879,4137.436035,4153.333496,0.000000,4.000000,,,,0.000000,4.000000,4.000000,4.000000,4.000000,4.000000,4.000000,4.000000,4.000000,4.000000,4.000000,4.000000,4.000000,4.000000,4.000000,100.000000
1602006555.648359,23.000000,0.000000,4153.846191,4138.974121,4153.333496,4145.128418,4124.615234,4135.897461,4134.871582,4131.282227,4136.922852,4141.025879,4127.179688,4153.333496,4141.025879,4149.743652,0.000000,4.000000,,,,0.000000,4.000000,4.000000,4.000000,4.000000,4.000000,4.000000,4.000000,4.000000,4.000000,4.000000,4.000000,4.000000,4.000000,4.000000,100.000000
1602006555.656240,24.000000,0.000000,4151.282227,4143.077148,4153.333496,4142.563965,4124.102539,4126.153809,4124.102539,4130.769043,4137.948730,4142.051270,4138.461426,4154.358887,4146.153809,4153.333496,0.000000,4.000000,,,,0.000000,4.000000,4.000000,4.000000,4.000000,4.000000,4.000000,4.000000,4.000000,4.000000,4.000000,4.000000,4.000000,4.000000,4.000000,100.000000
1602006555.664120,25.000000,0.000000,4138.461426,4140.000000,4150.769043,4137.948730,4122.563965,4121.025879,4125.128418,4136.410156,4134.358887,4132.820313,4141.025879,4156.922852,4143.077148,4148.205078,0.000000,4.000000,,,,0.000000,4.000000,4.000000,4.000000,4.000000,4.000000,4.000000,4.000000,4.000000,4.000000,4.000000,4.000000,4.000000,4.000000,4.000000,100.000000
1602006555.672001,26.000000,0.000000,4138.974121,4137.436035,4152.820313,4139.487305,4121.025879,4125.641113,4136.922852,4142.563965,4128.205078,4137.948730,4138.974121,4153.846191,4148.717773,4152.307617,0.000000,4.000000,,,,0.000000,4.000000,4.000000,4.000000,4.000000,4.000000,4.000000,4.000000,4.000000,4.000000,4.000000,4.000000,4.000000,4.000000,4.000000,100.000000
1602006555.679782,27.000000,0.000000,4144.102539,4137.948730,4154.871582,4140.512695,4120.512695,4122.563965,4138.461426,4144.102539,4125.641113,4146.666504,4136.922852,4155.384766,4156.922852,4170.769043,0.000000,4.000000,,,,0.000000,4.000000,4.000000,4.000000,4.000000,4.000000,4.000000,4.000000,4.000000,4.000000,4.000000,4.000000,4.000000,4.000000,4.000000,100.000000
1602006555.687663,28.000000,0.000000,4143.077148,4135.897461,4150.256348,4138.461426,4119.487305,4116.922852,4134.358887,4140.512695,4126.153809,4140.000000,4143.589844,4163.077148,4152.820313,4176.410156,0.000000,4.000000,,,,0.000000,4.000000,4.000000,4.000000,4.000000,4.000000,4.000000,4.000000,4.000000,4.000000,4.000000,4.000000,4.000000,4.000000,4.000000,100.000000
1602006555.695544,29.000000,0.000000,4148.717773,4136.410156,4151.794922,4139.487305,4124.102539,4129.230957,4141.025879,4138.974121,4119.487305,4138.461426,4153.333496,4173.333496,4153.333496,4171.794922,0.000000,4.000000,,,,0.000000,4.000000,4.000000,4.000000,4.000000,4.000000,4.000000,4.000000,4.000000,4.000000,4.000000,4.000000,4.000000,4.000000,4.000000,100.000000
1602006555.703425,30.000000,0.000000,4150.769043,4139.487305,4157.948730,4138.974121,4128.717773,4142.051270,4145.128418,4133.846191,4107.692383,4138.974121,4144.615234,4171.794922,4151.282227,4165.128418,0.000000,4.000000,,,,0.000000,4.000000,4.000000,4.000000,4.000000,4.000000,4.000000,4.000000,4.000000,4.000000,4.000000,4.000000,4.000000,4.000000,4.000000,100.000000
1602006555.711306,31.000000,0.000000,4141.025879,4136.922852,4150.769043,4137.436035,4126.153809,4137.948730,4137.436035,4125.128418,4108.205078,4127.692383,4130.769043,4156.922852,4143.077148,4154.871582,0.000000,4.000000,,,,0.000000,4.000000,4.000000,4.000000,4.000000,4.000000,4.000000,4.000000,4.000000,4.000000,4.000000,4.000000,4.000000,4.000000,4.000000,100.000000
1602006555.719187,32.000000,0.000000,4135.897461,4134.871582,4139.487305,4139.487305,4127.692383,4134.871582,4132.820313,4123.077148,4122.563965,4127.692383,4142.051270,4151.282227,4151.794922,4151.794922,0.000000,4.000000,,,,0.000000,4.000000,4.000000,4.000000,4.000000,4.000000,4.000000,4.000000,4.000000,4.000000,4.000000,4.000000,4.000000,4.000000,4.000000,100.000000
1602006555.727068,33.000000,0.000000,4136.922852,4133.846191,4134.871582,4138.461426,4136.922852,4144.615234,4133.846191,4125.641113,4125.128418,4143.589844,4151.282227,4154.871582,4157.948730,4155.897461,0.000000,4.000000,,,,0.000000,4.000000,4.000000,4.000000,4.000000,4.000000,4.000000,4.000000,4.000000,4.000000,4.000000,4.000000,4.000000,4.000000,4.000000,100.000000
1602006555.734949,34.000000,0.000000,4135.384766,4127.692383,4132.820313,4135.384766,4135.897461,4145.128418,4135.897461,4128.717773,4113.333496,4141.538574,4140.512695,4154.358887,4140.000000,4153.333496,0.000000,4.000000,,,,0.000000,4.000000,4.000000,4.000000,4.000000,4.000000,4.000000,4.000000,4.000000,4.000000,4.000000,4.000000,4.000000,4.000000,4.000000,100.000000
1602006555.742730,35.000000,0.000000,4136.922852,4128.717773,4141.538574,4137.948730,4129.743652,4137.436035,4136.410156,4136.410156,4114.358887,4121.025879,4134.871582,4151.282227,4132.820313,4150.769043,0.000000,4.000000,,,,0.000000,4.000000,4.000000,4.000000,4.000000,4.000000,4.000000,4.000000,4.000000,4.000000,4.000000,4.000000,4.000000,4.000000,4.000000,100.000000
1602006555.750610,36.000000,0.000000,4137.948730,4135.897461,4152.820313,4141.025879,4133.333496,4134.358887,4130.769043,4140.000000,4122.051270,4123.589844,4138.974121,4150.256348,4142.563965,4162.563965,0.000000,4.000000,,,,0.000000,4.000000,4.000000,4.000000,4.000000,4.000000,4.000000,4.000000,4.000000,4.000000,4.000000,4.000000,4.000000,4.000000,4.000000,100.000000
1602006555.758491,37.000000,0.000000,4140.512695,4138.974121,4147.692383,4140.000000,4137.948730,4136.410156,4129.743652,4136.410156,4118.974121,4146.153809,4138.461426,4152.307617,4142.563965,4168.205078,0.000000,4.000000,,,,0.000000,4.000000,4.000000,4.000000,4.000000,4.000000,4.000000,4.000000,4.000000,4.000000,4.000000,4.000000,4.000000,4.000000,4.000000,100.000000
1602006555.766372,38.000000,0.000000,4142.051270,4136.922852,4137.436035,4137.948730,4134.358887,4136.922852,4132.307617,4133.333496,4111.282227,4142.563965,4130.256348,4154.358887,4142.563965,4158.461426,0.000000,4.000000,,,,0.000000,4.000000,4.000000,4.000000,4.000000,4.000000,4.000000,4.000000,4.000000,4.000000,4.000000,4.000000,4.000000,4.000000,4.000000,100.000000
1602006555.774252,39.000000,0.000000,4137.436035,4139.487305,4137.948730,4143.589844,4133.846191,4131.794922,4130.769043,4125.641113,4108.717773,4124.102539,4126.153809,4150.769043,4152.307617,4150.769043,0.000000,4.000000,,,,0.000000,4.000000,4.000000,4.000000,4.000000,4.000000,4.000000,4.000000,4.000000,4.000000,4.000000,4.000000,4.000000,4.000000,4.000000,100.000000
1602006555.782133,40.000000,0.000000,4143.077148,4145.641113,4141.025879,4151.794922,4137.948730,4130.769043,4129.743652,4120.000000,4109.743652,4133.333496,4132.820313,4149.743652,4156.922852,4150.769043,0.000000,4.000000,,,,0.000000,4.000000,4.000000,4.000000,4.000000,4.000000,4.000000,4.000000,4.000000,4.000000,4.000000,4.000000,4.000000,4.000000,4.000000,100.000000
1602006555.789914,41.000000,0.000000,4152.820313,4144.102539,4142.051270,4147.692383,4138.461426,4136.410156,4130.769043,4122.563965,4103.077148,4142.051270,4142.051270,4151.282227,4148.717773,4153.846191,0.000000,4.000000,,,,0.000000,4.000000,4.000000,4.000000,4.000000,4.000000,4.000000,4.000000,4.000000,4.000000,4.000000,4.000000,4.000000,4.000000,4.000000,100.000000
1602006555.797795,42.000000,0.000000,4143.077148,4137.948730,4142.563965,4137.948730,4137.436035,4138.461426,4130.769043,4122.051270,4100.000000,4131.794922,4140.000000,4148.205078,4139.487305,4153.333496,0.000000,4.000000,,,,0.000000,4.000000,4.000000,4.000000,4.000000,4.000000,4.000000,4.000000,4.000000,4.000000,4.000000,4.000000,4.000000,4.000000,4.000000,100.000000
1602006555.805675,43.000000,0.000000,4136.410156,4135.897461,4137.948730,4136.922852,4136.410156,4134.871582,4132.307617,4124.102539,4113.333496,4144.615234,4139.487305,4146.153809,4144.102539,4152.307617,0.000000,4.000000,,,,0.000000,4.000000,4.000000,4.000000,4.000000,4.000000,4.000000,4.000000,4.000000,4.000000,4.000000,4.000000,4.000000,4.000000,4.000000,100.000000
1602006555.813556,44.000000,0.000000,4150.256348,4145.128418,4140.512695,4143.077148,4137.948730,4135.897461,4139.487305,4136.410156,4121.538574,4157.948730,4152.820313,4152.820313,4158.461426,4160.512695,0.000000,4.000000,,,,0.000000,4.000000,4.000000,4.000000,4.000000,4.000000,4.000000,4.000000,4.000000,4.000000,4.000000,4.000000,4.000000,4.000000,4.000000,100.000000
1602006555.821337,45.000000,0.000000,4158.461426,4152.307617,4152.820313,4148.205078,4142.051270,4140.000000,4142.051270,4139.487305,4112.307617,4133.333496,4153.846191,4163.589844,4163.589844,4174.871582,0.000000,4.000000,,,,0.000000,4.000000,4.000000,4.000000,4.000000,4.000000,4.000000,4.000000,4.000000,4.000000,4.000000,4.000000,4.000000,4.000000,4.000000,100.000000
1602006555.829218,46.000000,0.000000,4148.717773,4146.153809,4157.948730,4145.128418,4137.436035,4133.333496,4132.820313,4127.692383,4100.512695,4106.666504,4142.051270,4166.153809,4152.820313,4175.384766,0.000000,4.000000,,,,0.000000,4.000000,4.000000,4.000000,4.000000,4.000000,4.000000,4.000000,4.000000,4.000000,4.000000,4.000000,4.000000,4.000000,4.000000,100.000000
1602006555.837099,47.000000,0.000000,4141.025879,4137.436035,4153.846191,4137.436035,4125.128418,4116.922852,4120.000000,4121.025879,4091.794922,4110.769043,4137.436035,4159.487305,4143.589844,4157.948730,0.000000,4.000000,,,,0.000000,4.000000,4.000000,4.000000,4.000000,4.000000,4.000000,4.000000,4.000000,4.000000,4.000000,4.000000,4.000000,4.000000,4.000000,100.000000
1602006555.844980,48.000000,0.000000,4148.205078,4145.641113,4155.384766,4144.102539,4127.179688,4111.282227,4124.102539,4127.179688,4086.666748,4124.615234,4140.000000,4157.948730,4149.743652,4147.179688,0.000000,4.000000,,,,0.000000,4.000000,4.000000,4.000000,4.000000,4.000000,4.000000,4.000000,4.000000,4.000000,4.000000,4.000000,4.000000,4.000000,4.000000,100.000000
1602006555.852861,49.000000,0.000000,4156.410156,4154.358887,4159.487305,4152.820313,4138.461426,4123.077148,4134.871582,4131.282227,4095.384521,4136.922852,4140.512695,4164.615234,4158.461426,4156.922852,0.000000,4.000000,,,,0.000000,4.000000,4.000000,4.000000,4.000000,4.000000,4.000000,4.000000,4.000000,4.000000,4.000000,4.000000,4.000000,4.000000,4.000000,100.000000
1602006555.860742,50.000000,0.000000,4144.615234,4142.563965,4154.358887,4143.589844,4135.384766,4129.230957,4130.769043,4126.153809,4103.077148,4139.487305,4141.025879,4161.538574,4153.333496,4166.153809,0.000000,4.000000,,,,0.000000,4.000000,4.000000,4.000000,4.000000,4.000000,4.000000,4.000000,4.000000,4.000000,4.000000,4.000000,4.000000,4.000000,4.000000,100.000000
1602006555.868623,51.000000,0.000000,4136.922852,4133.846191,4152.820313,4136.410156,4128.717773,4127.692383,4128.717773,4123.077148,4108.205078,4136.922852,4148.717773,4154.358887,4150.769043,4161.538574,0.000000,4.000000,,,,0.000000,4.000000,4.000000,4.000000,4.000000,4.000000,4.000000,4.000000,4.000000,4.000000,4.000000,4.000000,4.000000,4.000000,4.000000,100.000000
1602006555.876504,52.000000,0.000000,4149.743652,4137.948730,4151.794922,4140.000000,4133.333496,4129.230957,4135.384766,4126.666504,4121.538574,4138.974121,4151.794922,4155.384766,4157.436035,4158.974121,0.000000,4.000000,,,,0.000000,4.000000,4.000000,4.000000,4.000000,4.000000,4.000000,4.000000,4.000000,4.000000,4.000000,4.000000,4.000000,4.000000,4.000000,100.000000
1602006555.884384,53.000000,0.000000,4156.410156,4138.974121,4146.666504,4141.025879,4139.487305,4132.820313,4138.974121,4129.230957,4129.230957,4138.974121,4139.487305,4157.948730,4157.948730,4162.563965,0.000000,4.000000,,,,0.000000,4.000000,4.000000,4.000000,4.000000,4.000000,4.000000,4.000000,4.000000,4.000000,4.000000,4.000000,4.000000,4.000000,4.000000,100.000000
1602006555.892165,54.000000,0.000000,4150.769043,4141.538574,4147.692383,4138.974121,4137.948730,4135.897461,4140.000000,4128.205078,4126.153809,4126.666504,4135.897461,4163.077148,4154.358887,4155.897461,0.000000,4.000000,,,,0.000000,4.000000,4.000000,4.000000,4.000000,4.000000,4.000000,4.000000,4.000000,4.000000,4.000000,4.000000,4.000000,4.000000,4.000000,100.000000
1602006555.900046,55.000000,0.000000,4150.256348,4149.743652,4154.871582,4140.000000,4136.922852,4138.461426,4139.487305,4127.692383,4127.692383,4121.538574,4155.897461,4171.282227,4154.871582,4157.436035,0.000000,4.000000,,,,0.000000,4.000000,4.000000,4.000000,4.000000,4.000000,4.000000,4.000000,4.000000,4.000000,4.000000,4.000000,4.000000,4.000000,4.000000,100.000000
1602006555.907927,56.000000,0.000000,4155.897461,4153.333496,4157.948730,4142.051270,4139.487305,4131.794922,4138.461426,4127.692383,4129.230957,4138.461426,4156.922852,4171.282227,4159.487305,4171.282227,0.000000,4.000000,,,,0.000000,4.000000,4.000000,4.000000,4.000000,4.000000,4.000000,4.000000,4.000000,4.000000,4.000000,4.000000,4.000000,4.000000,4.000000,100.000000
1602006555.915808,57.000000,0.000000,4154.871582,4149.743652,4150.769043,4142.563965,4145.128418,4123.589844,4136.922852,4125.641113,4117.436035,4141.025879,4128.717773,4161.538574,4154.871582,4165.128418,0.000000,4.000000,,,,0.000000,4.000000,4.000000,4.000000,4.000000,4.000000,4.000000,4.000000,4.000000,4.000000,4.000000,4.000000,4.000000,4.000000,4.000000,100.000000
1602006555.923689,58.000000,0.000000,4143.077148,4142.051270,4141.025879,4137.948730,4145.128418,4131.794922,4132.307617,4120.512695,4106.153809,4118.461426,4123.589844,4153.333496,4141.025879,4143.077148,0.000000,4.000000,,,,0.000000,4.000000,4.000000,4.000000,4.000000,4.000000,4.000000,4.000000,4.000000,4.000000,4.000000,4.000000,4.000000,4.000000,4.000000,100.000000
1602006555.931570,59.000000,0.000000,4137.436035,4138.974121,4136.410156,4134.871582,4140.512695,4137.948730,4123.077148,4112.820313,4105.641113,4118.461426,4141.025879,4151.794922,4142.563965,4133.846191,0.000000,4.000000,,,,0.000000,4.000000,4.000000,4.000000,4.000000,4.000000,4.000000,4.000000,4.000000,4.000000,4.000000,4.000000,4.000000,4.000000,4.000000,100.000000
1602006555.939451,60.000000,0.000000,4149.743652,4147.692383,4143.589844,4141.538574,4146.153809,4128.717773,4114.358887,4109.743652,4109.743652,4141.025879,4141.538574,4160.000000,4153.846191,4146.153809,0.000000,4.000000,,,,0.000000,4.000000,4.000000,4.000000,4.000000,4.000000,4.000000,4.000000,4.000000,4.000000,4.000000,4.000000,4.000000,4.000000,4.000000,100.000000
1602006555.947232,61.000000,0.000000,4160.512695,4155.384766,4152.820313,4147.179688,4153.333496,4124.102539,4109.743652,4114.871582,4115.384766,4135.384766,4132.307617,4169.230957,4154.871582,4158.974121,0.000000,4.000000,,,,0.000000,4.000000,4.000000,4.000000,4.000000,4.000000,4.000000,4.000000,4.000000,4.000000,4.000000,4.000000,4.000000,4.000000,4.000000,100.000000
1602006555.955113,62.000000,0.000000,4156.410156,4149.230957,4154.358887,4143.589844,4154.358887,4137.948730,4114.871582,4121.538574,4121.025879,4112.307617,4135.384766,4172.307617,4151.282227,4151.282227,0.000000,4.000000,,,,0.000000,4.000000,4.000000,4.000000,4.000000,4.000000,4.000000,4.000000,4.000000,4.000000,4.000000,4.000000,4.000000,4.000000,4.000000,100.000000
1602006555.962995,63.000000,0.000000,4144.102539,4138.461426,4145.641113,4136.922852,4149.230957,4144.102539,4128.205078,4122.051270,4123.077148,4113.333496,4141.025879,4165.641113,4147.692383,4137.436035,0.000000,4.000000,,,,0.000000,4.000000,4.000000,4.000000,4.000000,4.000000,4.000000,4.000000,4.000000,4.000000,4.000000,4.000000,4.000000,4.000000,4.000000,100.000000
1602006555.970876,64.000000,0.000000,4126.666504,4134.871582,4130.769043,4135.384766,4141.025879,4135.384766,4138.461426,4120.512695,4118.974121,4124.102539,4138.461426,4152.820313,4137.948730,4136.922852,784.000000,4.000000,,,,0.000000,4.000000,4.000000,4.000000,4.000000,4.000000,4.000000,4.000000,4.000000,4.000000,4.000000,4.000000,4.000000,4.000000,4.000000,100.000000
1602006555.978757,65.000000,0.000000,4126.666504,4136.410156,4129.230957,4135.897461,4135.897461,4134.871582,4142.051270,4127.179688,4121.538574,4135.384766,4133.846191,4153.846191,4137.948730,4143.077148,790.000000,4.000000,,,,0.000000,4.000000,4.000000,4.000000,4.000000,4.000000,4.000000,4.000000,4.000000,4.000000,4.000000,4.000000,4.000000,4.000000,4.000000,100.000000
1602006555.986638,66.000000,0.000000,4140.000000,4138.461426,4138.974121,4136.410156,4138.974121,4136.922852,4141.538574,4135.384766,4133.333496,4155.384766,4138.461426,4167.692383,4147.179688,4142.051270,851.000000,4.000000,,,,0.000000,4.000000,4.000000,4.000000,4.000000,4.000000,4.000000,4.000000,4.000000,4.000000,4.000000,4.000000,4.000000,4.000000,4.000000,100.000000
1602006555.994519,67.000000,0.000000,4131.794922,4137.948730,4136.922852,4138.461426,4138.974121,4130.256348,4137.948730,4132.307617,4130.769043,4155.384766,4150.256348,4167.179688,4144.102539,4132.307617,866.000000,4.000000,,,,0.000000,4.000000,4.000000,4.000000,4.000000,4.000000,4.000000,4.000000,4.000000,4.000000,4.000000,4.000000,4.000000,4.000000,4.000000,100.000000
1602006556.002400,68.000000,0.000000,4116.922852,4136.410156,4123.589844,4139.487305,4134.871582,4122.051270,4130.769043,4124.102539,4109.743652,4129.743652,4146.666504,4152.307617,4136.410156,4119.487305,807.000000,4.000000,,,,0.000000,4.000000,4.000000,4.000000,4.000000,4.000000,4.000000,4.000000,4.000000,4.000000,4.000000,4.000000,4.000000,4.000000,4.000000,100.000000
1602006556.010282,69.000000,0.000000,4126.666504,4134.871582,4121.538574,4137.436035,4141.538574,4120.512695,4122.563965,4121.025879,4107.179688,4122.563965,4134.358887,4152.820313,4141.538574,4124.102539,824.000000,4.000000,,,,0.000000,4.000000,4.000000,4.000000,4.000000,4.000000,4.000000,4.000000,4.000000,4.000000,4.000000,4.000000,4.000000,4.000000,4.000000,100.000000
1602006556.018062,70.000000,0.000000,4140.000000,4136.410156,4128.205078,4135.384766,4153.333496,4128.717773,4124.615234,4124.615234,4124.102539,4138.974121,4144.102539,4166.666504,4153.333496,4147.692383,769.000000,4.000000,,,,0.000000,4.000000,4.000000,4.000000,4.000000,4.000000,4.000000,4.000000,4.000000,4.000000,4.000000,4.000000,4.000000,4.000000,4.000000,100.000000
1602006556.025943,71.000000,0.000000,4133.846191,4136.922852,4125.128418,4135.384766,4153.333496,4141.538574,4130.769043,4124.615234,4126.153809,4139.487305,4155.897461,4171.282227,4156.922852,4158.974121,668.000000,4.000000,,,,0.000000,4.000000,4.000000,4.000000,4.000000,4.000000,4.000000,4.000000,4.000000,4.000000,4.000000,4.000000,4.000000,4.000000,4.000000,100.000000
1602006556.033824,72.000000,0.000000,4135.384766,4135.384766,4126.666504,4137.436035,4146.153809,4140.512695,4127.692383,4122.051270,4123.077148,4132.820313,4148.717773,4166.153809,4155.384766,4154.871582,784.000000,4.000000,,,,0.000000,4.000000,4.000000,4.000000,4.000000,4.000000,4.000000,4.000000,4.000000,4.000000,4.000000,4.000000,4.000000,4.000000,4.000000,100.000000
1602006556.041704,73.000000,0.000000,4146.153809,4134.871582,4136.922852,4137.436035,4140.512695,4123.077148,4121.538574,4119.487305,4126.153809,4142.051270,4133.333496,4161.025879,4150.256348,4150.256348,836.000000,4.000000,,,,0.000000,4.000000,4.000000,4.000000,4.000000,4.000000,4.000000,4.000000,4.000000,4.000000,4.000000,4.000000,4.000000,4.000000,4.000000,100.000000
1602006556.049585,74.000000,0.000000,4146.666504,4136.922852,4140.512695,4135.384766,4135.897461,4117.436035,4120.000000,4118.461426,4121.538574,4140.512695,4121.025879,4156.922852,4138.974121,4136.922852,875.000000,4.000000,,,,0.000000,4.000000,4.000000,4.000000,4.000000,4.000000,4.000000,4.000000,4.000000,4.000000,4.000000,4.000000,4.000000,4.000000,4.000000,100.000000
1602006556.057366,75.000000,0.000000,4146.153809,4138.974121,4142.051270,4135.897461,4134.871582,4132.307617,4125.128418,4119.487305,4118.974121,4126.153809,4125.128418,4154.871582,4138.974121,4123.589844,842.000000,4.000000,,,,0.000000,4.000000,4.000000,4.000000,4.000000,4.000000,4.000000,4.000000,4.000000,4.000000,4.000000,4.000000,4.000000,4.000000,4.000000,100.000000
1602006556.065248,76.000000,0.000000,4149.230957,4137.436035,4147.692383,4138.974121,4139.487305,4143.589844,4134.871582,4123.589844,4127.692383,4131.282227,4141.025879,4155.897461,4150.256348,4126.666504,767.000000,4.000000,,,,0.000000,4.000000,4.000000,4.000000,4.000000,4.000000,4.000000,4.000000,4.000000,4.000000,4.000000,4.000000,4.000000,4.000000,4.000000,100.000000
1602006556.073129,77.000000,0.000000,4146.153809,4136.410156,4143.077148,4140.000000,4140.000000,4138.974121,4141.025879,4126.666504,4127.692383,4140.512695,4143.589844,4158.461426,4153.846191,4138.461426,731.000000,4.000000,,,,0.000000,4.000000,4.000000,4.000000,4.000000,4.000000,4.000000,4.000000,4.000000,4.000000,4.000000,4.000000,4.000000,4.000000,4.000000,100.000000
1602006556.081010,78.000000,0.000000,4138.461426,4135.384766,4128.717773,4137.436035,4140.000000,4133.846191,4134.358887,4124.102539,4120.000000,4129.230957,4135.384766,4154.358887,4150.769043,4138.974121,875.000000,4.000000,,,,0.000000,4.000000,4.000000,4.000000,4.000000,4.000000,4.000000,4.000000,4.000000,4.000000,4.000000,4.000000,4.000000,4.000000,4.000000,100.000000
1602006556.088891,79.000000,0.000000,4131.282227,4134.358887,4120.000000,4133.333496,4150.256348,4136.922852,4125.128418,4122.051270,4121.025879,4121.025879,4138.461426,4141.025879,4146.153809,4127.179688,842.000000,4.000000,,,,0.000000,4.000000,4.000000,4.000000,4.000000,4.000000,4.000000,4.000000,4.000000,4.000000,4.000000,4.000000,4.000000,4.000000,4.000000,100.000000
1602006556.096772,80.000000,0.000000,4128.717773,4135.897461,4117.948730,4135.897461,4155.384766,4134.358887,4123.589844,4122.051270,4121.538574,4131.794922,4145.128418,4134.358887,4143.077148,4122.563965,767.000000,4.000000,,,,0.000000,4.000000,4.000000,4.000000,4.000000,4.000000,4.000000,4.000000,4.000000,4.000000,4.000000,4.000000,4.000000,4.000000,4.000000,100.000000
1602006556.104653,81.000000,0.000000,4134.358887,4135.897461,4126.153809,4136.922852,4144.102539,4123.589844,4123.077148,4123.589844,4123.589844,4140.512695,4136.410156,4143.589844,4144.615234,4135.897461,731.000000,4.000000,,,,0.000000,4.000000,4.000000,4.000000,4.000000,4.000000,4.000000,4.000000,4.000000,4.000000,4.000000,4.000000,4.000000,4.000000,4.000000,100.000000
1602006556.112535,82.000000,0.000000,4138.974121,4128.205078,4140.512695,4131.282227,4135.384766,4112.307617,4120.512695,4123.589844,4127.179688,4138.974121,4124.615234,4152.820313,4146.153809,4143.077148,875.000000,4.000000,,,,0.000000,4.000000,4.000000,4.000000,4.000000,4.000000,4.000000,4.000000,4.000000,4.000000,4.000000,4.000000,4.000000,4.000000,4.000000,100.000000
1602006556.120416,83.000000,0.000000,4143.589844,4123.589844,4151.794922,4132.820313,4131.282227,4106.153809,4117.436035,4121.025879,4120.000000,4132.820313,4129.230957,4158.974121,4148.205078,4136.922852,842.000000,4.000000,,,,0.000000,4.000000,4.000000,4.000000,4.000000,4.000000,4.000000,4.000000,4.000000,4.000000,4.000000,4.000000,4.000000,4.000000,4.000000,100.000000
1602006556.128197,84.000000,0.000000,4160.512695,4134.358887,4165.128418,4144.615234,4122.563965,4111.282227,4124.102539,4127.692383,4125.128418,4145.128418,4151.794922,4171.282227,4163.589844,4145.641113,767.000000,4.000000,,,,0.000000,4.000000,4.000000,4.000000,4.000000,4.000000,4.000000,4.000000,4.000000,4.000000,4.000000,4.000000,4.000000,4.000000,4.000000,100.000000
1602006556.136077,85.000000,0.000000,4169.230957,4143.077148,4172.820313,4146.153809,4118.974121,4118.974121,4135.897461,4142.051270,4150.769043,4182.563965,4169.230957,4179.487305,4177.948730,4169.743652,731.000000,4.000000,,,,0.000000,4.000000,4.000000,4.000000,4.000000,4.000000,4.000000,4.000000,4.000000,4.000000,4.000000,4.000000,4.000000,4.000000,4.000000,100.000000
1602006556.143958,86.000000,0.000000,4160.000000,4135.384766,4162.051270,4140.000000,4127.179688,4124.102539,4138.461426,4144.102539,4157.948730,4197.436035,4169.230957,4175.897461,4176.410156,4176.922852,875.000000,4.000000,,,,0.000000,4.000000,4.000000,4.000000,4.000000,4.000000,4.000000,4.000000,4.000000,4.000000,4.000000,4.000000,4.000000,4.000000,4.000000,100.000000
1602006556.151839,87.000000,0.000000,4147.179688,4128.717773,4145.128418,4137.436035,4136.410156,4126.153809,4130.769043,4133.333496,4142.051270,4161.538574,4159.487305,4169.743652,4172.307617,4157.948730,842.000000,4.000000,,,,0.000000,4.000000,4.000000,4.000000,4.000000,4.000000,4.000000,4.000000,4.000000,4.000000,4.000000,4.000000,4.000000,4.000000,4.000000,100.000000
1602006556.159719,88.000000,0.000000,4129.230957,4122.051270,4127.692383,4131.282227,4140.000000,4122.051270,4123.077148,4126.666504,4122.563965,4129.230957,4143.077148,4156.410156,4155.384766,4132.820313,767.000000,4.000000,,,,0.000000,4.000000,4.000000,4.000000,4.000000,4.000000,4.000000,4.000000,4.000000,4.000000,4.000000,4.000000,4.000000,4.000000,4.000000,100.000000
1602006556.167500,89.000000,0.000000,4105.128418,4108.205078,4103.589844,4119.487305,4138.461426,4108.205078,4112.820313,4118.974121,4101.538574,4130.769043,4123.077148,4134.871582,4123.077148,4114.871582,731.000000,4.000000,,,,0.000000,4.000000,4.000000,4.000000,4.000000,4.000000,4.000000,4.000000,4.000000,4.000000,4.000000,4.000000,4.000000,4.000000,4.000000,100.000000
1602006556.175381,90.000000,0.000000,4094.871826,4101.025879,4095.384521,4111.794922,4137.436035,4108.205078,4106.666504,4107.179688,4093.846191,4129.743652,4105.641113,4123.077148,4103.589844,4101.538574,875.000000,4.000000,,,,0.000000,4.000000,4.000000,4.000000,4.000000,4.000000,4.000000,4.000000,4.000000,4.000000,4.000000,4.000000,4.000000,4.000000,4.000000,100.000000
1602006556.183262,91.000000,0.000000,4100.000000,4104.102539,4101.025879,4112.307617,4140.512695,4128.717773,4116.410156,4104.615234,4101.538574,4116.922852,4096.922852,4120.512695,4102.563965,4088.718018,842.000000,4.000000,,,,0.000000,4.000000,4.000000,4.000000,4.000000,4.000000,4.000000,4.000000,4.000000,4.000000,4.000000,4.000000,4.000000,4.000000,4.000000,100.000000
1602006556.191143,92.000000,0.000000,4096.410156,4104.102539,4095.384521,4120.000000,4141.025879,4140.512695,4129.230957,4106.666504,4102.563965,4122.051270,4103.077148,4117.436035,4100.000000,4083.589844,767.000000,4.000000,,,,0.000000,4.000000,4.000000,4.000000,4.000000,4.000000,4.000000,4.000000,4.000000,4.000000,4.000000,4.000000,4.000000,4.000000,4.000000,100.000000
1602006556.199024,93.000000,0.000000,4090.769287,4104.615234,4091.794922,4123.589844,4134.358887,4139.487305,4130.769043,4104.615234,4102.563965,4137.436035,4117.436035,4122.051270,4106.153809,4092.820557,731.000000,4.000000,,,,0.000000,4.000000,4.000000,4.000000,4.000000,4.000000,4.000000,4.000000,4.000000,4.000000,4.000000,4.000000,4.000000,4.000000,4.000000,100.000000
1602006556.206905,94.000000,0.000000,4103.589844,4113.846191,4101.538574,4121.538574,4123.589844,4135.384766,4128.717773,4110.256348,4112.820313,4143.589844,4124.102539,4135.384766,4125.641113,4113.846191,875.000000,4.000000,,,,0.000000,4.000000,4.000000,4.000000,4.000000,4.000000,4.000000,4.000000,4.000000,4.000000,4.000000,4.000000,4.000000,4.000000,4.000000,100.000000
1602006556.214786,95.000000,0.000000,4124.102539,4126.153809,4113.846191,4129.743652,4122.563965,4128.205078,4128.717773,4129.743652,4129.743652,4154.871582,4133.333496,4147.692383,4142.563965,4135.897461,842.000000,4.000000,,,,0.000000,4.000000,4.000000,4.000000,4.000000,4.000000,4.000000,4.000000,4.000000,4.000000,4.000000,4.000000,4.000000,4.000000,4.000000,100.000000
1602006556.222667,96.000000,0.000000,4142.563965,4137.436035,4128.717773,4140.512695,4132.307617,4123.589844,4128.205078,4142.563965,4153.333496,4176.922852,4162.563965,4160.512695,4163.077148,4157.436035,767.000000,4.000000,,,,0.000000,4.000000,4.000000,4.000000,4.000000,4.000000,4.000000,4.000000,4.000000,4.000000,4.000000,4.000000,4.000000,4.000000,4.000000,100.000000
1602006556.230448,97.000000,0.000000,4158.974121,4142.051270,4147.692383,4140.512695,4140.512695,4124.615234,4123.589844,4145.641113,4165.128418,4194.358887,4175.897461,4172.307617,4178.974121,4171.794922,731.000000,4.000000,,,,0.000000,4.000000,4.000000,4.000000,4.000000,4.000000,4.000000,4.000000,4.000000,4.000000,4.000000,4.000000,4.000000,4.000000,4.000000,100.000000
1602006556.238329,98.000000,0.000000,4165.128418,4141.538574,4156.410156,4144.615234,4138.974121,4120.000000,4117.436035,4141.025879,4149.230957,4192.307617,4156.922852,4173.333496,4170.256348,4164.615234,875.000000,4.000000,,,,0.000000,4.000000,4.000000,4.000000,4.000000,4.000000,4.000000,4.000000,4.000000,4.000000,4.000000,4.000000,4.000000,4.000000,4.000000,100.000000
1602006556.246210,99.000000,0.000000,4158.974121,4144.102539,4159.487305,4155.897461,4136.922852,4115.897461,4115.897461,4127.179688,4127.692383,4173.846191,4147.179688,4168.717773,4153.333496,4150.769043,842.000000,4.000000,,,,0.000000,4.000000,4.000000,4.000000,4.000000,4.000000,4.000000,4.000000,4.000000,4.000000,4.000000,4.000000,4.000000,4.000000,4.000000,100.000000
1602006556.254091,100.000000,0.000000,4157.948730,4145.641113,4158.461426,4158.461426,4140.512695,4124.615234,4121.025879,4118.461426,4120.512695,4168.717773,4157.436035,4168.717773,4150.256348,4154.871582,767.000000,4.000000,,,,0.000000,4.000000,4.000000,4.000000,4.000000,4.000000,4.000000,4.000000,4.000000,4.000000,4.000000,4.000000,4.000000,4.000000,4.000000,100.000000
1602006556.261972,101.000000,0.000000,4157.436035,4137.948730,4147.692383,4149.230957,4142.563965,4137.436035,4131.282227,4122.563965,4118.461426,4170.769043,4159.487305,4166.666504,4155.384766,4159.487305,731.000000,4.000000,,,,0.000000,4.000000,4.000000,4.000000,4.000000,4.000000,4.000000,4.000000,4.000000,4.000000,4.000000,4.000000,4.000000,4.000000,4.000000,100.000000
1602006556.269852,102.000000,0.000000,4137.948730,4124.615234,4132.307617,4134.358887,4135.384766,4148.717773,4139.487305,4124.102539,4107.179688,4149.743652,4143.077148,4151.282227,4145.641113,4142.563965,875.000000,4.000000,,,,0.000000,4.000000,4.000000,4.000000,4.000000,4.000000,4.000000,4.000000,4.000000,4.000000,4.000000,4.000000,4.000000,4.000000,4.000000,100.000000
1602006556.277733,103.000000,0.000000,4117.436035,4117.948730,4112.820313,4122.563965,4125.641113,4152.820313,4140.512695,4119.487305,4094.358887,4128.205078,4127.179688,4134.871582,4121.025879,4124.615234,842.000000,4.000000,,,,0.000000,4.000000,4.000000,4.000000,4.000000,4.000000,4.000000,4.000000,4.000000,4.000000,4.000000,4.000000,4.000000,4.000000,4.000000,100.000000
1602006556.285614,104.000000,0.000000,4121.538574,4120.000000,4103.589844,4127.692383,4129.743652,4149.743652,4141.025879,4127.179688,4096.922852,4142.051270,4125.128418,4132.307617,4114.871582,4122.051270,767.000000,4.000000,,,,0.000000,4.000000,4.000000,4.000000,4.000000,4.000000,4.000000,4.000000,4.000000,4.000000,4.000000,4.000000,4.000000,4.000000,4.000000,100.000000
1602006556.293495,105.000000,0.000000,4137.948730,4123.077148,4113.333496,4134.871582,4140.512695,4140.000000,4134.358887,4138.974121,4115.897461,4164.102539,4126.666504,4136.410156,4132.307617,4120.512695,731.000000,4.000000,,,,0.000000,4.000000,4.000000,4.000000,4.000000,4.000000,4.000000,4.000000,4.000000,4.000000,4.000000,4.000000,4.000000,4.000000,4.000000,100.000000
1602006556.301276,106.000000,0.000000,4144.102539,4127.692383,4126.666504,4134.358887,4141.025879,4125.641113,4120.000000,4139.487305,4138.461426,4169.230957,4127.179688,4142.051270,4143.589844,4125.641113,875.000000,4.000000,,,,0.000000,4.000000,4.000000,4.000000,4.000000,4.000000,4.000000,4.000000,4.000000,4.000000,4.000000,4.000000,4.000000,4.000000,4.000000,100.000000
1602006556.309156,107.000000,0.000000,4149.743652,4138.974121,4137.436035,4144.615234,4139.487305,4120.512695,4114.871582,4136.922852,4154.358887,4175.897461,4141.538574,4152.820313,4150.256348,4138.461426,842.000000,4.000000,,,,0.000000,4.000000,4.000000,4.000000,4.000000,4.000000,4.000000,4.000000,4.000000,4.000000,4.000000,4.000000,4.000000,4.000000,4.000000,100.000000
1602006556.316937,108.000000,0.000000,4163.589844,4146.153809,4150.256348,4158.461426,4142.051270,4122.051270,4120.512695,4138.974121,4155.384766,4187.692383,4161.025879,4158.974121,4158.461426,4142.563965,767.000000,4.000000,,,,0.000000,4.000000,4.000000,4.000000,4.000000,4.000000,4.000000,4.000000,4.000000,4.000000,4.000000,4.000000,4.000000,4.000000,4.000000,100.000000
1602006556.324818,109.000000,0.000000,4169.743652,4144.615234,4156.922852,4157.948730,4141.538574,4122.563965,4119.487305,4134.358887,4145.641113,4185.128418,4156.922852,4155.897461,4152.307617,4145.128418,731.000000,4.000000,,,,0.000000,4.000000,4.000000,4.000000,4.000000,4.000000,4.000000,4.000000,4.000000,4.000000,4.000000,4.000000,4.000000,4.000000,4.000000,100.000000
