Timestamp,EEG.Counter,EEG.Interpolated,EEG.AF3,EEG.F7,EEG.F3,EEG.FC5,EEG.T7,EEG.P7,EEG.O1,EEG.O2,EEG.P8,EEG.T8,EEG.FC6,EEG.F4,EEG.F8,EEG.AF4,EEG.RawCq,EEG.Battery,MarkerIndex,MarkerType,MarkerValueInt,EEG.MarkerHardware,CQ.AF3,CQ.F7,CQ.F3,CQ.FC5,CQ.T7,CQ.P7,CQ.O1,CQ.O2,CQ.P8,CQ.T8,CQ.FC6,CQ.F4,CQ.F8,CQ.AF4,CQ.Overall
1602006656.098074,3.000000,0.000000,4100.512695,4133.846191,4135.897461,4131.794922,4137.948730,4135.384766,4134.871582,4139.487305,4141.025879,4125.128418,4141.025879,4154.871582,4114.358887,4124.102539,896.000000,4.000000,,,,0.000000,4.000000,4.000000,4.000000,4.000000,4.000000,4.000000,4.000000,4.000000,4.000000,4.000000,4.000000,4.000000,4.000000,4.000000,100.000000
1602006656.105856,4.000000,0.000000,4107.692383,4136.410156,4140.000000,4136.410156,4136.410156,4138.461426,4135.384766,4141.538574,4150.769043,4143.589844,4135.384766,4167.179688,4114.358887,4130.769043,814.000000,4.000000,,,,0.000000,4.000000,4.000000,4.000000,4.000000,4.000000,4.000000,4.000000,4.000000,4.000000,4.000000,4.000000,4.000000,4.000000,4.000000,100.000000
1602006656.113737,5.000000,0.000000,4107.179688,4130.256348,4137.436035,4129.743652,4143.077148,4149.230957,4138.974121,4150.256348,4160.000000,4159.487305,4136.410156,4171.282227,4124.615234,4148.717773,823.000000,4.000000,,,,0.000000,4.000000,4.000000,4.000000,4.000000,4.000000,4.000000,4.000000,4.000000,4.000000,4.000000,4.000000,4.000000,4.000000,4.000000,100.000000
1602006656.121618,6.000000,0.000000,4083.589844,4107.692383,4126.153809,4115.384766,4146.666504,4152.820313,4138.461426,4154.358887,4162.051270,4155.384766,4136.922852,4156.922852,4126.153809,4140.000000,594.000000,4.000000,,,,0.000000,4.000000,4.000000,4.000000,4.000000,4.000000,4.000000,4.000000,4.000000,4.000000,4.000000,4.000000,4.000000,4.000000,4.000000,100.000000
1602006656.129499,7.000000,0.000000,4082.051270,4119.487305,4124.615234,4123.077148,4151.794922,4143.589844,4128.717773,4142.563965,4153.333496,4150.769043,4143.077148,4144.615234,4120.000000,4124.102539,667.000000,4.000000,,,,0.000000,4.000000,4.000000,4.000000,4.000000,4.000000,4.000000,4.000000,4.000000,4.000000,4.000000,4.000000,4.000000,4.000000,4.000000,100.000000
1602006656.137380,8.000000,0.000000,4103.589844,4151.282227,4124.615234,4135.384766,4149.230957,4130.256348,4113.333496,4119.487305,4135.897461,4145.128418,4137.948730,4136.410156,4111.282227,4118.974121,779.000000,4.000000,,,,0.000000,4.000000,4.000000,4.000000,4.000000,4.000000,4.000000,4.000000,4.000000,4.000000,4.000000,4.000000,4.000000,4.000000,4.000000,100.000000
1602006656.145261,9.000000,0.000000,4109.230957,4163.077148,4121.025879,4140.512695,4143.589844,4130.256348,4106.153809,4109.743652,4122.563965,4132.820313,4124.102539,4131.282227,4100.000000,4106.153809,847.000000,4.000000,,,,0.000000,4.000000,4.000000,4.000000,4.000000,4.000000,4.000000,4.000000,4.000000,4.000000,4.000000,4.000000,4.000000,4.000000,4.000000,100.000000
1602006656.153143,10.000000,0.000000,4111.282227,4169.230957,4124.615234,4149.743652,4152.307617,4135.897461,4112.307617,4115.897461,4122.563965,4123.589844,4123.077148,4131.794922,4090.769287,4094.358887,876.000000,4.000000,,,,0.000000,4.000000,4.000000,4.000000,4.000000,4.000000,4.000000,4.000000,4.000000,4.000000,4.000000,4.000000,4.000000,4.000000,4.000000,100.000000
1602006656.161024,11.000000,0.000000,4122.051270,4176.410156,4126.153809,4155.897461,4154.871582,4127.179688,4120.000000,4118.974121,4121.538574,4125.641113,4115.897461,4129.230957,4081.025635,4084.102539,839.000000,4.000000,,,,0.000000,4.000000,4.000000,4.000000,4.000000,4.000000,4.000000,4.000000,4.000000,4.000000,4.000000,4.000000,4.000000,4.000000,4.000000,100.000000
1602006656.168905,12.000000,0.000000,4124.615234,4175.384766,4127.179688,4152.820313,4146.153809,4121.538574,4123.077148,4122.563965,4118.974121,4134.358887,4105.641113,4123.589844,4077.435791,4073.846191,766.000000,4.000000,,,,0.000000,4.000000,4.000000,4.000000,4.000000,4.000000,4.000000,4.000000,4.000000,4.000000,4.000000,4.000000,4.000000,4.000000,4.000000,100.000000
1602006656.176885,13.000000,0.000000,4121.025879,4173.333496,4135.384766,4150.256348,4143.589844,4132.307617,4124.615234,4133.333496,4121.538574,4137.948730,4114.358887,4128.205078,4086.153809,4077.435791,732.000000,4.000000,,,,0.000000,4.000000,4.000000,4.000000,4.000000,4.000000,4.000000,4.000000,4.000000,4.000000,4.000000,4.000000,4.000000,4.000000,4.000000,100.000000
1602006656.184766,14.000000,0.000000,4122.051270,4174.871582,4139.487305,4155.384766,4149.230957,4140.512695,4129.230957,4141.538574,4123.589844,4135.384766,4122.051270,4140.512695,4092.820557,4087.692383,876.000000,4.000000,,,,0.000000,4.000000,4.000000,4.000000,4.000000,4.000000,4.000000,4.000000,4.000000,4.000000,4.000000,4.000000,4.000000,4.000000,4.000000,100.000000
1602006656.192647,15.000000,0.000000,4120.512695,4171.794922,4138.974121,4154.358887,4148.205078,4139.487305,4137.436035,4143.077148,4126.666504,4138.461426,4120.512695,4143.589844,4083.076904,4088.718018,839.000000,4.000000,,,,0.000000,4.000000,4.000000,4.000000,4.000000,4.000000,4.000000,4.000000,4.000000,4.000000,4.000000,4.000000,4.000000,4.000000,4.000000,100.000000
1602006656.200527,16.000000,0.000000,4122.051270,4166.153809,4141.538574,4144.615234,4141.538574,4142.051270,4144.615234,4145.128418,4128.205078,4140.512695,4124.102539,4142.563965,4075.384521,4091.794922,0.000000,4.000000,,,,0.000000,4.000000,4.000000,4.000000,4.000000,4.000000,4.000000,4.000000,4.000000,4.000000,4.000000,4.000000,4.000000,4.000000,4.000000,100.000000
1602006656.208408,17.000000,0.000000,4117.436035,4151.282227,4135.897461,4132.820313,4136.410156,4138.974121,4145.128418,4142.563965,4124.102539,4127.179688,4118.974121,4139.487305,4073.846191,4088.718018,0.000000,4.000000,,,,0.000000,4.000000,4.000000,4.000000,4.000000,4.000000,4.000000,4.000000,4.000000,4.000000,4.000000,4.000000,4.000000,4.000000,4.000000,100.000000
1602006656.216189,18.000000,0.000000,4104.615234,4138.461426,4120.512695,4125.641113,4132.307617,4122.563965,4138.974121,4130.769043,4116.922852,4105.128418,4107.692383,4125.641113,4069.230713,4071.794922,0.000000,4.000000,,,,0.000000,4.000000,4.000000,4.000000,4.000000,4.000000,4.000000,4.000000,4.000000,4.000000,4.000000,4.000000,4.000000,4.000000,4.000000,100.000000
1602006656.224070,19.000000,0.000000,4103.077148,4147.692383,4118.974121,4130.256348,4135.384766,4123.589844,4137.436035,4124.615234,4119.487305,4099.487305,4107.692383,4119.487305,4067.692383,4072.820557,0.000000,4.000000,,,,0.000000,4.000000,4.000000,4.000000,4.000000,4.000000,4.000000,4.000000,4.000000,4.000000,4.000000,4.000000,4.000000,4.000000,4.000000,100.000000
1602006656.231851,20.000000,0.000000,4104.102539,4161.025879,4124.615234,4138.461426,4141.025879,4144.102539,4137.948730,4125.641113,4131.282227,4125.128418,4107.179688,4130.769043,4077.948730,4084.615479,0.000000,4.000000,,,,0.000000,4.000000,4.000000,4.000000,4.000000,4.000000,4.000000,4.000000,4.000000,4.000000,4.000000,4.000000,4.000000,4.000000,4.000000,100.000000
1602006656.239732,21.000000,0.000000,4097.948730,4157.436035,4120.000000,4140.000000,4145.128418,4148.205078,4130.769043,4123.589844,4134.871582,4153.846191,4102.563965,4127.179688,4087.179443,4076.410156,0.000000,4.000000,,,,0.000000,4.000000,4.000000,4.000000,4.000000,4.000000,4.000000,4.000000,4.000000,4.000000,4.000000,4.000000,4.000000,4.000000,4.000000,100.000000
1602006656.247613,22.000000,0.000000,4093.333252,4151.282227,4112.820313,4135.897461,4144.615234,4137.436035,4121.025879,4121.538574,4129.230957,4150.256348,4105.641113,4107.692383,4080.512939,4067.179443,0.000000,4.000000,,,,0.000000,4.000000,4.000000,4.000000,4.000000,4.000000,4.000000,4.000000,4.000000,4.000000,4.000000,4.000000,4.000000,4.000000,4.000000,100.000000
1602006656.255493,23.000000,0.000000,4095.897461,4152.307617,4112.307617,4134.871582,4141.025879,4139.487305,4120.000000,4120.000000,4120.000000,4131.794922,4108.717773,4108.717773,4066.153809,4074.871826,0.000000,4.000000,,,,0.000000,4.000000,4.000000,4.000000,4.000000,4.000000,4.000000,4.000000,4.000000,4.000000,4.000000,4.000000,4.000000,4.000000,4.000000,100.000000
1602006656.263374,24.000000,0.000000,4095.384521,4148.205078,4115.384766,4136.410156,4138.974121,4148.205078,4121.538574,4121.025879,4117.948730,4136.410156,4103.589844,4120.512695,4063.076904,4070.256348,0.000000,4.000000,,,,0.000000,4.000000,4.000000,4.000000,4.000000,4.000000,4.000000,4.000000,4.000000,4.000000,4.000000,4.000000,4.000000,4.000000,4.000000,100.000000
1602006656.271255,25.000000,0.000000,4092.820557,4141.538574,4119.487305,4140.000000,4140.000000,4146.153809,4120.512695,4130.769043,4131.282227,4145.641113,4101.025879,4121.025879,4071.794922,4055.897461,0.000000,4.000000,,,,0.000000,4.000000,4.000000,4.000000,4.000000,4.000000,4.000000,4.000000,4.000000,4.000000,4.000000,4.000000,4.000000,4.000000,4.000000,100.000000
1602006656.279136,26.000000,0.000000,4090.769287,4140.512695,4122.563965,4136.410156,4136.410156,4136.410156,4125.128418,4139.487305,4136.922852,4120.512695,4104.102539,4121.025879,4075.897461,4060.512939,0.000000,4.000000,,,,0.000000,4.000000,4.000000,4.000000,4.000000,4.000000,4.000000,4.000000,4.000000,4.000000,4.000000,4.000000,4.000000,4.000000,4.000000,100.000000
1602006656.287017,27.000000,0.000000,4090.256348,4138.461426,4121.538574,4128.717773,4126.666504,4127.692383,4132.820313,4138.461426,4120.512695,4097.948730,4108.717773,4125.128418,4074.358887,4075.384521,0.000000,4.000000,,,,0.000000,4.000000,4.000000,4.000000,4.000000,4.000000,4.000000,4.000000,4.000000,4.000000,4.000000,4.000000,4.000000,4.000000,4.000000,100.000000
1602006656.294998,28.000000,0.000000,4098.974121,4143.077148,4125.128418,4132.820313,4128.205078,4132.820313,4141.538574,4144.615234,4125.128418,4128.717773,4109.743652,4128.205078,4081.025635,4087.179443,0.000000,4.000000,,,,0.000000,4.000000,4.000000,4.000000,4.000000,4.000000,4.000000,4.000000,4.000000,4.000000,4.000000,4.000000,4.000000,4.000000,4.000000,100.000000
1602006656.302879,29.000000,0.000000,4111.282227,4153.333496,4135.384766,4141.025879,4140.000000,4141.538574,4153.846191,4160.512695,4152.307617,4173.333496,4112.307617,4137.948730,4092.307617,4092.820557,0.000000,4.000000,,,,0.000000,4.000000,4.000000,4.000000,4.000000,4.000000,4.000000,4.000000,4.000000,4.000000,4.000000,4.000000,4.000000,4.000000,4.000000,100.000000
1602006656.310761,30.000000,0.000000,4110.769043,4151.794922,4135.384766,4138.461426,4141.025879,4137.948730,4155.897461,4164.102539,4150.769043,4169.230957,4127.692383,4145.128418,4102.051270,4088.718018,0.000000,4.000000,,,,0.000000,4.000000,4.000000,4.000000,4.000000,4.000000,4.000000,4.000000,4.000000,4.000000,4.000000,4.000000,4.000000,4.000000,4.000000,100.000000
1602006656.318642,31.000000,0.000000,4101.538574,4144.102539,4126.666504,4132.307617,4135.384766,4131.282227,4143.077148,4154.871582,4138.461426,4145.128418,4141.025879,4132.307617,4104.615234,4080.000000,0.000000,4.000000,,,,0.000000,4.000000,4.000000,4.000000,4.000000,4.000000,4.000000,4.000000,4.000000,4.000000,4.000000,4.000000,4.000000,4.000000,4.000000,100.000000
1602006656.326523,32.000000,0.000000,4091.281982,4142.051270,4117.436035,4128.717773,4137.436035,4134.871582,4129.230957,4143.589844,4137.948730,4144.615234,4126.153809,4115.384766,4093.846191,4075.384521,0.000000,4.000000,,,,0.000000,4.000000,4.000000,4.000000,4.000000,4.000000,4.000000,4.000000,4.000000,4.000000,4.000000,4.000000,4.000000,4.000000,4.000000,100.000000
1602006656.334404,33.000000,0.000000,4076.923096,4135.897461,4107.179688,4124.102539,4138.974121,4140.000000,4124.102539,4130.256348,4122.563965,4137.948730,4103.077148,4109.743652,4076.923096,4065.641113,0.000000,4.000000,,,,0.000000,4.000000,4.000000,4.000000,4.000000,4.000000,4.000000,4.000000,4.000000,4.000000,4.000000,4.000000,4.000000,4.000000,4.000000,100.000000
1602006656.342285,34.000000,0.000000,4063.076904,4130.769043,4097.436035,4123.589844,4138.461426,4139.487305,4120.000000,4121.538574,4108.717773,4121.025879,4101.538574,4104.615234,4066.666748,4053.333252,0.000000,4.000000,,,,0.000000,4.000000,4.000000,4.000000,4.000000,4.000000,4.000000,4.000000,4.000000,4.000000,4.000000,4.000000,4.000000,4.000000,4.000000,100.000000
1602006656.350166,35.000000,0.000000,4062.051270,4134.871582,4092.820557,4125.128418,4141.538574,4137.948730,4113.333496,4114.358887,4110.256348,4117.948730,4092.307617,4093.333252,4060.512939,4051.281982,0.000000,4.000000,,,,0.000000,4.000000,4.000000,4.000000,4.000000,4.000000,4.000000,4.000000,4.000000,4.000000,4.000000,4.000000,4.000000,4.000000,4.000000,100.000000
1602006656.358048,36.000000,0.000000,4069.230713,4137.948730,4095.897461,4127.179688,4141.025879,4138.974121,4104.615234,4105.128418,4100.512695,4117.948730,4068.205078,4090.769287,4056.923096,4047.179443,0.000000,4.000000,,,,0.000000,4.000000,4.000000,4.000000,4.000000,4.000000,4.000000,4.000000,4.000000,4.000000,4.000000,4.000000,4.000000,4.000000,4.000000,100.000000
1602006656.365828,37.000000,0.000000,4072.820557,4138.461426,4104.102539,4133.333496,4135.897461,4135.384766,4104.102539,4103.077148,4087.692383,4111.794922,4074.871826,4101.538574,4058.461426,4049.743652,0.000000,4.000000,,,,0.000000,4.000000,4.000000,4.000000,4.000000,4.000000,4.000000,4.000000,4.000000,4.000000,4.000000,4.000000,4.000000,4.000000,4.000000,100.000000
1602006656.373709,38.000000,0.000000,4077.435791,4141.025879,4109.743652,4138.461426,4135.897461,4126.153809,4113.846191,4106.666504,4092.307617,4120.512695,4102.563965,4106.666504,4064.615479,4065.641113,0.000000,4.000000,,,,0.000000,4.000000,4.000000,4.000000,4.000000,4.000000,4.000000,4.000000,4.000000,4.000000,4.000000,4.000000,4.000000,4.000000,4.000000,100.000000
1602006656.381590,39.000000,0.000000,4083.589844,4140.000000,4107.179688,4137.436035,4138.461426,4125.641113,4122.051270,4112.307617,4095.897461,4124.615234,4103.077148,4104.102539,4071.281982,4067.692383,0.000000,4.000000,,,,0.000000,4.000000,4.000000,4.000000,4.000000,4.000000,4.000000,4.000000,4.000000,4.000000,4.000000,4.000000,4.000000,4.000000,4.000000,100.000000
1602006656.389470,40.000000,0.000000,4089.230713,4141.538574,4108.205078,4133.846191,4135.897461,4134.358887,4131.794922,4122.563965,4098.974121,4103.077148,4091.281982,4108.717773,4076.923096,4062.051270,0.000000,4.000000,,,,0.000000,4.000000,4.000000,4.000000,4.000000,4.000000,4.000000,4.000000,4.000000,4.000000,4.000000,4.000000,4.000000,4.000000,4.000000,100.000000
1602006656.397351,41.000000,0.000000,4099.487305,4153.333496,4118.461426,4136.922852,4136.410156,4138.974121,4141.538574,4138.974121,4114.358887,4109.230957,4106.153809,4125.128418,4092.820557,4078.974365,0.000000,4.000000,,,,0.000000,4.000000,4.000000,4.000000,4.000000,4.000000,4.000000,4.000000,4.000000,4.000000,4.000000,4.000000,4.000000,4.000000,4.000000,100.000000
1602006656.405132,42.000000,0.000000,4110.769043,4157.948730,4125.641113,4139.487305,4141.538574,4137.436035,4143.589844,4152.820313,4129.230957,4143.077148,4130.256348,4133.846191,4106.666504,4100.512695,0.000000,4.000000,,,,0.000000,4.000000,4.000000,4.000000,4.000000,4.000000,4.000000,4.000000,4.000000,4.000000,4.000000,4.000000,4.000000,4.000000,4.000000,100.000000
1602006656.413014,43.000000,0.000000,4107.692383,4145.128418,4123.589844,4131.794922,4139.487305,4135.384766,4141.025879,4152.307617,4126.666504,4151.794922,4128.717773,4127.179688,4100.000000,4099.487305,0.000000,4.000000,,,,0.000000,4.000000,4.000000,4.000000,4.000000,4.000000,4.000000,4.000000,4.000000,4.000000,4.000000,4.000000,4.000000,4.000000,4.000000,100.000000
1602006656.420895,44.000000,0.000000,4094.358887,4138.461426,4119.487305,4123.589844,4135.897461,4137.436035,4138.974121,4141.025879,4114.358887,4132.820313,4110.769043,4121.538574,4088.205078,4098.461426,0.000000,4.000000,,,,0.000000,4.000000,4.000000,4.000000,4.000000,4.000000,4.000000,4.000000,4.000000,4.000000,4.000000,4.000000,4.000000,4.000000,4.000000,100.000000
1602006656.428776,45.000000,0.000000,4088.718018,4138.974121,4119.487305,4123.589844,4136.922852,4140.512695,4133.846191,4135.384766,4109.230957,4118.974121,4101.025879,4123.077148,4088.718018,4101.538574,0.000000,4.000000,,,,0.000000,4.000000,4.000000,4.000000,4.000000,4.000000,4.000000,4.000000,4.000000,4.000000,4.000000,4.000000,4.000000,4.000000,4.000000,100.000000
1602006656.436657,46.000000,0.000000,4091.794922,4135.384766,4120.000000,4125.128418,4135.897461,4136.410156,4124.615234,4133.846191,4113.846191,4126.666504,4106.153809,4127.692383,4096.410156,4094.358887,0.000000,4.000000,,,,0.000000,4.000000,4.000000,4.000000,4.000000,4.000000,4.000000,4.000000,4.000000,4.000000,4.000000,4.000000,4.000000,4.000000,4.000000,100.000000
1602006656.444538,47.000000,0.000000,4092.307617,4131.794922,4121.025879,4124.102539,4128.717773,4126.666504,4116.410156,4126.666504,4112.820313,4137.436035,4113.846191,4123.589844,4097.436035,4091.794922,0.000000,4.000000,,,,0.000000,4.000000,4.000000,4.000000,4.000000,4.000000,4.000000,4.000000,4.000000,4.000000,4.000000,4.000000,4.000000,4.000000,4.000000,100.000000
1602006656.452419,48.000000,0.000000,4081.025635,4130.769043,4120.000000,4122.563965,4123.077148,4121.025879,4106.153809,4121.538574,4107.692383,4130.256348,4105.641113,4114.358887,4082.564209,4077.435791,0.000000,4.000000,,,,0.000000,4.000000,4.000000,4.000000,4.000000,4.000000,4.000000,4.000000,4.000000,4.000000,4.000000,4.000000,4.000000,4.000000,4.000000,100.000000
1602006656.460300,49.000000,0.000000,4075.897461,4132.307617,4120.000000,4126.153809,4128.205078,4118.461426,4102.563965,4121.538574,4111.282227,4117.948730,4092.820557,4116.922852,4071.794922,4056.410156,0.000000,4.000000,,,,0.000000,4.000000,4.000000,4.000000,4.000000,4.000000,4.000000,4.000000,4.000000,4.000000,4.000000,4.000000,4.000000,4.000000,4.000000,100.000000
1602006656.468182,50.000000,0.000000,4086.153809,4138.974121,4126.666504,4135.897461,4137.948730,4118.974121,4113.333496,4122.051270,4113.846191,4127.692383,4104.615234,4125.641113,4084.615479,4073.333252,0.000000,4.000000,,,,0.000000,4.000000,4.000000,4.000000,4.000000,4.000000,4.000000,4.000000,4.000000,4.000000,4.000000,4.000000,4.000000,4.000000,4.000000,100.000000
1602006656.476163,51.000000,0.000000,4092.820557,4142.051270,4131.282227,4136.922852,4139.487305,4121.025879,4125.128418,4127.692383,4107.692383,4138.974121,4123.589844,4129.743652,4094.871826,4103.077148,0.000000,4.000000,,,,0.000000,4.000000,4.000000,4.000000,4.000000,4.000000,4.000000,4.000000,4.000000,4.000000,4.000000,4.000000,4.000000,4.000000,4.000000,100.000000
1602006656.484044,52.000000,0.000000,4090.256348,4136.410156,4126.153809,4129.230957,4132.820313,4115.897461,4126.666504,4135.384766,4106.153809,4136.410156,4122.563965,4132.820313,4092.307617,4097.948730,0.000000,4.000000,,,,0.000000,4.000000,4.000000,4.000000,4.000000,4.000000,4.000000,4.000000,4.000000,4.000000,4.000000,4.000000,4.000000,4.000000,4.000000,100.000000
1602006656.491925,53.000000,0.000000,4091.281982,4134.358887,4119.487305,4125.641113,4127.179688,4105.128418,4126.153809,4136.922852,4111.282227,4138.974121,4115.897461,4131.794922,4089.230713,4084.102539,0.000000,4.000000,,,,0.000000,4.000000,4.000000,4.000000,4.000000,4.000000,4.000000,4.000000,4.000000,4.000000,4.000000,4.000000,4.000000,4.000000,4.000000,100.000000
1602006656.499806,54.000000,0.000000,4098.974121,4137.948730,4124.102539,4127.179688,4126.153809,4103.077148,4130.256348,4137.948730,4114.358887,4136.410156,4121.025879,4129.743652,4089.230713,4092.820557,0.000000,4.000000,,,,0.000000,4.000000,4.000000,4.000000,4.000000,4.000000,4.000000,4.000000,4.000000,4.000000,4.000000,4.000000,4.000000,4.000000,4.000000,100.000000
1602006656.507687,55.000000,0.000000,4108.717773,4135.897461,4137.436035,4125.641113,4128.205078,4111.794922,4134.871582,4144.102539,4110.256348,4123.589844,4127.179688,4136.410156,4096.410156,4093.846191,0.000000,4.000000,,,,0.000000,4.000000,4.000000,4.000000,4.000000,4.000000,4.000000,4.000000,4.000000,4.000000,4.000000,4.000000,4.000000,4.000000,4.000000,100.000000
1602006656.515569,56.000000,0.000000,4111.282227,4127.179688,4136.410156,4122.563965,4127.179688,4115.384766,4134.358887,4145.641113,4108.205078,4120.000000,4116.410156,4139.487305,4108.205078,4085.641113,0.000000,4.000000,,,,0.000000,4.000000,4.000000,4.000000,4.000000,4.000000,4.000000,4.000000,4.000000,4.000000,4.000000,4.000000,4.000000,4.000000,4.000000,100.000000
1602006656.523450,57.000000,0.000000,4103.077148,4125.641113,4126.666504,4125.128418,4124.102539,4110.256348,4131.794922,4141.538574,4114.358887,4128.205078,4104.615234,4135.897461,4109.230957,4095.897461,0.000000,4.000000,,,,0.000000,4.000000,4.000000,4.000000,4.000000,4.000000,4.000000,4.000000,4.000000,4.000000,4.000000,4.000000,4.000000,4.000000,4.000000,100.000000
1602006656.531331,58.000000,0.000000,4102.563965,4136.410156,4131.282227,4131.282227,4126.666504,4113.333496,4128.205078,4142.051270,4124.102539,4131.794922,4121.025879,4137.436035,4100.512695,4112.307617,0.000000,4.000000,,,,0.000000,4.000000,4.000000,4.000000,4.000000,4.000000,4.000000,4.000000,4.000000,4.000000,4.000000,4.000000,4.000000,4.000000,4.000000,100.000000
1602006656.539212,59.000000,0.000000,4106.666504,4138.974121,4136.922852,4130.769043,4135.384766,4122.563965,4124.615234,4141.538574,4126.666504,4135.897461,4141.025879,4134.358887,4096.410156,4109.230957,0.000000,4.000000,,,,0.000000,4.000000,4.000000,4.000000,4.000000,4.000000,4.000000,4.000000,4.000000,4.000000,4.000000,4.000000,4.000000,4.000000,4.000000,100.000000
1602006656.547193,60.000000,0.000000,4098.974121,4132.307617,4127.179688,4123.589844,4141.538574,4127.692383,4123.589844,4136.410156,4117.948730,4140.512695,4130.769043,4125.128418,4095.384521,4091.281982,0.000000,4.000000,,,,0.000000,4.000000,4.000000,4.000000,4.000000,4.000000,4.000000,4.000000,4.000000,4.000000,4.000000,4.000000,4.000000,4.000000,4.000000,100.000000
1602006656.555074,61.000000,0.000000,4088.718018,4129.743652,4118.974121,4120.000000,4134.871582,4123.077148,4120.512695,4129.230957,4104.615234,4129.230957,4112.820313,4118.461426,4087.179443,4078.461426,0.000000,4.000000,,,,0.000000,4.000000,4.000000,4.000000,4.000000,4.000000,4.000000,4.000000,4.000000,4.000000,4.000000,4.000000,4.000000,4.000000,4.000000,100.000000
1602006656.562955,62.000000,0.000000,4083.589844,4127.179688,4121.538574,4123.077148,4124.615234,4113.846191,4110.769043,4122.563965,4100.512695,4115.384766,4106.153809,4112.820313,4082.051270,4073.846191,0.000000,4.000000,,,,0.000000,4.000000,4.000000,4.000000,4.000000,4.000000,4.000000,4.000000,4.000000,4.000000,4.000000,4.000000,4.000000,4.000000,4.000000,100.000000
1602006656.570836,63.000000,0.000000,4080.512939,4127.692383,4122.563965,4125.641113,4128.717773,4113.846191,4108.205078,4121.538574,4103.077148,4120.000000,4092.820557,4110.256348,4084.615479,4071.281982,0.000000,4.000000,,,,0.000000,4.000000,4.000000,4.000000,4.000000,4.000000,4.000000,4.000000,4.000000,4.000000,4.000000,4.000000,4.000000,4.000000,4.000000,100.000000
1602006656.578717,64.000000,0.000000,4081.538574,4135.384766,4120.512695,4125.641113,4135.897461,4119.487305,4115.897461,4124.615234,4106.666504,4127.692383,4093.846191,4112.820313,4088.718018,4077.435791,790.000000,4.000000,,,,0.000000,4.000000,4.000000,4.000000,4.000000,4.000000,4.000000,4.000000,4.000000,4.000000,4.000000,4.000000,4.000000,4.000000,4.000000,100.000000
1602006656.586597,65.000000,0.000000,4088.205078,4140.512695,4119.487305,4126.153809,4137.436035,4121.025879,4121.025879,4125.128418,4113.846191,4118.461426,4120.512695,4120.000000,4096.410156,4097.436035,786.000000,4.000000,,,,0.000000,4.000000,4.000000,4.000000,4.000000,4.000000,4.000000,4.000000,4.000000,4.000000,4.000000,4.000000,4.000000,4.000000,4.000000,100.000000
1602006656.594379,66.000000,0.000000,4098.974121,4141.538574,4122.563965,4128.717773,4138.461426,4122.051270,4122.563965,4127.179688,4121.025879,4121.538574,4138.974121,4129.743652,4107.692383,4108.717773,845.000000,4.000000,,,,0.000000,4.000000,4.000000,4.000000,4.000000,4.000000,4.000000,4.000000,4.000000,4.000000,4.000000,4.000000,4.000000,4.000000,4.000000,100.000000
1602006656.602260,67.000000,0.000000,4106.666504,4134.871582,4129.743652,4126.153809,4132.307617,4124.615234,4123.589844,4134.871582,4129.743652,4146.153809,4139.487305,4137.948730,4108.717773,4101.025879,877.000000,4.000000,,,,0.000000,4.000000,4.000000,4.000000,4.000000,4.000000,4.000000,4.000000,4.000000,4.000000,4.000000,4.000000,4.000000,4.000000,4.000000,100.000000
1602006656.610141,68.000000,0.000000,4106.666504,4123.077148,4134.871582,4117.948730,4122.051270,4123.589844,4128.717773,4137.948730,4136.922852,4148.205078,4135.897461,4144.102539,4104.615234,4098.461426,814.000000,4.000000,,,,0.000000,4.000000,4.000000,4.000000,4.000000,4.000000,4.000000,4.000000,4.000000,4.000000,4.000000,4.000000,4.000000,4.000000,4.000000,100.000000
1602006656.618022,69.000000,0.000000,4105.128418,4122.563965,4139.487305,4117.948730,4127.179688,4124.102539,4138.461426,4135.897461,4139.487305,4134.358887,4131.282227,4151.794922,4107.692383,4111.282227,823.000000,4.000000,,,,0.000000,4.000000,4.000000,4.000000,4.000000,4.000000,4.000000,4.000000,4.000000,4.000000,4.000000,4.000000,4.000000,4.000000,4.000000,100.000000
1602006656.625903,70.000000,0.000000,4105.641113,4127.179688,4134.871582,4124.615234,4136.922852,4127.179688,4135.897461,4135.384766,4138.974121,4139.487305,4123.589844,4156.410156,4105.641113,4114.871582,739.000000,4.000000,,,,0.000000,4.000000,4.000000,4.000000,4.000000,4.000000,4.000000,4.000000,4.000000,4.000000,4.000000,4.000000,4.000000,4.000000,4.000000,100.000000
1602006656.633785,71.000000,0.000000,4102.051270,4123.589844,4124.615234,4125.641113,4137.436035,4127.692383,4125.641113,4132.307617,4139.487305,4148.717773,4121.538574,4155.897461,4099.487305,4098.461426,667.000000,4.000000,,,,0.000000,4.000000,4.000000,4.000000,4.000000,4.000000,4.000000,4.000000,4.000000,4.000000,4.000000,4.000000,4.000000,4.000000,4.000000,100.000000
1602006656.641666,72.000000,0.000000,4089.230713,4123.077148,4122.563965,4123.589844,4133.846191,4125.641113,4123.077148,4124.615234,4133.846191,4142.563965,4124.615234,4151.282227,4095.384521,4090.256348,779.000000,4.000000,,,,0.000000,4.000000,4.000000,4.000000,4.000000,4.000000,4.000000,4.000000,4.000000,4.000000,4.000000,4.000000,4.000000,4.000000,4.000000,100.000000
1602006656.649547,73.000000,0.000000,4076.923096,4123.589844,4117.436035,4121.538574,4127.692383,4111.794922,4119.487305,4117.948730,4123.589844,4123.589844,4115.897461,4140.512695,4088.718018,4090.769287,842.000000,4.000000,,,,0.000000,4.000000,4.000000,4.000000,4.000000,4.000000,4.000000,4.000000,4.000000,4.000000,4.000000,4.000000,4.000000,4.000000,4.000000,100.000000
1602006656.657428,74.000000,0.000000,4072.307617,4120.000000,4107.179688,4118.974121,4129.743652,4109.743652,4113.846191,4118.461426,4120.000000,4102.051270,4103.077148,4130.256348,4085.641113,4078.974365,876.000000,4.000000,,,,0.000000,4.000000,4.000000,4.000000,4.000000,4.000000,4.000000,4.000000,4.000000,4.000000,4.000000,4.000000,4.000000,4.000000,4.000000,100.000000
1602006656.665409,75.000000,0.000000,4074.358887,4121.025879,4111.794922,4118.974121,4137.436035,4125.641113,4117.948730,4121.025879,4120.512695,4092.820557,4112.307617,4131.794922,4088.718018,4072.820557,839.000000,4.000000,,,,0.000000,4.000000,4.000000,4.000000,4.000000,4.000000,4.000000,4.000000,4.000000,4.000000,4.000000,4.000000,4.000000,4.000000,4.000000,100.000000
1602006656.673290,76.000000,0.000000,4075.384521,4122.563965,4123.589844,4122.563965,4136.410156,4121.538574,4117.948730,4116.922852,4119.487305,4102.051270,4119.487305,4135.384766,4092.307617,4083.589844,766.000000,4.000000,,,,0.000000,4.000000,4.000000,4.000000,4.000000,4.000000,4.000000,4.000000,4.000000,4.000000,4.000000,4.000000,4.000000,4.000000,4.000000,100.000000
1602006656.681171,77.000000,0.000000,4084.102539,4122.051270,4123.077148,4125.641113,4133.333496,4109.230957,4115.897461,4112.820313,4119.487305,4117.436035,4102.051270,4142.051270,4092.307617,4086.153809,732.000000,4.000000,,,,0.000000,4.000000,4.000000,4.000000,4.000000,4.000000,4.000000,4.000000,4.000000,4.000000,4.000000,4.000000,4.000000,4.000000,4.000000,100.000000
1602006656.689052,78.000000,0.000000,4092.820557,4120.512695,4122.563965,4124.102539,4135.384766,4118.974121,4122.051270,4115.897461,4122.563965,4126.153809,4094.358887,4150.769043,4086.153809,4073.333252,876.000000,4.000000,,,,0.000000,4.000000,4.000000,4.000000,4.000000,4.000000,4.000000,4.000000,4.000000,4.000000,4.000000,4.000000,4.000000,4.000000,4.000000,100.000000
1602006656.696933,79.000000,0.000000,4078.974365,4111.282227,4123.077148,4120.000000,4132.820313,4125.641113,4123.589844,4116.922852,4125.128418,4125.641113,4105.641113,4151.794922,4084.102539,4066.666748,839.000000,4.000000,,,,0.000000,4.000000,4.000000,4.000000,4.000000,4.000000,4.000000,4.000000,4.000000,4.000000,4.000000,4.000000,4.000000,4.000000,4.000000,100.000000
1602006656.704913,80.000000,0.000000,4069.743652,4109.743652,4119.487305,4119.487305,4133.333496,4116.410156,4124.102539,4113.846191,4125.641113,4123.589844,4109.230957,4151.282227,4089.743652,4080.512939,766.000000,4.000000,,,,0.000000,4.000000,4.000000,4.000000,4.000000,4.000000,4.000000,4.000000,4.000000,4.000000,4.000000,4.000000,4.000000,4.000000,4.000000,100.000000
1602006656.712794,81.000000,0.000000,4087.692383,4121.538574,4125.641113,4123.589844,4138.461426,4120.512695,4134.871582,4116.922852,4126.153809,4122.563965,4108.717773,4160.000000,4094.358887,4102.563965,732.000000,4.000000,,,,0.000000,4.000000,4.000000,4.000000,4.000000,4.000000,4.000000,4.000000,4.000000,4.000000,4.000000,4.000000,4.000000,4.000000,4.000000,100.000000
1602006656.720775,82.000000,0.000000,4100.000000,4123.589844,4138.461426,4125.641113,4138.974121,4129.230957,4140.512695,4122.563965,4132.820313,4122.563965,4111.794922,4169.743652,4100.000000,4110.769043,876.000000,4.000000,,,,0.000000,4.000000,4.000000,4.000000,4.000000,4.000000,4.000000,4.000000,4.000000,4.000000,4.000000,4.000000,4.000000,4.000000,4.000000,100.000000
1602006656.728656,83.000000,0.000000,4093.846191,4117.436035,4138.461426,4123.589844,4136.410156,4124.102539,4131.282227,4124.102539,4142.051270,4129.743652,4111.794922,4171.282227,4108.717773,4106.666504,839.000000,4.000000,,,,0.000000,4.000000,4.000000,4.000000,4.000000,4.000000,4.000000,4.000000,4.000000,4.000000,4.000000,4.000000,4.000000,4.000000,4.000000,100.000000
1602006656.736537,84.000000,0.000000,4088.718018,4118.974121,4126.153809,4121.025879,4128.717773,4118.974121,4121.025879,4123.589844,4137.948730,4137.948730,4123.077148,4165.128418,4105.641113,4102.563965,766.000000,4.000000,,,,0.000000,4.000000,4.000000,4.000000,4.000000,4.000000,4.000000,4.000000,4.000000,4.000000,4.000000,4.000000,4.000000,4.000000,4.000000,100.000000
1602006656.744418,85.000000,0.000000,4084.102539,4120.512695,4114.358887,4117.948730,4126.153809,4120.512695,4111.794922,4120.000000,4128.205078,4133.333496,4126.666504,4151.282227,4096.410156,4095.384521,732.000000,4.000000,,,,0.000000,4.000000,4.000000,4.000000,4.000000,4.000000,4.000000,4.000000,4.000000,4.000000,4.000000,4.000000,4.000000,4.000000,4.000000,100.000000
1602006656.752300,86.000000,0.000000,4076.410156,4120.000000,4106.666504,4120.512695,4136.410156,4121.025879,4107.692383,4118.974121,4126.153809,4117.948730,4109.743652,4137.948730,4094.871826,4083.589844,876.000000,4.000000,,,,0.000000,4.000000,4.000000,4.000000,4.000000,4.000000,4.000000,4.000000,4.000000,4.000000,4.000000,4.000000,4.000000,4.000000,4.000000,100.000000
1602006656.760181,87.000000,0.000000,4073.333252,4122.051270,4103.589844,4125.128418,4141.538574,4120.512695,4113.846191,4121.025879,4122.563965,4106.153809,4105.641113,4140.512695,4091.281982,4073.846191,839.000000,4.000000,,,,0.000000,4.000000,4.000000,4.000000,4.000000,4.000000,4.000000,4.000000,4.000000,4.000000,4.000000,4.000000,4.000000,4.000000,4.000000,100.000000
1602006656.768062,88.000000,0.000000,4078.461426,4123.589844,4109.743652,4123.589844,4136.922852,4124.615234,4122.563965,4121.025879,4124.615234,4119.487305,4124.615234,4151.794922,4096.410156,4073.846191,766.000000,4.000000,,,,0.000000,4.000000,4.000000,4.000000,4.000000,4.000000,4.000000,4.000000,4.000000,4.000000,4.000000,4.000000,4.000000,4.000000,4.000000,100.000000
1602006656.775943,89.000000,0.000000,4087.692383,4125.641113,4120.512695,4123.589844,4135.384766,4127.179688,4129.230957,4123.589844,4136.922852,4145.641113,4130.256348,4155.384766,4112.307617,4097.436035,732.000000,4.000000,,,,0.000000,4.000000,4.000000,4.000000,4.000000,4.000000,4.000000,4.000000,4.000000,4.000000,4.000000,4.000000,4.000000,4.000000,4.000000,100.000000
1602006656.783824,90.000000,0.000000,4098.461426,4126.153809,4130.769043,4129.230957,4137.948730,4126.153809,4135.897461,4129.230957,4143.077148,4153.846191,4121.025879,4158.974121,4115.897461,4124.615234,876.000000,4.000000,,,,0.000000,4.000000,4.000000,4.000000,4.000000,4.000000,4.000000,4.000000,4.000000,4.000000,4.000000,4.000000,4.000000,4.000000,4.000000,100.000000
1602006656.791705,91.000000,0.000000,4109.743652,4126.666504,4140.000000,4131.282227,4135.897461,4128.717773,4141.538574,4129.230957,4137.436035,4156.410156,4132.820313,4168.717773,4116.922852,4125.641113,839.000000,4.000000,,,,0.000000,4.000000,4.000000,4.000000,4.000000,4.000000,4.000000,4.000000,4.000000,4.000000,4.000000,4.000000,4.000000,4.000000,4.000000,100.000000
1602006656.799486,92.000000,0.000000,4108.205078,4124.615234,4140.512695,4125.641113,4129.230957,4127.179688,4136.922852,4123.589844,4126.666504,4150.769043,4143.589844,4171.794922,4122.563965,4110.769043,766.000000,4.000000,,,,0.000000,4.000000,4.000000,4.000000,4.000000,4.000000,4.000000,4.000000,4.000000,4.000000,4.000000,4.000000,4.000000,4.000000,4.000000,100.000000
1602006656.807367,93.000000,0.000000,4096.922852,4121.025879,4135.897461,4125.128418,4128.205078,4116.922852,4129.743652,4120.512695,4123.077148,4133.333496,4130.769043,4170.256348,4120.512695,4109.743652,732.000000,4.000000,,,,0.000000,4.000000,4.000000,4.000000,4.000000,4.000000,4.000000,4.000000,4.000000,4.000000,4.000000,4.000000,4.000000,4.000000,4.000000,100.000000
1602006656.815148,94.000000,0.000000,4098.974121,4122.051270,4138.974121,4128.717773,4135.897461,4118.461426,4129.230957,4121.025879,4131.282227,4132.307617,4128.717773,4174.871582,4124.102539,4122.563965,876.000000,4.000000,,,,0.000000,4.000000,4.000000,4.000000,4.000000,4.000000,4.000000,4.000000,4.000000,4.000000,4.000000,4.000000,4.000000,4.000000,4.000000,100.000000
1602006656.823028,95.000000,0.000000,4109.743652,4125.641113,4137.436035,4126.666504,4140.512695,4129.230957,4128.205078,4126.666504,4141.538574,4141.538574,4137.436035,4173.846191,4132.307617,4117.436035,839.000000,4.000000,,,,0.000000,4.000000,4.000000,4.000000,4.000000,4.000000,4.000000,4.000000,4.000000,4.000000,4.000000,4.000000,4.000000,4.000000,4.000000,100.000000
1602006656.830909,96.000000,0.000000,4104.102539,4120.512695,4123.077148,4122.051270,4138.974121,4130.769043,4124.615234,4135.384766,4151.794922,4143.077148,4124.615234,4155.897461,4120.000000,4093.846191,766.000000,4.000000,,,,0.000000,4.000000,4.000000,4.000000,4.000000,4.000000,4.000000,4.000000,4.000000,4.000000,4.000000,4.000000,4.000000,4.000000,4.000000,100.000000
1602006656.838790,97.000000,0.000000,4088.205078,4107.692383,4112.307617,4120.512695,4134.358887,4130.769043,4123.589844,4136.922852,4152.820313,4152.307617,4107.179688,4136.922852,4098.461426,4088.205078,732.000000,4.000000,,,,0.000000,4.000000,4.000000,4.000000,4.000000,4.000000,4.000000,4.000000,4.000000,4.000000,4.000000,4.000000,4.000000,4.000000,4.000000,100.000000
1602006656.846771,98.000000,0.000000,4076.923096,4106.153809,4109.230957,4121.025879,4129.743652,4134.358887,4123.589844,4130.256348,4140.512695,4154.871582,4115.384766,4131.794922,4096.922852,4104.102539,876.000000,4.000000,,,,0.000000,4.000000,4.000000,4.000000,4.000000,4.000000,4.000000,4.000000,4.000000,4.000000,4.000000,4.000000,4.000000,4.000000,4.000000,100.000000
1602006656.854652,99.000000,0.000000,4076.923096,4116.410156,4110.256348,4120.000000,4131.794922,4139.487305,4125.641113,4125.128418,4136.410156,4138.461426,4129.230957,4141.538574,4113.846191,4108.205078,839.000000,4.000000,,,,0.000000,4.000000,4.000000,4.000000,4.000000,4.000000,4.000000,4.000000,4.000000,4.000000,4.000000,4.000000,4.000000,4.000000,4.000000,100.000000
1602006656.862533,100.000000,0.000000,4091.794922,4125.641113,4116.922852,4121.538574,4137.948730,4141.025879,4127.179688,4124.102539,4135.897461,4136.410156,4134.871582,4155.384766,4122.563965,4103.077148,766.000000,4.000000,,,,0.000000,4.000000,4.000000,4.000000,4.000000,4.000000,4.000000,4.000000,4.000000,4.000000,4.000000,4.000000,4.000000,4.000000,4.000000,100.000000
1602006656.870414,101.000000,0.000000,4105.128418,4130.256348,4130.769043,4129.230957,4136.922852,4129.743652,4122.051270,4122.051270,4118.461426,4139.487305,4138.974121,4162.051270,4113.846191,4113.846191,732.000000,4.000000,,,,0.000000,4.000000,4.000000,4.000000,4.000000,4.000000,4.000000,4.000000,4.000000,4.000000,4.000000,4.000000,4.000000,4.000000,4.000000,100.000000
1602006656.878295,102.000000,0.000000,4104.615234,4129.230957,4140.000000,4133.333496,4135.384766,4121.025879,4116.922852,4114.358887,4106.153809,4122.563965,4136.410156,4159.487305,4109.230957,4124.615234,876.000000,4.000000,,,,0.000000,4.000000,4.000000,4.000000,4.000000,4.000000,4.000000,4.000000,4.000000,4.000000,4.000000,4.000000,4.000000,4.000000,4.000000,100.000000
1602006656.886177,103.000000,0.000000,4101.538574,4125.641113,4136.410156,4130.769043,4138.974121,4127.692383,4125.641113,4105.641113,4112.307617,4116.922852,4124.102539,4153.333496,4113.846191,4125.641113,839.000000,4.000000,,,,0.000000,4.000000,4.000000,4.000000,4.000000,4.000000,4.000000,4.000000,4.000000,4.000000,4.000000,4.000000,4.000000,4.000000,4.000000,100.000000
1602006656.894058,104.000000,0.000000,4106.153809,4124.102539,4128.717773,4126.666504,4141.025879,4138.974121,4138.974121,4110.769043,4115.897461,4126.153809,4117.948730,4146.666504,4110.769043,4124.102539,766.000000,4.000000,,,,0.000000,4.000000,4.000000,4.000000,4.000000,4.000000,4.000000,4.000000,4.000000,4.000000,4.000000,4.000000,4.000000,4.000000,4.000000,100.000000
1602006656.901939,105.000000,0.000000,4109.230957,4116.922852,4125.128418,4124.102539,4138.974121,4145.641113,4145.128418,4118.974121,4117.436035,4123.077148,4123.077148,4133.333496,4104.615234,4107.692383,732.000000,4.000000,,,,0.000000,4.000000,4.000000,4.000000,4.000000,4.000000,4.000000,4.000000,4.000000,4.000000,4.000000,4.000000,4.000000,4.000000,4.000000,100.000000
1602006656.909820,106.000000,0.000000,4102.051270,4108.717773,4115.897461,4120.512695,4136.922852,4146.666504,4143.589844,4120.000000,4129.230957,4125.641113,4115.384766,4113.846191,4101.538574,4086.153809,876.000000,4.000000,,,,0.000000,4.000000,4.000000,4.000000,4.000000,4.000000,4.000000,4.000000,4.000000,4.000000,4.000000,4.000000,4.000000,4.000000,4.000000,100.000000
1602006656.917601,107.000000,0.000000,4093.333252,4115.384766,4105.641113,4118.974121,4136.922852,4139.487305,4137.948730,4129.743652,4141.538574,4140.000000,4104.615234,4108.717773,4099.487305,4096.410156,839.000000,4.000000,,,,0.000000,4.000000,4.000000,4.000000,4.000000,4.000000,4.000000,4.000000,4.000000,4.000000,4.000000,4.000000,4.000000,4.000000,4.000000,100.000000
1602006656.925482,108.000000,0.000000,4095.384521,4126.666504,4111.282227,4125.128418,4137.436035,4136.410156,4134.871582,4143.589844,4143.589844,4143.589844,4117.436035,4127.692383,4114.871582,4110.769043,766.000000,4.000000,,,,0.000000,4.000000,4.000000,4.000000,4.000000,4.000000,4.000000,4.000000,4.000000,4.000000,4.000000,4.000000,4.000000,4.000000,4.000000,100.000000
1602006656.933363,109.000000,0.000000,4101.538574,4127.692383,4121.538574,4131.282227,4135.897461,4140.000000,4135.384766,4142.051270,4140.000000,4147.179688,4138.461426,4146.666504,4137.436035,4106.153809,732.000000,4.000000,,,,0.000000,4.000000,4.000000,4.000000,4.000000,4.000000,4.000000,4.000000,4.000000,4.000000,4.000000,4.000000,4.000000,4.000000,4.000000,100.000000
1602006656.941244,110.000000,0.000000,4103.589844,4132.307617,4124.102539,4130.769043,4135.897461,4138.974121,4135.897461,4137.436035,4143.077148,4155.384766,4147.179688,4152.820313,4142.563965,4122.051270,876.000000,4.000000,,,,0.000000,4.000000,4.000000,4.000000,4.000000,4.000000,4.000000,4.000000,4.000000,4.000000,4.000000,4.000000,4.000000,4.000000,4.000000,100.000000
1602006656.949125,111.000000,0.000000,4107.179688,4139.487305,4125.641113,4130.769043,4140.000000,4133.846191,4136.410156,4138.461426,4138.461426,4147.179688,4143.589844,4155.384766,4142.051270,4144.615234,839.000000,4.000000,,,,0.000000,4.000000,4.000000,4.000000,4.000000,4.000000,4.000000,4.000000,4.000000,4.000000,4.000000,4.000000,4.000000,4.000000,4.000000,100.000000
1602006656.957006,112.000000,0.000000,4108.717773,4133.846191,4123.077148,4131.282227,4142.563965,4134.871582,4139.487305,4127.692383,4117.436035,4130.256348,4129.230957,4150.256348,4137.948730,4127.179688,766.000000,4.000000,,,,0.000000,4.000000,4.000000,4.000000,4.000000,4.000000,4.000000,4.000000,4.000000,4.000000,4.000000,4.000000,4.000000,4.000000,4.000000,100.000000
1602006656.964887,113.000000,0.000000,4108.205078,4128.205078,4114.358887,4130.769043,4144.615234,4145.641113,4140.000000,4115.897461,4105.641113,4134.358887,4120.000000,4134.358887,4127.179688,4102.563965,732.000000,4.000000,,,,0.000000,4.000000,4.000000,4.000000,4.000000,4.000000,4.000000,4.000000,4.000000,4.000000,4.000000,4.000000,4.000000,4.000000,4.000000,100.000000
1602006656.972868,114.000000,0.000000,4107.179688,4128.205078,4110.769043,4134.358887,4148.717773,4151.794922,4137.948730,4109.230957,4106.153809,4144.102539,4127.179688,4116.410156,4118.974121,4106.153809,876.000000,4.000000,,,,0.000000,4.000000,4.000000,4.000000,4.000000,4.000000,4.000000,4.000000,4.000000,4.000000,4.000000,4.000000,4.000000,4.000000,4.000000,100.000000
1602006656.980749,115.000000,0.000000,4099.487305,4124.615234,4116.410156,4133.846191,4145.641113,4142.051270,4138.461426,4101.538574,4102.051270,4131.282227,4124.102539,4112.820313,4116.922852,4110.256348,839.000000,4.000000,,,,0.000000,4.000000,4.000000,4.000000,4.000000,4.000000,4.000000,4.000000,4.000000,4.000000,4.000000,4.000000,4.000000,4.000000,4.000000,100.000000
1602006656.988630,116.000000,0.000000,4096.922852,4120.512695,4128.717773,4126.153809,4138.461426,4131.282227,4135.897461,4097.948730,4105.128418,4115.384766,4109.743652,4133.846191,4115.897461,4103.589844,766.000000,4.000000,,,,0.000000,4.000000,4.000000,4.000000,4.000000,4.000000,4.000000,4.000000,4.000000,4.000000,4.000000,4.000000,4.000000,4.000000,4.000000,100.000000
1602006656.996511,117.000000,0.000000,4107.692383,4121.025879,4143.589844,4123.077148,4135.897461,4127.179688,4129.230957,4104.102539,4124.102539,4125.128418,4122.563965,4158.974121,4122.051270,4111.794922,732.000000,4.000000,,,,0.000000,4.000000,4.000000,4.000000,4.000000,4.000000,4.000000,4.000000,4.000000,4.000000,4.000000,4.000000,4.000000,4.000000,4.000000,100.000000
1602006657.004392,118.000000,0.000000,4111.282227,4126.153809,4146.153809,4127.179688,4133.846191,4123.589844,4125.641113,4114.871582,4142.563965,4139.487305,4145.128418,4164.102539,4133.846191,4125.128418,876.000000,4.000000,,,,0.000000,4.000000,4.000000,4.000000,4.000000,4.000000,4.000000,4.000000,4.000000,4.000000,4.000000,4.000000,4.000000,4.000000,4.000000,100.000000
1602006657.012274,119.000000,0.000000,4091.794922,4122.051270,4128.717773,4123.589844,4132.820313,4118.974121,4124.615234,4121.538574,4141.025879,4132.307617,4126.666504,4149.743652,4129.230957,4119.487305,839.000000,4.000000,,,,0.000000,4.000000,4.000000,4.000000,4.000000,4.000000,4.000000,4.000000,4.000000,4.000000,4.000000,4.000000,4.000000,4.000000,4.000000,100.000000
1602006657.020155,120.000000,0.000000,4078.974365,4112.307617,4110.256348,4118.461426,4135.384766,4117.436035,4124.102539,4121.025879,4117.436035,4120.512695,4092.820557,4128.717773,4113.333496,4104.102539,766.000000,4.000000,,,,0.000000,4.000000,4.000000,4.000000,4.000000,4.000000,4.000000,4.000000,4.000000,4.000000,4.000000,4.000000,4.000000,4.000000,4.000000,100.000000
1602006657.028036,121.000000,0.000000,4086.153809,4115.384766,4105.641113,4120.000000,4141.025879,4122.051270,4127.179688,4118.974121,4103.589844,4121.538574,4093.333252,4111.794922,4108.717773,4098.974121,732.000000,4.000000,,,,0.000000,4.000000,4.000000,4.000000,4.000000,4.000000,4.000000,4.000000,4.000000,4.000000,4.000000,4.000000,4.000000,4.000000,4.000000,100.000000
1602006657.035917,122.000000,0.000000,4087.179443,4118.974121,4098.461426,4120.000000,4143.589844,4136.922852,4134.358887,4123.589844,4116.922852,4127.179688,4107.692383,4097.948730,4113.846191,4097.436035,876.000000,4.000000,,,,0.000000,4.000000,4.000000,4.000000,4.000000,4.000000,4.000000,4.000000,4.000000,4.000000,4.000000,4.000000,4.000000,4.000000,4.000000,100.000000
1602006657.043798,123.000000,0.000000,4074.871826,4109.230957,4090.256348,4117.436035,4142.051270,4144.102539,4133.846191,4127.179688,4121.025879,4126.153809,4105.641113,4086.666748,4113.846191,4093.846191,839.000000,4.000000,,,,0.000000,4.000000,4.000000,4.000000,4.000000,4.000000,4.000000,4.000000,4.000000,4.000000,4.000000,4.000000,4.000000,4.000000,4.000000,100.000000
1602006657.051579,124.000000,0.000000,4070.769287,4107.692383,4095.384521,4115.897461,4138.974121,4135.384766,4128.717773,4121.538574,4093.846191,4115.897461,4102.563965,4089.230713,4110.769043,4092.307617,766.000000,4.000000,,,,0.000000,4.000000,4.000000,4.000000,4.000000,4.000000,4.000000,4.000000,4.000000,4.000000,4.000000,4.000000,4.000000,4.000000,4.000000,100.000000
1602006657.059460,125.000000,0.000000,4088.718018,4120.512695,4113.846191,4120.000000,4134.358887,4127.179688,4131.794922,4117.948730,4084.615479,4109.230957,4109.743652,4106.153809,4113.333496,4095.384521,732.000000,4.000000,,,,0.000000,4.000000,4.000000,4.000000,4.000000,4.000000,4.000000,4.000000,4.000000,4.000000,4.000000,4.000000,4.000000,4.000000,4.000000,100.000000
1602006657.067341,126.000000,0.000000,4113.846191,4125.641113,4135.897461,4129.743652,4129.743652,4126.666504,4140.000000,4124.102539,4115.384766,4125.641113,4117.436035,4122.051270,4122.051270,4110.769043,876.000000,4.000000,,,,0.000000,4.000000,4.000000,4.000000,4.000000,4.000000,4.000000,4.000000,4.000000,4.000000,4.000000,4.000000,4.000000,4.000000,4.000000,100.000000
1602006657.075222,127.000000,0.000000,4124.102539,4122.563965,4153.333496,4133.846191,4126.153809,4129.743652,4146.666504,4135.384766,4137.948730,4148.717773,4121.538574,4141.538574,4135.384766,4130.256348,839.000000,4.000000,,,,0.000000,4.000000,4.000000,4.000000,4.000000,4.000000,4.000000,4.000000,4.000000,4.000000,4.000000,4.000000,4.000000,4.000000,4.000000,100.000000
1602006657.083103,128.000000,0.000000,4121.025879,4123.077148,4167.179688,4132.820313,4126.153809,4141.538574,4152.820313,4141.025879,4144.102539,4144.102539,4127.179688,4164.102539,4138.974121,4139.487305,766.000000,4.000000,,,,0.000000,4.000000,4.000000,4.000000,4.000000,4.000000,4.000000,4.000000,4.000000,4.000000,4.000000,4.000000,4.000000,4.000000,4.000000,100.000000
1602006657.091084,0.000000,0.000000,4120.000000,4122.563965,4168.717773,4128.205078,4124.102539,4146.153809,4152.820313,4135.384766,4154.358887,4126.153809,4121.538574,4169.230957,4129.743652,4144.102539,790.000000,4.000000,,,,0.000000,4.000000,4.000000,4.000000,4.000000,4.000000,4.000000,4.000000,4.000000,4.000000,4.000000,4.000000,4.000000,4.000000,4.000000,100.000000
1602006657.098965,1.000000,0.000000,4120.512695,4120.000000,4158.974121,4123.589844,4119.487305,4127.692383,4141.025879,4128.205078,4157.436035,4133.846191,4118.461426,4160.512695,4123.077148,4142.563965,786.000000,4.000000,,,,0.000000,4.000000,4.000000,4.000000,4.000000,4.000000,4.000000,4.000000,4.000000,4.000000,4.000000,4.000000,4.000000,4.000000,4.000000,100.000000
1602006657.106846,2.000000,0.000000,4123.077148,4121.538574,4151.282227,4130.256348,4126.666504,4121.025879,4133.333496,4133.333496,4152.307617,4157.436035,4131.794922,4154.358887,4125.128418,4129.230957,847.000000,4.000000,,,,0.000000,4.000000,4.000000,4.000000,4.000000,4.000000,4.000000,4.000000,4.000000,4.000000,4.000000,4.000000,4.000000,4.000000,4.000000,100.000000
1602006657.114728,3.000000,0.000000,4127.179688,4129.743652,4146.666504,4138.461426,4135.897461,4134.871582,4130.769043,4141.538574,4153.333496,4160.512695,4137.436035,4145.641113,4126.153809,4122.563965,876.000000,4.000000,,,,0.000000,4.000000,4.000000,4.000000,4.000000,4.000000,4.000000,4.000000,4.000000,4.000000,4.000000,4.000000,4.000000,4.000000,4.000000,100.000000
1602006657.122609,4.000000,0.000000,4114.871582,4126.153809,4132.820313,4130.769043,4132.307617,4133.333496,4127.692383,4140.512695,4152.820313,4156.922852,4127.179688,4127.692383,4120.512695,4127.179688,814.000000,4.000000,,,,0.000000,4.000000,4.000000,4.000000,4.000000,4.000000,4.000000,4.000000,4.000000,4.000000,4.000000,4.000000,4.000000,4.000000,4.000000,100.000000
1602006657.130490,5.000000,0.000000,4092.307617,4109.743652,4113.846191,4115.384766,4122.051270,4121.538574,4131.282227,4139.487305,4146.153809,4156.410156,4123.077148,4108.717773,4113.846191,4114.358887,823.000000,4.000000,,,,0.000000,4.000000,4.000000,4.000000,4.000000,4.000000,4.000000,4.000000,4.000000,4.000000,4.000000,4.000000,4.000000,4.000000,4.000000,100.000000
1602006657.138371,6.000000,0.000000,4090.256348,4103.589844,4105.641113,4109.743652,4121.538574,4125.641113,4137.436035,4146.153809,4137.436035,4133.333496,4116.410156,4092.307617,4108.205078,4087.692383,756.000000,4.000000,,,,0.000000,4.000000,4.000000,4.000000,4.000000,4.000000,4.000000,4.000000,4.000000,4.000000,4.000000,4.000000,4.000000,4.000000,4.000000,100.000000
1602006657.146252,7.000000,0.000000,4089.230713,4103.589844,4102.051270,4107.179688,4126.666504,4129.230957,4138.461426,4144.615234,4122.563965,4101.538574,4091.281982,4078.461426,4093.333252,4072.820557,667.000000,4.000000,,,,0.000000,4.000000,4.000000,4.000000,4.000000,4.000000,4.000000,4.000000,4.000000,4.000000,4.000000,4.000000,4.000000,4.000000,4.000000,100.000000
1602006657.154133,8.000000,0.000000,4075.897461,4097.948730,4103.589844,4105.641113,4127.692383,4121.025879,4136.410156,4131.794922,4116.922852,4105.128418,4083.589844,4080.512939,4083.589844,4078.974365,779.000000,4.000000,,,,0.000000,4.000000,4.000000,4.000000,4.000000,4.000000,4.000000,4.000000,4.000000,4.000000,4.000000,4.000000,4.000000,4.000000,4.000000,100.000000
1602006657.162114,9.000000,0.000000,4078.974365,4097.948730,4115.897461,4109.230957,4127.179688,4124.615234,4137.436035,4128.205078,4123.077148,4134.871582,4100.512695,4105.128418,4096.410156,4095.384521,839.000000,4.000000,,,,0.000000,4.000000,4.000000,4.000000,4.000000,4.000000,4.000000,4.000000,4.000000,4.000000,4.000000,4.000000,4.000000,4.000000,4.000000,100.000000
1602006657.169995,10.000000,0.000000,4090.769287,4105.641113,4128.717773,4112.820313,4122.563965,4137.436035,4141.025879,4131.282227,4124.102539,4138.974121,4107.692383,4132.307617,4102.563965,4107.692383,876.000000,4.000000,,,,0.000000,4.000000,4.000000,4.000000,4.000000,4.000000,4.000000,4.000000,4.000000,4.000000,4.000000,4.000000,4.000000,4.000000,4.000000,100.000000
1602006657.177875,11.000000,0.000000,4092.307617,4106.666504,4128.205078,4115.897461,4126.666504,4141.538574,4144.102539,4127.692383,4121.025879,4124.615234,4106.666504,4146.153809,4096.410156,4114.358887,839.000000,4.000000,,,,0.000000,4.000000,4.000000,4.000000,4.000000,4.000000,4.000000,4.000000,4.000000,4.000000,4.000000,4.000000,4.000000,4.000000,4.000000,100.000000
1602006657.185756,12.000000,0.000000,4100.000000,4111.282227,4122.563965,4120.512695,4137.436035,4139.487305,4142.051270,4120.000000,4119.487305,4122.051270,4109.743652,4146.666504,4101.538574,4126.666504,766.000000,4.000000,,,,0.000000,4.000000,4.000000,4.000000,4.000000,4.000000,4.000000,4.000000,4.000000,4.000000,4.000000,4.000000,4.000000,4.000000,4.000000,100.000000
1602006657.193737,13.000000,0.000000,4114.358887,4124.615234,4126.666504,4130.769043,4139.487305,4137.436035,4135.897461,4113.333496,4115.384766,4117.436035,4114.358887,4142.051270,4109.230957,4133.846191,732.000000,4.000000,,,,0.000000,4.000000,4.000000,4.000000,4.000000,4.000000,4.000000,4.000000,4.000000,4.000000,4.000000,4.000000,4.000000,4.000000,4.000000,100.000000
1602006657.201617,14.000000,0.000000,4123.589844,4138.974121,4136.922852,4141.538574,4142.051270,4144.615234,4134.358887,4113.333496,4116.922852,4110.256348,4122.563965,4146.153809,4115.384766,4137.436035,876.000000,4.000000,,,,0.000000,4.000000,4.000000,4.000000,4.000000,4.000000,4.000000,4.000000,4.000000,4.000000,4.000000,4.000000,4.000000,4.000000,4.000000,100.000000
1602006657.209498,15.000000,0.000000,4134.871582,4148.717773,4143.589844,4143.077148,4149.743652,4151.794922,4138.974121,4124.615234,4128.717773,4124.102539,4130.769043,4153.846191,4131.282227,4150.256348,839.000000,4.000000,,,,0.000000,4.000000,4.000000,4.000000,4.000000,4.000000,4.000000,4.000000,4.000000,4.000000,4.000000,4.000000,4.000000,4.000000,4.000000,100.000000
1602006657.217379,16.000000,0.000000,4141.538574,4144.615234,4141.538574,4140.512695,4145.128418,4146.666504,4140.000000,4138.461426,4142.051270,4141.025879,4126.153809,4147.179688,4133.333496,4148.205078,0.000000,4.000000,,,,0.000000,4.000000,4.000000,4.000000,4.000000,4.000000,4.000000,4.000000,4.000000,4.000000,4.000000,4.000000,4.000000,4.000000,4.000000,100.000000
1602006657.225159,17.000000,0.000000,4126.666504,4136.922852,4137.436035,4137.948730,4134.871582,4137.436035,4137.436035,4145.641113,4146.153809,4140.512695,4118.461426,4129.230957,4117.436035,4125.128418,0.000000,4.000000,,,,0.000000,4.000000,4.000000,4.000000,4.000000,4.000000,4.000000,4.000000,4.000000,4.000000,4.000000,4.000000,4.000000,4.000000,4.000000,100.000000
1602006657.233040,18.000000,0.000000,4105.128418,4135.897461,4136.410156,4133.333496,4135.897461,4138.461426,4143.589844,4153.846191,4142.051270,4136.410156,4122.051270,4117.436035,4117.436035,4116.410156,0.000000,4.000000,,,,0.000000,4.000000,4.000000,4.000000,4.000000,4.000000,4.000000,4.000000,4.000000,4.000000,4.000000,4.000000,4.000000,4.000000,4.000000,100.000000
1602006657.240921,19.000000,0.000000,4105.641113,4129.743652,4136.410156,4127.179688,4134.871582,4139.487305,4149.230957,4157.948730,4134.871582,4132.307617,4125.641113,4121.025879,4125.641113,4121.538574,0.000000,4.000000,,,,0.000000,4.000000,4.000000,4.000000,4.000000,4.000000,4.000000,4.000000,4.000000,4.000000,4.000000,4.000000,4.000000,4.000000,4.000000,100.000000
1602006657.248802,20.000000,0.000000,4120.512695,4121.538574,4137.436035,4123.077148,4127.692383,4133.333496,4148.205078,4154.871582,4127.692383,4125.128418,4123.077148,4131.282227,4124.102539,4121.538574,0.000000,4.000000,,,,0.000000,4.000000,4.000000,4.000000,4.000000,4.000000,4.000000,4.000000,4.000000,4.000000,4.000000,4.000000,4.000000,4.000000,4.000000,100.000000
1602006657.256682,21.000000,0.000000,4127.179688,4122.563965,4138.974121,4122.563965,4121.025879,4133.333496,4150.256348,4150.769043,4124.102539,4123.589844,4127.692383,4141.025879,4122.563965,4127.179688,0.000000,4.000000,,,,0.000000,4.000000,4.000000,4.000000,4.000000,4.000000,4.000000,4.000000,4.000000,4.000000,4.000000,4.000000,4.000000,4.000000,4.000000,100.000000
1602006657.264463,22.000000,0.000000,4122.563965,4122.051270,4140.000000,4122.051270,4117.948730,4134.871582,4153.846191,4143.589844,4118.461426,4127.692383,4134.871582,4147.692383,4124.615234,4146.153809,0.000000,4.000000,,,,0.000000,4.000000,4.000000,4.000000,4.000000,4.000000,4.000000,4.000000,4.000000,4.000000,4.000000,4.000000,4.000000,4.000000,4.000000,100.000000
1602006657.272344,23.000000,0.000000,4125.128418,4121.025879,4138.461426,4120.000000,4121.538574,4133.846191,4152.307617,4138.461426,4106.153809,4122.051270,4130.256348,4155.897461,4125.128418,4158.461426,0.000000,4.000000,,,,0.000000,4.000000,4.000000,4.000000,4.000000,4.000000,4.000000,4.000000,4.000000,4.000000,4.000000,4.000000,4.000000,4.000000,4.000000,100.000000
1602006657.280225,24.000000,0.000000,4140.000000,4131.282227,4138.974121,4124.615234,4125.641113,4138.461426,4153.846191,4143.077148,4107.179688,4105.641113,4123.589844,4161.025879,4120.512695,4151.282227,0.000000,4.000000,,,,0.000000,4.000000,4.000000,4.000000,4.000000,4.000000,4.000000,4.000000,4.000000,4.000000,4.000000,4.000000,4.000000,4.000000,4.000000,100.000000
1602006657.288106,25.000000,0.000000,4140.000000,4142.051270,4141.538574,4133.846191,4126.153809,4143.589844,4149.743652,4140.512695,4120.000000,4097.948730,4123.077148,4150.769043,4113.333496,4137.436035,0.000000,4.000000,,,,0.000000,4.000000,4.000000,4.000000,4.000000,4.000000,4.000000,4.000000,4.000000,4.000000,4.000000,4.000000,4.000000,4.000000,4.000000,100.000000
1602006657.295987,26.000000,0.000000,4123.589844,4145.128418,4139.487305,4138.974121,4130.769043,4136.410156,4131.794922,4123.589844,4121.025879,4103.589844,4114.358887,4131.282227,4104.102539,4136.410156,0.000000,4.000000,,,,0.000000,4.000000,4.000000,4.000000,4.000000,4.000000,4.000000,4.000000,4.000000,4.000000,4.000000,4.000000,4.000000,4.000000,4.000000,100.000000
1602006657.303868,27.000000,0.000000,4125.128418,4147.179688,4135.897461,4140.000000,4139.487305,4126.153809,4119.487305,4111.282227,4114.358887,4111.282227,4100.000000,4113.333496,4093.846191,4127.692383,0.000000,4.000000,,,,0.000000,4.000000,4.000000,4.000000,4.000000,4.000000,4.000000,4.000000,4.000000,4.000000,4.000000,4.000000,4.000000,4.000000,4.000000,100.000000
1602006657.311749,28.000000,0.000000,4136.410156,4146.153809,4134.871582,4141.025879,4141.025879,4124.102539,4120.512695,4109.743652,4124.615234,4120.512695,4098.974121,4104.102539,4087.179443,4104.102539,0.000000,4.000000,,,,0.000000,4.000000,4.000000,4.000000,4.000000,4.000000,4.000000,4.000000,4.000000,4.000000,4.000000,4.000000,4.000000,4.000000,4.000000,100.000000
1602006657.319530,29.000000,0.000000,4128.717773,4142.051270,4134.871582,4138.461426,4139.487305,4129.230957,4125.128418,4112.820313,4145.128418,4131.794922,4101.538574,4104.615234,4092.307617,4105.641113,0.000000,4.000000,,,,0.000000,4.000000,4.000000,4.000000,4.000000,4.000000,4.000000,4.000000,4.000000,4.000000,4.000000,4.000000,4.000000,4.000000,4.000000,100.000000
1602006657.327411,30.000000,0.000000,4122.563965,4140.000000,4134.358887,4133.333496,4140.512695,4134.871582,4132.820313,4125.128418,4156.922852,4137.436035,4111.282227,4113.846191,4110.256348,4135.384766,0.000000,4.000000,,,,0.000000,4.000000,4.000000,4.000000,4.000000,4.000000,4.000000,4.000000,4.000000,4.000000,4.000000,4.000000,4.000000,4.000000,4.000000,100.000000
1602006657.335292,31.000000,0.000000,4135.384766,4140.000000,4136.922852,4135.897461,4140.512695,4137.436035,4145.641113,4147.692383,4160.000000,4154.871582,4141.538574,4129.743652,4136.410156,4156.922852,0.000000,4.000000,,,,0.000000,4.000000,4.000000,4.000000,4.000000,4.000000,4.000000,4.000000,4.000000,4.000000,4.000000,4.000000,4.000000,4.000000,4.000000,100.000000
1602006657.343173,32.000000,0.000000,4144.102539,4140.000000,4145.641113,4135.897461,4140.000000,4138.461426,4155.384766,4159.487305,4159.487305,4168.205078,4159.487305,4144.102539,4152.820313,4160.000000,0.000000,4.000000,,,,0.000000,4.000000,4.000000,4.000000,4.000000,4.000000,4.000000,4.000000,4.000000,4.000000,4.000000,4.000000,4.000000,4.000000,4.000000,100.000000
1602006657.351054,33.000000,0.000000,4139.487305,4138.461426,4152.820313,4125.128418,4139.487305,4142.051270,4154.358887,4155.897461,4157.436035,4153.333496,4147.179688,4152.307617,4147.179688,4156.410156,0.000000,4.000000,,,,0.000000,4.000000,4.000000,4.000000,4.000000,4.000000,4.000000,4.000000,4.000000,4.000000,4.000000,4.000000,4.000000,4.000000,4.000000,100.000000
1602006657.358934,34.000000,0.000000,4136.410156,4134.871582,4152.820313,4124.615234,4140.512695,4141.025879,4148.205078,4153.846191,4154.871582,4144.615234,4138.974121,4155.897461,4136.410156,4154.358887,0.000000,4.000000,,,,0.000000,4.000000,4.000000,4.000000,4.000000,4.000000,4.000000,4.000000,4.000000,4.000000,4.000000,4.000000,4.000000,4.000000,4.000000,100.000000
1602006657.366715,35.000000,0.000000,4140.512695,4136.410156,4153.846191,4135.384766,4139.487305,4130.769043,4140.512695,4147.179688,4148.205078,4155.384766,4144.102539,4158.461426,4140.000000,4155.384766,0.000000,4.000000,,,,0.000000,4.000000,4.000000,4.000000,4.000000,4.000000,4.000000,4.000000,4.000000,4.000000,4.000000,4.000000,4.000000,4.000000,4.000000,100.000000
1602006657.374596,36.000000,0.000000,4136.410156,4136.922852,4154.358887,4138.974121,4136.410156,4126.666504,4131.282227,4130.769043,4134.871582,4147.692383,4137.948730,4156.922852,4136.922852,4139.487305,0.000000,4.000000,,,,0.000000,4.000000,4.000000,4.000000,4.000000,4.000000,4.000000,4.000000,4.000000,4.000000,4.000000,4.000000,4.000000,4.000000,4.000000,100.000000
1602006657.382477,37.000000,0.000000,4120.512695,4126.153809,4144.615234,4131.282227,4136.922852,4133.333496,4128.205078,4120.000000,4129.743652,4116.922852,4127.692383,4152.307617,4110.769043,4115.384766,0.000000,4.000000,,,,0.000000,4.000000,4.000000,4.000000,4.000000,4.000000,4.000000,4.000000,4.000000,4.000000,4.000000,4.000000,4.000000,4.000000,4.000000,100.000000
1602006657.390358,38.000000,0.000000,4124.615234,4125.128418,4138.461426,4130.256348,4138.974121,4136.922852,4134.871582,4122.051270,4143.589844,4114.358887,4136.410156,4161.025879,4108.205078,4132.307617,0.000000,4.000000,,,,0.000000,4.000000,4.000000,4.000000,4.000000,4.000000,4.000000,4.000000,4.000000,4.000000,4.000000,4.000000,4.000000,4.000000,4.000000,100.000000
1602006657.398239,39.000000,0.000000,4142.051270,4136.410156,4140.000000,4133.333496,4138.461426,4134.358887,4140.512695,4122.051270,4155.384766,4149.230957,4151.794922,4172.307617,4142.051270,4167.692383,0.000000,4.000000,,,,0.000000,4.000000,4.000000,4.000000,4.000000,4.000000,4.000000,4.000000,4.000000,4.000000,4.000000,4.000000,4.000000,4.000000,4.000000,100.000000
1602006657.406120,40.000000,0.000000,4127.179688,4133.333496,4131.794922,4128.717773,4139.487305,4133.333496,4138.974121,4120.000000,4156.410156,4161.538574,4158.974121,4164.615234,4163.589844,4167.179688,0.000000,4.000000,,,,0.000000,4.000000,4.000000,4.000000,4.000000,4.000000,4.000000,4.000000,4.000000,4.000000,4.000000,4.000000,4.000000,4.000000,4.000000,100.000000
1602006657.414101,41.000000,0.000000,4102.563965,4122.051270,4121.538574,4123.077148,4143.589844,4140.000000,4140.000000,4127.692383,4162.051270,4145.641113,4161.025879,4152.820313,4172.820313,4161.538574,0.000000,4.000000,,,,0.000000,4.000000,4.000000,4.000000,4.000000,4.000000,4.000000,4.000000,4.000000,4.000000,4.000000,4.000000,4.000000,4.000000,4.000000,100.000000
1602006657.421982,42.000000,0.000000,4106.153809,4117.948730,4120.000000,4122.563965,4141.538574,4142.563965,4136.922852,4135.384766,4170.256348,4164.102539,4163.589844,4154.358887,4187.692383,4176.922852,0.000000,4.000000,,,,0.000000,4.000000,4.000000,4.000000,4.000000,4.000000,4.000000,4.000000,4.000000,4.000000,4.000000,4.000000,4.000000,4.000000,4.000000,100.000000
1602006657.429863,43.000000,0.000000,4106.666504,4109.743652,4127.692383,4120.512695,4136.410156,4132.820313,4126.153809,4140.512695,4176.410156,4193.846191,4169.230957,4163.077148,4189.743652,4175.384766,0.000000,4.000000,,,,0.000000,4.000000,4.000000,4.000000,4.000000,4.000000,4.000000,4.000000,4.000000,4.000000,4.000000,4.000000,4.000000,4.000000,4.000000,100.000000
1602006657.437744,44.000000,0.000000,4097.948730,4103.589844,4137.436035,4112.820313,4138.461426,4125.641113,4125.128418,4148.717773,4172.307617,4178.974121,4167.179688,4167.692383,4176.410156,4157.436035,0.000000,4.000000,,,,0.000000,4.000000,4.000000,4.000000,4.000000,4.000000,4.000000,4.000000,4.000000,4.000000,4.000000,4.000000,4.000000,4.000000,4.000000,100.000000
1602006657.445625,45.000000,0.000000,4106.666504,4106.153809,4142.051270,4109.743652,4140.000000,4129.230957,4131.794922,4146.666504,4158.974121,4162.563965,4158.974121,4169.743652,4172.820313,4154.871582,0.000000,4.000000,,,,0.000000,4.000000,4.000000,4.000000,4.000000,4.000000,4.000000,4.000000,4.000000,4.000000,4.000000,4.000000,4.000000,4.000000,4.000000,100.000000
1602006657.453506,46.000000,0.000000,4108.717773,4101.538574,4142.051270,4112.307617,4134.358887,4131.794922,4136.410156,4140.000000,4152.820313,4166.666504,4156.410156,4170.769043,4171.794922,4155.384766,0.000000,4.000000,,,,0.000000,4.000000,4.000000,4.000000,4.000000,4.000000,4.000000,4.000000,4.000000,4.000000,4.000000,4.000000,4.000000,4.000000,4.000000,100.000000
1602006657.461486,47.000000,0.000000,4088.205078,4092.820557,4136.410156,4111.794922,4130.256348,4135.897461,4143.589844,4138.974121,4153.846191,4142.563965,4152.307617,4167.692383,4164.615234,4150.769043,0.000000,4.000000,,,,0.000000,4.000000,4.000000,4.000000,4.000000,4.000000,4.000000,4.000000,4.000000,4.000000,4.000000,4.000000,4.000000,4.000000,4.000000,100.000000
1602006657.469367,48.000000,0.000000,4077.948730,4090.256348,4123.589844,4106.666504,4134.871582,4141.025879,4146.666504,4129.230957,4132.820313,4116.410156,4139.487305,4157.436035,4151.282227,4141.025879,0.000000,4.000000,,,,0.000000,4.000000,4.000000,4.000000,4.000000,4.000000,4.000000,4.000000,4.000000,4.000000,4.000000,4.000000,4.000000,4.000000,4.000000,100.000000
1602006657.477248,49.000000,0.000000,4084.615479,4089.230713,4114.871582,4103.077148,4138.461426,4137.948730,4140.000000,4111.794922,4111.794922,4127.692383,4132.820313,4144.102539,4136.922852,4124.615234,0.000000,4.000000,,,,0.000000,4.000000,4.000000,4.000000,4.000000,4.000000,4.000000,4.000000,4.000000,4.000000,4.000000,4.000000,4.000000,4.000000,4.000000,100.000000
1602006657.485129,50.000000,0.000000,4090.256348,4095.384521,4119.487305,4105.641113,4137.436035,4143.077148,4142.051270,4113.333496,4130.256348,4130.256348,4144.102539,4141.538574,4137.436035,4126.666504,0.000000,4.000000,,,,0.000000,4.000000,4.000000,4.000000,4.000000,4.000000,4.000000,4.000000,4.000000,4.000000,4.000000,4.000000,4.000000,4.000000,4.000000,100.000000
1602006657.493010,51.000000,0.000000,4088.718018,4106.153809,4123.589844,4113.333496,4138.974121,4156.922852,4154.871582,4130.256348,4156.922852,4129.230957,4155.384766,4153.846191,4150.769043,4149.230957,0.000000,4.000000,,,,0.000000,4.000000,4.000000,4.000000,4.000000,4.000000,4.000000,4.000000,4.000000,4.000000,4.000000,4.000000,4.000000,4.000000,4.000000,100.000000
1602006657.500891,52.000000,0.000000,4089.230713,4111.282227,4127.692383,4120.000000,4140.000000,4155.384766,4153.333496,4138.974121,4163.589844,4158.461426,4155.897461,4167.692383,4164.102539,4160.000000,0.000000,4.000000,,,,0.000000,4.000000,4.000000,4.000000,4.000000,4.000000,4.000000,4.000000,4.000000,4.000000,4.000000,4.000000,4.000000,4.000000,4.000000,100.000000
1602006657.508772,53.000000,0.000000,4098.974121,4111.794922,4136.410156,4122.051270,4137.436035,4140.512695,4141.025879,4140.512695,4167.179688,4181.538574,4148.717773,4168.717773,4173.333496,4153.333496,0.000000,4.000000,,,,0.000000,4.000000,4.000000,4.000000,4.000000,4.000000,4.000000,4.000000,4.000000,4.000000,4.000000,4.000000,4.000000,4.000000,4.000000,100.000000
1602006657.516753,54.000000,0.000000,4106.666504,4115.384766,4141.538574,4122.051270,4136.922852,4129.230957,4135.897461,4144.615234,4171.282227,4176.410156,4154.871582,4172.307617,4183.589844,4156.410156,0.000000,4.000000,,,,0.000000,4.000000,4.000000,4.000000,4.000000,4.000000,4.000000,4.000000,4.000000,4.000000,4.000000,4.000000,4.000000,4.000000,4.000000,100.000000
1602006657.524634,55.000000,0.000000,4111.282227,4121.538574,4147.692383,4126.153809,4141.025879,4131.282227,4136.410156,4152.820313,4169.743652,4168.717773,4181.025879,4191.282227,4195.897461,4182.051270,0.000000,4.000000,,,,0.000000,4.000000,4.000000,4.000000,4.000000,4.000000,4.000000,4.000000,4.000000,4.000000,4.000000,4.000000,4.000000,4.000000,4.000000,100.000000
1602006657.532515,56.000000,0.000000,4119.487305,4121.025879,4158.461426,4128.717773,4142.051270,4137.436035,4136.922852,4161.538574,4162.051270,4163.077148,4189.743652,4205.641113,4200.512695,4200.000000,0.000000,4.000000,,,,0.000000,4.000000,4.000000,4.000000,4.000000,4.000000,4.000000,4.000000,4.000000,4.000000,4.000000,4.000000,4.000000,4.000000,4.000000,100.000000
1602006657.540397,57.000000,0.000000,4116.922852,4109.743652,4158.461426,4117.948730,4139.487305,4134.871582,4141.538574,4155.384766,4139.487305,4152.820313,4175.897461,4198.974121,4193.846191,4190.256348,0.000000,4.000000,,,,0.000000,4.000000,4.000000,4.000000,4.000000,4.000000,4.000000,4.000000,4.000000,4.000000,4.000000,4.000000,4.000000,4.000000,4.000000,100.000000
1602006657.548278,58.000000,0.000000,4102.563965,4101.025879,4146.153809,4108.205078,4133.846191,4133.846191,4152.820313,4144.102539,4119.487305,4150.256348,4164.102539,4182.563965,4180.512695,4172.307617,0.000000,4.000000,,,,0.000000,4.000000,4.000000,4.000000,4.000000,4.000000,4.000000,4.000000,4.000000,4.000000,4.000000,4.000000,4.000000,4.000000,4.000000,100.000000
1602006657.556159,59.000000,0.000000,4088.718018,4095.384521,4130.256348,4102.563965,4125.128418,4142.051270,4156.410156,4138.461426,4120.000000,4138.974121,4151.794922,4171.794922,4165.641113,4157.948730,0.000000,4.000000,,,,0.000000,4.000000,4.000000,4.000000,4.000000,4.000000,4.000000,4.000000,4.000000,4.000000,4.000000,4.000000,4.000000,4.000000,4.000000,100.000000
1602006657.564040,60.000000,0.000000,4080.000000,4087.692383,4113.846191,4091.281982,4120.000000,4145.128418,4151.794922,4130.256348,4122.563965,4129.230957,4138.974121,4166.666504,4156.410156,4151.794922,0.000000,4.000000,,,,0.000000,4.000000,4.000000,4.000000,4.000000,4.000000,4.000000,4.000000,4.000000,4.000000,4.000000,4.000000,4.000000,4.000000,4.000000,100.000000
1602006657.571921,61.000000,0.000000,4081.538574,4090.769287,4112.307617,4090.769287,4129.230957,4147.179688,4151.794922,4125.641113,4129.230957,4140.000000,4147.692383,4165.128418,4161.538574,4163.077148,0.000000,4.000000,,,,0.000000,4.000000,4.000000,4.000000,4.000000,4.000000,4.000000,4.000000,4.000000,4.000000,4.000000,4.000000,4.000000,4.000000,4.000000,100.000000
1602006657.579802,62.000000,0.000000,4100.000000,4104.615234,4128.205078,4106.666504,4144.102539,4154.358887,4149.743652,4134.871582,4155.897461,4151.794922,4160.512695,4173.333496,4178.974121,4174.358887,0.000000,4.000000,,,,0.000000,4.000000,4.000000,4.000000,4.000000,4.000000,4.000000,4.000000,4.000000,4.000000,4.000000,4.000000,4.000000,4.000000,4.000000,100.000000
1602006657.587783,63.000000,0.000000,4112.820313,4116.410156,4138.974121,4117.436035,4145.641113,4151.794922,4140.512695,4143.077148,4174.871582,4164.102539,4153.333496,4184.615234,4186.153809,4171.282227,0.000000,4.000000,,,,0.000000,4.000000,4.000000,4.000000,4.000000,4.000000,4.000000,4.000000,4.000000,4.000000,4.000000,4.000000,4.000000,4.000000,4.000000,100.000000
1602006657.595664,64.000000,0.000000,4109.230957,4120.000000,4135.897461,4118.461426,4137.948730,4132.820313,4134.358887,4140.000000,4168.717773,4181.538574,4156.410156,4186.666504,4184.615234,4171.282227,793.000000,4.000000,,,,0.000000,4.000000,4.000000,4.000000,4.000000,4.000000,4.000000,4.000000,4.000000,4.000000,4.000000,4.000000,4.000000,4.000000,4.000000,100.000000
1602006657.603544,65.000000,0.000000,4106.666504,4120.000000,4129.230957,4121.025879,4136.922852,4121.538574,4135.384766,4139.487305,4168.205078,4185.641113,4177.436035,4180.000000,4190.256348,4173.846191,786.000000,4.000000,,,,0.000000,4.000000,4.000000,4.000000,4.000000,4.000000,4.000000,4.000000,4.000000,4.000000,4.000000,4.000000,4.000000,4.000000,4.000000,100.000000
1602006657.611425,66.000000,0.000000,4114.358887,4121.538574,4125.641113,4121.538574,4141.538574,4131.794922,4138.974121,4143.077148,4176.410156,4185.128418,4182.563965,4174.358887,4194.871582,4168.205078,847.000000,4.000000,,,,0.000000,4.000000,4.000000,4.000000,4.000000,4.000000,4.000000,4.000000,4.000000,4.000000,4.000000,4.000000,4.000000,4.000000,4.000000,100.000000
1602006657.619206,67.000000,0.000000,4122.051270,4123.077148,4129.743652,4121.025879,4138.461426,4140.000000,4139.487305,4140.000000,4162.051270,4187.179688,4165.641113,4170.256348,4183.077148,4165.128418,873.000000,4.000000,,,,0.000000,4.000000,4.000000,4.000000,4.000000,4.000000,4.000000,4.000000,4.000000,4.000000,4.000000,4.000000,4.000000,4.000000,4.000000,100.000000
1602006657.627087,68.000000,0.000000,4120.000000,4118.974121,4136.922852,4124.102539,4133.846191,4136.410156,4137.948730,4136.410156,4136.922852,4167.692383,4158.974121,4169.743652,4175.384766,4166.153809,814.000000,4.000000,,,,0.000000,4.000000,4.000000,4.000000,4.000000,4.000000,4.000000,4.000000,4.000000,4.000000,4.000000,4.000000,4.000000,4.000000,4.000000,100.000000
1602006657.634968,69.000000,0.000000,4116.922852,4116.410156,4140.000000,4123.077148,4136.922852,4133.333496,4138.974121,4138.461426,4131.282227,4139.487305,4170.256348,4171.282227,4185.641113,4172.307617,823.000000,4.000000,,,,0.000000,4.000000,4.000000,4.000000,4.000000,4.000000,4.000000,4.000000,4.000000,4.000000,4.000000,4.000000,4.000000,4.000000,4.000000,100.000000
1602006657.642849,70.000000,0.000000,4113.333496,4118.974121,4140.512695,4120.000000,4137.436035,4129.230957,4141.538574,4141.025879,4136.922852,4135.384766,4170.769043,4171.282227,4184.615234,4183.077148,757.000000,4.000000,,,,0.000000,4.000000,4.000000,4.000000,4.000000,4.000000,4.000000,4.000000,4.000000,4.000000,4.000000,4.000000,4.000000,4.000000,4.000000,100.000000
1602006657.650730,71.000000,0.000000,4105.641113,4117.436035,4138.461426,4118.461426,4131.794922,4120.512695,4141.025879,4138.974121,4135.384766,4145.128418,4153.846191,4171.282227,4169.230957,4180.000000,667.000000,4.000000,,,,0.000000,4.000000,4.000000,4.000000,4.000000,4.000000,4.000000,4.000000,4.000000,4.000000,4.000000,4.000000,4.000000,4.000000,4.000000,100.000000
1602006657.658611,72.000000,0.000000,4106.153809,4117.948730,4136.922852,4122.051270,4133.333496,4124.615234,4141.025879,4143.077148,4138.461426,4156.922852,4145.128418,4170.769043,4166.153809,4163.077148,779.000000,4.000000,,,,0.000000,4.000000,4.000000,4.000000,4.000000,4.000000,4.000000,4.000000,4.000000,4.000000,4.000000,4.000000,4.000000,4.000000,4.000000,100.000000
1602006657.666492,73.000000,0.000000,4112.820313,4125.128418,4140.000000,4126.153809,4138.974121,4136.922852,4141.538574,4151.794922,4151.282227,4171.794922,4157.436035,4169.230957,4171.794922,4156.922852,839.000000,4.000000,,,,0.000000,4.000000,4.000000,4.000000,4.000000,4.000000,4.000000,4.000000,4.000000,4.000000,4.000000,4.000000,4.000000,4.000000,4.000000,100.000000
1602006657.674372,74.000000,0.000000,4110.769043,4126.153809,4137.436035,4124.102539,4142.051270,4141.538574,4139.487305,4147.179688,4156.410156,4175.384766,4170.769043,4167.692383,4170.769043,4159.487305,876.000000,4.000000,,,,0.000000,4.000000,4.000000,4.000000,4.000000,4.000000,4.000000,4.000000,4.000000,4.000000,4.000000,4.000000,4.000000,4.000000,4.000000,100.000000
1602006657.682154,75.000000,0.000000,4103.589844,4120.512695,4123.077148,4121.538574,4138.461426,4141.538574,4137.948730,4141.025879,4152.820313,4166.666504,4171.282227,4164.615234,4168.205078,4156.410156,839.000000,4.000000,,,,0.000000,4.000000,4.000000,4.000000,4.000000,4.000000,4.000000,4.000000,4.000000,4.000000,4.000000,4.000000,4.000000,4.000000,4.000000,100.000000
1602006657.690034,76.000000,0.000000,4104.102539,4120.000000,4116.922852,4122.051270,4128.717773,4141.025879,4141.538574,4147.692383,4147.179688,4161.025879,4165.641113,4162.051270,4172.820313,4157.436035,766.000000,4.000000,,,,0.000000,4.000000,4.000000,4.000000,4.000000,4.000000,4.000000,4.000000,4.000000,4.000000,4.000000,4.000000,4.000000,4.000000,4.000000,100.000000
1602006657.697915,77.000000,0.000000,4114.871582,4121.025879,4129.743652,4122.051270,4129.230957,4140.000000,4150.256348,4154.358887,4141.538574,4154.871582,4165.128418,4167.692383,4172.307617,4167.692383,732.000000,4.000000,,,,0.000000,4.000000,4.000000,4.000000,4.000000,4.000000,4.000000,4.000000,4.000000,4.000000,4.000000,4.000000,4.000000,4.000000,4.000000,100.000000
1602006657.705796,78.000000,0.000000,4125.641113,4122.051270,4145.641113,4123.077148,4135.897461,4140.000000,4152.307617,4152.307617,4142.563965,4147.692383,4169.230957,4181.538574,4166.666504,4186.666504,876.000000,4.000000,,,,0.000000,4.000000,4.000000,4.000000,4.000000,4.000000,4.000000,4.000000,4.000000,4.000000,4.000000,4.000000,4.000000,4.000000,4.000000,100.000000
1602006657.713677,79.000000,0.000000,4122.563965,4122.563965,4153.846191,4124.102539,4132.307617,4138.461426,4143.589844,4154.871582,4153.333496,4160.000000,4171.794922,4190.256348,4175.384766,4200.512695,839.000000,4.000000,,,,0.000000,4.000000,4.000000,4.000000,4.000000,4.000000,4.000000,4.000000,4.000000,4.000000,4.000000,4.000000,4.000000,4.000000,4.000000,100.000000
1602006657.721558,80.000000,0.000000,4113.333496,4119.487305,4157.948730,4124.102539,4124.102539,4132.307617,4139.487305,4160.000000,4162.051270,4183.077148,4167.179688,4190.256348,4188.205078,4189.743652,766.000000,4.000000,,,,0.000000,4.000000,4.000000,4.000000,4.000000,4.000000,4.000000,4.000000,4.000000,4.000000,4.000000,4.000000,4.000000,4.000000,4.000000,100.000000
1602006657.729439,81.000000,0.000000,4109.743652,4112.820313,4152.820313,4124.102539,4125.128418,4123.589844,4135.384766,4153.846191,4158.974121,4177.948730,4155.384766,4183.589844,4170.769043,4172.307617,732.000000,4.000000,,,,0.000000,4.000000,4.000000,4.000000,4.000000,4.000000,4.000000,4.000000,4.000000,4.000000,4.000000,4.000000,4.000000,4.000000,4.000000,100.000000
1602006657.737220,82.000000,0.000000,4106.666504,4107.692383,4141.538574,4119.487305,4122.563965,4119.487305,4125.128418,4140.000000,4145.128418,4156.922852,4148.717773,4173.333496,4141.538574,4164.615234,876.000000,4.000000,,,,0.000000,4.000000,4.000000,4.000000,4.000000,4.000000,4.000000,4.000000,4.000000,4.000000,4.000000,4.000000,4.000000,4.000000,4.000000,100.000000
1602006657.745101,83.000000,0.000000,4102.563965,4106.666504,4135.897461,4114.358887,4113.333496,4123.589844,4124.102539,4135.384766,4130.256348,4149.230957,4153.846191,4168.717773,4136.922852,4156.922852,839.000000,4.000000,,,,0.000000,4.000000,4.000000,4.000000,4.000000,4.000000,4.000000,4.000000,4.000000,4.000000,4.000000,4.000000,4.000000,4.000000,4.000000,100.000000
1602006657.752982,84.000000,0.000000,4102.051270,4104.102539,4137.436035,4112.820313,4116.922852,4123.589844,4130.256348,4137.948730,4129.230957,4142.051270,4157.948730,4166.666504,4143.589844,4151.282227,766.000000,4.000000,,,,0.000000,4.000000,4.000000,4.000000,4.000000,4.000000,4.000000,4.000000,4.000000,4.000000,4.000000,4.000000,4.000000,4.000000,4.000000,100.000000
1602006657.760863,85.000000,0.000000,4103.077148,4102.563965,4135.897461,4116.410156,4122.051270,4119.487305,4131.794922,4137.436035,4133.846191,4136.922852,4154.871582,4157.948730,4138.461426,4154.871582,732.000000,4.000000,,,,0.000000,4.000000,4.000000,4.000000,4.000000,4.000000,4.000000,4.000000,4.000000,4.000000,4.000000,4.000000,4.000000,4.000000,4.000000,100.000000
1602006657.768744,86.000000,0.000000,4106.153809,4111.282227,4133.846191,4120.512695,4121.025879,4127.179688,4134.871582,4137.436035,4129.743652,4140.512695,4154.358887,4150.256348,4137.948730,4154.358887,876.000000,4.000000,,,,0.000000,4.000000,4.000000,4.000000,4.000000,4.000000,4.000000,4.000000,4.000000,4.000000,4.000000,4.000000,4.000000,4.000000,4.000000,100.000000
1602006657.776625,87.000000,0.000000,4110.769043,4123.077148,4136.410156,4123.077148,4128.717773,4137.948730,4137.948730,4140.512695,4124.102539,4136.410156,4156.922852,4156.922852,4151.282227,4154.358887,839.000000,4.000000,,,,0.000000,4.000000,4.000000,4.000000,4.000000,4.000000,4.000000,4.000000,4.000000,4.000000,4.000000,4.000000,4.000000,4.000000,4.000000,100.000000
1602006657.784506,88.000000,0.000000,4109.230957,4125.128418,4141.538574,4123.589844,4136.410156,4139.487305,4132.307617,4142.051270,4128.205078,4142.051270,4154.871582,4168.717773,4156.922852,4155.384766,766.000000,4.000000,,,,0.000000,4.000000,4.000000,4.000000,4.000000,4.000000,4.000000,4.000000,4.000000,4.000000,4.000000,4.000000,4.000000,4.000000,4.000000,100.000000
1602006657.792387,89.000000,0.000000,4105.128418,4119.487305,4142.563965,4123.077148,4128.205078,4134.358887,4126.666504,4139.487305,4133.846191,4159.487305,4153.846191,4169.230957,4146.666504,4143.077148,732.000000,4.000000,,,,0.000000,4.000000,4.000000,4.000000,4.000000,4.000000,4.000000,4.000000,4.000000,4.000000,4.000000,4.000000,4.000000,4.000000,4.000000,100.000000
1602006657.800368,90.000000,0.000000,4106.153809,4121.025879,4140.512695,4124.102539,4120.000000,4129.743652,4125.641113,4137.948730,4139.487305,4164.102539,4157.436035,4160.000000,4137.436035,4134.871582,876.000000,4.000000,,,,0.000000,4.000000,4.000000,4.000000,4.000000,4.000000,4.000000,4.000000,4.000000,4.000000,4.000000,4.000000,4.000000,4.000000,4.000000,100.000000
1602006657.808249,91.000000,0.000000,4108.717773,4121.025879,4139.487305,4123.077148,4123.589844,4122.563965,4121.538574,4136.922852,4139.487305,4152.307617,4150.769043,4152.307617,4137.948730,4139.487305,839.000000,4.000000,,,,0.000000,4.000000,4.000000,4.000000,4.000000,4.000000,4.000000,4.000000,4.000000,4.000000,4.000000,4.000000,4.000000,4.000000,4.000000,100.000000
1602006657.816130,92.000000,0.000000,4105.128418,4109.230957,4138.461426,4121.538574,4119.487305,4114.871582,4111.282227,4129.743652,4126.666504,4129.230957,4138.461426,4151.794922,4136.922852,4143.077148,766.000000,4.000000,,,,0.000000,4.000000,4.000000,4.000000,4.000000,4.000000,4.000000,4.000000,4.000000,4.000000,4.000000,4.000000,4.000000,4.000000,4.000000,100.000000
1602006657.824011,93.000000,0.000000,4104.102539,4109.743652,4136.410156,4122.563965,4119.487305,4119.487305,4110.256348,4127.692383,4120.512695,4115.384766,4148.205078,4155.897461,4135.897461,4146.666504,732.000000,4.000000,,,,0.000000,4.000000,4.000000,4.000000,4.000000,4.000000,4.000000,4.000000,4.000000,4.000000,4.000000,4.000000,4.000000,4.000000,4.000000,100.000000
1602006657.831892,94.000000,0.000000,4109.230957,4122.051270,4137.948730,4123.589844,4128.205078,4123.589844,4121.025879,4134.358887,4121.538574,4128.205078,4165.128418,4157.436035,4144.102539,4150.769043,876.000000,4.000000,,,,0.000000,4.000000,4.000000,4.000000,4.000000,4.000000,4.000000,4.000000,4.000000,4.000000,4.000000,4.000000,4.000000,4.000000,4.000000,100.000000
1602006657.839773,95.000000,0.000000,4107.179688,4124.102539,4139.487305,4123.589844,4124.102539,4113.846191,4125.128418,4136.922852,4125.128418,4142.051270,4163.589844,4158.461426,4152.820313,4154.871582,839.000000,4.000000,,,,0.000000,4.000000,4.000000,4.000000,4.000000,4.000000,4.000000,4.000000,4.000000,4.000000,4.000000,4.000000,4.000000,4.000000,4.000000,100.000000
1602006657.847655,96.000000,0.000000,4105.128418,4122.051270,4138.974121,4125.128418,4124.102539,4109.743652,4122.051270,4136.410156,4138.461426,4146.153809,4162.051270,4163.589844,4156.410156,4156.410156,766.000000,4.000000,,,,0.000000,4.000000,4.000000,4.000000,4.000000,4.000000,4.000000,4.000000,4.000000,4.000000,4.000000,4.000000,4.000000,4.000000,4.000000,100.000000
1602006657.855536,97.000000,0.000000,4112.307617,4127.692383,4140.512695,4127.179688,4136.922852,4126.153809,4124.102539,4137.948730,4146.153809,4157.948730,4171.794922,4161.538574,4156.410156,4149.230957,732.000000,4.000000,,,,0.000000,4.000000,4.000000,4.000000,4.000000,4.000000,4.000000,4.000000,4.000000,4.000000,4.000000,4.000000,4.000000,4.000000,4.000000,100.000000
1602006657.863417,98.000000,0.000000,4109.743652,4127.179688,4136.410156,4125.641113,4135.384766,4132.820313,4126.153809,4132.820313,4133.333496,4146.666504,4168.205078,4147.179688,4150.769043,4138.461426,876.000000,4.000000,,,,0.000000,4.000000,4.000000,4.000000,4.000000,4.000000,4.000000,4.000000,4.000000,4.000000,4.000000,4.000000,4.000000,4.000000,4.000000,100.000000
1602006657.871198,99.000000,0.000000,4095.897461,4118.974121,4124.615234,4122.051270,4125.641113,4123.589844,4120.512695,4126.666504,4124.102539,4117.948730,4152.307617,4140.512695,4137.436035,4139.487305,839.000000,4.000000,,,,0.000000,4.000000,4.000000,4.000000,4.000000,4.000000,4.000000,4.000000,4.000000,4.000000,4.000000,4.000000,4.000000,4.000000,4.000000,100.000000
1602006657.879078,100.000000,0.000000,4095.897461,4119.487305,4120.512695,4122.051270,4133.846191,4126.666504,4123.589844,4138.974121,4134.358887,4136.410156,4154.358887,4151.794922,4138.461426,4149.230957,766.000000,4.000000,,,,0.000000,4.000000,4.000000,4.000000,4.000000,4.000000,4.000000,4.000000,4.000000,4.000000,4.000000,4.000000,4.000000,4.000000,4.000000,100.000000
1602006657.886959,101.000000,0.000000,4113.333496,4126.666504,4133.846191,4129.743652,4143.077148,4140.512695,4135.897461,4157.436035,4143.589844,4173.846191,4178.461426,4166.153809,4159.487305,4163.077148,732.000000,4.000000,,,,0.000000,4.000000,4.000000,4.000000,4.000000,4.000000,4.000000,4.000000,4.000000,4.000000,4.000000,4.000000,4.000000,4.000000,4.000000,100.000000
1602006657.894940,102.000000,0.000000,4128.205078,4132.820313,4151.282227,4138.974121,4136.410156,4137.948730,4135.384766,4155.897461,4145.641113,4175.384766,4189.230957,4170.256348,4168.205078,4175.897461,876.000000,4.000000,,,,0.000000,4.000000,4.000000,4.000000,4.000000,4.000000,4.000000,4.000000,4.000000,4.000000,4.000000,4.000000,4.000000,4.000000,4.000000,100.000000
1602006657.902820,103.000000,0.000000,4128.717773,4130.256348,4151.794922,4135.897461,4132.820313,4118.461426,4121.538574,4139.487305,4141.025879,4157.948730,4178.974121,4162.051270,4155.384766,4176.410156,839.000000,4.000000,,,,0.000000,4.000000,4.000000,4.000000,4.000000,4.000000,4.000000,4.000000,4.000000,4.000000,4.000000,4.000000,4.000000,4.000000,4.000000,100.000000
1602006657.910701,104.000000,0.000000,4115.384766,4122.051270,4141.538574,4124.102539,4136.922852,4111.282227,4121.025879,4135.384766,4136.922852,4145.128418,4166.153809,4155.897461,4149.743652,4167.692383,766.000000,4.000000,,,,0.000000,4.000000,4.000000,4.000000,4.000000,4.000000,4.000000,4.000000,4.000000,4.000000,4.000000,4.000000,4.000000,4.000000,4.000000,100.000000
1602006657.918482,105.000000,0.000000,4105.641113,4119.487305,4137.436035,4121.025879,4133.846191,4127.179688,4132.820313,4141.025879,4139.487305,4141.538574,4157.948730,4157.948730,4155.897461,4161.025879,732.000000,4.000000,,,,0.000000,4.000000,4.000000,4.000000,4.000000,4.000000,4.000000,4.000000,4.000000,4.000000,4.000000,4.000000,4.000000,4.000000,4.000000,100.000000
1602006657.926364,106.000000,0.000000,4107.179688,4119.487305,4138.461426,4123.589844,4124.102539,4131.794922,4132.307617,4138.461426,4140.512695,4143.589844,4156.410156,4154.358887,4151.794922,4148.717773,876.000000,4.000000,,,,0.000000,4.000000,4.000000,4.000000,4.000000,4.000000,4.000000,4.000000,4.000000,4.000000,4.000000,4.000000,4.000000,4.000000,4.000000,100.000000
1602006657.934245,107.000000,0.000000,4109.743652,4118.974121,4137.436035,4119.487305,4124.102539,4119.487305,4123.077148,4133.333496,4136.922852,4144.615234,4159.487305,4150.256348,4141.025879,4143.589844,839.000000,4.000000,,,,0.000000,4.000000,4.000000,4.000000,4.000000,4.000000,4.000000,4.000000,4.000000,4.000000,4.000000,4.000000,4.000000,4.000000,4.000000,100.000000
1602006657.942126,108.000000,0.000000,4114.358887,4121.538574,4136.410156,4120.000000,4135.897461,4126.153809,4128.205078,4135.897461,4134.871582,4143.589844,4158.461426,4154.871582,4140.512695,4160.512695,766.000000,4.000000,,,,0.000000,4.000000,4.000000,4.000000,4.000000,4.000000,4.000000,4.000000,4.000000,4.000000,4.000000,4.000000,4.000000,4.000000,4.000000,100.000000
1602006657.950007,109.000000,0.000000,4126.153809,4124.615234,4140.512695,4126.666504,4139.487305,4146.153809,4135.897461,4140.000000,4130.256348,4145.641113,4157.436035,4158.461426,4144.615234,4167.692383,732.000000,4.000000,,,,0.000000,4.000000,4.000000,4.000000,4.000000,4.000000,4.000000,4.000000,4.000000,4.000000,4.000000,4.000000,4.000000,4.000000,4.000000,100.000000
1602006657.957888,110.000000,0.000000,4129.743652,4123.077148,4139.487305,4126.666504,4128.717773,4138.974121,4126.153809,4136.922852,4122.563965,4143.077148,4157.948730,4155.897461,4141.538574,4149.230957,876.000000,4.000000,,,,0.000000,4.000000,4.000000,4.000000,4.000000,4.000000,4.000000,4.000000,4.000000,4.000000,4.000000,4.000000,4.000000,4.000000,4.000000,100.000000
1602006657.965769,111.000000,0.000000,4121.538574,4120.512695,4138.461426,4123.077148,4123.589844,4121.025879,4119.487305,4135.384766,4121.538574,4139.487305,4159.487305,4154.871582,4139.487305,4144.102539,839.000000,4.000000,,,,0.000000,4.000000,4.000000,4.000000,4.000000,4.000000,4.000000,4.000000,4.000000,4.000000,4.000000,4.000000,4.000000,4.000000,4.000000,100.000000
1602006657.973651,112.000000,0.000000,4120.512695,4123.589844,4142.563965,4126.153809,4131.282227,4127.692383,4130.256348,4144.615234,4125.128418,4140.512695,4157.436035,4156.410156,4150.256348,4159.487305,766.000000,4.000000,,,,0.000000,4.000000,4.000000,4.000000,4.000000,4.000000,4.000000,4.000000,4.000000,4.000000,4.000000,4.000000,4.000000,4.000000,4.000000,100.000000
1602006657.981532,113.000000,0.000000,4127.692383,4126.153809,4142.051270,4131.794922,4136.410156,4135.897461,4139.487305,4152.307617,4130.256348,4136.410156,4152.820313,4155.897461,4152.307617,4154.871582,732.000000,4.000000,,,,0.000000,4.000000,4.000000,4.000000,4.000000,4.000000,4.000000,4.000000,4.000000,4.000000,4.000000,4.000000,4.000000,4.000000,4.000000,100.000000
1602006657.989313,114.000000,0.000000,4126.666504,4128.205078,4141.025879,4134.871582,4132.820313,4126.666504,4133.846191,4153.333496,4140.000000,4142.051270,4158.461426,4151.794922,4144.102539,4135.897461,876.000000,4.000000,,,,0.000000,4.000000,4.000000,4.000000,4.000000,4.000000,4.000000,4.000000,4.000000,4.000000,4.000000,4.000000,4.000000,4.000000,4.000000,100.000000
1602006657.997194,115.000000,0.000000,4117.948730,4133.846191,4146.153809,4135.897461,4130.769043,4120.512695,4130.256348,4154.871582,4144.615234,4164.102539,4170.256348,4150.256348,4145.128418,4140.512695,839.000000,4.000000,,,,0.000000,4.000000,4.000000,4.000000,4.000000,4.000000,4.000000,4.000000,4.000000,4.000000,4.000000,4.000000,4.000000,4.000000,4.000000,100.000000
1602006658.005075,116.000000,0.000000,4122.563965,4137.436035,4150.769043,4135.897461,4135.384766,4118.974121,4135.384766,4156.922852,4138.974121,4166.666504,4175.384766,4157.436035,4156.410156,4160.000000,766.000000,4.000000,,,,0.000000,4.000000,4.000000,4.000000,4.000000,4.000000,4.000000,4.000000,4.000000,4.000000,4.000000,4.000000,4.000000,4.000000,4.000000,100.000000
1602006658.012955,117.000000,0.000000,4143.589844,4138.974121,4154.871582,4135.897461,4141.025879,4122.051270,4140.000000,4157.436035,4143.077148,4150.769043,4178.461426,4169.743652,4165.641113,4173.846191,732.000000,4.000000,,,,0.000000,4.000000,4.000000,4.000000,4.000000,4.000000,4.000000,4.000000,4.000000,4.000000,4.000000,4.000000,4.000000,4.000000,4.000000,100.000000
1602006658.020836,118.000000,0.000000,4142.563965,4133.846191,4155.897461,4130.256348,4136.410156,4129.743652,4134.358887,4150.256348,4138.461426,4151.794922,4171.282227,4171.282227,4162.563965,4172.820313,876.000000,4.000000,,,,0.000000,4.000000,4.000000,4.000000,4.000000,4.000000,4.000000,4.000000,4.000000,4.000000,4.000000,4.000000,4.000000,4.000000,4.000000,100.000000
1602006658.028717,119.000000,0.000000,4115.897461,4123.077148,4145.641113,4122.051270,4124.102539,4126.666504,4122.051270,4131.794922,4107.692383,4148.205078,4149.230957,4155.897461,4145.128418,4151.282227,839.000000,4.000000,,,,0.000000,4.000000,4.000000,4.000000,4.000000,4.000000,4.000000,4.000000,4.000000,4.000000,4.000000,4.000000,4.000000,4.000000,4.000000,100.000000
1602006658.036598,120.000000,0.000000,4113.333496,4118.461426,4136.410156,4121.538574,4120.000000,4118.974121,4119.487305,4123.077148,4095.384521,4120.512695,4148.205078,4143.589844,4131.794922,4132.820313,766.000000,4.000000,,,,0.000000,4.000000,4.000000,4.000000,4.000000,4.000000,4.000000,4.000000,4.000000,4.000000,4.000000,4.000000,4.000000,4.000000,4.000000,100.000000
1602006658.044479,121.000000,0.000000,4129.743652,4122.563965,4141.025879,4124.615234,4125.128418,4124.102539,4127.179688,4133.846191,4115.384766,4121.025879,4157.436035,4142.563965,4135.384766,4141.538574,732.000000,4.000000,,,,0.000000,4.000000,4.000000,4.000000,4.000000,4.000000,4.000000,4.000000,4.000000,4.000000,4.000000,4.000000,4.000000,4.000000,4.000000,100.000000
1602006658.052460,122.000000,0.000000,4121.538574,4124.102539,4143.589844,4124.615234,4124.615234,4126.153809,4130.256348,4141.025879,4128.717773,4157.948730,4143.589844,4143.589844,4138.461426,4151.794922,876.000000,4.000000,,,,0.000000,4.000000,4.000000,4.000000,4.000000,4.000000,4.000000,4.000000,4.000000,4.000000,4.000000,4.000000,4.000000,4.000000,4.000000,100.000000
1602006658.060340,123.000000,0.000000,4105.128418,4119.487305,4140.512695,4122.051270,4122.051270,4120.512695,4124.102539,4136.410156,4120.512695,4160.512695,4138.974121,4145.128418,4133.846191,4143.077148,839.000000,4.000000,,,,0.000000,4.000000,4.000000,4.000000,4.000000,4.000000,4.000000,4.000000,4.000000,4.000000,4.000000,4.000000,4.000000,4.000000,4.000000,100.000000
1602006658.068221,124.000000,0.000000,4106.153809,4112.820313,4139.487305,4119.487305,4116.922852,4117.948730,4120.512695,4133.333496,4107.692383,4123.589844,4155.384766,4151.282227,4129.743652,4140.000000,766.000000,4.000000,,,,0.000000,4.000000,4.000000,4.000000,4.000000,4.000000,4.000000,4.000000,4.000000,4.000000,4.000000,4.000000,4.000000,4.000000,4.000000,100.000000
1602006658.076102,125.000000,0.000000,4109.743652,4109.230957,4140.000000,4120.512695,4111.282227,4116.922852,4122.563965,4134.871582,4106.153809,4117.436035,4161.538574,4152.820313,4126.153809,4148.205078,732.000000,4.000000,,,,0.000000,4.000000,4.000000,4.000000,4.000000,4.000000,4.000000,4.000000,4.000000,4.000000,4.000000,4.000000,4.000000,4.000000,4.000000,100.000000
1602006658.083983,126.000000,0.000000,4106.153809,4109.743652,4136.922852,4118.461426,4117.436035,4118.461426,4124.102539,4136.410156,4118.461426,4138.974121,4149.230957,4145.128418,4123.077148,4147.692383,876.000000,4.000000,,,,0.000000,4.000000,4.000000,4.000000,4.000000,4.000000,4.000000,4.000000,4.000000,4.000000,4.000000,4.000000,4.000000,4.000000,4.000000,100.000000
1602006658.091764,127.000000,0.000000,4104.615234,4106.666504,4125.641113,4111.282227,4125.641113,4123.589844,4121.538574,4135.897461,4132.820313,4137.436035,4142.563965,4133.846191,4121.538574,4142.051270,839.000000,4.000000,,,,0.000000,4.000000,4.000000,4.000000,4.000000,4.000000,4.000000,4.000000,4.000000,4.000000,4.000000,4.000000,4.000000,4.000000,4.000000,100.000000
1602006658.099644,128.000000,0.000000,4103.077148,4109.743652,4117.436035,4113.333496,4124.615234,4129.230957,4123.077148,4135.897461,4140.000000,4142.051270,4152.307617,4131.282227,4129.743652,4140.512695,766.000000,4.000000,,,,0.000000,4.000000,4.000000,4.000000,4.000000,4.000000,4.000000,4.000000,4.000000,4.000000,4.000000,4.000000,4.000000,4.000000,4.000000,100.000000
1602006658.107525,0.000000,0.000000,4105.128418,4121.025879,4122.051270,4123.589844,4128.717773,4134.871582,4132.820313,4139.487305,4136.410156,4153.333496,4155.384766,4135.897461,4142.563965,4137.436035,793.000000,4.000000,,,,0.000000,4.000000,4.000000,4.000000,4.000000,4.000000,4.000000,4.000000,4.000000,4.000000,4.000000,4.000000,4.000000,4.000000,4.000000,100.000000
1602006658.115406,1.000000,0.000000,4111.794922,4126.666504,4126.153809,4125.641113,4136.922852,4139.487305,4135.897461,4137.948730,4112.307617,4134.871582,4141.025879,4136.410156,4141.025879,4135.897461,786.000000,4.000000,,,,0.000000,4.000000,4.000000,4.000000,4.000000,4.000000,4.000000,4.000000,4.000000,4.000000,4.000000,4.000000,4.000000,4.000000,4.000000,100.000000
1602006658.123287,2.000000,0.000000,4112.820313,4126.153809,4126.153809,4124.615234,4133.846191,4136.410156,4128.717773,4127.179688,4096.410156,4118.461426,4133.846191,4132.820313,4129.230957,4137.948730,847.000000,4.000000,,,,0.000000,4.000000,4.000000,4.000000,4.000000,4.000000,4.000000,4.000000,4.000000,4.000000,4.000000,4.000000,4.000000,4.000000,4.000000,100.000000
1602006658.131168,3.000000,0.000000,4107.692383,4126.153809,4126.666504,4123.077148,4124.102539,4126.666504,4122.051270,4118.974121,4103.077148,4127.179688,4142.051270,4136.410156,4127.692383,4138.461426,873.000000,4.000000,,,,0.000000,4.000000,4.000000,4.000000,4.000000,4.000000,4.000000,4.000000,4.000000,4.000000,4.000000,4.000000,4.000000,4.000000,4.000000,100.000000
1602006658.138949,4.000000,0.000000,4113.333496,4124.615234,4132.307617,4121.025879,4121.025879,4118.974121,4123.077148,4126.666504,4106.666504,4130.256348,4147.692383,4149.230957,4136.922852,4143.589844,814.000000,4.000000,,,,0.000000,4.000000,4.000000,4.000000,4.000000,4.000000,4.000000,4.000000,4.000000,4.000000,4.000000,4.000000,4.000000,4.000000,4.000000,100.000000
1602006658.146831,5.000000,0.000000,4125.641113,4125.641113,4148.717773,4129.743652,4125.128418,4121.538574,4128.205078,4138.461426,4113.333496,4129.743652,4158.974121,4161.025879,4142.563965,4158.974121,823.000000,4.000000,,,,0.000000,4.000000,4.000000,4.000000,4.000000,4.000000,4.000000,4.000000,4.000000,4.000000,4.000000,4.000000,4.000000,4.000000,4.000000,100.000000
1602006658.154712,6.000000,0.000000,4128.205078,4128.205078,4157.948730,4137.436035,4132.307617,4127.179688,4129.743652,4139.487305,4127.692383,4137.948730,4169.230957,4160.512695,4140.000000,4162.563965,757.000000,4.000000,,,,0.000000,4.000000,4.000000,4.000000,4.000000,4.000000,4.000000,4.000000,4.000000,4.000000,4.000000,4.000000,4.000000,4.000000,4.000000,100.000000
1602006658.162593,7.000000,0.000000,4118.974121,4123.589844,4144.102539,4127.179688,4135.384766,4130.256348,4124.102539,4134.871582,4130.256348,4137.436035,4155.897461,4153.333496,4136.410156,4147.692383,666.000000,4.000000,,,,0.000000,4.000000,4.000000,4.000000,4.000000,4.000000,4.000000,4.000000,4.000000,4.000000,4.000000,4.000000,4.000000,4.000000,4.000000,100.000000
1602006658.170474,8.000000,0.000000,4111.282227,4118.461426,4129.743652,4120.512695,4136.410156,4136.410156,4122.563965,4134.871582,4127.179688,4138.461426,4140.512695,4151.794922,4134.358887,4135.384766,779.000000,4.000000,,,,0.000000,4.000000,4.000000,4.000000,4.000000,4.000000,4.000000,4.000000,4.000000,4.000000,4.000000,4.000000,4.000000,4.000000,4.000000,100.000000
1602006658.178355,9.000000,0.000000,4106.666504,4114.871582,4128.717773,4125.128418,4138.461426,4140.000000,4125.128418,4132.307617,4127.179688,4144.102539,4141.538574,4153.333496,4126.666504,4127.692383,839.000000,4.000000,,,,0.000000,4.000000,4.000000,4.000000,4.000000,4.000000,4.000000,4.000000,4.000000,4.000000,4.000000,4.000000,4.000000,4.000000,4.000000,100.000000
1602006658.186236,10.000000,0.000000,4101.538574,4110.769043,4124.615234,4117.948730,4132.820313,4132.820313,4123.077148,4125.641113,4120.000000,4137.948730,4137.436035,4150.256348,4116.922852,4117.436035,1172.000000,4.000000,,,,0.000000,4.000000,4.000000,4.000000,4.000000,4.000000,4.000000,4.000000,4.000000,4.000000,4.000000,4.000000,4.000000,4.000000,4.000000,100.000000
1602006658.194118,11.000000,0.000000,4109.230957,4114.871582,4118.974121,4111.282227,4123.589844,4123.077148,4123.077148,4125.641113,4108.717773,4127.179688,4137.948730,4150.769043,4121.538574,4116.922852,790.000000,4.000000,,,,0.000000,4.000000,4.000000,4.000000,4.000000,4.000000,4.000000,4.000000,4.000000,4.000000,4.000000,4.000000,4.000000,4.000000,4.000000,100.000000
1602006658.201999,12.000000,0.000000,4118.461426,4124.615234,4129.230957,4123.077148,4121.538574,4120.512695,4125.128418,4126.666504,4104.615234,4116.410156,4152.820313,4156.922852,4136.410156,4130.256348,766.000000,4.000000,,,,0.000000,4.000000,4.000000,4.000000,4.000000,4.000000,4.000000,4.000000,4.000000,4.000000,4.000000,4.000000,4.000000,4.000000,4.000000,100.000000
1602006658.209780,13.000000,0.000000,4113.846191,4127.179688,4140.512695,4129.230957,4119.487305,4120.512695,4123.589844,4123.077148,4110.256348,4118.461426,4155.897461,4163.077148,4141.025879,4146.666504,732.000000,4.000000,,,,0.000000,4.000000,4.000000,4.000000,4.000000,4.000000,4.000000,4.000000,4.000000,4.000000,4.000000,4.000000,4.000000,4.000000,4.000000,100.000000
1602006658.217660,14.000000,0.000000,4114.358887,4128.717773,4137.948730,4125.128418,4114.871582,4123.589844,4125.128418,4122.051270,4122.051270,4145.128418,4150.769043,4167.692383,4137.948730,4155.897461,1172.000000,4.000000,,,,0.000000,4.000000,4.000000,4.000000,4.000000,4.000000,4.000000,4.000000,4.000000,4.000000,4.000000,4.000000,4.000000,4.000000,4.000000,100.000000
1602006658.225441,15.000000,0.000000,4127.692383,4128.205078,4132.307617,4126.666504,4117.948730,4128.205078,4129.743652,4124.615234,4129.230957,4161.025879,4156.410156,4168.205078,4140.512695,4151.282227,790.000000,4.000000,,,,0.000000,4.000000,4.000000,4.000000,4.000000,4.000000,4.000000,4.000000,4.000000,4.000000,4.000000,4.000000,4.000000,4.000000,4.000000,100.000000
1602006658.233322,16.000000,0.000000,4125.128418,4117.948730,4126.666504,4120.512695,4125.641113,4126.666504,4127.179688,4124.615234,4126.666504,4144.102539,4153.846191,4160.512695,4139.487305,4139.487305,0.000000,4.000000,,,,0.000000,4.000000,4.000000,4.000000,4.000000,4.000000,4.000000,4.000000,4.000000,4.000000,4.000000,4.000000,4.000000,4.000000,4.000000,100.000000
1602006658.241202,17.000000,0.000000,4108.205078,4106.666504,4120.512695,4107.692383,4126.666504,4119.487305,4121.538574,4121.538574,4128.205078,4130.256348,4141.538574,4151.794922,4128.205078,4135.384766,0.000000,4.000000,,,,0.000000,4.000000,4.000000,4.000000,4.000000,4.000000,4.000000,4.000000,4.000000,4.000000,4.000000,4.000000,4.000000,4.000000,4.000000,100.000000
1602006658.249183,18.000000,0.000000,4105.128418,4104.102539,4126.666504,4108.205078,4127.179688,4118.974121,4121.538574,4125.128418,4136.410156,4134.871582,4141.538574,4155.897461,4123.589844,4141.025879,0.000000,4.000000,,,,0.000000,4.000000,4.000000,4.000000,4.000000,4.000000,4.000000,4.000000,4.000000,4.000000,4.000000,4.000000,4.000000,4.000000,4.000000,100.000000
1602006658.256964,19.000000,0.000000,4108.717773,4105.128418,4140.512695,4111.794922,4134.358887,4129.230957,4128.717773,4134.358887,4141.025879,4128.717773,4145.128418,4168.205078,4132.820313,4142.051270,0.000000,4.000000,,,,0.000000,4.000000,4.000000,4.000000,4.000000,4.000000,4.000000,4.000000,4.000000,4.000000,4.000000,4.000000,4.000000,4.000000,4.000000,100.000000
1602006658.264844,20.000000,0.000000,4102.563965,4105.128418,4138.461426,4111.282227,4137.948730,4140.000000,4134.871582,4138.461426,4138.974121,4113.846191,4142.563965,4166.666504,4138.974121,4137.436035,0.000000,4.000000,,,,0.000000,4.000000,4.000000,4.000000,4.000000,4.000000,4.000000,4.000000,4.000000,4.000000,4.000000,4.000000,4.000000,4.000000,4.000000,100.000000
1602006658.272625,21.000000,0.000000,4091.794922,4110.256348,4125.641113,4117.948730,4137.948730,4145.641113,4134.871582,4138.974121,4136.410156,4121.025879,4140.000000,4155.384766,4136.410156,4137.948730,0.000000,4.000000,,,,0.000000,4.000000,4.000000,4.000000,4.000000,4.000000,4.000000,4.000000,4.000000,4.000000,4.000000,4.000000,4.000000,4.000000,4.000000,100.000000
1602006658.280506,22.000000,0.000000,4094.871826,4118.974121,4120.512695,4123.589844,4135.384766,4145.641113,4134.358887,4141.025879,4142.051270,4148.717773,4137.436035,4152.820313,4135.897461,4137.948730,0.000000,4.000000,,,,0.000000,4.000000,4.000000,4.000000,4.000000,4.000000,4.000000,4.000000,4.000000,4.000000,4.000000,4.000000,4.000000,4.000000,4.000000,100.000000
1602006658.288386,23.000000,0.000000,4108.205078,4122.563965,4121.538574,4118.974121,4128.717773,4141.538574,4136.410156,4142.563965,4145.128418,4165.641113,4133.846191,4155.897461,4137.436035,4133.846191,0.000000,4.000000,,,,0.000000,4.000000,4.000000,4.000000,4.000000,4.000000,4.000000,4.000000,4.000000,4.000000,4.000000,4.000000,4.000000,4.000000,4.000000,100.000000
1602006658.296267,24.000000,0.000000,4109.743652,4123.589844,4121.538574,4117.948730,4123.589844,4138.974121,4134.358887,4141.025879,4137.436035,4156.922852,4134.358887,4157.948730,4139.487305,4141.538574,0.000000,4.000000,,,,0.000000,4.000000,4.000000,4.000000,4.000000,4.000000,4.000000,4.000000,4.000000,4.000000,4.000000,4.000000,4.000000,4.000000,4.000000,100.000000
1602006658.304048,25.000000,0.000000,4111.282227,4126.153809,4121.538574,4125.641113,4126.666504,4134.871582,4129.230957,4134.871582,4126.153809,4133.846191,4139.487305,4161.025879,4140.000000,4150.769043,0.000000,4.000000,,,,0.000000,4.000000,4.000000,4.000000,4.000000,4.000000,4.000000,4.000000,4.000000,4.000000,4.000000,4.000000,4.000000,4.000000,4.000000,100.000000
1602006658.311929,26.000000,0.000000,4121.538574,4123.589844,4122.051270,4126.666504,4130.769043,4125.128418,4124.102539,4121.025879,4113.846191,4120.000000,4138.461426,4155.897461,4130.769043,4132.307617,0.000000,4.000000,,,,0.000000,4.000000,4.000000,4.000000,4.000000,4.000000,4.000000,4.000000,4.000000,4.000000,4.000000,4.000000,4.000000,4.000000,4.000000,100.000000
1602006658.319810,27.000000,0.000000,4123.589844,4119.487305,4129.230957,4121.025879,4133.846191,4119.487305,4121.538574,4114.871582,4111.282227,4122.563965,4128.205078,4153.333496,4122.051270,4115.897461,0.000000,4.000000,,,,0.000000,4.000000,4.000000,4.000000,4.000000,4.000000,4.000000,4.000000,4.000000,4.000000,4.000000,4.000000,4.000000,4.000000,4.000000,100.000000
1602006658.327691,28.000000,0.000000,4122.563965,4129.230957,4142.051270,4126.666504,4140.000000,4130.256348,4131.794922,4124.102539,4124.102539,4122.563965,4128.205078,4166.666504,4127.179688,4134.871582,0.000000,4.000000,,,,0.000000,4.000000,4.000000,4.000000,4.000000,4.000000,4.000000,4.000000,4.000000,4.000000,4.000000,4.000000,4.000000,4.000000,4.000000,100.000000
1602006658.335572,29.000000,0.000000,4132.820313,4134.871582,4147.179688,4135.384766,4134.358887,4139.487305,4141.025879,4128.717773,4129.743652,4120.512695,4140.000000,4176.922852,4128.717773,4151.282227,0.000000,4.000000,,,,0.000000,4.000000,4.000000,4.000000,4.000000,4.000000,4.000000,4.000000,4.000000,4.000000,4.000000,4.000000,4.000000,4.000000,4.000000,100.000000
1602006658.343453,30.000000,0.000000,4138.461426,4125.641113,4140.000000,4129.230957,4123.589844,4133.846191,4131.282227,4126.153809,4123.589844,4131.794922,4140.000000,4169.743652,4122.051270,4141.538574,0.000000,4.000000,,,,0.000000,4.000000,4.000000,4.000000,4.000000,4.000000,4.000000,4.000000,4.000000,4.000000,4.000000,4.000000,4.000000,4.000000,4.000000,100.000000
1602006658.351234,31.000000,0.000000,4131.794922,4120.512695,4135.897461,4120.512695,4124.615234,4131.794922,4122.051270,4130.769043,4131.794922,4140.512695,4129.230957,4158.974121,4120.512695,4132.820313,0.000000,4.000000,,,,0.000000,4.000000,4.000000,4.000000,4.000000,4.000000,4.000000,4.000000,4.000000,4.000000,4.000000,4.000000,4.000000,4.000000,4.000000,100.000000
1602006658.359115,32.000000,0.000000,4124.102539,4127.179688,4134.871582,4122.563965,4128.717773,4147.179688,4133.333496,4137.948730,4150.256348,4143.077148,4130.769043,4153.333496,4128.205078,4138.974121,0.000000,4.000000,,,,0.000000,4.000000,4.000000,4.000000,4.000000,4.000000,4.000000,4.000000,4.000000,4.000000,4.000000,4.000000,4.000000,4.000000,4.000000,100.000000
1602006658.366996,33.000000,0.000000,4123.589844,4130.256348,4133.846191,4125.641113,4126.153809,4155.897461,4137.948730,4137.948730,4153.333496,4153.846191,4147.179688,4153.846191,4140.512695,4147.179688,0.000000,4.000000,,,,0.000000,4.000000,4.000000,4.000000,4.000000,4.000000,4.000000,4.000000,4.000000,4.000000,4.000000,4.000000,4.000000,4.000000,4.000000,100.000000
1602006658.374877,34.000000,0.000000,4131.282227,4124.615234,4132.820313,4125.128418,4122.051270,4144.615234,4127.179688,4134.871582,4136.410156,4143.589844,4153.846191,4161.025879,4144.615234,4147.692383,0.000000,4.000000,,,,0.000000,4.000000,4.000000,4.000000,4.000000,4.000000,4.000000,4.000000,4.000000,4.000000,4.000000,4.000000,4.000000,4.000000,4.000000,100.000000
1602006658.382757,35.000000,0.000000,4136.410156,4125.641113,4137.436035,4124.102539,4121.025879,4134.871582,4128.205078,4134.871582,4117.436035,4118.461426,4143.589844,4168.205078,4140.512695,4143.589844,0.000000,4.000000,,,,0.000000,4.000000,4.000000,4.000000,4.000000,4.000000,4.000000,4.000000,4.000000,4.000000,4.000000,4.000000,4.000000,4.000000,4.000000,100.000000
1602006658.390638,36.000000,0.000000,4134.871582,4135.384766,4150.769043,4124.102539,4120.000000,4139.487305,4140.000000,4137.436035,4126.666504,4139.487305,4141.538574,4171.282227,4146.153809,4149.230957,0.000000,4.000000,,,,0.000000,4.000000,4.000000,4.000000,4.000000,4.000000,4.000000,4.000000,4.000000,4.000000,4.000000,4.000000,4.000000,4.000000,4.000000,100.000000
1602006658.398519,37.000000,0.000000,4138.461426,4140.512695,4153.846191,4128.717773,4122.563965,4149.743652,4141.025879,4134.358887,4141.538574,4161.538574,4152.820313,4171.794922,4155.384766,4164.102539,0.000000,4.000000,,,,0.000000,4.000000,4.000000,4.000000,4.000000,4.000000,4.000000,4.000000,4.000000,4.000000,4.000000,4.000000,4.000000,4.000000,4.000000,100.000000
1602006658.406300,38.000000,0.000000,4142.051270,4138.461426,4135.897461,4128.717773,4131.794922,4151.794922,4136.922852,4125.128418,4122.051270,4137.436035,4153.333496,4167.692383,4151.282227,4168.205078,0.000000,4.000000,,,,0.000000,4.000000,4.000000,4.000000,4.000000,4.000000,4.000000,4.000000,4.000000,4.000000,4.000000,4.000000,4.000000,4.000000,4.000000,100.000000
1602006658.414181,39.000000,0.000000,4138.974121,4136.922852,4121.538574,4123.589844,4135.384766,4139.487305,4135.384766,4121.025879,4098.461426,4134.358887,4142.563965,4164.102539,4147.179688,4157.948730,0.000000,4.000000,,,,0.000000,4.000000,4.000000,4.000000,4.000000,4.000000,4.000000,4.000000,4.000000,4.000000,4.000000,4.000000,4.000000,4.000000,4.000000,100.000000
1602006658.421962,40.000000,0.000000,4145.128418,4137.948730,4129.743652,4129.230957,4131.794922,4124.102539,4133.846191,4123.589844,4107.692383,4157.948730,4141.538574,4164.102539,4150.256348,4157.948730,0.000000,4.000000,,,,0.000000,4.000000,4.000000,4.000000,4.000000,4.000000,4.000000,4.000000,4.000000,4.000000,4.000000,4.000000,4.000000,4.000000,4.000000,100.000000
1602006658.429842,41.000000,0.000000,4156.922852,4144.102539,4137.948730,4140.000000,4132.820313,4123.589844,4134.871582,4131.794922,4129.230957,4156.410156,4145.128418,4163.077148,4151.794922,4171.794922,0.000000,4.000000,,,,0.000000,4.000000,4.000000,4.000000,4.000000,4.000000,4.000000,4.000000,4.000000,4.000000,4.000000,4.000000,4.000000,4.000000,4.000000,100.000000
1602006658.437723,42.000000,0.000000,4157.436035,4152.307617,4144.615234,4143.589844,4140.512695,4131.282227,4137.948730,4140.512695,4141.025879,4153.846191,4147.692383,4168.205078,4151.282227,4175.384766,0.000000,4.000000,,,,0.000000,4.000000,4.000000,4.000000,4.000000,4.000000,4.000000,4.000000,4.000000,4.000000,4.000000,4.000000,4.000000,4.000000,4.000000,100.000000
1602006658.445604,43.000000,0.000000,4155.897461,4148.205078,4155.384766,4140.512695,4141.025879,4138.461426,4140.000000,4143.077148,4146.153809,4154.358887,4152.307617,4178.461426,4155.897461,4167.692383,0.000000,4.000000,,,,0.000000,4.000000,4.000000,4.000000,4.000000,4.000000,4.000000,4.000000,4.000000,4.000000,4.000000,4.000000,4.000000,4.000000,4.000000,100.000000
1602006658.453385,44.000000,0.000000,4154.358887,4138.461426,4152.307617,4137.436035,4136.922852,4144.102539,4137.948730,4140.512695,4143.589844,4145.641113,4154.358887,4177.948730,4157.948730,4166.153809,0.000000,4.000000,,,,0.000000,4.000000,4.000000,4.000000,4.000000,4.000000,4.000000,4.000000,4.000000,4.000000,4.000000,4.000000,4.000000,4.000000,4.000000,100.000000
1602006658.461266,45.000000,0.000000,4144.615234,4137.948730,4136.922852,4136.410156,4140.512695,4152.307617,4131.282227,4134.871582,4141.025879,4159.487305,4154.871582,4168.205078,4154.358887,4168.717773,0.000000,4.000000,,,,0.000000,4.000000,4.000000,4.000000,4.000000,4.000000,4.000000,4.000000,4.000000,4.000000,4.000000,4.000000,4.000000,4.000000,4.000000,100.000000
1602006658.469147,46.000000,0.000000,4143.589844,4140.512695,4127.692383,4136.922852,4144.615234,4166.153809,4128.717773,4125.128418,4148.205078,4178.461426,4156.410156,4160.512695,4161.025879,4169.743652,0.000000,4.000000,,,,0.000000,4.000000,4.000000,4.000000,4.000000,4.000000,4.000000,4.000000,4.000000,4.000000,4.000000,4.000000,4.000000,4.000000,4.000000,100.000000
1602006658.477027,47.000000,0.000000,4150.769043,4138.974121,4125.128418,4136.410156,4140.512695,4171.282227,4127.692383,4120.512695,4154.871582,4166.153809,4149.743652,4151.794922,4171.794922,4161.025879,0.000000,4.000000,,,,0.000000,4.000000,4.000000,4.000000,4.000000,4.000000,4.000000,4.000000,4.000000,4.000000,4.000000,4.000000,4.000000,4.000000,4.000000,100.000000
1602006658.484908,48.000000,0.000000,4143.077148,4138.461426,4122.563965,4135.384766,4136.410156,4161.538574,4122.563965,4126.666504,4148.205078,4163.589844,4138.461426,4147.179688,4164.102539,4148.717773,0.000000,4.000000,,,,0.000000,4.000000,4.000000,4.000000,4.000000,4.000000,4.000000,4.000000,4.000000,4.000000,4.000000,4.000000,4.000000,4.000000,4.000000,100.000000
1602006658.492789,49.000000,0.000000,4132.307617,4138.461426,4119.487305,4135.384766,4137.436035,4145.128418,4117.436035,4131.282227,4142.051270,4175.384766,4140.512695,4147.692383,4148.205078,4146.153809,0.000000,4.000000,,,,0.000000,4.000000,4.000000,4.000000,4.000000,4.000000,4.000000,4.000000,4.000000,4.000000,4.000000,4.000000,4.000000,4.000000,4.000000,100.000000
1602006658.500770,50.000000,0.000000,4143.077148,4141.025879,4121.025879,4136.410156,4138.974121,4136.410156,4116.922852,4135.384766,4148.717773,4164.615234,4152.307617,4151.282227,4153.333496,4153.333496,0.000000,4.000000,,,,0.000000,4.000000,4.000000,4.000000,4.000000,4.000000,4.000000,4.000000,4.000000,4.000000,4.000000,4.000000,4.000000,4.000000,4.000000,100.000000
1602006658.508652,51.000000,0.000000,4155.384766,4151.794922,4132.820313,4140.512695,4142.563965,4147.179688,4127.179688,4143.589844,4160.000000,4159.487305,4159.487305,4162.051270,4169.743652,4164.102539,0.000000,4.000000,,,,0.000000,4.000000,4.000000,4.000000,4.000000,4.000000,4.000000,4.000000,4.000000,4.000000,4.000000,4.000000,4.000000,4.000000,4.000000,100.000000
1602006658.516533,52.000000,0.000000,4153.333496,4159.487305,4140.000000,4143.589844,4146.153809,4154.358887,4137.948730,4146.153809,4154.871582,4174.358887,4155.384766,4169.230957,4168.205078,4165.128418,0.000000,4.000000,,,,0.000000,4.000000,4.000000,4.000000,4.000000,4.000000,4.000000,4.000000,4.000000,4.000000,4.000000,4.000000,4.000000,4.000000,4.000000,100.000000
1602006658.524414,53.000000,0.000000,4150.769043,4151.282227,4137.948730,4142.563965,4138.461426,4142.051270,4136.922852,4134.871582,4132.820313,4169.230957,4145.128418,4164.102539,4153.333496,4154.358887,0.000000,4.000000,,,,0.000000,4.000000,4.000000,4.000000,4.000000,4.000000,4.000000,4.000000,4.000000,4.000000,4.000000,4.000000,4.000000,4.000000,4.000000,100.000000
1602006658.532295,54.000000,0.000000,4152.820313,4142.051270,4145.128418,4139.487305,4131.282227,4133.333496,4134.871582,4124.102539,4116.922852,4148.205078,4143.077148,4164.615234,4142.563965,4153.333496,0.000000,4.000000,,,,0.000000,4.000000,4.000000,4.000000,4.000000,4.000000,4.000000,4.000000,4.000000,4.000000,4.000000,4.000000,4.000000,4.000000,4.000000,100.000000
1602006658.540176,55.000000,0.000000,4154.871582,4139.487305,4154.358887,4138.461426,4131.282227,4138.461426,4140.512695,4123.589844,4114.871582,4136.410156,4140.000000,4170.769043,4136.922852,4161.538574,0.000000,4.000000,,,,0.000000,4.000000,4.000000,4.000000,4.000000,4.000000,4.000000,4.000000,4.000000,4.000000,4.000000,4.000000,4.000000,4.000000,4.000000,100.000000
1602006658.548057,56.000000,0.000000,4154.871582,4132.820313,4152.820313,4136.922852,4127.179688,4137.948730,4143.077148,4124.102539,4113.333496,4135.897461,4133.333496,4171.282227,4140.000000,4166.153809,0.000000,4.000000,,,,0.000000,4.000000,4.000000,4.000000,4.000000,4.000000,4.000000,4.000000,4.000000,4.000000,4.000000,4.000000,4.000000,4.000000,4.000000,100.000000
1602006658.555939,57.000000,0.000000,4152.307617,4126.666504,4151.282227,4131.282227,4123.077148,4134.358887,4134.358887,4123.589844,4118.974121,4146.666504,4148.205078,4174.358887,4151.794922,4169.743652,0.000000,4.000000,,,,0.000000,4.000000,4.000000,4.000000,4.000000,4.000000,4.000000,4.000000,4.000000,4.000000,4.000000,4.000000,4.000000,4.000000,4.000000,100.000000
1602006658.563820,58.000000,0.000000,4149.743652,4126.153809,4154.871582,4127.692383,4128.717773,4137.436035,4124.615234,4130.769043,4142.563965,4169.743652,4168.205078,4183.077148,4157.948730,4172.307617,0.000000,4.000000,,,,0.000000,4.000000,4.000000,4.000000,4.000000,4.000000,4.000000,4.000000,4.000000,4.000000,4.000000,4.000000,4.000000,4.000000,4.000000,100.000000
1602006658.571700,59.000000,0.000000,4153.333496,4131.794922,4153.846191,4133.333496,4132.820313,4140.512695,4121.538574,4146.153809,4160.512695,4184.102539,4162.563965,4182.563965,4156.922852,4169.743652,0.000000,4.000000,,,,0.000000,4.000000,4.000000,4.000000,4.000000,4.000000,4.000000,4.000000,4.000000,4.000000,4.000000,4.000000,4.000000,4.000000,4.000000,100.000000
1602006658.579581,60.000000,0.000000,4153.846191,4135.897461,4148.205078,4137.948730,4128.205078,4138.461426,4119.487305,4151.794922,4159.487305,4176.410156,4151.282227,4175.384766,4155.897461,4172.307617,0.000000,4.000000,,,,0.000000,4.000000,4.000000,4.000000,4.000000,4.000000,4.000000,4.000000,4.000000,4.000000,4.000000,4.000000,4.000000,4.000000,4.000000,100.000000
1602006658.587462,61.000000,0.000000,4145.641113,4135.897461,4146.666504,4135.897461,4126.153809,4131.282227,4116.410156,4143.589844,4146.666504,4168.717773,4155.384766,4171.282227,4154.871582,4167.692383,0.000000,4.000000,,,,0.000000,4.000000,4.000000,4.000000,4.000000,4.000000,4.000000,4.000000,4.000000,4.000000,4.000000,4.000000,4.000000,4.000000,4.000000,100.000000
1602006658.595342,62.000000,0.000000,4140.000000,4133.846191,4150.769043,4136.410156,4127.179688,4126.666504,4118.974121,4138.461426,4137.948730,4169.743652,4156.410156,4172.820313,4151.282227,4154.871582,0.000000,4.000000,,,,0.000000,4.000000,4.000000,4.000000,4.000000,4.000000,4.000000,4.000000,4.000000,4.000000,4.000000,4.000000,4.000000,4.000000,4.000000,100.000000
1602006658.603323,63.000000,0.000000,4146.666504,4128.717773,4153.333496,4138.974121,4123.077148,4122.563965,4124.615234,4139.487305,4138.461426,4157.948730,4154.358887,4174.358887,4148.717773,4151.794922,0.000000,4.000000,,,,0.000000,4.000000,4.000000,4.000000,4.000000,4.000000,4.000000,4.000000,4.000000,4.000000,4.000000,4.000000,4.000000,4.000000,4.000000,100.000000
1602006658.611204,64.000000,0.000000,4150.769043,4129.743652,4152.307617,4137.948730,4118.461426,4116.922852,4130.769043,4136.922852,4131.794922,4141.538574,4157.436035,4173.846191,4151.282227,4162.563965,793.000000,4.000000,,,,0.000000,4.000000,4.000000,4.000000,4.000000,4.000000,4.000000,4.000000,4.000000,4.000000,4.000000,4.000000,4.000000,4.000000,4.000000,100.000000
