Timestamp,EEG.Counter,EEG.Interpolated,EEG.AF3,EEG.F7,EEG.F3,EEG.FC5,EEG.T7,EEG.P7,EEG.O1,EEG.O2,EEG.P8,EEG.T8,EEG.FC6,EEG.F4,EEG.F8,EEG.AF4,EEG.RawCq,EEG.Battery,MarkerIndex,MarkerType,MarkerValueInt,EEG.MarkerHardware,CQ.AF3,CQ.F7,CQ.F3,CQ.FC5,CQ.T7,CQ.P7,CQ.O1,CQ.O2,CQ.P8,CQ.T8,CQ.FC6,CQ.F4,CQ.F8,CQ.AF4,CQ.Overall
1602006666.964933,92.000000,0.000000,4098.461426,4121.025879,4124.102539,4127.692383,4144.615234,4140.512695,4135.897461,4131.282227,4143.589844,4134.358887,4139.487305,4144.615234,4138.461426,4115.384766,770.000000,4.000000,,,,0.000000,4.000000,4.000000,4.000000,4.000000,4.000000,4.000000,4.000000,4.000000,4.000000,4.000000,4.000000,4.000000,4.000000,4.000000,100.000000
1602006666.972714,93.000000,0.000000,4094.358887,4121.025879,4127.692383,4130.769043,4142.051270,4138.974121,4121.025879,4123.077148,4140.000000,4133.846191,4132.820313,4140.000000,4125.128418,4107.692383,725.000000,4.000000,,,,0.000000,4.000000,4.000000,4.000000,4.000000,4.000000,4.000000,4.000000,4.000000,4.000000,4.000000,4.000000,4.000000,4.000000,4.000000,100.000000
1602006666.980595,94.000000,0.000000,4080.000000,4121.538574,4123.077148,4128.717773,4139.487305,4133.846191,4113.333496,4114.358887,4132.307617,4120.000000,4120.512695,4125.641113,4117.436035,4087.179443,876.000000,4.000000,,,,0.000000,4.000000,4.000000,4.000000,4.000000,4.000000,4.000000,4.000000,4.000000,4.000000,4.000000,4.000000,4.000000,4.000000,4.000000,100.000000
1602006666.988476,95.000000,0.000000,4078.974365,4121.025879,4117.948730,4127.692383,4140.512695,4132.307617,4115.897461,4114.358887,4145.641113,4124.615234,4113.846191,4119.487305,4119.487305,4086.153809,838.000000,4.000000,,,,0.000000,4.000000,4.000000,4.000000,4.000000,4.000000,4.000000,4.000000,4.000000,4.000000,4.000000,4.000000,4.000000,4.000000,4.000000,100.000000
1602006666.996357,96.000000,0.000000,4089.743652,4120.512695,4120.512695,4130.256348,4142.563965,4145.641113,4122.051270,4127.692383,4159.487305,4152.307617,4117.948730,4124.102539,4121.025879,4089.743652,770.000000,4.000000,,,,0.000000,4.000000,4.000000,4.000000,4.000000,4.000000,4.000000,4.000000,4.000000,4.000000,4.000000,4.000000,4.000000,4.000000,4.000000,100.000000
1602006667.004239,97.000000,0.000000,4088.718018,4124.102539,4117.948730,4129.230957,4143.589844,4153.333496,4131.282227,4136.410156,4156.922852,4157.948730,4125.128418,4123.077148,4117.436035,4089.230713,725.000000,4.000000,,,,0.000000,4.000000,4.000000,4.000000,4.000000,4.000000,4.000000,4.000000,4.000000,4.000000,4.000000,4.000000,4.000000,4.000000,4.000000,100.000000
1602006667.012120,98.000000,0.000000,4081.538574,4121.538574,4107.179688,4123.589844,4140.000000,4142.563965,4138.461426,4136.410156,4154.358887,4141.538574,4135.384766,4118.974121,4122.563965,4098.974121,876.000000,4.000000,,,,0.000000,4.000000,4.000000,4.000000,4.000000,4.000000,4.000000,4.000000,4.000000,4.000000,4.000000,4.000000,4.000000,4.000000,4.000000,100.000000
1602006667.020001,99.000000,0.000000,4083.076904,4112.820313,4108.717773,4121.025879,4138.461426,4135.384766,4143.077148,4138.974121,4151.794922,4140.000000,4145.128418,4131.282227,4136.410156,4114.358887,838.000000,4.000000,,,,0.000000,4.000000,4.000000,4.000000,4.000000,4.000000,4.000000,4.000000,4.000000,4.000000,4.000000,4.000000,4.000000,4.000000,4.000000,100.000000
1602006667.027882,100.000000,0.000000,4095.384521,4115.384766,4123.077148,4122.563965,4135.897461,4137.948730,4152.307617,4144.102539,4143.077148,4156.922852,4144.102539,4151.282227,4143.589844,4116.410156,770.000000,4.000000,,,,0.000000,4.000000,4.000000,4.000000,4.000000,4.000000,4.000000,4.000000,4.000000,4.000000,4.000000,4.000000,4.000000,4.000000,4.000000,100.000000
1602006667.035763,101.000000,0.000000,4106.153809,4120.000000,4135.384766,4124.615234,4126.153809,4135.384766,4152.820313,4142.563965,4130.256348,4163.077148,4138.461426,4153.333496,4141.538574,4108.717773,725.000000,4.000000,,,,0.000000,4.000000,4.000000,4.000000,4.000000,4.000000,4.000000,4.000000,4.000000,4.000000,4.000000,4.000000,4.000000,4.000000,4.000000,100.000000
1602006667.043544,102.000000,0.000000,4104.615234,4111.794922,4135.384766,4124.615234,4123.589844,4135.384766,4142.051270,4136.410156,4119.487305,4137.436035,4137.948730,4136.922852,4135.384766,4105.641113,876.000000,4.000000,,,,0.000000,4.000000,4.000000,4.000000,4.000000,4.000000,4.000000,4.000000,4.000000,4.000000,4.000000,4.000000,4.000000,4.000000,4.000000,100.000000
1602006667.051425,103.000000,0.000000,4092.820557,4108.717773,4127.179688,4125.641113,4135.384766,4152.820313,4142.051270,4137.948730,4124.102539,4118.461426,4137.948730,4124.615234,4125.128418,4110.256348,838.000000,4.000000,,,,0.000000,4.000000,4.000000,4.000000,4.000000,4.000000,4.000000,4.000000,4.000000,4.000000,4.000000,4.000000,4.000000,4.000000,4.000000,100.000000
1602006667.059306,104.000000,0.000000,4083.076904,4109.230957,4116.922852,4123.589844,4141.538574,4159.487305,4145.128418,4143.589844,4137.436035,4128.717773,4125.641113,4118.974121,4109.743652,4101.025879,770.000000,4.000000,,,,0.000000,4.000000,4.000000,4.000000,4.000000,4.000000,4.000000,4.000000,4.000000,4.000000,4.000000,4.000000,4.000000,4.000000,4.000000,100.000000
1602006667.067187,105.000000,0.000000,4077.948730,4096.922852,4105.128418,4117.436035,4135.897461,4144.102539,4130.769043,4135.384766,4131.282227,4120.000000,4107.692383,4105.641113,4094.871826,4078.974365,725.000000,4.000000,,,,0.000000,4.000000,4.000000,4.000000,4.000000,4.000000,4.000000,4.000000,4.000000,4.000000,4.000000,4.000000,4.000000,4.000000,4.000000,100.000000
1602006667.075068,106.000000,0.000000,4071.794922,4090.256348,4094.871826,4115.384766,4131.794922,4135.897461,4118.461426,4120.512695,4121.538574,4098.461426,4102.563965,4089.230713,4090.769287,4078.974365,876.000000,4.000000,,,,0.000000,4.000000,4.000000,4.000000,4.000000,4.000000,4.000000,4.000000,4.000000,4.000000,4.000000,4.000000,4.000000,4.000000,4.000000,100.000000
1602006667.083049,107.000000,0.000000,4067.179443,4100.512695,4091.794922,4118.974121,4136.922852,4138.974121,4120.512695,4121.538574,4130.769043,4116.410156,4102.563965,4085.641113,4097.436035,4090.769287,838.000000,4.000000,,,,0.000000,4.000000,4.000000,4.000000,4.000000,4.000000,4.000000,4.000000,4.000000,4.000000,4.000000,4.000000,4.000000,4.000000,4.000000,100.000000
1602006667.090930,108.000000,0.000000,4083.076904,4112.820313,4101.025879,4129.230957,4148.205078,4140.000000,4121.025879,4131.282227,4146.666504,4152.307617,4107.179688,4103.077148,4109.743652,4090.256348,770.000000,4.000000,,,,0.000000,4.000000,4.000000,4.000000,4.000000,4.000000,4.000000,4.000000,4.000000,4.000000,4.000000,4.000000,4.000000,4.000000,4.000000,100.000000
1602006667.098811,109.000000,0.000000,4116.410156,4124.615234,4121.538574,4138.461426,4152.307617,4136.410156,4120.000000,4136.410156,4162.051270,4171.282227,4129.230957,4127.692383,4130.769043,4099.487305,725.000000,4.000000,,,,0.000000,4.000000,4.000000,4.000000,4.000000,4.000000,4.000000,4.000000,4.000000,4.000000,4.000000,4.000000,4.000000,4.000000,4.000000,100.000000
1602006667.106692,110.000000,0.000000,4130.256348,4129.743652,4138.974121,4139.487305,4143.077148,4125.641113,4125.128418,4142.051270,4168.205078,4173.846191,4153.846191,4138.974121,4153.333496,4135.897461,876.000000,4.000000,,,,0.000000,4.000000,4.000000,4.000000,4.000000,4.000000,4.000000,4.000000,4.000000,4.000000,4.000000,4.000000,4.000000,4.000000,4.000000,100.000000
1602006667.114573,111.000000,0.000000,4121.025879,4126.666504,4145.128418,4137.436035,4133.333496,4125.641113,4135.384766,4153.846191,4159.487305,4153.333496,4156.410156,4145.641113,4158.974121,4154.871582,838.000000,4.000000,,,,0.000000,4.000000,4.000000,4.000000,4.000000,4.000000,4.000000,4.000000,4.000000,4.000000,4.000000,4.000000,4.000000,4.000000,4.000000,100.000000
1602006667.122453,112.000000,0.000000,4122.563965,4121.025879,4152.307617,4134.358887,4126.666504,4147.692383,4147.692383,4165.128418,4151.282227,4133.333496,4146.666504,4157.436035,4156.922852,4145.641113,770.000000,4.000000,,,,0.000000,4.000000,4.000000,4.000000,4.000000,4.000000,4.000000,4.000000,4.000000,4.000000,4.000000,4.000000,4.000000,4.000000,4.000000,100.000000
1602006667.130334,113.000000,0.000000,4126.666504,4110.769043,4160.512695,4124.615234,4121.025879,4161.025879,4158.461426,4172.820313,4147.692383,4141.025879,4140.512695,4163.077148,4153.846191,4143.077148,725.000000,4.000000,,,,0.000000,4.000000,4.000000,4.000000,4.000000,4.000000,4.000000,4.000000,4.000000,4.000000,4.000000,4.000000,4.000000,4.000000,4.000000,100.000000
1602006667.138215,114.000000,0.000000,4110.256348,4101.025879,4151.794922,4116.922852,4119.487305,4155.897461,4161.025879,4171.282227,4140.000000,4156.922852,4133.333496,4157.948730,4140.512695,4141.538574,876.000000,4.000000,,,,0.000000,4.000000,4.000000,4.000000,4.000000,4.000000,4.000000,4.000000,4.000000,4.000000,4.000000,4.000000,4.000000,4.000000,4.000000,100.000000
1602006667.146196,115.000000,0.000000,4090.769287,4103.077148,4135.384766,4121.025879,4118.974121,4149.743652,4152.820313,4156.410156,4134.358887,4156.410156,4121.538574,4144.615234,4124.102539,4125.128418,838.000000,4.000000,,,,0.000000,4.000000,4.000000,4.000000,4.000000,4.000000,4.000000,4.000000,4.000000,4.000000,4.000000,4.000000,4.000000,4.000000,4.000000,100.000000
1602006667.154077,116.000000,0.000000,4088.205078,4106.666504,4124.615234,4123.589844,4122.563965,4141.025879,4136.410156,4141.025879,4137.948730,4153.333496,4108.717773,4127.692383,4118.974121,4103.077148,770.000000,4.000000,,,,0.000000,4.000000,4.000000,4.000000,4.000000,4.000000,4.000000,4.000000,4.000000,4.000000,4.000000,4.000000,4.000000,4.000000,4.000000,100.000000
1602006667.162058,117.000000,0.000000,4094.358887,4104.102539,4112.820313,4122.051270,4134.358887,4127.179688,4123.077148,4133.333496,4140.512695,4150.256348,4106.666504,4115.384766,4120.512695,4097.436035,725.000000,4.000000,,,,0.000000,4.000000,4.000000,4.000000,4.000000,4.000000,4.000000,4.000000,4.000000,4.000000,4.000000,4.000000,4.000000,4.000000,4.000000,100.000000
1602006667.169939,118.000000,0.000000,4094.358887,4108.717773,4105.641113,4121.538574,4142.051270,4120.000000,4117.436035,4129.230957,4131.282227,4142.051270,4116.410156,4106.666504,4120.000000,4109.230957,876.000000,4.000000,,,,0.000000,4.000000,4.000000,4.000000,4.000000,4.000000,4.000000,4.000000,4.000000,4.000000,4.000000,4.000000,4.000000,4.000000,4.000000,100.000000
1602006667.177820,119.000000,0.000000,4094.871826,4118.974121,4113.846191,4127.179688,4140.512695,4120.000000,4111.794922,4126.666504,4124.102539,4135.384766,4123.077148,4106.666504,4123.589844,4113.846191,838.000000,4.000000,,,,0.000000,4.000000,4.000000,4.000000,4.000000,4.000000,4.000000,4.000000,4.000000,4.000000,4.000000,4.000000,4.000000,4.000000,4.000000,100.000000
1602006667.185701,120.000000,0.000000,4104.615234,4124.615234,4124.102539,4137.436035,4140.512695,4121.025879,4105.641113,4123.077148,4133.333496,4131.794922,4121.538574,4117.436035,4129.230957,4106.153809,770.000000,4.000000,,,,0.000000,4.000000,4.000000,4.000000,4.000000,4.000000,4.000000,4.000000,4.000000,4.000000,4.000000,4.000000,4.000000,4.000000,4.000000,100.000000
1602006667.193582,121.000000,0.000000,4109.743652,4123.589844,4125.641113,4138.461426,4141.538574,4117.436035,4106.153809,4117.948730,4140.512695,4138.461426,4120.512695,4123.077148,4128.717773,4111.282227,725.000000,4.000000,,,,0.000000,4.000000,4.000000,4.000000,4.000000,4.000000,4.000000,4.000000,4.000000,4.000000,4.000000,4.000000,4.000000,4.000000,4.000000,100.000000
1602006667.201464,122.000000,0.000000,4107.179688,4120.512695,4129.230957,4129.743652,4131.794922,4117.436035,4112.820313,4121.025879,4134.871582,4157.436035,4125.641113,4121.025879,4121.538574,4118.974121,876.000000,4.000000,,,,0.000000,4.000000,4.000000,4.000000,4.000000,4.000000,4.000000,4.000000,4.000000,4.000000,4.000000,4.000000,4.000000,4.000000,4.000000,100.000000
1602006667.209345,123.000000,0.000000,4108.205078,4121.025879,4138.461426,4127.692383,4122.563965,4126.666504,4124.102539,4138.974121,4140.512695,4171.794922,4130.769043,4129.743652,4122.051270,4111.282227,838.000000,4.000000,,,,0.000000,4.000000,4.000000,4.000000,4.000000,4.000000,4.000000,4.000000,4.000000,4.000000,4.000000,4.000000,4.000000,4.000000,4.000000,100.000000
1602006667.217226,124.000000,0.000000,4110.769043,4121.538574,4141.538574,4133.333496,4121.538574,4135.897461,4143.589844,4163.077148,4157.948730,4172.307617,4138.461426,4142.051270,4137.948730,4113.846191,770.000000,4.000000,,,,0.000000,4.000000,4.000000,4.000000,4.000000,4.000000,4.000000,4.000000,4.000000,4.000000,4.000000,4.000000,4.000000,4.000000,4.000000,100.000000
1602006667.225107,125.000000,0.000000,4106.153809,4117.948730,4132.307617,4135.384766,4122.051270,4145.641113,4155.384766,4169.743652,4156.410156,4154.358887,4137.436035,4136.922852,4138.461426,4117.948730,725.000000,4.000000,,,,0.000000,4.000000,4.000000,4.000000,4.000000,4.000000,4.000000,4.000000,4.000000,4.000000,4.000000,4.000000,4.000000,4.000000,4.000000,100.000000
1602006667.232888,126.000000,0.000000,4100.512695,4117.948730,4116.410156,4129.743652,4128.717773,4151.794922,4147.692383,4158.461426,4134.358887,4135.384766,4123.589844,4122.051270,4117.948730,4112.820313,876.000000,4.000000,,,,0.000000,4.000000,4.000000,4.000000,4.000000,4.000000,4.000000,4.000000,4.000000,4.000000,4.000000,4.000000,4.000000,4.000000,4.000000,100.000000
1602006667.240768,127.000000,0.000000,4088.718018,4111.794922,4104.102539,4122.051270,4136.410156,4149.743652,4139.487305,4152.307617,4126.666504,4131.282227,4124.102539,4117.948730,4115.897461,4117.436035,838.000000,4.000000,,,,0.000000,4.000000,4.000000,4.000000,4.000000,4.000000,4.000000,4.000000,4.000000,4.000000,4.000000,4.000000,4.000000,4.000000,4.000000,100.000000
1602006667.248749,128.000000,0.000000,4073.846191,4092.307617,4095.384521,4116.922852,4130.769043,4140.000000,4136.410156,4153.333496,4135.384766,4131.282227,4124.615234,4118.461426,4121.538574,4104.615234,770.000000,4.000000,,,,0.000000,4.000000,4.000000,4.000000,4.000000,4.000000,4.000000,4.000000,4.000000,4.000000,4.000000,4.000000,4.000000,4.000000,4.000000,100.000000
1602006667.256630,0.000000,0.000000,4080.000000,4097.436035,4092.820557,4118.461426,4125.641113,4126.666504,4126.153809,4138.461426,4129.743652,4126.666504,4106.666504,4107.692383,4108.205078,4079.487061,793.000000,4.000000,,,,0.000000,4.000000,4.000000,4.000000,4.000000,4.000000,4.000000,4.000000,4.000000,4.000000,4.000000,4.000000,4.000000,4.000000,4.000000,100.000000
1602006667.264511,1.000000,0.000000,4118.461426,4137.948730,4111.794922,4134.358887,4132.820313,4118.974121,4118.461426,4118.974121,4117.436035,4133.333496,4108.205078,4109.743652,4103.589844,4101.538574,786.000000,4.000000,,,,0.000000,4.000000,4.000000,4.000000,4.000000,4.000000,4.000000,4.000000,4.000000,4.000000,4.000000,4.000000,4.000000,4.000000,4.000000,100.000000
1602006667.272392,2.000000,0.000000,4160.512695,4169.743652,4144.615234,4155.384766,4140.512695,4123.589844,4122.051270,4124.102539,4121.538574,4148.717773,4126.666504,4132.820313,4117.436035,4138.974121,853.000000,4.000000,,,,0.000000,4.000000,4.000000,4.000000,4.000000,4.000000,4.000000,4.000000,4.000000,4.000000,4.000000,4.000000,4.000000,4.000000,4.000000,100.000000
1602006667.280273,3.000000,0.000000,4177.436035,4176.922852,4162.051270,4162.051270,4140.512695,4124.102539,4123.077148,4136.410156,4130.256348,4148.717773,4124.615234,4144.615234,4113.333496,4131.794922,871.000000,4.000000,,,,0.000000,4.000000,4.000000,4.000000,4.000000,4.000000,4.000000,4.000000,4.000000,4.000000,4.000000,4.000000,4.000000,4.000000,4.000000,100.000000
1602006667.288154,4.000000,0.000000,4184.102539,4176.922852,4161.538574,4157.436035,4132.307617,4110.769043,4124.615234,4136.410156,4129.743652,4144.102539,4119.487305,4137.948730,4103.589844,4117.948730,818.000000,4.000000,,,,0.000000,4.000000,4.000000,4.000000,4.000000,4.000000,4.000000,4.000000,4.000000,4.000000,4.000000,4.000000,4.000000,4.000000,4.000000,100.000000
1602006667.296035,5.000000,0.000000,4192.307617,4175.384766,4161.538574,4157.436035,4126.153809,4110.769043,4134.871582,4136.922852,4122.563965,4134.871582,4125.641113,4137.436035,4105.641113,4123.589844,823.000000,4.000000,,,,0.000000,4.000000,4.000000,4.000000,4.000000,4.000000,4.000000,4.000000,4.000000,4.000000,4.000000,4.000000,4.000000,4.000000,4.000000,100.000000
1602006667.303916,6.000000,0.000000,4181.025879,4171.282227,4152.307617,4153.846191,4133.333496,4131.794922,4140.000000,4143.077148,4112.307617,4121.538574,4114.871582,4142.563965,4100.512695,4124.102539,761.000000,4.000000,,,,0.000000,4.000000,4.000000,4.000000,4.000000,4.000000,4.000000,4.000000,4.000000,4.000000,4.000000,4.000000,4.000000,4.000000,4.000000,100.000000
1602006667.311697,7.000000,0.000000,4152.820313,4158.974121,4124.102539,4141.025879,4139.487305,4140.512695,4137.948730,4144.102539,4107.692383,4128.205078,4100.000000,4136.410156,4087.692383,4114.871582,666.000000,4.000000,,,,0.000000,4.000000,4.000000,4.000000,4.000000,4.000000,4.000000,4.000000,4.000000,4.000000,4.000000,4.000000,4.000000,4.000000,4.000000,100.000000
1602006667.319577,8.000000,0.000000,4135.384766,4140.512695,4107.692383,4134.358887,4134.358887,4129.743652,4133.846191,4141.538574,4107.179688,4135.897461,4106.153809,4123.077148,4085.128174,4096.922852,779.000000,4.000000,,,,0.000000,4.000000,4.000000,4.000000,4.000000,4.000000,4.000000,4.000000,4.000000,4.000000,4.000000,4.000000,4.000000,4.000000,4.000000,100.000000
1602006667.327458,9.000000,0.000000,4134.358887,4137.436035,4115.897461,4136.410156,4130.769043,4125.641113,4127.692383,4140.512695,4108.717773,4126.666504,4107.692383,4118.461426,4083.076904,4081.025635,835.000000,4.000000,,,,0.000000,4.000000,4.000000,4.000000,4.000000,4.000000,4.000000,4.000000,4.000000,4.000000,4.000000,4.000000,4.000000,4.000000,4.000000,100.000000
1602006667.335339,10.000000,0.000000,4140.000000,4151.794922,4126.666504,4137.948730,4135.897461,4136.410156,4123.077148,4141.025879,4117.948730,4125.641113,4100.512695,4124.102539,4075.897461,4086.153809,876.000000,4.000000,,,,0.000000,4.000000,4.000000,4.000000,4.000000,4.000000,4.000000,4.000000,4.000000,4.000000,4.000000,4.000000,4.000000,4.000000,4.000000,100.000000
1602006667.343219,11.000000,0.000000,4144.102539,4155.897461,4130.256348,4137.948730,4134.358887,4141.538574,4122.051270,4140.000000,4127.692383,4130.769043,4104.102539,4126.666504,4076.923096,4097.436035,839.000000,4.000000,,,,0.000000,4.000000,4.000000,4.000000,4.000000,4.000000,4.000000,4.000000,4.000000,4.000000,4.000000,4.000000,4.000000,4.000000,4.000000,100.000000
1602006667.351000,12.000000,0.000000,4138.974121,4143.589844,4126.666504,4136.922852,4125.128418,4132.307617,4118.974121,4131.794922,4123.077148,4110.769043,4109.230957,4117.436035,4082.051270,4093.846191,770.000000,4.000000,,,,0.000000,4.000000,4.000000,4.000000,4.000000,4.000000,4.000000,4.000000,4.000000,4.000000,4.000000,4.000000,4.000000,4.000000,4.000000,100.000000
1602006667.358881,13.000000,0.000000,4133.846191,4136.410156,4113.846191,4133.333496,4121.025879,4120.000000,4119.487305,4124.615234,4110.769043,4100.512695,4106.153809,4106.666504,4080.000000,4081.025635,725.000000,4.000000,,,,0.000000,4.000000,4.000000,4.000000,4.000000,4.000000,4.000000,4.000000,4.000000,4.000000,4.000000,4.000000,4.000000,4.000000,4.000000,100.000000
1602006667.366762,14.000000,0.000000,4140.000000,4141.025879,4109.230957,4134.871582,4125.128418,4122.563965,4129.230957,4125.128418,4106.666504,4121.538574,4100.512695,4104.615234,4074.871826,4071.281982,876.000000,4.000000,,,,0.000000,4.000000,4.000000,4.000000,4.000000,4.000000,4.000000,4.000000,4.000000,4.000000,4.000000,4.000000,4.000000,4.000000,4.000000,100.000000
1602006667.374643,15.000000,0.000000,4143.077148,4141.538574,4116.922852,4137.436035,4123.589844,4133.846191,4135.897461,4125.128418,4109.230957,4130.256348,4089.743652,4105.128418,4073.846191,4073.333252,839.000000,4.000000,,,,0.000000,4.000000,4.000000,4.000000,4.000000,4.000000,4.000000,4.000000,4.000000,4.000000,4.000000,4.000000,4.000000,4.000000,4.000000,100.000000
1602006667.382524,16.000000,0.000000,4137.948730,4141.538574,4121.025879,4136.410156,4122.563965,4141.025879,4136.410156,4127.692383,4113.333496,4127.692383,4089.230713,4109.230957,4072.820557,4087.179443,0.000000,4.000000,,,,0.000000,4.000000,4.000000,4.000000,4.000000,4.000000,4.000000,4.000000,4.000000,4.000000,4.000000,4.000000,4.000000,4.000000,4.000000,100.000000
1602006667.390405,17.000000,0.000000,4137.436035,4145.641113,4122.051270,4138.461426,4134.358887,4142.051270,4138.461426,4137.436035,4121.025879,4136.922852,4104.615234,4120.000000,4074.358887,4093.333252,0.000000,4.000000,,,,0.000000,4.000000,4.000000,4.000000,4.000000,4.000000,4.000000,4.000000,4.000000,4.000000,4.000000,4.000000,4.000000,4.000000,4.000000,100.000000
1602006667.398286,18.000000,0.000000,4138.461426,4142.563965,4126.153809,4141.025879,4136.410156,4136.410156,4140.000000,4141.025879,4124.102539,4134.358887,4107.179688,4120.512695,4076.923096,4087.692383,0.000000,4.000000,,,,0.000000,4.000000,4.000000,4.000000,4.000000,4.000000,4.000000,4.000000,4.000000,4.000000,4.000000,4.000000,4.000000,4.000000,4.000000,100.000000
1602006667.406067,19.000000,0.000000,4140.000000,4137.948730,4132.307617,4136.922852,4125.641113,4122.563965,4135.384766,4144.102539,4120.000000,4106.666504,4094.358887,4112.820313,4074.358887,4090.256348,0.000000,4.000000,,,,0.000000,4.000000,4.000000,4.000000,4.000000,4.000000,4.000000,4.000000,4.000000,4.000000,4.000000,4.000000,4.000000,4.000000,4.000000,100.000000
1602006667.413947,20.000000,0.000000,4141.538574,4141.538574,4135.384766,4135.384766,4123.589844,4117.436035,4131.794922,4150.256348,4129.230957,4100.512695,4099.487305,4119.487305,4075.384521,4097.948730,0.000000,4.000000,,,,0.000000,4.000000,4.000000,4.000000,4.000000,4.000000,4.000000,4.000000,4.000000,4.000000,4.000000,4.000000,4.000000,4.000000,4.000000,100.000000
1602006667.421828,21.000000,0.000000,4140.000000,4145.128418,4130.769043,4137.436035,4131.282227,4127.179688,4134.358887,4148.205078,4143.077148,4132.307617,4116.410156,4125.128418,4084.615479,4092.820557,0.000000,4.000000,,,,0.000000,4.000000,4.000000,4.000000,4.000000,4.000000,4.000000,4.000000,4.000000,4.000000,4.000000,4.000000,4.000000,4.000000,4.000000,100.000000
1602006667.429709,22.000000,0.000000,4136.922852,4149.743652,4122.563965,4136.922852,4136.922852,4135.384766,4136.410156,4140.512695,4133.333496,4152.307617,4113.333496,4116.410156,4089.743652,4086.666748,0.000000,4.000000,,,,0.000000,4.000000,4.000000,4.000000,4.000000,4.000000,4.000000,4.000000,4.000000,4.000000,4.000000,4.000000,4.000000,4.000000,4.000000,100.000000
1602006667.437589,23.000000,0.000000,4138.974121,4159.487305,4123.077148,4145.128418,4137.436035,4134.871582,4135.897461,4141.025879,4122.563965,4137.436035,4099.487305,4116.922852,4090.769287,4092.307617,0.000000,4.000000,,,,0.000000,4.000000,4.000000,4.000000,4.000000,4.000000,4.000000,4.000000,4.000000,4.000000,4.000000,4.000000,4.000000,4.000000,4.000000,100.000000
1602006667.445370,24.000000,0.000000,4141.538574,4160.512695,4125.128418,4151.794922,4137.436035,4127.692383,4134.358887,4142.051270,4121.025879,4131.794922,4103.589844,4123.077148,4095.384521,4098.974121,0.000000,4.000000,,,,0.000000,4.000000,4.000000,4.000000,4.000000,4.000000,4.000000,4.000000,4.000000,4.000000,4.000000,4.000000,4.000000,4.000000,4.000000,100.000000
1602006667.453251,25.000000,0.000000,4134.871582,4153.333496,4117.948730,4141.025879,4135.384766,4119.487305,4134.871582,4136.410156,4109.230957,4140.000000,4113.846191,4122.051270,4091.794922,4096.922852,0.000000,4.000000,,,,0.000000,4.000000,4.000000,4.000000,4.000000,4.000000,4.000000,4.000000,4.000000,4.000000,4.000000,4.000000,4.000000,4.000000,4.000000,100.000000
1602006667.461132,26.000000,0.000000,4135.897461,4154.358887,4121.538574,4139.487305,4137.436035,4123.589844,4138.974121,4142.563965,4109.230957,4120.000000,4111.282227,4129.230957,4094.871826,4101.025879,0.000000,4.000000,,,,0.000000,4.000000,4.000000,4.000000,4.000000,4.000000,4.000000,4.000000,4.000000,4.000000,4.000000,4.000000,4.000000,4.000000,4.000000,100.000000
1602006667.469012,27.000000,0.000000,4149.743652,4157.948730,4137.948730,4154.358887,4140.000000,4135.384766,4142.051270,4151.282227,4132.307617,4104.615234,4103.589844,4142.051270,4109.743652,4116.410156,0.000000,4.000000,,,,0.000000,4.000000,4.000000,4.000000,4.000000,4.000000,4.000000,4.000000,4.000000,4.000000,4.000000,4.000000,4.000000,4.000000,4.000000,100.000000
1602006667.476793,28.000000,0.000000,4151.794922,4155.897461,4143.589844,4152.307617,4136.922852,4134.358887,4137.948730,4141.025879,4136.410156,4126.666504,4106.153809,4141.025879,4108.205078,4120.000000,0.000000,4.000000,,,,0.000000,4.000000,4.000000,4.000000,4.000000,4.000000,4.000000,4.000000,4.000000,4.000000,4.000000,4.000000,4.000000,4.000000,4.000000,100.000000
1602006667.484674,29.000000,0.000000,4145.128418,4148.717773,4140.512695,4136.410156,4130.256348,4125.641113,4135.384766,4129.230957,4126.666504,4142.051270,4116.922852,4136.922852,4097.948730,4111.794922,0.000000,4.000000,,,,0.000000,4.000000,4.000000,4.000000,4.000000,4.000000,4.000000,4.000000,4.000000,4.000000,4.000000,4.000000,4.000000,4.000000,4.000000,100.000000
1602006667.492555,30.000000,0.000000,4152.307617,4143.589844,4137.948730,4134.358887,4124.102539,4130.769043,4140.512695,4134.871582,4129.743652,4135.384766,4121.538574,4145.128418,4100.512695,4110.769043,0.000000,4.000000,,,,0.000000,4.000000,4.000000,4.000000,4.000000,4.000000,4.000000,4.000000,4.000000,4.000000,4.000000,4.000000,4.000000,4.000000,4.000000,100.000000
1602006667.500436,31.000000,0.000000,4154.358887,4142.051270,4130.769043,4139.487305,4125.641113,4138.461426,4143.077148,4140.000000,4128.205078,4134.358887,4114.871582,4146.666504,4096.922852,4114.871582,0.000000,4.000000,,,,0.000000,4.000000,4.000000,4.000000,4.000000,4.000000,4.000000,4.000000,4.000000,4.000000,4.000000,4.000000,4.000000,4.000000,4.000000,100.000000
1602006667.508317,32.000000,0.000000,4138.974121,4140.000000,4122.051270,4138.974121,4131.282227,4136.410156,4140.000000,4137.436035,4127.692383,4130.769043,4114.871582,4138.461426,4093.846191,4110.256348,0.000000,4.000000,,,,0.000000,4.000000,4.000000,4.000000,4.000000,4.000000,4.000000,4.000000,4.000000,4.000000,4.000000,4.000000,4.000000,4.000000,4.000000,100.000000
1602006667.516198,33.000000,0.000000,4129.743652,4139.487305,4121.538574,4136.922852,4131.794922,4133.846191,4139.487305,4137.436035,4131.282227,4106.153809,4116.410156,4137.436035,4102.051270,4095.384521,0.000000,4.000000,,,,0.000000,4.000000,4.000000,4.000000,4.000000,4.000000,4.000000,4.000000,4.000000,4.000000,4.000000,4.000000,4.000000,4.000000,4.000000,100.000000
1602006667.524079,34.000000,0.000000,4133.846191,4147.179688,4127.692383,4143.589844,4133.333496,4139.487305,4139.487305,4135.384766,4129.230957,4101.025879,4110.769043,4141.025879,4102.051270,4091.794922,0.000000,4.000000,,,,0.000000,4.000000,4.000000,4.000000,4.000000,4.000000,4.000000,4.000000,4.000000,4.000000,4.000000,4.000000,4.000000,4.000000,4.000000,100.000000
1602006667.531960,35.000000,0.000000,4142.563965,4156.410156,4136.410156,4152.307617,4139.487305,4139.487305,4137.948730,4135.897461,4142.051270,4130.769043,4115.897461,4140.512695,4097.436035,4100.512695,0.000000,4.000000,,,,0.000000,4.000000,4.000000,4.000000,4.000000,4.000000,4.000000,4.000000,4.000000,4.000000,4.000000,4.000000,4.000000,4.000000,4.000000,100.000000
1602006667.539941,36.000000,0.000000,4150.769043,4155.897461,4141.025879,4151.794922,4141.025879,4128.717773,4135.897461,4136.410156,4157.436035,4139.487305,4121.538574,4136.410156,4098.461426,4106.666504,0.000000,4.000000,,,,0.000000,4.000000,4.000000,4.000000,4.000000,4.000000,4.000000,4.000000,4.000000,4.000000,4.000000,4.000000,4.000000,4.000000,4.000000,100.000000
1602006667.547822,37.000000,0.000000,4153.333496,4155.897461,4141.538574,4152.307617,4138.461426,4128.717773,4134.871582,4130.769043,4145.128418,4118.974121,4113.846191,4141.025879,4100.000000,4111.282227,0.000000,4.000000,,,,0.000000,4.000000,4.000000,4.000000,4.000000,4.000000,4.000000,4.000000,4.000000,4.000000,4.000000,4.000000,4.000000,4.000000,4.000000,100.000000
1602006667.555702,38.000000,0.000000,4154.358887,4154.871582,4142.563965,4151.794922,4135.897461,4134.358887,4136.410156,4131.282227,4138.974121,4122.051270,4115.384766,4150.256348,4104.102539,4116.410156,0.000000,4.000000,,,,0.000000,4.000000,4.000000,4.000000,4.000000,4.000000,4.000000,4.000000,4.000000,4.000000,4.000000,4.000000,4.000000,4.000000,4.000000,100.000000
1602006667.563583,39.000000,0.000000,4158.461426,4143.589844,4142.051270,4142.051270,4128.205078,4129.230957,4139.487305,4136.410156,4156.410156,4136.410156,4132.307617,4153.846191,4109.743652,4120.000000,0.000000,4.000000,,,,0.000000,4.000000,4.000000,4.000000,4.000000,4.000000,4.000000,4.000000,4.000000,4.000000,4.000000,4.000000,4.000000,4.000000,4.000000,100.000000
1602006667.571464,40.000000,0.000000,4153.333496,4134.871582,4136.922852,4133.333496,4120.512695,4126.666504,4142.563965,4135.897461,4158.461426,4127.179688,4135.384766,4159.487305,4107.179688,4117.948730,0.000000,4.000000,,,,0.000000,4.000000,4.000000,4.000000,4.000000,4.000000,4.000000,4.000000,4.000000,4.000000,4.000000,4.000000,4.000000,4.000000,4.000000,100.000000
1602006667.579345,41.000000,0.000000,4145.641113,4137.436035,4136.410156,4136.922852,4127.179688,4129.230957,4142.051270,4133.846191,4150.256348,4119.487305,4120.512695,4168.205078,4104.102539,4113.333496,0.000000,4.000000,,,,0.000000,4.000000,4.000000,4.000000,4.000000,4.000000,4.000000,4.000000,4.000000,4.000000,4.000000,4.000000,4.000000,4.000000,4.000000,100.000000
1602006667.587226,42.000000,0.000000,4149.230957,4138.974121,4146.666504,4141.538574,4132.820313,4122.563965,4139.487305,4136.410156,4152.820313,4122.051270,4107.692383,4169.743652,4104.615234,4104.615234,0.000000,4.000000,,,,0.000000,4.000000,4.000000,4.000000,4.000000,4.000000,4.000000,4.000000,4.000000,4.000000,4.000000,4.000000,4.000000,4.000000,4.000000,100.000000
1602006667.595207,43.000000,0.000000,4152.820313,4136.922852,4156.922852,4139.487305,4124.102539,4120.000000,4140.000000,4138.974121,4157.436035,4126.153809,4113.846191,4168.717773,4107.179688,4102.563965,0.000000,4.000000,,,,0.000000,4.000000,4.000000,4.000000,4.000000,4.000000,4.000000,4.000000,4.000000,4.000000,4.000000,4.000000,4.000000,4.000000,4.000000,100.000000
1602006667.603087,44.000000,0.000000,4154.358887,4138.461426,4153.846191,4137.436035,4121.538574,4127.692383,4134.358887,4138.461426,4164.615234,4141.025879,4133.333496,4169.230957,4108.205078,4115.897461,0.000000,4.000000,,,,0.000000,4.000000,4.000000,4.000000,4.000000,4.000000,4.000000,4.000000,4.000000,4.000000,4.000000,4.000000,4.000000,4.000000,4.000000,100.000000
1602006667.611068,45.000000,0.000000,4150.769043,4138.974121,4142.051270,4137.948730,4132.820313,4124.102539,4122.563965,4137.948730,4170.256348,4148.205078,4135.384766,4161.538574,4107.179688,4119.487305,0.000000,4.000000,,,,0.000000,4.000000,4.000000,4.000000,4.000000,4.000000,4.000000,4.000000,4.000000,4.000000,4.000000,4.000000,4.000000,4.000000,4.000000,100.000000
1602006667.618949,46.000000,0.000000,4136.922852,4138.461426,4128.717773,4139.487305,4136.922852,4120.000000,4119.487305,4131.282227,4167.179688,4129.743652,4123.077148,4147.179688,4105.641113,4112.307617,0.000000,4.000000,,,,0.000000,4.000000,4.000000,4.000000,4.000000,4.000000,4.000000,4.000000,4.000000,4.000000,4.000000,4.000000,4.000000,4.000000,4.000000,100.000000
1602006667.626830,47.000000,0.000000,4128.717773,4142.563965,4120.000000,4137.948730,4140.000000,4126.153809,4120.512695,4124.615234,4165.641113,4122.563965,4118.974121,4140.000000,4105.641113,4107.692383,0.000000,4.000000,,,,0.000000,4.000000,4.000000,4.000000,4.000000,4.000000,4.000000,4.000000,4.000000,4.000000,4.000000,4.000000,4.000000,4.000000,4.000000,100.000000
1602006667.634711,48.000000,0.000000,4133.846191,4146.153809,4121.025879,4138.461426,4149.743652,4127.179688,4113.333496,4128.717773,4169.230957,4145.128418,4123.589844,4145.128418,4112.307617,4109.230957,0.000000,4.000000,,,,0.000000,4.000000,4.000000,4.000000,4.000000,4.000000,4.000000,4.000000,4.000000,4.000000,4.000000,4.000000,4.000000,4.000000,4.000000,100.000000
1602006667.642592,49.000000,0.000000,4136.410156,4142.051270,4126.153809,4141.025879,4146.666504,4122.051270,4109.743652,4137.436035,4174.871582,4162.051270,4131.282227,4159.487305,4121.538574,4110.769043,0.000000,4.000000,,,,0.000000,4.000000,4.000000,4.000000,4.000000,4.000000,4.000000,4.000000,4.000000,4.000000,4.000000,4.000000,4.000000,4.000000,4.000000,100.000000
1602006667.650473,50.000000,0.000000,4134.871582,4137.436035,4129.743652,4140.000000,4134.871582,4122.051270,4117.948730,4144.615234,4183.589844,4145.128418,4135.897461,4169.230957,4125.128418,4104.615234,0.000000,4.000000,,,,0.000000,4.000000,4.000000,4.000000,4.000000,4.000000,4.000000,4.000000,4.000000,4.000000,4.000000,4.000000,4.000000,4.000000,4.000000,100.000000
1602006667.658354,51.000000,0.000000,4138.461426,4141.025879,4136.922852,4137.436035,4137.436035,4124.102539,4127.692383,4152.307617,4191.282227,4135.897461,4135.384766,4171.282227,4124.102539,4102.051270,0.000000,4.000000,,,,0.000000,4.000000,4.000000,4.000000,4.000000,4.000000,4.000000,4.000000,4.000000,4.000000,4.000000,4.000000,4.000000,4.000000,4.000000,100.000000
1602006667.666235,52.000000,0.000000,4138.974121,4141.538574,4143.589844,4137.948730,4142.051270,4125.641113,4136.922852,4154.871582,4189.743652,4152.307617,4135.897461,4173.846191,4119.487305,4115.897461,0.000000,4.000000,,,,0.000000,4.000000,4.000000,4.000000,4.000000,4.000000,4.000000,4.000000,4.000000,4.000000,4.000000,4.000000,4.000000,4.000000,4.000000,100.000000
1602006667.674216,53.000000,0.000000,4136.410156,4134.871582,4137.948730,4138.461426,4131.794922,4123.077148,4143.077148,4147.692383,4186.666504,4143.077148,4138.974121,4170.769043,4116.922852,4134.358887,0.000000,4.000000,,,,0.000000,4.000000,4.000000,4.000000,4.000000,4.000000,4.000000,4.000000,4.000000,4.000000,4.000000,4.000000,4.000000,4.000000,4.000000,100.000000
1602006667.682097,54.000000,0.000000,4133.846191,4129.230957,4120.000000,4131.794922,4124.102539,4121.025879,4142.051270,4140.512695,4182.051270,4128.717773,4133.846191,4160.512695,4119.487305,4129.743652,0.000000,4.000000,,,,0.000000,4.000000,4.000000,4.000000,4.000000,4.000000,4.000000,4.000000,4.000000,4.000000,4.000000,4.000000,4.000000,4.000000,4.000000,100.000000
1602006667.689978,55.000000,0.000000,4122.051270,4125.641113,4106.153809,4123.077148,4131.282227,4130.256348,4143.077148,4137.948730,4174.358887,4153.846191,4125.128418,4149.230957,4117.948730,4111.282227,0.000000,4.000000,,,,0.000000,4.000000,4.000000,4.000000,4.000000,4.000000,4.000000,4.000000,4.000000,4.000000,4.000000,4.000000,4.000000,4.000000,4.000000,100.000000
1602006667.697859,56.000000,0.000000,4107.692383,4122.051270,4104.615234,4122.563965,4140.512695,4136.410156,4143.589844,4132.307617,4171.794922,4162.563965,4118.974121,4138.461426,4109.743652,4100.512695,0.000000,4.000000,,,,0.000000,4.000000,4.000000,4.000000,4.000000,4.000000,4.000000,4.000000,4.000000,4.000000,4.000000,4.000000,4.000000,4.000000,4.000000,100.000000
1602006667.705741,57.000000,0.000000,4102.051270,4121.025879,4104.102539,4122.051270,4138.974121,4129.743652,4133.333496,4122.563965,4171.282227,4130.769043,4107.179688,4124.615234,4100.512695,4089.230713,0.000000,4.000000,,,,0.000000,4.000000,4.000000,4.000000,4.000000,4.000000,4.000000,4.000000,4.000000,4.000000,4.000000,4.000000,4.000000,4.000000,4.000000,100.000000
1602006667.713622,58.000000,0.000000,4104.102539,4120.000000,4101.538574,4120.000000,4135.384766,4128.717773,4123.077148,4117.436035,4166.153809,4114.358887,4100.512695,4114.358887,4095.384521,4075.897461,0.000000,4.000000,,,,0.000000,4.000000,4.000000,4.000000,4.000000,4.000000,4.000000,4.000000,4.000000,4.000000,4.000000,4.000000,4.000000,4.000000,4.000000,100.000000
1602006667.721503,59.000000,0.000000,4106.153809,4120.512695,4109.230957,4124.615234,4137.436035,4136.922852,4124.615234,4120.512695,4167.692383,4111.282227,4103.077148,4121.025879,4094.358887,4071.281982,0.000000,4.000000,,,,0.000000,4.000000,4.000000,4.000000,4.000000,4.000000,4.000000,4.000000,4.000000,4.000000,4.000000,4.000000,4.000000,4.000000,4.000000,100.000000
1602006667.729384,60.000000,0.000000,4105.128418,4121.538574,4121.025879,4129.230957,4137.436035,4137.948730,4131.794922,4123.077148,4173.333496,4103.077148,4104.102539,4133.846191,4090.256348,4080.512939,0.000000,4.000000,,,,0.000000,4.000000,4.000000,4.000000,4.000000,4.000000,4.000000,4.000000,4.000000,4.000000,4.000000,4.000000,4.000000,4.000000,4.000000,100.000000
1602006667.737265,61.000000,0.000000,4103.077148,4120.512695,4124.102539,4129.230957,4133.846191,4134.358887,4134.358887,4123.077148,4169.743652,4115.384766,4106.666504,4137.436035,4088.205078,4091.281982,0.000000,4.000000,,,,0.000000,4.000000,4.000000,4.000000,4.000000,4.000000,4.000000,4.000000,4.000000,4.000000,4.000000,4.000000,4.000000,4.000000,4.000000,100.000000
1602006667.745046,62.000000,0.000000,4110.256348,4127.179688,4122.051270,4134.358887,4138.461426,4133.846191,4135.897461,4124.615234,4168.717773,4138.974121,4119.487305,4140.512695,4099.487305,4096.922852,0.000000,4.000000,,,,0.000000,4.000000,4.000000,4.000000,4.000000,4.000000,4.000000,4.000000,4.000000,4.000000,4.000000,4.000000,4.000000,4.000000,4.000000,100.000000
1602006667.752927,63.000000,0.000000,4127.692383,4139.487305,4127.179688,4143.077148,4145.128418,4135.384766,4137.948730,4124.615234,4170.256348,4144.615234,4132.820313,4152.820313,4110.256348,4102.051270,0.000000,4.000000,,,,0.000000,4.000000,4.000000,4.000000,4.000000,4.000000,4.000000,4.000000,4.000000,4.000000,4.000000,4.000000,4.000000,4.000000,4.000000,100.000000
1602006667.760807,64.000000,0.000000,4138.461426,4143.077148,4137.436035,4147.179688,4142.563965,4136.922852,4136.922852,4122.051270,4160.000000,4134.358887,4133.333496,4158.461426,4105.641113,4109.230957,793.000000,4.000000,,,,0.000000,4.000000,4.000000,4.000000,4.000000,4.000000,4.000000,4.000000,4.000000,4.000000,4.000000,4.000000,4.000000,4.000000,4.000000,100.000000
1602006667.768688,65.000000,0.000000,4138.974121,4141.025879,4139.487305,4150.769043,4146.153809,4135.384766,4136.410156,4121.538574,4158.461426,4132.820313,4130.769043,4156.922852,4109.743652,4121.538574,786.000000,4.000000,,,,0.000000,4.000000,4.000000,4.000000,4.000000,4.000000,4.000000,4.000000,4.000000,4.000000,4.000000,4.000000,4.000000,4.000000,4.000000,100.000000
1602006667.776469,66.000000,0.000000,4143.077148,4147.692383,4141.538574,4151.794922,4151.794922,4133.846191,4137.948730,4125.128418,4166.153809,4133.333496,4126.666504,4165.128418,4123.589844,4122.051270,853.000000,4.000000,,,,0.000000,4.000000,4.000000,4.000000,4.000000,4.000000,4.000000,4.000000,4.000000,4.000000,4.000000,4.000000,4.000000,4.000000,4.000000,100.000000
1602006667.784350,67.000000,0.000000,4154.871582,4156.922852,4151.794922,4151.794922,4143.589844,4136.922852,4138.974121,4138.461426,4169.230957,4134.358887,4116.922852,4173.846191,4126.666504,4113.333496,871.000000,4.000000,,,,0.000000,4.000000,4.000000,4.000000,4.000000,4.000000,4.000000,4.000000,4.000000,4.000000,4.000000,4.000000,4.000000,4.000000,4.000000,100.000000
1602006667.792231,68.000000,0.000000,4157.948730,4153.846191,4156.410156,4155.384766,4137.948730,4141.538574,4142.563965,4151.282227,4177.948730,4155.384766,4122.563965,4172.820313,4125.641113,4117.436035,818.000000,4.000000,,,,0.000000,4.000000,4.000000,4.000000,4.000000,4.000000,4.000000,4.000000,4.000000,4.000000,4.000000,4.000000,4.000000,4.000000,4.000000,100.000000
1602006667.800112,69.000000,0.000000,4145.641113,4143.077148,4144.615234,4148.717773,4141.538574,4143.077148,4143.589844,4147.692383,4183.589844,4178.974121,4137.436035,4165.641113,4124.615234,4121.538574,823.000000,4.000000,,,,0.000000,4.000000,4.000000,4.000000,4.000000,4.000000,4.000000,4.000000,4.000000,4.000000,4.000000,4.000000,4.000000,4.000000,4.000000,100.000000
1602006667.807993,70.000000,0.000000,4134.358887,4137.948730,4130.769043,4136.922852,4139.487305,4134.358887,4132.820313,4131.282227,4170.256348,4161.025879,4131.282227,4152.307617,4113.846191,4107.179688,761.000000,4.000000,,,,0.000000,4.000000,4.000000,4.000000,4.000000,4.000000,4.000000,4.000000,4.000000,4.000000,4.000000,4.000000,4.000000,4.000000,4.000000,100.000000
1602006667.815874,71.000000,0.000000,4134.871582,4138.974121,4125.128418,4137.948730,4136.410156,4126.666504,4121.538574,4122.563965,4163.077148,4134.871582,4118.461426,4138.974121,4103.077148,4099.487305,666.000000,4.000000,,,,0.000000,4.000000,4.000000,4.000000,4.000000,4.000000,4.000000,4.000000,4.000000,4.000000,4.000000,4.000000,4.000000,4.000000,4.000000,100.000000
1602006667.823755,72.000000,0.000000,4135.897461,4138.461426,4121.538574,4140.512695,4140.512695,4125.128418,4120.512695,4128.205078,4169.230957,4143.077148,4121.538574,4137.436035,4104.615234,4113.846191,779.000000,4.000000,,,,0.000000,4.000000,4.000000,4.000000,4.000000,4.000000,4.000000,4.000000,4.000000,4.000000,4.000000,4.000000,4.000000,4.000000,4.000000,100.000000
1602006667.831636,73.000000,0.000000,4133.846191,4139.487305,4119.487305,4138.974121,4138.974121,4120.512695,4121.025879,4130.769043,4162.051270,4140.512695,4122.051270,4144.102539,4112.820313,4122.051270,835.000000,4.000000,,,,0.000000,4.000000,4.000000,4.000000,4.000000,4.000000,4.000000,4.000000,4.000000,4.000000,4.000000,4.000000,4.000000,4.000000,4.000000,100.000000
1602006667.839417,74.000000,0.000000,4139.487305,4145.128418,4129.230957,4147.179688,4137.436035,4124.615234,4124.102539,4131.282227,4153.333496,4128.205078,4126.153809,4154.871582,4121.025879,4122.051270,876.000000,4.000000,,,,0.000000,4.000000,4.000000,4.000000,4.000000,4.000000,4.000000,4.000000,4.000000,4.000000,4.000000,4.000000,4.000000,4.000000,4.000000,100.000000
1602006667.847297,75.000000,0.000000,4143.077148,4146.666504,4141.538574,4151.282227,4140.000000,4140.000000,4134.358887,4131.794922,4156.922852,4135.897461,4135.897461,4167.179688,4126.153809,4125.641113,839.000000,4.000000,,,,0.000000,4.000000,4.000000,4.000000,4.000000,4.000000,4.000000,4.000000,4.000000,4.000000,4.000000,4.000000,4.000000,4.000000,4.000000,100.000000
1602006667.855178,76.000000,0.000000,4129.230957,4138.461426,4137.948730,4141.025879,4137.436035,4142.563965,4138.974121,4129.743652,4156.922852,4140.512695,4130.256348,4166.666504,4120.512695,4120.512695,769.000000,4.000000,,,,0.000000,4.000000,4.000000,4.000000,4.000000,4.000000,4.000000,4.000000,4.000000,4.000000,4.000000,4.000000,4.000000,4.000000,4.000000,100.000000
1602006667.863059,77.000000,0.000000,4123.077148,4134.871582,4133.333496,4134.871582,4134.358887,4134.358887,4138.461426,4131.282227,4152.307617,4137.436035,4125.128418,4156.922852,4111.282227,4113.846191,725.000000,4.000000,,,,0.000000,4.000000,4.000000,4.000000,4.000000,4.000000,4.000000,4.000000,4.000000,4.000000,4.000000,4.000000,4.000000,4.000000,4.000000,100.000000
1602006667.870940,78.000000,0.000000,4133.333496,4136.922852,4138.461426,4136.410156,4136.922852,4134.358887,4140.512695,4134.871582,4150.256348,4140.512695,4128.205078,4151.794922,4107.692383,4119.487305,876.000000,4.000000,,,,0.000000,4.000000,4.000000,4.000000,4.000000,4.000000,4.000000,4.000000,4.000000,4.000000,4.000000,4.000000,4.000000,4.000000,4.000000,100.000000
1602006667.878821,79.000000,0.000000,4137.436035,4132.307617,4134.358887,4135.384766,4135.897461,4138.461426,4142.051270,4135.897461,4152.820313,4132.820313,4126.666504,4151.282227,4108.205078,4120.000000,839.000000,4.000000,,,,0.000000,4.000000,4.000000,4.000000,4.000000,4.000000,4.000000,4.000000,4.000000,4.000000,4.000000,4.000000,4.000000,4.000000,4.000000,100.000000
1602006667.886602,80.000000,0.000000,4135.897461,4130.256348,4127.179688,4133.846191,4127.692383,4132.307617,4137.436035,4135.897461,4153.846191,4122.051270,4129.743652,4149.743652,4109.743652,4106.153809,769.000000,4.000000,,,,0.000000,4.000000,4.000000,4.000000,4.000000,4.000000,4.000000,4.000000,4.000000,4.000000,4.000000,4.000000,4.000000,4.000000,4.000000,100.000000
1602006667.894483,81.000000,0.000000,4140.512695,4134.358887,4133.846191,4135.384766,4123.077148,4122.051270,4128.205078,4134.358887,4146.153809,4134.871582,4132.820313,4143.077148,4109.743652,4105.641113,725.000000,4.000000,,,,0.000000,4.000000,4.000000,4.000000,4.000000,4.000000,4.000000,4.000000,4.000000,4.000000,4.000000,4.000000,4.000000,4.000000,4.000000,100.000000
1602006667.902363,82.000000,0.000000,4137.436035,4130.769043,4141.025879,4136.922852,4122.563965,4116.410156,4117.948730,4124.102539,4135.384766,4144.615234,4115.384766,4136.922852,4107.179688,4107.179688,876.000000,4.000000,,,,0.000000,4.000000,4.000000,4.000000,4.000000,4.000000,4.000000,4.000000,4.000000,4.000000,4.000000,4.000000,4.000000,4.000000,4.000000,100.000000
1602006667.910244,83.000000,0.000000,4126.153809,4124.102539,4140.512695,4136.922852,4121.025879,4118.461426,4116.922852,4118.461426,4126.666504,4141.538574,4103.589844,4136.410156,4099.487305,4084.102539,839.000000,4.000000,,,,0.000000,4.000000,4.000000,4.000000,4.000000,4.000000,4.000000,4.000000,4.000000,4.000000,4.000000,4.000000,4.000000,4.000000,4.000000,100.000000
1602006667.918125,84.000000,0.000000,4122.051270,4117.948730,4139.487305,4128.717773,4121.538574,4127.692383,4130.256348,4121.025879,4117.436035,4127.179688,4106.666504,4135.384766,4082.564209,4068.718018,769.000000,4.000000,,,,0.000000,4.000000,4.000000,4.000000,4.000000,4.000000,4.000000,4.000000,4.000000,4.000000,4.000000,4.000000,4.000000,4.000000,4.000000,100.000000
1602006667.925906,85.000000,0.000000,4119.487305,4111.282227,4135.897461,4119.487305,4122.563965,4134.871582,4137.948730,4120.000000,4110.256348,4096.410156,4091.794922,4131.282227,4061.025635,4072.307617,725.000000,4.000000,,,,0.000000,4.000000,4.000000,4.000000,4.000000,4.000000,4.000000,4.000000,4.000000,4.000000,4.000000,4.000000,4.000000,4.000000,4.000000,100.000000
1602006667.933787,86.000000,0.000000,4120.000000,4113.846191,4136.922852,4123.589844,4124.615234,4136.922852,4135.384766,4120.000000,4114.358887,4091.281982,4076.923096,4134.358887,4056.410156,4072.820557,876.000000,4.000000,,,,0.000000,4.000000,4.000000,4.000000,4.000000,4.000000,4.000000,4.000000,4.000000,4.000000,4.000000,4.000000,4.000000,4.000000,4.000000,100.000000
1602006667.941668,87.000000,0.000000,4124.102539,4121.025879,4145.128418,4133.333496,4129.743652,4141.538574,4135.897461,4123.589844,4123.589844,4106.153809,4094.871826,4139.487305,4071.794922,4076.923096,839.000000,4.000000,,,,0.000000,4.000000,4.000000,4.000000,4.000000,4.000000,4.000000,4.000000,4.000000,4.000000,4.000000,4.000000,4.000000,4.000000,4.000000,100.000000
1602006667.949549,88.000000,0.000000,4123.077148,4117.436035,4141.025879,4121.538574,4126.153809,4137.948730,4138.461426,4125.641113,4123.589844,4093.333252,4112.307617,4136.922852,4075.384521,4092.307617,769.000000,4.000000,,,,0.000000,4.000000,4.000000,4.000000,4.000000,4.000000,4.000000,4.000000,4.000000,4.000000,4.000000,4.000000,4.000000,4.000000,4.000000,100.000000
1602006667.957431,89.000000,0.000000,4131.282227,4105.641113,4143.077148,4121.025879,4114.358887,4124.102539,4136.922852,4131.794922,4121.538574,4089.230713,4109.743652,4142.051270,4072.820557,4100.000000,725.000000,4.000000,,,,0.000000,4.000000,4.000000,4.000000,4.000000,4.000000,4.000000,4.000000,4.000000,4.000000,4.000000,4.000000,4.000000,4.000000,4.000000,100.000000
1602006667.965312,90.000000,0.000000,4151.794922,4108.205078,4162.051270,4152.820313,4113.846191,4125.128418,4138.461426,4139.487305,4129.230957,4130.769043,4121.025879,4158.974121,4089.743652,4107.179688,876.000000,4.000000,,,,0.000000,4.000000,4.000000,4.000000,4.000000,4.000000,4.000000,4.000000,4.000000,4.000000,4.000000,4.000000,4.000000,4.000000,4.000000,100.000000
1602006667.973193,91.000000,0.000000,4160.512695,4133.846191,4168.717773,4155.897461,4124.615234,4142.563965,4142.051270,4142.563965,4138.974121,4164.102539,4145.641113,4173.333496,4116.410156,4133.846191,839.000000,4.000000,,,,0.000000,4.000000,4.000000,4.000000,4.000000,4.000000,4.000000,4.000000,4.000000,4.000000,4.000000,4.000000,4.000000,4.000000,4.000000,100.000000
1602006667.981074,92.000000,0.000000,4155.897461,4147.179688,4157.436035,4124.102539,4126.666504,4143.589844,4141.538574,4140.512695,4138.974121,4156.922852,4145.641113,4178.974121,4127.692383,4152.820313,769.000000,4.000000,,,,0.000000,4.000000,4.000000,4.000000,4.000000,4.000000,4.000000,4.000000,4.000000,4.000000,4.000000,4.000000,4.000000,4.000000,4.000000,100.000000
1602006667.988955,93.000000,0.000000,4149.230957,4128.717773,4148.717773,4122.051270,4119.487305,4130.256348,4140.512695,4136.410156,4132.307617,4131.794922,4128.717773,4174.358887,4117.948730,4141.538574,725.000000,4.000000,,,,0.000000,4.000000,4.000000,4.000000,4.000000,4.000000,4.000000,4.000000,4.000000,4.000000,4.000000,4.000000,4.000000,4.000000,4.000000,100.000000
1602006667.996936,94.000000,0.000000,4142.563965,4116.922852,4141.538574,4141.538574,4122.563965,4132.307617,4140.512695,4131.282227,4121.538574,4110.256348,4122.051270,4160.000000,4107.179688,4122.563965,876.000000,4.000000,,,,0.000000,4.000000,4.000000,4.000000,4.000000,4.000000,4.000000,4.000000,4.000000,4.000000,4.000000,4.000000,4.000000,4.000000,4.000000,100.000000
1602006668.004818,95.000000,0.000000,4136.410156,4122.563965,4131.794922,4139.487305,4135.897461,4139.487305,4132.820313,4125.128418,4111.794922,4112.307617,4120.512695,4143.077148,4109.743652,4106.153809,839.000000,4.000000,,,,0.000000,4.000000,4.000000,4.000000,4.000000,4.000000,4.000000,4.000000,4.000000,4.000000,4.000000,4.000000,4.000000,4.000000,4.000000,100.000000
1602006668.012699,96.000000,0.000000,4133.846191,4122.563965,4133.846191,4135.897461,4137.436035,4130.769043,4118.974121,4121.025879,4118.461426,4136.922852,4121.025879,4135.384766,4111.282227,4102.051270,769.000000,4.000000,,,,0.000000,4.000000,4.000000,4.000000,4.000000,4.000000,4.000000,4.000000,4.000000,4.000000,4.000000,4.000000,4.000000,4.000000,4.000000,100.000000
1602006668.020580,97.000000,0.000000,4134.358887,4120.512695,4136.410156,4141.538574,4127.692383,4116.922852,4111.794922,4120.000000,4131.794922,4142.051270,4123.589844,4128.717773,4105.641113,4115.384766,725.000000,4.000000,,,,0.000000,4.000000,4.000000,4.000000,4.000000,4.000000,4.000000,4.000000,4.000000,4.000000,4.000000,4.000000,4.000000,4.000000,4.000000,100.000000
1602006668.028461,98.000000,0.000000,4138.974121,4126.153809,4127.692383,4143.077148,4122.051270,4120.512695,4115.384766,4121.538574,4128.205078,4127.692383,4115.384766,4120.000000,4102.563965,4118.974121,876.000000,4.000000,,,,0.000000,4.000000,4.000000,4.000000,4.000000,4.000000,4.000000,4.000000,4.000000,4.000000,4.000000,4.000000,4.000000,4.000000,4.000000,100.000000
1602006668.036342,99.000000,0.000000,4141.538574,4131.282227,4125.128418,4140.512695,4124.102539,4132.820313,4123.589844,4123.589844,4122.563965,4121.538574,4111.282227,4123.589844,4103.589844,4113.333496,839.000000,4.000000,,,,0.000000,4.000000,4.000000,4.000000,4.000000,4.000000,4.000000,4.000000,4.000000,4.000000,4.000000,4.000000,4.000000,4.000000,4.000000,100.000000
1602006668.044223,100.000000,0.000000,4144.615234,4136.410156,4135.384766,4137.436035,4125.641113,4126.666504,4128.205078,4124.102539,4117.436035,4112.307617,4124.615234,4134.358887,4112.820313,4127.692383,769.000000,4.000000,,,,0.000000,4.000000,4.000000,4.000000,4.000000,4.000000,4.000000,4.000000,4.000000,4.000000,4.000000,4.000000,4.000000,4.000000,4.000000,100.000000
1602006668.052105,101.000000,0.000000,4157.436035,4147.179688,4145.128418,4144.102539,4125.128418,4123.589844,4133.846191,4129.230957,4112.820313,4108.205078,4141.025879,4149.230957,4134.871582,4149.743652,725.000000,4.000000,,,,0.000000,4.000000,4.000000,4.000000,4.000000,4.000000,4.000000,4.000000,4.000000,4.000000,4.000000,4.000000,4.000000,4.000000,4.000000,100.000000
1602006668.059986,102.000000,0.000000,4160.512695,4155.897461,4143.589844,4152.307617,4123.077148,4138.461426,4139.487305,4136.410156,4125.128418,4124.102539,4150.769043,4165.641113,4142.051270,4145.641113,876.000000,4.000000,,,,0.000000,4.000000,4.000000,4.000000,4.000000,4.000000,4.000000,4.000000,4.000000,4.000000,4.000000,4.000000,4.000000,4.000000,4.000000,100.000000
1602006668.067966,103.000000,0.000000,4151.282227,4154.358887,4143.077148,4147.692383,4128.205078,4145.641113,4142.051270,4137.948730,4143.589844,4142.051270,4152.307617,4166.666504,4132.820313,4133.846191,839.000000,4.000000,,,,0.000000,4.000000,4.000000,4.000000,4.000000,4.000000,4.000000,4.000000,4.000000,4.000000,4.000000,4.000000,4.000000,4.000000,4.000000,100.000000
1602006668.075847,104.000000,0.000000,4154.358887,4149.230957,4152.307617,4140.000000,4138.461426,4139.487305,4140.512695,4135.897461,4141.025879,4150.769043,4149.743652,4155.897461,4133.333496,4144.615234,769.000000,4.000000,,,,0.000000,4.000000,4.000000,4.000000,4.000000,4.000000,4.000000,4.000000,4.000000,4.000000,4.000000,4.000000,4.000000,4.000000,4.000000,100.000000
1602006668.083728,105.000000,0.000000,4161.538574,4150.769043,4157.948730,4143.077148,4140.512695,4142.051270,4142.051270,4138.974121,4130.769043,4153.846191,4150.769043,4155.384766,4137.948730,4152.820313,725.000000,4.000000,,,,0.000000,4.000000,4.000000,4.000000,4.000000,4.000000,4.000000,4.000000,4.000000,4.000000,4.000000,4.000000,4.000000,4.000000,4.000000,100.000000
1602006668.091708,106.000000,0.000000,4155.897461,4153.846191,4149.743652,4146.153809,4136.922852,4145.641113,4142.051270,4142.051270,4133.846191,4147.692383,4146.666504,4153.333496,4136.410156,4142.051270,876.000000,4.000000,,,,0.000000,4.000000,4.000000,4.000000,4.000000,4.000000,4.000000,4.000000,4.000000,4.000000,4.000000,4.000000,4.000000,4.000000,4.000000,100.000000
1602006668.099589,107.000000,0.000000,4152.820313,4150.769043,4138.974121,4140.512695,4136.410156,4138.461426,4131.794922,4137.948730,4137.948730,4147.179688,4138.461426,4138.974121,4131.794922,4135.897461,839.000000,4.000000,,,,0.000000,4.000000,4.000000,4.000000,4.000000,4.000000,4.000000,4.000000,4.000000,4.000000,4.000000,4.000000,4.000000,4.000000,4.000000,100.000000
1602006668.107569,108.000000,0.000000,4152.820313,4151.794922,4133.333496,4137.948730,4138.974121,4131.794922,4123.077148,4135.384766,4136.922852,4164.102539,4136.922852,4134.358887,4127.179688,4135.897461,769.000000,4.000000,,,,0.000000,4.000000,4.000000,4.000000,4.000000,4.000000,4.000000,4.000000,4.000000,4.000000,4.000000,4.000000,4.000000,4.000000,4.000000,100.000000
1602006668.115550,109.000000,0.000000,4141.538574,4148.205078,4126.666504,4138.974121,4133.333496,4123.589844,4121.025879,4134.871582,4133.846191,4158.461426,4129.743652,4135.897461,4119.487305,4124.615234,725.000000,4.000000,,,,0.000000,4.000000,4.000000,4.000000,4.000000,4.000000,4.000000,4.000000,4.000000,4.000000,4.000000,4.000000,4.000000,4.000000,4.000000,100.000000
1602006668.123431,110.000000,0.000000,4136.922852,4140.000000,4129.743652,4138.461426,4122.563965,4116.922852,4121.538574,4134.358887,4134.871582,4135.897461,4121.538574,4135.897461,4117.948730,4126.153809,876.000000,4.000000,,,,0.000000,4.000000,4.000000,4.000000,4.000000,4.000000,4.000000,4.000000,4.000000,4.000000,4.000000,4.000000,4.000000,4.000000,4.000000,100.000000
1602006668.131312,111.000000,0.000000,4154.358887,4140.512695,4147.179688,4140.000000,4120.000000,4121.025879,4127.692383,4138.974121,4136.922852,4138.974121,4134.871582,4145.128418,4130.769043,4149.230957,839.000000,4.000000,,,,0.000000,4.000000,4.000000,4.000000,4.000000,4.000000,4.000000,4.000000,4.000000,4.000000,4.000000,4.000000,4.000000,4.000000,4.000000,100.000000
1602006668.139193,112.000000,0.000000,4159.487305,4145.641113,4160.000000,4143.077148,4126.666504,4133.846191,4136.410156,4138.974121,4128.205078,4144.102539,4148.205078,4156.410156,4137.948730,4154.358887,769.000000,4.000000,,,,0.000000,4.000000,4.000000,4.000000,4.000000,4.000000,4.000000,4.000000,4.000000,4.000000,4.000000,4.000000,4.000000,4.000000,4.000000,100.000000
1602006668.147074,113.000000,0.000000,4143.589844,4142.563965,4154.358887,4142.051270,4132.307617,4139.487305,4138.461426,4131.282227,4120.000000,4131.794922,4145.128418,4157.948730,4129.743652,4145.128418,725.000000,4.000000,,,,0.000000,4.000000,4.000000,4.000000,4.000000,4.000000,4.000000,4.000000,4.000000,4.000000,4.000000,4.000000,4.000000,4.000000,4.000000,100.000000
1602006668.154955,114.000000,0.000000,4141.025879,4137.436035,4142.563965,4139.487305,4132.820313,4135.384766,4136.410156,4130.769043,4122.563965,4138.974121,4141.538574,4153.846191,4128.205078,4150.769043,876.000000,4.000000,,,,0.000000,4.000000,4.000000,4.000000,4.000000,4.000000,4.000000,4.000000,4.000000,4.000000,4.000000,4.000000,4.000000,4.000000,4.000000,100.000000
1602006668.162836,115.000000,0.000000,4154.871582,4146.666504,4141.025879,4141.538574,4134.871582,4134.358887,4139.487305,4139.487305,4126.153809,4166.153809,4147.692383,4157.436035,4142.563965,4164.102539,839.000000,4.000000,,,,0.000000,4.000000,4.000000,4.000000,4.000000,4.000000,4.000000,4.000000,4.000000,4.000000,4.000000,4.000000,4.000000,4.000000,4.000000,100.000000
1602006668.170617,116.000000,0.000000,4157.436035,4155.897461,4141.025879,4143.077148,4138.461426,4144.102539,4148.205078,4145.128418,4121.538574,4173.846191,4154.358887,4164.102539,4148.717773,4166.666504,769.000000,4.000000,,,,0.000000,4.000000,4.000000,4.000000,4.000000,4.000000,4.000000,4.000000,4.000000,4.000000,4.000000,4.000000,4.000000,4.000000,4.000000,100.000000
1602006668.178498,117.000000,0.000000,4146.153809,4150.769043,4127.692383,4141.538574,4134.871582,4147.692383,4150.256348,4143.077148,4117.436035,4160.000000,4148.205078,4155.897461,4138.461426,4161.538574,725.000000,4.000000,,,,0.000000,4.000000,4.000000,4.000000,4.000000,4.000000,4.000000,4.000000,4.000000,4.000000,4.000000,4.000000,4.000000,4.000000,4.000000,100.000000
1602006668.186379,118.000000,0.000000,4138.974121,4141.025879,4116.410156,4138.461426,4127.179688,4141.538574,4143.077148,4140.512695,4123.589844,4146.666504,4136.922852,4140.000000,4136.410156,4153.333496,876.000000,4.000000,,,,0.000000,4.000000,4.000000,4.000000,4.000000,4.000000,4.000000,4.000000,4.000000,4.000000,4.000000,4.000000,4.000000,4.000000,4.000000,100.000000
1602006668.194259,119.000000,0.000000,4135.384766,4138.974121,4117.948730,4136.922852,4124.615234,4137.436035,4138.461426,4139.487305,4130.769043,4135.897461,4137.948730,4128.205078,4138.974121,4139.487305,839.000000,4.000000,,,,0.000000,4.000000,4.000000,4.000000,4.000000,4.000000,4.000000,4.000000,4.000000,4.000000,4.000000,4.000000,4.000000,4.000000,4.000000,100.000000
1602006668.202140,120.000000,0.000000,4127.692383,4137.948730,4122.051270,4136.410156,4125.128418,4139.487305,4134.358887,4142.051270,4125.641113,4137.436035,4137.436035,4127.179688,4130.769043,4134.871582,769.000000,4.000000,,,,0.000000,4.000000,4.000000,4.000000,4.000000,4.000000,4.000000,4.000000,4.000000,4.000000,4.000000,4.000000,4.000000,4.000000,4.000000,100.000000
1602006668.210021,121.000000,0.000000,4122.563965,4133.846191,4123.589844,4135.897461,4122.051270,4133.333496,4125.128418,4135.897461,4116.410156,4147.179688,4128.205078,4131.794922,4116.410156,4134.358887,725.000000,4.000000,,,,0.000000,4.000000,4.000000,4.000000,4.000000,4.000000,4.000000,4.000000,4.000000,4.000000,4.000000,4.000000,4.000000,4.000000,4.000000,100.000000
1602006668.217902,122.000000,0.000000,4127.179688,4132.307617,4129.230957,4135.897461,4118.974121,4118.974121,4118.974121,4126.153809,4116.410156,4146.153809,4130.256348,4136.410156,4117.948730,4132.820313,876.000000,4.000000,,,,0.000000,4.000000,4.000000,4.000000,4.000000,4.000000,4.000000,4.000000,4.000000,4.000000,4.000000,4.000000,4.000000,4.000000,4.000000,100.000000
1602006668.225783,123.000000,0.000000,4144.102539,4135.384766,4142.051270,4138.974121,4125.128418,4116.922852,4121.025879,4130.769043,4121.538574,4150.256348,4140.000000,4143.077148,4134.358887,4144.615234,839.000000,4.000000,,,,0.000000,4.000000,4.000000,4.000000,4.000000,4.000000,4.000000,4.000000,4.000000,4.000000,4.000000,4.000000,4.000000,4.000000,4.000000,100.000000
1602006668.233764,124.000000,0.000000,4156.410156,4141.025879,4153.333496,4145.128418,4131.794922,4121.025879,4127.179688,4139.487305,4123.077148,4164.615234,4139.487305,4152.820313,4142.051270,4160.512695,769.000000,4.000000,,,,0.000000,4.000000,4.000000,4.000000,4.000000,4.000000,4.000000,4.000000,4.000000,4.000000,4.000000,4.000000,4.000000,4.000000,4.000000,100.000000
1602006668.241644,125.000000,0.000000,4161.025879,4147.179688,4155.897461,4146.153809,4128.717773,4119.487305,4136.922852,4140.512695,4114.358887,4151.794922,4134.871582,4157.948730,4136.922852,4161.538574,725.000000,4.000000,,,,0.000000,4.000000,4.000000,4.000000,4.000000,4.000000,4.000000,4.000000,4.000000,4.000000,4.000000,4.000000,4.000000,4.000000,4.000000,100.000000
1602006668.249625,126.000000,0.000000,4168.205078,4149.230957,4160.000000,4140.512695,4122.563965,4126.666504,4141.025879,4137.948730,4111.282227,4128.205078,4142.051270,4157.948730,4133.333496,4167.179688,876.000000,4.000000,,,,0.000000,4.000000,4.000000,4.000000,4.000000,4.000000,4.000000,4.000000,4.000000,4.000000,4.000000,4.000000,4.000000,4.000000,4.000000,100.000000
1602006668.257506,127.000000,0.000000,4174.358887,4152.307617,4168.717773,4142.051270,4123.077148,4141.025879,4140.512695,4140.512695,4121.025879,4145.641113,4155.897461,4164.102539,4145.641113,4180.512695,839.000000,4.000000,,,,0.000000,4.000000,4.000000,4.000000,4.000000,4.000000,4.000000,4.000000,4.000000,4.000000,4.000000,4.000000,4.000000,4.000000,4.000000,100.000000
1602006668.265387,128.000000,0.000000,4172.820313,4155.897461,4171.794922,4151.282227,4125.641113,4146.666504,4145.641113,4147.692383,4126.666504,4174.358887,4160.512695,4171.282227,4160.000000,4173.846191,769.000000,4.000000,,,,0.000000,4.000000,4.000000,4.000000,4.000000,4.000000,4.000000,4.000000,4.000000,4.000000,4.000000,4.000000,4.000000,4.000000,4.000000,100.000000
1602006668.273268,0.000000,0.000000,4165.128418,4154.358887,4165.641113,4154.871582,4124.615234,4142.051270,4142.051270,4148.205078,4122.051270,4163.077148,4154.871582,4168.717773,4152.820313,4155.897461,793.000000,4.000000,,,,0.000000,4.000000,4.000000,4.000000,4.000000,4.000000,4.000000,4.000000,4.000000,4.000000,4.000000,4.000000,4.000000,4.000000,4.000000,100.000000
1602006668.281149,1.000000,0.000000,4161.025879,4151.794922,4156.410156,4150.769043,4122.563965,4130.769043,4127.179688,4140.000000,4121.025879,4146.666504,4150.769043,4166.666504,4138.461426,4150.769043,786.000000,4.000000,,,,0.000000,4.000000,4.000000,4.000000,4.000000,4.000000,4.000000,4.000000,4.000000,4.000000,4.000000,4.000000,4.000000,4.000000,4.000000,100.000000
1602006668.289030,2.000000,0.000000,4162.563965,4154.871582,4153.333496,4146.153809,4127.692383,4122.051270,4121.025879,4138.974121,4122.563965,4154.358887,4154.358887,4167.692383,4138.974121,4156.410156,853.000000,4.000000,,,,0.000000,4.000000,4.000000,4.000000,4.000000,4.000000,4.000000,4.000000,4.000000,4.000000,4.000000,4.000000,4.000000,4.000000,4.000000,100.000000
1602006668.296911,3.000000,0.000000,4160.512695,4153.333496,4151.794922,4142.051270,4134.871582,4125.128418,4122.051270,4143.077148,4122.563965,4154.358887,4154.358887,4162.051270,4141.538574,4157.436035,871.000000,4.000000,,,,0.000000,4.000000,4.000000,4.000000,4.000000,4.000000,4.000000,4.000000,4.000000,4.000000,4.000000,4.000000,4.000000,4.000000,4.000000,100.000000
1602006668.304692,4.000000,0.000000,4148.717773,4143.589844,4141.025879,4140.000000,4136.922852,4127.692383,4121.025879,4138.974121,4126.153809,4143.589844,4148.205078,4151.282227,4133.846191,4151.282227,818.000000,4.000000,,,,0.000000,4.000000,4.000000,4.000000,4.000000,4.000000,4.000000,4.000000,4.000000,4.000000,4.000000,4.000000,4.000000,4.000000,4.000000,100.000000
1602006668.312573,5.000000,0.000000,4145.641113,4137.948730,4135.384766,4138.974121,4136.410156,4128.205078,4120.000000,4135.384766,4128.717773,4146.666504,4150.256348,4148.205078,4137.436035,4151.794922,823.000000,4.000000,,,,0.000000,4.000000,4.000000,4.000000,4.000000,4.000000,4.000000,4.000000,4.000000,4.000000,4.000000,4.000000,4.000000,4.000000,4.000000,100.000000
1602006668.320454,6.000000,0.000000,4152.307617,4137.436035,4138.461426,4131.794922,4132.820313,4137.436035,4124.615234,4138.974121,4128.717773,4166.153809,4152.307617,4144.102539,4141.538574,4149.743652,761.000000,4.000000,,,,0.000000,4.000000,4.000000,4.000000,4.000000,4.000000,4.000000,4.000000,4.000000,4.000000,4.000000,4.000000,4.000000,4.000000,4.000000,100.000000
1602006668.328335,7.000000,0.000000,4145.641113,4135.897461,4130.769043,4125.128418,4122.563965,4136.922852,4127.179688,4139.487305,4122.563965,4173.846191,4134.358887,4134.871582,4130.256348,4136.410156,685.000000,4.000000,,,,0.000000,4.000000,4.000000,4.000000,4.000000,4.000000,4.000000,4.000000,4.000000,4.000000,4.000000,4.000000,4.000000,4.000000,4.000000,100.000000
1602006668.336216,8.000000,0.000000,4136.922852,4134.358887,4125.128418,4131.282227,4118.461426,4125.128418,4127.179688,4137.948730,4113.333496,4153.846191,4122.051270,4141.025879,4126.153809,4138.461426,779.000000,4.000000,,,,0.000000,4.000000,4.000000,4.000000,4.000000,4.000000,4.000000,4.000000,4.000000,4.000000,4.000000,4.000000,4.000000,4.000000,4.000000,100.000000
1602006668.344096,9.000000,0.000000,4140.000000,4136.922852,4136.410156,4139.487305,4123.589844,4122.563965,4126.153809,4132.307617,4114.871582,4130.256348,4144.615234,4150.769043,4136.922852,4153.333496,851.000000,4.000000,,,,0.000000,4.000000,4.000000,4.000000,4.000000,4.000000,4.000000,4.000000,4.000000,4.000000,4.000000,4.000000,4.000000,4.000000,4.000000,100.000000
1602006668.351977,10.000000,0.000000,4144.102539,4142.563965,4142.563965,4137.436035,4124.102539,4126.153809,4119.487305,4123.077148,4121.538574,4141.025879,4167.692383,4147.692383,4148.205078,4152.307617,876.000000,4.000000,,,,0.000000,4.000000,4.000000,4.000000,4.000000,4.000000,4.000000,4.000000,4.000000,4.000000,4.000000,4.000000,4.000000,4.000000,4.000000,100.000000
1602006668.359858,11.000000,0.000000,4141.025879,4143.589844,4137.948730,4134.871582,4121.538574,4125.128418,4114.358887,4123.589844,4121.538574,4161.025879,4162.563965,4145.641113,4154.871582,4151.282227,839.000000,4.000000,,,,0.000000,4.000000,4.000000,4.000000,4.000000,4.000000,4.000000,4.000000,4.000000,4.000000,4.000000,4.000000,4.000000,4.000000,4.000000,100.000000
1602006668.367839,12.000000,0.000000,4126.153809,4134.358887,4136.410156,4135.897461,4121.538574,4121.025879,4115.384766,4132.307617,4115.384766,4144.102539,4149.230957,4145.641113,4153.333496,4155.384766,769.000000,4.000000,,,,0.000000,4.000000,4.000000,4.000000,4.000000,4.000000,4.000000,4.000000,4.000000,4.000000,4.000000,4.000000,4.000000,4.000000,4.000000,100.000000
1602006668.375720,13.000000,0.000000,4112.820313,4126.153809,4133.333496,4130.256348,4122.563965,4119.487305,4119.487305,4136.410156,4112.307617,4129.743652,4141.538574,4141.538574,4136.922852,4143.589844,761.000000,4.000000,,,,0.000000,4.000000,4.000000,4.000000,4.000000,4.000000,4.000000,4.000000,4.000000,4.000000,4.000000,4.000000,4.000000,4.000000,4.000000,100.000000
1602006668.383601,14.000000,0.000000,4115.384766,4126.666504,4123.589844,4124.615234,4123.077148,4122.563965,4121.025879,4136.922852,4109.230957,4143.589844,4134.358887,4140.000000,4124.615234,4134.358887,876.000000,4.000000,,,,0.000000,4.000000,4.000000,4.000000,4.000000,4.000000,4.000000,4.000000,4.000000,4.000000,4.000000,4.000000,4.000000,4.000000,4.000000,100.000000
1602006668.391482,15.000000,0.000000,4121.025879,4129.743652,4119.487305,4128.205078,4127.179688,4126.666504,4120.512695,4137.948730,4109.230957,4146.666504,4130.769043,4140.512695,4126.666504,4138.974121,839.000000,4.000000,,,,0.000000,4.000000,4.000000,4.000000,4.000000,4.000000,4.000000,4.000000,4.000000,4.000000,4.000000,4.000000,4.000000,4.000000,4.000000,100.000000
1602006668.399363,16.000000,0.000000,4121.538574,4141.538574,4128.205078,4138.461426,4136.410156,4129.743652,4122.563965,4140.000000,4118.974121,4138.974121,4140.512695,4145.128418,4136.410156,4142.563965,0.000000,4.000000,,,,0.000000,4.000000,4.000000,4.000000,4.000000,4.000000,4.000000,4.000000,4.000000,4.000000,4.000000,4.000000,4.000000,4.000000,4.000000,100.000000
1602006668.407344,17.000000,0.000000,4127.179688,4152.307617,4140.000000,4142.051270,4140.512695,4128.717773,4125.128418,4140.000000,4128.717773,4150.769043,4157.436035,4152.307617,4148.205078,4144.615234,0.000000,4.000000,,,,0.000000,4.000000,4.000000,4.000000,4.000000,4.000000,4.000000,4.000000,4.000000,4.000000,4.000000,4.000000,4.000000,4.000000,4.000000,100.000000
1602006668.415225,18.000000,0.000000,4126.153809,4142.563965,4137.948730,4135.897461,4136.922852,4123.589844,4119.487305,4132.307617,4126.153809,4161.025879,4158.461426,4147.692383,4145.128418,4137.948730,0.000000,4.000000,,,,0.000000,4.000000,4.000000,4.000000,4.000000,4.000000,4.000000,4.000000,4.000000,4.000000,4.000000,4.000000,4.000000,4.000000,4.000000,100.000000
1602006668.423106,19.000000,0.000000,4126.153809,4140.000000,4134.358887,4140.512695,4135.897461,4122.051270,4117.436035,4128.205078,4122.051270,4161.538574,4153.846191,4143.077148,4134.871582,4133.333496,0.000000,4.000000,,,,0.000000,4.000000,4.000000,4.000000,4.000000,4.000000,4.000000,4.000000,4.000000,4.000000,4.000000,4.000000,4.000000,4.000000,4.000000,100.000000
1602006668.430986,20.000000,0.000000,4145.641113,4161.538574,4147.179688,4155.897461,4140.000000,4130.256348,4131.794922,4134.871582,4124.615234,4158.974121,4159.487305,4152.820313,4145.128418,4145.641113,0.000000,4.000000,,,,0.000000,4.000000,4.000000,4.000000,4.000000,4.000000,4.000000,4.000000,4.000000,4.000000,4.000000,4.000000,4.000000,4.000000,4.000000,100.000000
1602006668.438867,21.000000,0.000000,4155.384766,4169.230957,4153.846191,4160.000000,4140.512695,4130.769043,4136.410156,4138.974121,4122.563965,4136.410156,4161.025879,4155.384766,4159.487305,4149.743652,0.000000,4.000000,,,,0.000000,4.000000,4.000000,4.000000,4.000000,4.000000,4.000000,4.000000,4.000000,4.000000,4.000000,4.000000,4.000000,4.000000,4.000000,100.000000
1602006668.446748,22.000000,0.000000,4143.077148,4156.922852,4141.538574,4151.794922,4141.538574,4124.615234,4124.102539,4134.358887,4122.563965,4122.563965,4156.922852,4143.077148,4151.794922,4141.538574,0.000000,4.000000,,,,0.000000,4.000000,4.000000,4.000000,4.000000,4.000000,4.000000,4.000000,4.000000,4.000000,4.000000,4.000000,4.000000,4.000000,4.000000,100.000000
1602006668.454629,23.000000,0.000000,4136.922852,4151.282227,4135.384766,4144.615234,4142.051270,4133.333496,4121.025879,4130.769043,4126.666504,4140.512695,4151.794922,4140.512695,4141.025879,4141.025879,0.000000,4.000000,,,,0.000000,4.000000,4.000000,4.000000,4.000000,4.000000,4.000000,4.000000,4.000000,4.000000,4.000000,4.000000,4.000000,4.000000,4.000000,100.000000
1602006668.462610,24.000000,0.000000,4143.589844,4146.153809,4137.436035,4140.512695,4138.974121,4136.410156,4125.641113,4124.615234,4121.025879,4151.282227,4141.538574,4149.743652,4139.487305,4140.512695,0.000000,4.000000,,,,0.000000,4.000000,4.000000,4.000000,4.000000,4.000000,4.000000,4.000000,4.000000,4.000000,4.000000,4.000000,4.000000,4.000000,4.000000,100.000000
1602006668.470491,25.000000,0.000000,4156.410156,4142.563965,4138.974121,4139.487305,4136.922852,4123.077148,4127.179688,4117.948730,4116.410156,4150.769043,4143.589844,4163.077148,4141.025879,4145.128418,0.000000,4.000000,,,,0.000000,4.000000,4.000000,4.000000,4.000000,4.000000,4.000000,4.000000,4.000000,4.000000,4.000000,4.000000,4.000000,4.000000,4.000000,100.000000
1602006668.478372,26.000000,0.000000,4160.512695,4148.205078,4142.051270,4139.487305,4138.974121,4122.051270,4128.717773,4123.077148,4123.077148,4155.384766,4155.897461,4170.256348,4147.179688,4160.000000,0.000000,4.000000,,,,0.000000,4.000000,4.000000,4.000000,4.000000,4.000000,4.000000,4.000000,4.000000,4.000000,4.000000,4.000000,4.000000,4.000000,4.000000,100.000000
1602006668.486253,27.000000,0.000000,4148.205078,4146.666504,4136.922852,4136.922852,4137.948730,4137.436035,4126.666504,4123.589844,4115.384766,4140.512695,4149.743652,4157.948730,4146.153809,4154.871582,0.000000,4.000000,,,,0.000000,4.000000,4.000000,4.000000,4.000000,4.000000,4.000000,4.000000,4.000000,4.000000,4.000000,4.000000,4.000000,4.000000,4.000000,100.000000
1602006668.494134,28.000000,0.000000,4133.333496,4134.871582,4121.538574,4137.948730,4135.384766,4138.461426,4120.000000,4112.820313,4094.358887,4115.897461,4136.922852,4138.461426,4136.922852,4138.461426,0.000000,4.000000,,,,0.000000,4.000000,4.000000,4.000000,4.000000,4.000000,4.000000,4.000000,4.000000,4.000000,4.000000,4.000000,4.000000,4.000000,4.000000,100.000000
1602006668.502015,29.000000,0.000000,4126.666504,4136.922852,4114.358887,4135.897461,4139.487305,4129.230957,4118.974121,4109.230957,4096.922852,4129.743652,4138.974121,4133.846191,4130.256348,4133.846191,0.000000,4.000000,,,,0.000000,4.000000,4.000000,4.000000,4.000000,4.000000,4.000000,4.000000,4.000000,4.000000,4.000000,4.000000,4.000000,4.000000,4.000000,100.000000
1602006668.509996,30.000000,0.000000,4129.743652,4143.077148,4120.000000,4131.282227,4136.410156,4125.128418,4123.077148,4120.512695,4122.051270,4160.000000,4140.000000,4138.974121,4126.153809,4127.692383,0.000000,4.000000,,,,0.000000,4.000000,4.000000,4.000000,4.000000,4.000000,4.000000,4.000000,4.000000,4.000000,4.000000,4.000000,4.000000,4.000000,4.000000,100.000000
1602006668.517877,31.000000,0.000000,4138.461426,4126.666504,4127.179688,4147.692383,4122.051270,4125.641113,4132.307617,4133.846191,4132.820313,4162.563965,4135.384766,4140.000000,4121.025879,4121.538574,0.000000,4.000000,,,,0.000000,4.000000,4.000000,4.000000,4.000000,4.000000,4.000000,4.000000,4.000000,4.000000,4.000000,4.000000,4.000000,4.000000,4.000000,100.000000
1602006668.525758,32.000000,0.000000,4139.487305,4123.589844,4134.358887,4158.974121,4122.051270,4132.820313,4138.461426,4136.410156,4129.230957,4148.717773,4136.922852,4148.205078,4121.538574,4126.153809,0.000000,4.000000,,,,0.000000,4.000000,4.000000,4.000000,4.000000,4.000000,4.000000,4.000000,4.000000,4.000000,4.000000,4.000000,4.000000,4.000000,4.000000,100.000000
1602006668.533639,33.000000,0.000000,4145.128418,4150.256348,4150.256348,4140.000000,4138.461426,4139.487305,4137.436035,4137.436035,4138.974121,4151.282227,4149.743652,4167.692383,4141.025879,4139.487305,0.000000,4.000000,,,,0.000000,4.000000,4.000000,4.000000,4.000000,4.000000,4.000000,4.000000,4.000000,4.000000,4.000000,4.000000,4.000000,4.000000,4.000000,100.000000
1602006668.541520,34.000000,0.000000,4160.512695,4156.410156,4160.000000,4131.794922,4143.077148,4138.974121,4136.410156,4138.461426,4147.179688,4163.589844,4164.615234,4177.948730,4157.948730,4151.282227,0.000000,4.000000,,,,0.000000,4.000000,4.000000,4.000000,4.000000,4.000000,4.000000,4.000000,4.000000,4.000000,4.000000,4.000000,4.000000,4.000000,4.000000,100.000000
1602006668.549402,35.000000,0.000000,4152.307617,4125.128418,4145.641113,4143.589844,4136.410156,4138.974121,4132.307617,4129.230957,4127.692383,4143.077148,4161.025879,4167.179688,4146.666504,4150.769043,0.000000,4.000000,,,,0.000000,4.000000,4.000000,4.000000,4.000000,4.000000,4.000000,4.000000,4.000000,4.000000,4.000000,4.000000,4.000000,4.000000,4.000000,100.000000
1602006668.557283,36.000000,0.000000,4127.692383,4104.615234,4127.179688,4136.922852,4135.897461,4133.846191,4125.641113,4112.820313,4097.436035,4102.563965,4138.974121,4148.717773,4125.641113,4131.794922,0.000000,4.000000,,,,0.000000,4.000000,4.000000,4.000000,4.000000,4.000000,4.000000,4.000000,4.000000,4.000000,4.000000,4.000000,4.000000,4.000000,4.000000,100.000000
1602006668.565164,37.000000,0.000000,4121.025879,4103.589844,4124.102539,4119.487305,4135.897461,4120.512695,4124.615234,4104.615234,4088.205078,4100.512695,4123.589844,4137.436035,4114.871582,4111.282227,0.000000,4.000000,,,,0.000000,4.000000,4.000000,4.000000,4.000000,4.000000,4.000000,4.000000,4.000000,4.000000,4.000000,4.000000,4.000000,4.000000,4.000000,100.000000
1602006668.573045,38.000000,0.000000,4122.563965,4101.025879,4123.589844,4122.563965,4132.820313,4113.333496,4125.128418,4108.205078,4091.794922,4124.102539,4120.000000,4135.384766,4106.666504,4112.820313,0.000000,4.000000,,,,0.000000,4.000000,4.000000,4.000000,4.000000,4.000000,4.000000,4.000000,4.000000,4.000000,4.000000,4.000000,4.000000,4.000000,4.000000,100.000000
1602006668.580926,39.000000,0.000000,4127.179688,4111.794922,4124.615234,4135.384766,4137.436035,4118.974121,4121.538574,4114.871582,4094.358887,4124.615234,4122.563965,4147.179688,4112.307617,4129.743652,0.000000,4.000000,,,,0.000000,4.000000,4.000000,4.000000,4.000000,4.000000,4.000000,4.000000,4.000000,4.000000,4.000000,4.000000,4.000000,4.000000,4.000000,100.000000
1602006668.588707,40.000000,0.000000,4140.000000,4125.128418,4138.461426,4143.589844,4136.410156,4125.128418,4120.000000,4120.000000,4099.487305,4121.538574,4132.307617,4159.487305,4132.820313,4137.436035,0.000000,4.000000,,,,0.000000,4.000000,4.000000,4.000000,4.000000,4.000000,4.000000,4.000000,4.000000,4.000000,4.000000,4.000000,4.000000,4.000000,4.000000,100.000000
1602006668.596588,41.000000,0.000000,4141.538574,4124.615234,4141.025879,4136.410156,4123.589844,4122.563965,4118.974121,4122.563965,4103.077148,4129.743652,4132.307617,4157.948730,4131.794922,4124.615234,0.000000,4.000000,,,,0.000000,4.000000,4.000000,4.000000,4.000000,4.000000,4.000000,4.000000,4.000000,4.000000,4.000000,4.000000,4.000000,4.000000,4.000000,100.000000
1602006668.604468,42.000000,0.000000,4128.205078,4120.000000,4127.692383,4122.563965,4120.512695,4122.051270,4118.974121,4123.077148,4103.077148,4126.666504,4135.897461,4154.358887,4117.948730,4111.282227,0.000000,4.000000,,,,0.000000,4.000000,4.000000,4.000000,4.000000,4.000000,4.000000,4.000000,4.000000,4.000000,4.000000,4.000000,4.000000,4.000000,4.000000,100.000000
1602006668.612449,43.000000,0.000000,4123.589844,4120.512695,4121.538574,4120.512695,4126.153809,4133.333496,4122.563965,4124.102539,4104.615234,4120.512695,4149.743652,4150.256348,4120.512695,4114.358887,0.000000,4.000000,,,,0.000000,4.000000,4.000000,4.000000,4.000000,4.000000,4.000000,4.000000,4.000000,4.000000,4.000000,4.000000,4.000000,4.000000,4.000000,100.000000
1602006668.620430,44.000000,0.000000,4120.512695,4119.487305,4123.077148,4122.563965,4121.025879,4135.897461,4122.563965,4124.102539,4108.717773,4118.461426,4147.179688,4140.000000,4126.666504,4122.563965,0.000000,4.000000,,,,0.000000,4.000000,4.000000,4.000000,4.000000,4.000000,4.000000,4.000000,4.000000,4.000000,4.000000,4.000000,4.000000,4.000000,4.000000,100.000000
1602006668.628310,45.000000,0.000000,4112.820313,4119.487305,4121.025879,4124.102539,4118.974121,4124.102539,4120.512695,4125.641113,4124.102539,4128.717773,4133.846191,4136.410156,4122.051270,4123.589844,0.000000,4.000000,,,,0.000000,4.000000,4.000000,4.000000,4.000000,4.000000,4.000000,4.000000,4.000000,4.000000,4.000000,4.000000,4.000000,4.000000,4.000000,100.000000
1602006668.636191,46.000000,0.000000,4114.871582,4125.641113,4115.384766,4131.282227,4132.307617,4122.563965,4129.230957,4130.256348,4142.051270,4150.769043,4134.871582,4135.897461,4117.948730,4120.512695,0.000000,4.000000,,,,0.000000,4.000000,4.000000,4.000000,4.000000,4.000000,4.000000,4.000000,4.000000,4.000000,4.000000,4.000000,4.000000,4.000000,4.000000,100.000000
1602006668.644072,47.000000,0.000000,4122.051270,4128.205078,4109.230957,4137.436035,4138.461426,4127.692383,4134.358887,4129.230957,4138.461426,4151.794922,4138.974121,4124.615234,4118.974121,4116.410156,0.000000,4.000000,,,,0.000000,4.000000,4.000000,4.000000,4.000000,4.000000,4.000000,4.000000,4.000000,4.000000,4.000000,4.000000,4.000000,4.000000,4.000000,100.000000
1602006668.651953,48.000000,0.000000,4121.538574,4130.769043,4109.743652,4135.384766,4134.871582,4123.589844,4124.615234,4125.641113,4130.769043,4136.410156,4135.384766,4126.153809,4121.538574,4111.282227,0.000000,4.000000,,,,0.000000,4.000000,4.000000,4.000000,4.000000,4.000000,4.000000,4.000000,4.000000,4.000000,4.000000,4.000000,4.000000,4.000000,4.000000,100.000000
1602006668.659834,49.000000,0.000000,4119.487305,4138.974121,4118.461426,4132.820313,4137.948730,4122.563965,4120.000000,4126.666504,4134.871582,4136.410156,4134.358887,4141.025879,4123.589844,4106.666504,0.000000,4.000000,,,,0.000000,4.000000,4.000000,4.000000,4.000000,4.000000,4.000000,4.000000,4.000000,4.000000,4.000000,4.000000,4.000000,4.000000,4.000000,100.000000
1602006668.667615,50.000000,0.000000,4128.717773,4141.538574,4127.179688,4131.794922,4138.461426,4121.538574,4126.153809,4128.717773,4130.256348,4127.692383,4135.384766,4141.025879,4123.589844,4111.282227,0.000000,4.000000,,,,0.000000,4.000000,4.000000,4.000000,4.000000,4.000000,4.000000,4.000000,4.000000,4.000000,4.000000,4.000000,4.000000,4.000000,4.000000,100.000000
1602006668.675496,51.000000,0.000000,4143.589844,4134.871582,4133.846191,4133.333496,4128.717773,4113.333496,4124.102539,4131.282227,4118.974121,4117.436035,4145.641113,4142.563965,4128.205078,4125.641113,0.000000,4.000000,,,,0.000000,4.000000,4.000000,4.000000,4.000000,4.000000,4.000000,4.000000,4.000000,4.000000,4.000000,4.000000,4.000000,4.000000,4.000000,100.000000
1602006668.683377,52.000000,0.000000,4156.410156,4141.538574,4148.717773,4140.000000,4122.563965,4114.871582,4122.563965,4137.436035,4121.025879,4142.051270,4161.538574,4164.102539,4140.000000,4144.615234,0.000000,4.000000,,,,0.000000,4.000000,4.000000,4.000000,4.000000,4.000000,4.000000,4.000000,4.000000,4.000000,4.000000,4.000000,4.000000,4.000000,4.000000,100.000000
1602006668.691258,53.000000,0.000000,4160.000000,4154.871582,4161.538574,4147.692383,4124.102539,4122.051270,4128.717773,4143.589844,4129.230957,4159.487305,4156.922852,4176.922852,4147.179688,4156.410156,0.000000,4.000000,,,,0.000000,4.000000,4.000000,4.000000,4.000000,4.000000,4.000000,4.000000,4.000000,4.000000,4.000000,4.000000,4.000000,4.000000,4.000000,100.000000
1602006668.699139,54.000000,0.000000,4148.205078,4144.615234,4158.461426,4142.563965,4122.051270,4120.000000,4125.641113,4141.025879,4124.102539,4142.563965,4140.000000,4164.102539,4133.846191,4143.589844,0.000000,4.000000,,,,0.000000,4.000000,4.000000,4.000000,4.000000,4.000000,4.000000,4.000000,4.000000,4.000000,4.000000,4.000000,4.000000,4.000000,4.000000,100.000000
1602006668.707020,55.000000,0.000000,4134.358887,4123.589844,4138.461426,4127.692383,4121.025879,4118.461426,4116.922852,4127.692383,4108.717773,4125.128418,4133.846191,4143.589844,4113.333496,4118.461426,0.000000,4.000000,,,,0.000000,4.000000,4.000000,4.000000,4.000000,4.000000,4.000000,4.000000,4.000000,4.000000,4.000000,4.000000,4.000000,4.000000,4.000000,100.000000
1602006668.714901,56.000000,0.000000,4118.974121,4119.487305,4114.358887,4117.948730,4120.000000,4123.589844,4118.974121,4120.512695,4102.563965,4114.358887,4136.410156,4128.205078,4105.641113,4103.589844,0.000000,4.000000,,,,0.000000,4.000000,4.000000,4.000000,4.000000,4.000000,4.000000,4.000000,4.000000,4.000000,4.000000,4.000000,4.000000,4.000000,4.000000,100.000000
1602006668.722782,57.000000,0.000000,4110.769043,4125.128418,4105.128418,4122.051270,4120.512695,4126.153809,4126.666504,4127.179688,4114.871582,4119.487305,4129.743652,4125.641113,4107.692383,4107.179688,0.000000,4.000000,,,,0.000000,4.000000,4.000000,4.000000,4.000000,4.000000,4.000000,4.000000,4.000000,4.000000,4.000000,4.000000,4.000000,4.000000,4.000000,100.000000
1602006668.730763,58.000000,0.000000,4116.410156,4129.230957,4115.384766,4128.717773,4131.282227,4130.769043,4128.717773,4130.256348,4130.256348,4142.563965,4122.051270,4135.384766,4114.871582,4119.487305,0.000000,4.000000,,,,0.000000,4.000000,4.000000,4.000000,4.000000,4.000000,4.000000,4.000000,4.000000,4.000000,4.000000,4.000000,4.000000,4.000000,4.000000,100.000000
1602006668.738643,59.000000,0.000000,4127.692383,4133.846191,4119.487305,4124.615234,4136.922852,4134.871582,4128.717773,4124.102539,4129.743652,4150.256348,4129.230957,4140.000000,4123.077148,4126.153809,0.000000,4.000000,,,,0.000000,4.000000,4.000000,4.000000,4.000000,4.000000,4.000000,4.000000,4.000000,4.000000,4.000000,4.000000,4.000000,4.000000,4.000000,100.000000
1602006668.746524,60.000000,0.000000,4128.205078,4130.256348,4108.717773,4120.000000,4127.179688,4137.948730,4133.846191,4122.051270,4115.897461,4136.922852,4141.538574,4137.436035,4125.128418,4121.538574,0.000000,4.000000,,,,0.000000,4.000000,4.000000,4.000000,4.000000,4.000000,4.000000,4.000000,4.000000,4.000000,4.000000,4.000000,4.000000,4.000000,4.000000,100.000000
1602006668.754405,61.000000,0.000000,4122.051270,4123.077148,4105.128418,4124.102539,4123.077148,4137.436035,4137.948730,4124.102539,4104.102539,4126.153809,4143.077148,4139.487305,4125.128418,4125.641113,0.000000,4.000000,,,,0.000000,4.000000,4.000000,4.000000,4.000000,4.000000,4.000000,4.000000,4.000000,4.000000,4.000000,4.000000,4.000000,4.000000,4.000000,100.000000
1602006668.762286,62.000000,0.000000,4126.153809,4122.563965,4116.410156,4124.615234,4124.615234,4128.717773,4135.897461,4124.102539,4102.051270,4110.256348,4133.333496,4146.153809,4128.717773,4139.487305,0.000000,4.000000,,,,0.000000,4.000000,4.000000,4.000000,4.000000,4.000000,4.000000,4.000000,4.000000,4.000000,4.000000,4.000000,4.000000,4.000000,4.000000,100.000000
1602006668.770167,63.000000,0.000000,4129.743652,4120.512695,4124.615234,4116.922852,4117.436035,4124.615234,4130.769043,4121.025879,4094.358887,4093.333252,4122.563965,4144.102539,4121.025879,4132.307617,0.000000,4.000000,,,,0.000000,4.000000,4.000000,4.000000,4.000000,4.000000,4.000000,4.000000,4.000000,4.000000,4.000000,4.000000,4.000000,4.000000,4.000000,100.000000
1602006668.778048,64.000000,0.000000,4127.179688,4114.358887,4125.128418,4117.436035,4109.230957,4125.641113,4127.692383,4118.974121,4080.512939,4093.333252,4120.512695,4132.820313,4105.128418,4115.897461,793.000000,4.000000,,,,0.000000,4.000000,4.000000,4.000000,4.000000,4.000000,4.000000,4.000000,4.000000,4.000000,4.000000,4.000000,4.000000,4.000000,4.000000,100.000000
1602006668.786029,65.000000,0.000000,4129.743652,4109.230957,4124.102539,4123.077148,4107.692383,4119.487305,4125.128418,4118.974121,4076.923096,4108.205078,4124.615234,4128.205078,4104.615234,4120.512695,786.000000,4.000000,,,,0.000000,4.000000,4.000000,4.000000,4.000000,4.000000,4.000000,4.000000,4.000000,4.000000,4.000000,4.000000,4.000000,4.000000,4.000000,100.000000
1602006668.793910,66.000000,0.000000,4136.922852,4111.282227,4123.077148,4121.025879,4106.666504,4116.922852,4125.128418,4121.025879,4087.179443,4132.820313,4129.230957,4136.410156,4114.358887,4129.230957,853.000000,4.000000,,,,0.000000,4.000000,4.000000,4.000000,4.000000,4.000000,4.000000,4.000000,4.000000,4.000000,4.000000,4.000000,4.000000,4.000000,4.000000,100.000000
1602006668.801791,67.000000,0.000000,4137.436035,4120.512695,4124.102539,4121.538574,4112.307617,4118.974121,4126.666504,4130.256348,4103.589844,4143.077148,4136.922852,4142.563965,4121.538574,4120.512695,871.000000,4.000000,,,,0.000000,4.000000,4.000000,4.000000,4.000000,4.000000,4.000000,4.000000,4.000000,4.000000,4.000000,4.000000,4.000000,4.000000,4.000000,100.000000
1602006668.809672,68.000000,0.000000,4133.846191,4123.077148,4121.025879,4125.128418,4119.487305,4110.769043,4125.641113,4138.461426,4116.410156,4127.179688,4137.436035,4134.871582,4121.025879,4114.358887,818.000000,4.000000,,,,0.000000,4.000000,4.000000,4.000000,4.000000,4.000000,4.000000,4.000000,4.000000,4.000000,4.000000,4.000000,4.000000,4.000000,4.000000,100.000000
1602006668.817553,69.000000,0.000000,4134.871582,4119.487305,4109.743652,4122.051270,4120.512695,4109.230957,4122.563965,4137.436035,4125.128418,4127.692383,4127.692383,4125.128418,4114.358887,4120.000000,823.000000,4.000000,,,,0.000000,4.000000,4.000000,4.000000,4.000000,4.000000,4.000000,4.000000,4.000000,4.000000,4.000000,4.000000,4.000000,4.000000,4.000000,100.000000
1602006668.825434,70.000000,0.000000,4136.410156,4123.077148,4110.256348,4120.000000,4121.025879,4127.692383,4128.205078,4136.410156,4136.922852,4145.128418,4133.333496,4130.256348,4117.436035,4122.051270,761.000000,4.000000,,,,0.000000,4.000000,4.000000,4.000000,4.000000,4.000000,4.000000,4.000000,4.000000,4.000000,4.000000,4.000000,4.000000,4.000000,4.000000,100.000000
1602006668.833415,71.000000,0.000000,4138.461426,4123.589844,4123.077148,4122.051270,4124.102539,4143.077148,4140.512695,4137.436035,4138.974121,4125.128418,4139.487305,4143.589844,4126.153809,4121.538574,685.000000,4.000000,,,,0.000000,4.000000,4.000000,4.000000,4.000000,4.000000,4.000000,4.000000,4.000000,4.000000,4.000000,4.000000,4.000000,4.000000,4.000000,100.000000
1602006668.841296,72.000000,0.000000,4138.461426,4109.230957,4127.179688,4113.846191,4123.077148,4138.974121,4138.461426,4129.230957,4122.563965,4098.974121,4126.666504,4142.051270,4122.051270,4124.102539,779.000000,4.000000,,,,0.000000,4.000000,4.000000,4.000000,4.000000,4.000000,4.000000,4.000000,4.000000,4.000000,4.000000,4.000000,4.000000,4.000000,4.000000,100.000000
1602006668.849177,73.000000,0.000000,4135.897461,4103.077148,4128.205078,4107.179688,4119.487305,4124.615234,4125.641113,4120.512695,4112.307617,4117.948730,4116.922852,4128.205078,4109.230957,4123.077148,849.000000,4.000000,,,,0.000000,4.000000,4.000000,4.000000,4.000000,4.000000,4.000000,4.000000,4.000000,4.000000,4.000000,4.000000,4.000000,4.000000,4.000000,100.000000
1602006668.857058,74.000000,0.000000,4140.000000,4109.743652,4135.384766,4116.410156,4120.000000,4117.948730,4124.102539,4123.077148,4117.948730,4134.871582,4118.974121,4127.692383,4106.153809,4120.000000,876.000000,4.000000,,,,0.000000,4.000000,4.000000,4.000000,4.000000,4.000000,4.000000,4.000000,4.000000,4.000000,4.000000,4.000000,4.000000,4.000000,4.000000,100.000000
1602006668.864939,75.000000,0.000000,4142.051270,4113.333496,4138.974121,4124.102539,4118.974121,4121.025879,4127.179688,4125.641113,4112.820313,4124.102539,4124.615234,4136.922852,4112.820313,4125.128418,839.000000,4.000000,,,,0.000000,4.000000,4.000000,4.000000,4.000000,4.000000,4.000000,4.000000,4.000000,4.000000,4.000000,4.000000,4.000000,4.000000,4.000000,100.000000
1602006668.872820,76.000000,0.000000,4138.461426,4114.358887,4137.436035,4118.974121,4114.358887,4115.384766,4123.077148,4123.589844,4105.128418,4124.615234,4133.333496,4144.615234,4120.512695,4125.128418,769.000000,4.000000,,,,0.000000,4.000000,4.000000,4.000000,4.000000,4.000000,4.000000,4.000000,4.000000,4.000000,4.000000,4.000000,4.000000,4.000000,4.000000,100.000000
1602006668.880702,77.000000,0.000000,4145.641113,4121.025879,4140.512695,4124.102539,4115.384766,4112.820313,4125.128418,4124.615234,4106.153809,4126.153809,4138.974121,4154.358887,4126.666504,4120.512695,745.000000,4.000000,,,,0.000000,4.000000,4.000000,4.000000,4.000000,4.000000,4.000000,4.000000,4.000000,4.000000,4.000000,4.000000,4.000000,4.000000,4.000000,100.000000
1602006668.888583,78.000000,0.000000,4157.948730,4132.820313,4143.077148,4137.948730,4123.077148,4126.153809,4137.436035,4129.230957,4103.077148,4112.820313,4140.000000,4160.512695,4128.205078,4129.230957,876.000000,4.000000,,,,0.000000,4.000000,4.000000,4.000000,4.000000,4.000000,4.000000,4.000000,4.000000,4.000000,4.000000,4.000000,4.000000,4.000000,4.000000,100.000000
1602006668.896464,79.000000,0.000000,4157.436035,4135.897461,4141.025879,4138.461426,4123.077148,4127.692383,4139.487305,4129.743652,4098.974121,4103.077148,4140.512695,4156.410156,4124.615234,4140.000000,839.000000,4.000000,,,,0.000000,4.000000,4.000000,4.000000,4.000000,4.000000,4.000000,4.000000,4.000000,4.000000,4.000000,4.000000,4.000000,4.000000,4.000000,100.000000
1602006668.904445,80.000000,0.000000,4149.230957,4129.230957,4136.410156,4130.769043,4119.487305,4123.077148,4132.307617,4126.666504,4104.615234,4103.589844,4137.948730,4154.871582,4122.563965,4146.666504,769.000000,4.000000,,,,0.000000,4.000000,4.000000,4.000000,4.000000,4.000000,4.000000,4.000000,4.000000,4.000000,4.000000,4.000000,4.000000,4.000000,4.000000,100.000000
1602006668.912325,81.000000,0.000000,4142.563965,4127.179688,4130.769043,4126.153809,4123.589844,4132.820313,4130.256348,4125.128418,4108.717773,4113.846191,4136.410156,4156.410156,4121.538574,4151.794922,745.000000,4.000000,,,,0.000000,4.000000,4.000000,4.000000,4.000000,4.000000,4.000000,4.000000,4.000000,4.000000,4.000000,4.000000,4.000000,4.000000,4.000000,100.000000
1602006668.920206,82.000000,0.000000,4127.179688,4125.128418,4121.538574,4122.051270,4126.153809,4131.282227,4127.179688,4118.974121,4101.538574,4127.179688,4128.205078,4145.128418,4112.820313,4139.487305,876.000000,4.000000,,,,0.000000,4.000000,4.000000,4.000000,4.000000,4.000000,4.000000,4.000000,4.000000,4.000000,4.000000,4.000000,4.000000,4.000000,4.000000,100.000000
1602006668.928087,83.000000,0.000000,4116.410156,4114.358887,4115.897461,4118.974121,4123.077148,4116.922852,4120.000000,4111.282227,4099.487305,4124.102539,4115.384766,4131.794922,4108.717773,4116.410156,839.000000,4.000000,,,,0.000000,4.000000,4.000000,4.000000,4.000000,4.000000,4.000000,4.000000,4.000000,4.000000,4.000000,4.000000,4.000000,4.000000,4.000000,100.000000
1602006668.936067,84.000000,0.000000,4126.153809,4112.307617,4126.153809,4120.000000,4121.025879,4121.025879,4117.948730,4113.846191,4109.230957,4116.922852,4120.512695,4137.948730,4121.025879,4117.948730,769.000000,4.000000,,,,0.000000,4.000000,4.000000,4.000000,4.000000,4.000000,4.000000,4.000000,4.000000,4.000000,4.000000,4.000000,4.000000,4.000000,4.000000,100.000000
1602006668.943948,85.000000,0.000000,4139.487305,4121.538574,4142.051270,4122.563965,4122.563965,4125.641113,4121.025879,4122.563965,4119.487305,4134.871582,4140.512695,4153.846191,4136.922852,4137.948730,745.000000,4.000000,,,,0.000000,4.000000,4.000000,4.000000,4.000000,4.000000,4.000000,4.000000,4.000000,4.000000,4.000000,4.000000,4.000000,4.000000,4.000000,100.000000
1602006668.951928,86.000000,0.000000,4143.077148,4122.051270,4145.641113,4124.102539,4123.589844,4121.538574,4122.051270,4130.256348,4123.589844,4148.717773,4146.153809,4155.897461,4141.025879,4145.128418,876.000000,4.000000,,,,0.000000,4.000000,4.000000,4.000000,4.000000,4.000000,4.000000,4.000000,4.000000,4.000000,4.000000,4.000000,4.000000,4.000000,4.000000,100.000000
1602006668.959809,87.000000,0.000000,4141.538574,4119.487305,4139.487305,4122.051270,4124.615234,4131.794922,4126.666504,4137.436035,4122.051270,4131.794922,4137.436035,4154.358887,4135.384766,4149.743652,839.000000,4.000000,,,,0.000000,4.000000,4.000000,4.000000,4.000000,4.000000,4.000000,4.000000,4.000000,4.000000,4.000000,4.000000,4.000000,4.000000,4.000000,100.000000
1602006668.967690,88.000000,0.000000,4140.512695,4123.589844,4137.948730,4123.077148,4127.179688,4146.666504,4136.922852,4140.512695,4116.922852,4121.538574,4133.333496,4157.436035,4127.692383,4159.487305,769.000000,4.000000,,,,0.000000,4.000000,4.000000,4.000000,4.000000,4.000000,4.000000,4.000000,4.000000,4.000000,4.000000,4.000000,4.000000,4.000000,4.000000,100.000000
1602006668.975470,89.000000,0.000000,4136.922852,4123.077148,4135.897461,4124.615234,4123.589844,4137.436035,4138.974121,4135.384766,4110.769043,4132.307617,4131.282227,4148.717773,4122.563965,4151.282227,745.000000,4.000000,,,,0.000000,4.000000,4.000000,4.000000,4.000000,4.000000,4.000000,4.000000,4.000000,4.000000,4.000000,4.000000,4.000000,4.000000,4.000000,100.000000
1602006668.983451,90.000000,0.000000,4135.897461,4120.000000,4134.871582,4123.077148,4120.000000,4120.512695,4130.256348,4129.230957,4108.205078,4132.820313,4127.179688,4136.410156,4122.051270,4132.307617,876.000000,4.000000,,,,0.000000,4.000000,4.000000,4.000000,4.000000,4.000000,4.000000,4.000000,4.000000,4.000000,4.000000,4.000000,4.000000,4.000000,4.000000,100.000000
1602006668.991332,91.000000,0.000000,4140.512695,4127.692383,4138.461426,4127.692383,4125.128418,4118.974121,4125.641113,4127.179688,4108.205078,4109.743652,4121.025879,4138.461426,4124.615234,4126.153809,839.000000,4.000000,,,,0.000000,4.000000,4.000000,4.000000,4.000000,4.000000,4.000000,4.000000,4.000000,4.000000,4.000000,4.000000,4.000000,4.000000,4.000000,100.000000
1602006668.999213,92.000000,0.000000,4141.025879,4134.871582,4133.333496,4134.871582,4128.717773,4125.641113,4125.641113,4125.641113,4106.666504,4109.230957,4119.487305,4141.538574,4121.538574,4128.205078,769.000000,4.000000,,,,0.000000,4.000000,4.000000,4.000000,4.000000,4.000000,4.000000,4.000000,4.000000,4.000000,4.000000,4.000000,4.000000,4.000000,4.000000,100.000000
1602006669.007094,93.000000,0.000000,4139.487305,4132.820313,4127.692383,4130.769043,4123.589844,4126.153809,4123.077148,4123.077148,4105.128418,4136.410156,4131.794922,4136.922852,4120.512695,4133.333496,745.000000,4.000000,,,,0.000000,4.000000,4.000000,4.000000,4.000000,4.000000,4.000000,4.000000,4.000000,4.000000,4.000000,4.000000,4.000000,4.000000,4.000000,100.000000
1602006669.014975,94.000000,0.000000,4139.487305,4128.205078,4132.307617,4123.077148,4123.077148,4124.615234,4120.512695,4120.000000,4107.179688,4141.538574,4144.102539,4136.922852,4130.256348,4148.205078,876.000000,4.000000,,,,0.000000,4.000000,4.000000,4.000000,4.000000,4.000000,4.000000,4.000000,4.000000,4.000000,4.000000,4.000000,4.000000,4.000000,4.000000,100.000000
1602006669.022856,95.000000,0.000000,4138.461426,4126.153809,4139.487305,4122.563965,4124.102539,4123.589844,4118.974121,4118.974121,4105.641113,4127.692383,4133.333496,4143.077148,4131.794922,4153.333496,839.000000,4.000000,,,,0.000000,4.000000,4.000000,4.000000,4.000000,4.000000,4.000000,4.000000,4.000000,4.000000,4.000000,4.000000,4.000000,4.000000,4.000000,100.000000
1602006669.030837,96.000000,0.000000,4138.461426,4123.589844,4137.948730,4124.615234,4118.974121,4123.077148,4119.487305,4118.461426,4100.512695,4125.128418,4117.948730,4140.512695,4119.487305,4142.051270,769.000000,4.000000,,,,0.000000,4.000000,4.000000,4.000000,4.000000,4.000000,4.000000,4.000000,4.000000,4.000000,4.000000,4.000000,4.000000,4.000000,4.000000,100.000000
1602006669.038718,97.000000,0.000000,4142.563965,4122.051270,4138.974121,4125.128418,4117.948730,4128.717773,4123.589844,4127.179688,4099.487305,4114.358887,4121.538574,4138.461426,4115.897461,4136.410156,745.000000,4.000000,,,,0.000000,4.000000,4.000000,4.000000,4.000000,4.000000,4.000000,4.000000,4.000000,4.000000,4.000000,4.000000,4.000000,4.000000,4.000000,100.000000
1602006669.046599,98.000000,0.000000,4144.102539,4122.563965,4144.615234,4125.641113,4122.051270,4136.410156,4126.666504,4137.948730,4107.179688,4103.589844,4126.666504,4148.205078,4124.102539,4143.077148,876.000000,4.000000,,,,0.000000,4.000000,4.000000,4.000000,4.000000,4.000000,4.000000,4.000000,4.000000,4.000000,4.000000,4.000000,4.000000,4.000000,4.000000,100.000000
1602006669.054480,99.000000,0.000000,4140.000000,4122.051270,4143.589844,4124.615234,4123.077148,4127.179688,4122.563965,4138.461426,4122.051270,4127.692383,4128.205078,4151.794922,4123.589844,4145.641113,839.000000,4.000000,,,,0.000000,4.000000,4.000000,4.000000,4.000000,4.000000,4.000000,4.000000,4.000000,4.000000,4.000000,4.000000,4.000000,4.000000,4.000000,100.000000
1602006669.062362,100.000000,0.000000,4137.948730,4119.487305,4138.974121,4120.000000,4117.948730,4105.128418,4117.436035,4135.384766,4128.717773,4143.077148,4125.641113,4140.000000,4118.461426,4131.794922,769.000000,4.000000,,,,0.000000,4.000000,4.000000,4.000000,4.000000,4.000000,4.000000,4.000000,4.000000,4.000000,4.000000,4.000000,4.000000,4.000000,4.000000,100.000000
1602006669.070243,101.000000,0.000000,4138.974121,4117.948730,4140.512695,4116.922852,4121.025879,4108.205078,4120.000000,4136.922852,4118.974121,4134.871582,4120.512695,4141.025879,4124.102539,4121.538574,745.000000,4.000000,,,,0.000000,4.000000,4.000000,4.000000,4.000000,4.000000,4.000000,4.000000,4.000000,4.000000,4.000000,4.000000,4.000000,4.000000,4.000000,100.000000
1602006669.078124,102.000000,0.000000,4140.000000,4127.179688,4141.538574,4126.153809,4132.307617,4130.769043,4129.743652,4137.948730,4110.769043,4135.897461,4130.256348,4150.769043,4135.897461,4134.871582,876.000000,4.000000,,,,0.000000,4.000000,4.000000,4.000000,4.000000,4.000000,4.000000,4.000000,4.000000,4.000000,4.000000,4.000000,4.000000,4.000000,4.000000,100.000000
1602006669.086005,103.000000,0.000000,4138.461426,4138.461426,4135.384766,4134.871582,4135.384766,4139.487305,4136.410156,4135.897461,4111.794922,4131.794922,4142.051270,4142.563965,4142.563965,4152.307617,839.000000,4.000000,,,,0.000000,4.000000,4.000000,4.000000,4.000000,4.000000,4.000000,4.000000,4.000000,4.000000,4.000000,4.000000,4.000000,4.000000,4.000000,100.000000
1602006669.093886,104.000000,0.000000,4139.487305,4138.461426,4134.358887,4134.358887,4132.307617,4140.512695,4139.487305,4138.974121,4109.230957,4126.153809,4138.974121,4135.384766,4138.461426,4152.820313,769.000000,4.000000,,,,0.000000,4.000000,4.000000,4.000000,4.000000,4.000000,4.000000,4.000000,4.000000,4.000000,4.000000,4.000000,4.000000,4.000000,4.000000,100.000000
1602006669.101667,105.000000,0.000000,4145.641113,4137.948730,4140.512695,4134.871582,4130.256348,4139.487305,4138.461426,4136.922852,4098.974121,4135.384766,4137.436035,4146.666504,4136.922852,4152.307617,745.000000,4.000000,,,,0.000000,4.000000,4.000000,4.000000,4.000000,4.000000,4.000000,4.000000,4.000000,4.000000,4.000000,4.000000,4.000000,4.000000,4.000000,100.000000
1602006669.109549,106.000000,0.000000,4144.615234,4140.000000,4141.025879,4139.487305,4125.128418,4127.692383,4126.153809,4123.589844,4084.102539,4134.871582,4137.948730,4154.358887,4139.487305,4152.820313,876.000000,4.000000,,,,0.000000,4.000000,4.000000,4.000000,4.000000,4.000000,4.000000,4.000000,4.000000,4.000000,4.000000,4.000000,4.000000,4.000000,4.000000,100.000000
1602006669.117430,107.000000,0.000000,4136.922852,4131.794922,4138.461426,4135.897461,4121.025879,4118.974121,4113.333496,4114.871582,4080.000000,4126.666504,4125.641113,4147.692383,4131.794922,4142.563965,839.000000,4.000000,,,,0.000000,4.000000,4.000000,4.000000,4.000000,4.000000,4.000000,4.000000,4.000000,4.000000,4.000000,4.000000,4.000000,4.000000,4.000000,100.000000
1602006669.125311,108.000000,0.000000,4135.897461,4121.025879,4137.436035,4123.589844,4121.538574,4123.077148,4109.743652,4115.897461,4090.256348,4128.717773,4115.384766,4137.948730,4120.000000,4130.256348,769.000000,4.000000,,,,0.000000,4.000000,4.000000,4.000000,4.000000,4.000000,4.000000,4.000000,4.000000,4.000000,4.000000,4.000000,4.000000,4.000000,4.000000,100.000000
1602006669.133192,109.000000,0.000000,4140.512695,4120.000000,4142.051270,4116.410156,4123.077148,4122.563965,4106.666504,4112.820313,4085.128174,4118.974121,4117.436035,4141.025879,4126.153809,4129.743652,745.000000,4.000000,,,,0.000000,4.000000,4.000000,4.000000,4.000000,4.000000,4.000000,4.000000,4.000000,4.000000,4.000000,4.000000,4.000000,4.000000,4.000000,100.000000
1602006669.141073,110.000000,0.000000,4140.000000,4120.512695,4150.256348,4117.948730,4121.025879,4118.461426,4107.179688,4113.333496,4082.564209,4107.179688,4130.769043,4154.358887,4138.974121,4137.436035,876.000000,4.000000,,,,0.000000,4.000000,4.000000,4.000000,4.000000,4.000000,4.000000,4.000000,4.000000,4.000000,4.000000,4.000000,4.000000,4.000000,4.000000,100.000000
1602006669.148954,111.000000,0.000000,4134.358887,4121.538574,4152.820313,4122.563965,4120.000000,4122.563965,4118.461426,4130.256348,4110.256348,4118.974121,4145.641113,4157.436035,4137.436035,4150.256348,839.000000,4.000000,,,,0.000000,4.000000,4.000000,4.000000,4.000000,4.000000,4.000000,4.000000,4.000000,4.000000,4.000000,4.000000,4.000000,4.000000,4.000000,100.000000
1602006669.156836,112.000000,0.000000,4133.333496,4123.077148,4151.794922,4122.051270,4121.025879,4131.282227,4132.820313,4142.563965,4131.282227,4132.307617,4141.538574,4148.717773,4133.846191,4156.410156,769.000000,4.000000,,,,0.000000,4.000000,4.000000,4.000000,4.000000,4.000000,4.000000,4.000000,4.000000,4.000000,4.000000,4.000000,4.000000,4.000000,4.000000,100.000000
1602006669.164717,113.000000,0.000000,4138.974121,4125.128418,4149.743652,4121.538574,4123.589844,4137.948730,4140.000000,4141.025879,4124.615234,4138.461426,4132.820313,4149.743652,4137.948730,4148.205078,745.000000,4.000000,,,,0.000000,4.000000,4.000000,4.000000,4.000000,4.000000,4.000000,4.000000,4.000000,4.000000,4.000000,4.000000,4.000000,4.000000,4.000000,100.000000
1602006669.172698,114.000000,0.000000,4142.051270,4129.743652,4141.025879,4128.205078,4127.179688,4143.077148,4140.512695,4138.461426,4117.948730,4142.563965,4139.487305,4151.282227,4138.461426,4137.436035,876.000000,4.000000,,,,0.000000,4.000000,4.000000,4.000000,4.000000,4.000000,4.000000,4.000000,4.000000,4.000000,4.000000,4.000000,4.000000,4.000000,4.000000,100.000000
1602006669.180579,115.000000,0.000000,4140.000000,4134.871582,4135.384766,4133.846191,4134.358887,4145.641113,4140.000000,4137.948730,4119.487305,4137.436035,4142.563965,4146.666504,4137.436035,4136.922852,839.000000,4.000000,,,,0.000000,4.000000,4.000000,4.000000,4.000000,4.000000,4.000000,4.000000,4.000000,4.000000,4.000000,4.000000,4.000000,4.000000,4.000000,100.000000
1602006669.188459,116.000000,0.000000,4142.563965,4140.000000,4141.538574,4137.948730,4142.051270,4141.025879,4136.410156,4134.871582,4120.512695,4134.871582,4134.358887,4150.256348,4137.948730,4144.102539,769.000000,4.000000,,,,0.000000,4.000000,4.000000,4.000000,4.000000,4.000000,4.000000,4.000000,4.000000,4.000000,4.000000,4.000000,4.000000,4.000000,4.000000,100.000000
1602006669.196340,117.000000,0.000000,4142.563965,4139.487305,4141.025879,4135.897461,4132.820313,4123.589844,4123.077148,4127.179688,4120.000000,4147.179688,4134.871582,4149.743652,4135.384766,4133.846191,745.000000,4.000000,,,,0.000000,4.000000,4.000000,4.000000,4.000000,4.000000,4.000000,4.000000,4.000000,4.000000,4.000000,4.000000,4.000000,4.000000,4.000000,100.000000
1602006669.204221,118.000000,0.000000,4137.436035,4131.282227,4134.871582,4129.230957,4117.436035,4109.743652,4109.230957,4125.128418,4115.384766,4144.102539,4141.538574,4140.512695,4135.384766,4117.948730,876.000000,4.000000,,,,0.000000,4.000000,4.000000,4.000000,4.000000,4.000000,4.000000,4.000000,4.000000,4.000000,4.000000,4.000000,4.000000,4.000000,4.000000,100.000000
1602006669.212202,119.000000,0.000000,4146.666504,4132.820313,4143.077148,4131.794922,4117.948730,4115.384766,4112.307617,4133.333496,4111.282227,4125.641113,4141.538574,4140.000000,4140.512695,4128.205078,839.000000,4.000000,,,,0.000000,4.000000,4.000000,4.000000,4.000000,4.000000,4.000000,4.000000,4.000000,4.000000,4.000000,4.000000,4.000000,4.000000,4.000000,100.000000
1602006669.220083,120.000000,0.000000,4154.871582,4142.051270,4152.307617,4136.410156,4123.589844,4121.538574,4123.589844,4137.948730,4108.717773,4120.000000,4135.897461,4142.563965,4136.410156,4143.077148,769.000000,4.000000,,,,0.000000,4.000000,4.000000,4.000000,4.000000,4.000000,4.000000,4.000000,4.000000,4.000000,4.000000,4.000000,4.000000,4.000000,4.000000,100.000000
1602006669.228063,121.000000,0.000000,4139.487305,4135.897461,4146.153809,4128.717773,4120.512695,4120.000000,4125.641113,4129.230957,4104.102539,4122.051270,4133.846191,4137.948730,4132.820313,4141.025879,745.000000,4.000000,,,,0.000000,4.000000,4.000000,4.000000,4.000000,4.000000,4.000000,4.000000,4.000000,4.000000,4.000000,4.000000,4.000000,4.000000,4.000000,100.000000
1602006669.235944,122.000000,0.000000,4126.666504,4121.025879,4130.769043,4120.512695,4117.948730,4126.666504,4121.538574,4122.563965,4102.051270,4116.922852,4136.410156,4136.922852,4137.948730,4142.051270,876.000000,4.000000,,,,0.000000,4.000000,4.000000,4.000000,4.000000,4.000000,4.000000,4.000000,4.000000,4.000000,4.000000,4.000000,4.000000,4.000000,4.000000,100.000000
1602006669.243825,123.000000,0.000000,4133.846191,4119.487305,4121.025879,4119.487305,4120.512695,4137.436035,4126.666504,4129.230957,4101.025879,4115.384766,4133.333496,4136.410156,4128.717773,4133.846191,839.000000,4.000000,,,,0.000000,4.000000,4.000000,4.000000,4.000000,4.000000,4.000000,4.000000,4.000000,4.000000,4.000000,4.000000,4.000000,4.000000,4.000000,100.000000
1602006669.251706,124.000000,0.000000,4142.563965,4130.256348,4127.179688,4121.025879,4125.641113,4146.153809,4138.974121,4137.948730,4112.820313,4129.743652,4131.794922,4135.897461,4118.974121,4125.128418,769.000000,4.000000,,,,0.000000,4.000000,4.000000,4.000000,4.000000,4.000000,4.000000,4.000000,4.000000,4.000000,4.000000,4.000000,4.000000,4.000000,4.000000,100.000000
1602006669.259587,125.000000,0.000000,4138.461426,4138.461426,4135.384766,4128.717773,4131.794922,4150.769043,4139.487305,4140.000000,4135.897461,4145.641113,4143.589844,4141.538574,4142.051270,4144.615234,745.000000,4.000000,,,,0.000000,4.000000,4.000000,4.000000,4.000000,4.000000,4.000000,4.000000,4.000000,4.000000,4.000000,4.000000,4.000000,4.000000,4.000000,100.000000
1602006669.267468,126.000000,0.000000,4125.128418,4131.282227,4122.051270,4128.717773,4129.743652,4144.102539,4129.743652,4137.948730,4143.077148,4142.563965,4150.769043,4135.897461,4169.230957,4154.871582,876.000000,4.000000,,,,0.000000,4.000000,4.000000,4.000000,4.000000,4.000000,4.000000,4.000000,4.000000,4.000000,4.000000,4.000000,4.000000,4.000000,4.000000,100.000000
1602006669.275449,127.000000,0.000000,4107.692383,4114.358887,4102.563965,4115.384766,4120.000000,4130.769043,4122.563965,4135.897461,4129.743652,4133.846191,4144.615234,4122.051270,4168.717773,4138.974121,839.000000,4.000000,,,,0.000000,4.000000,4.000000,4.000000,4.000000,4.000000,4.000000,4.000000,4.000000,4.000000,4.000000,4.000000,4.000000,4.000000,4.000000,100.000000
1602006669.283330,128.000000,0.000000,4096.410156,4105.128418,4101.538574,4108.717773,4126.153809,4124.102539,4121.025879,4133.333496,4120.000000,4139.487305,4146.666504,4122.051270,4172.307617,4145.128418,769.000000,4.000000,,,,0.000000,4.000000,4.000000,4.000000,4.000000,4.000000,4.000000,4.000000,4.000000,4.000000,4.000000,4.000000,4.000000,4.000000,4.000000,100.000000
1602006669.291211,0.000000,0.000000,4094.358887,4104.102539,4110.256348,4113.333496,4138.461426,4120.512695,4124.102539,4135.897461,4129.743652,4163.077148,4164.615234,4134.358887,4194.871582,4172.820313,793.000000,4.000000,,,,0.000000,4.000000,4.000000,4.000000,4.000000,4.000000,4.000000,4.000000,4.000000,4.000000,4.000000,4.000000,4.000000,4.000000,4.000000,100.000000
1602006669.299092,1.000000,0.000000,4099.487305,4105.128418,4124.102539,4118.974121,4136.410156,4125.128418,4131.282227,4148.205078,4150.769043,4188.717773,4175.897461,4155.384766,4207.179688,4186.666504,786.000000,4.000000,,,,0.000000,4.000000,4.000000,4.000000,4.000000,4.000000,4.000000,4.000000,4.000000,4.000000,4.000000,4.000000,4.000000,4.000000,4.000000,100.000000
1602006669.306973,2.000000,0.000000,4109.743652,4109.230957,4140.000000,4124.102539,4133.846191,4136.922852,4132.307617,4156.410156,4160.512695,4185.641113,4176.410156,4175.384766,4208.205078,4190.256348,853.000000,4.000000,,,,0.000000,4.000000,4.000000,4.000000,4.000000,4.000000,4.000000,4.000000,4.000000,4.000000,4.000000,4.000000,4.000000,4.000000,4.000000,100.000000
1602006669.314853,3.000000,0.000000,4114.358887,4109.230957,4140.512695,4122.563965,4133.333496,4136.410156,4124.102539,4150.769043,4154.871582,4158.974121,4174.358887,4172.307617,4207.179688,4188.717773,871.000000,4.000000,,,,0.000000,4.000000,4.000000,4.000000,4.000000,4.000000,4.000000,4.000000,4.000000,4.000000,4.000000,4.000000,4.000000,4.000000,4.000000,100.000000
1602006669.322734,4.000000,0.000000,4105.128418,4103.589844,4135.897461,4113.333496,4127.179688,4134.358887,4121.538574,4142.563965,4157.948730,4153.333496,4166.666504,4156.410156,4200.512695,4182.051270,817.000000,4.000000,,,,0.000000,4.000000,4.000000,4.000000,4.000000,4.000000,4.000000,4.000000,4.000000,4.000000,4.000000,4.000000,4.000000,4.000000,4.000000,100.000000
1602006669.330615,5.000000,0.000000,4098.974121,4102.051270,4138.974121,4111.282227,4122.051270,4140.512695,4124.615234,4142.563965,4163.589844,4161.538574,4160.512695,4153.333496,4192.820313,4175.897461,823.000000,4.000000,,,,0.000000,4.000000,4.000000,4.000000,4.000000,4.000000,4.000000,4.000000,4.000000,4.000000,4.000000,4.000000,4.000000,4.000000,4.000000,100.000000
1602006669.338596,6.000000,0.000000,4105.128418,4104.615234,4137.948730,4118.974121,4126.153809,4142.563965,4124.102539,4139.487305,4152.307617,4158.974121,4159.487305,4151.794922,4186.153809,4169.230957,761.000000,4.000000,,,,0.000000,4.000000,4.000000,4.000000,4.000000,4.000000,4.000000,4.000000,4.000000,4.000000,4.000000,4.000000,4.000000,4.000000,4.000000,100.000000
1602006669.346478,7.000000,0.000000,4107.179688,4104.615234,4127.692383,4118.974121,4131.282227,4135.897461,4124.615234,4135.384766,4137.948730,4151.794922,4150.256348,4138.461426,4172.307617,4160.000000,669.000000,4.000000,,,,0.000000,4.000000,4.000000,4.000000,4.000000,4.000000,4.000000,4.000000,4.000000,4.000000,4.000000,4.000000,4.000000,4.000000,4.000000,100.000000
1602006669.354359,8.000000,0.000000,4090.769287,4094.871826,4111.282227,4107.179688,4126.666504,4125.641113,4125.641113,4136.410156,4126.666504,4132.307617,4127.692383,4122.563965,4154.358887,4141.025879,779.000000,4.000000,,,,0.000000,4.000000,4.000000,4.000000,4.000000,4.000000,4.000000,4.000000,4.000000,4.000000,4.000000,4.000000,4.000000,4.000000,4.000000,100.000000
1602006669.362240,9.000000,0.000000,4070.769287,4087.692383,4094.871826,4100.512695,4120.000000,4117.436035,4123.589844,4135.384766,4114.871582,4109.743652,4120.512695,4110.256348,4148.717773,4121.025879,841.000000,4.000000,,,,0.000000,4.000000,4.000000,4.000000,4.000000,4.000000,4.000000,4.000000,4.000000,4.000000,4.000000,4.000000,4.000000,4.000000,4.000000,100.000000
1602006669.370121,10.000000,0.000000,4064.102539,4089.230713,4086.153809,4103.589844,4118.974121,4120.512695,4125.128418,4126.666504,4103.077148,4121.025879,4133.333496,4106.666504,4149.743652,4113.846191,876.000000,4.000000,,,,0.000000,4.000000,4.000000,4.000000,4.000000,4.000000,4.000000,4.000000,4.000000,4.000000,4.000000,4.000000,4.000000,4.000000,4.000000,100.000000
1602006669.378002,11.000000,0.000000,4067.692383,4092.820557,4090.256348,4106.153809,4127.179688,4133.333496,4129.230957,4121.538574,4098.461426,4141.025879,4147.179688,4114.358887,4149.743652,4125.641113,839.000000,4.000000,,,,0.000000,4.000000,4.000000,4.000000,4.000000,4.000000,4.000000,4.000000,4.000000,4.000000,4.000000,4.000000,4.000000,4.000000,4.000000,100.000000
1602006669.385883,12.000000,0.000000,4075.897461,4097.948730,4100.512695,4106.153809,4131.794922,4141.025879,4126.153809,4128.717773,4105.641113,4136.922852,4151.794922,4127.692383,4157.436035,4146.666504,767.000000,4.000000,,,,0.000000,4.000000,4.000000,4.000000,4.000000,4.000000,4.000000,4.000000,4.000000,4.000000,4.000000,4.000000,4.000000,4.000000,4.000000,100.000000
1602006669.393765,13.000000,0.000000,4087.179443,4103.077148,4111.794922,4108.205078,4126.153809,4135.384766,4121.025879,4134.358887,4116.922852,4135.897461,4152.307617,4139.487305,4168.717773,4155.897461,735.000000,4.000000,,,,0.000000,4.000000,4.000000,4.000000,4.000000,4.000000,4.000000,4.000000,4.000000,4.000000,4.000000,4.000000,4.000000,4.000000,4.000000,100.000000
1602006669.401646,14.000000,0.000000,4101.538574,4108.205078,4124.615234,4117.436035,4129.230957,4128.717773,4126.666504,4139.487305,4135.384766,4154.358887,4164.615234,4152.820313,4178.461426,4161.538574,876.000000,4.000000,,,,0.000000,4.000000,4.000000,4.000000,4.000000,4.000000,4.000000,4.000000,4.000000,4.000000,4.000000,4.000000,4.000000,4.000000,4.000000,100.000000
1602006669.409426,15.000000,0.000000,4110.769043,4110.256348,4135.384766,4124.615234,4138.461426,4132.820313,4135.384766,4150.769043,4161.025879,4176.410156,4173.333496,4164.615234,4189.230957,4172.820313,839.000000,4.000000,,,,0.000000,4.000000,4.000000,4.000000,4.000000,4.000000,4.000000,4.000000,4.000000,4.000000,4.000000,4.000000,4.000000,4.000000,4.000000,100.000000
1602006669.417307,16.000000,0.000000,4110.256348,4111.282227,4134.871582,4126.153809,4140.512695,4138.461426,4137.436035,4155.897461,4171.794922,4184.102539,4158.461426,4163.589844,4190.769043,4168.717773,0.000000,4.000000,,,,0.000000,4.000000,4.000000,4.000000,4.000000,4.000000,4.000000,4.000000,4.000000,4.000000,4.000000,4.000000,4.000000,4.000000,4.000000,100.000000
1602006669.425188,17.000000,0.000000,4106.153809,4110.769043,4126.153809,4122.051270,4137.948730,4137.436035,4138.461426,4151.794922,4162.051270,4175.384766,4148.205078,4153.846191,4175.897461,4148.205078,0.000000,4.000000,,,,0.000000,4.000000,4.000000,4.000000,4.000000,4.000000,4.000000,4.000000,4.000000,4.000000,4.000000,4.000000,4.000000,4.000000,4.000000,100.000000
1602006669.432969,18.000000,0.000000,4097.948730,4102.563965,4121.025879,4112.307617,4142.051270,4138.974121,4142.051270,4151.794922,4158.974121,4164.615234,4155.384766,4151.794922,4164.102539,4144.615234,0.000000,4.000000,,,,0.000000,4.000000,4.000000,4.000000,4.000000,4.000000,4.000000,4.000000,4.000000,4.000000,4.000000,4.000000,4.000000,4.000000,4.000000,100.000000
1602006669.440849,19.000000,0.000000,4090.769287,4099.487305,4119.487305,4106.666504,4149.743652,4144.102539,4140.512695,4155.897461,4163.589844,4157.436035,4153.333496,4153.846191,4165.128418,4157.436035,0.000000,4.000000,,,,0.000000,4.000000,4.000000,4.000000,4.000000,4.000000,4.000000,4.000000,4.000000,4.000000,4.000000,4.000000,4.000000,4.000000,4.000000,100.000000
1602006669.448730,20.000000,0.000000,4087.179443,4105.641113,4114.358887,4109.743652,4148.717773,4143.589844,4137.436035,4148.717773,4154.358887,4137.948730,4136.410156,4144.102539,4159.487305,4151.282227,0.000000,4.000000,,,,0.000000,4.000000,4.000000,4.000000,4.000000,4.000000,4.000000,4.000000,4.000000,4.000000,4.000000,4.000000,4.000000,4.000000,4.000000,100.000000
1602006669.456611,21.000000,0.000000,4085.641113,4107.179688,4103.589844,4108.205078,4141.025879,4136.922852,4136.410156,4137.436035,4136.410156,4117.948730,4124.615234,4131.794922,4146.666504,4133.333496,0.000000,4.000000,,,,0.000000,4.000000,4.000000,4.000000,4.000000,4.000000,4.000000,4.000000,4.000000,4.000000,4.000000,4.000000,4.000000,4.000000,4.000000,100.000000
1602006669.464392,22.000000,0.000000,4085.641113,4103.589844,4096.410156,4105.641113,4136.410156,4140.000000,4135.384766,4133.333496,4132.820313,4135.384766,4129.743652,4131.794922,4153.333496,4132.307617,0.000000,4.000000,,,,0.000000,4.000000,4.000000,4.000000,4.000000,4.000000,4.000000,4.000000,4.000000,4.000000,4.000000,4.000000,4.000000,4.000000,4.000000,100.000000
1602006669.472273,23.000000,0.000000,4091.794922,4106.666504,4100.000000,4110.256348,4142.051270,4149.230957,4138.974121,4135.384766,4146.153809,4172.820313,4148.717773,4137.436035,4172.820313,4140.512695,0.000000,4.000000,,,,0.000000,4.000000,4.000000,4.000000,4.000000,4.000000,4.000000,4.000000,4.000000,4.000000,4.000000,4.000000,4.000000,4.000000,4.000000,100.000000
1602006669.480154,24.000000,0.000000,4094.358887,4109.230957,4104.102539,4111.794922,4140.000000,4145.128418,4141.025879,4136.922852,4149.743652,4172.820313,4149.743652,4136.410156,4170.256348,4135.384766,0.000000,4.000000,,,,0.000000,4.000000,4.000000,4.000000,4.000000,4.000000,4.000000,4.000000,4.000000,4.000000,4.000000,4.000000,4.000000,4.000000,4.000000,100.000000
