Timestamp,EEG.Counter,EEG.Interpolated,EEG.AF3,EEG.F7,EEG.F3,EEG.FC5,EEG.T7,EEG.P7,EEG.O1,EEG.O2,EEG.P8,EEG.T8,EEG.FC6,EEG.F4,EEG.F8,EEG.AF4,EEG.RawCq,EEG.Battery,MarkerIndex,MarkerType,MarkerValueInt,EEG.MarkerHardware,CQ.AF3,CQ.F7,CQ.F3,CQ.FC5,CQ.T7,CQ.P7,CQ.O1,CQ.O2,CQ.P8,CQ.T8,CQ.FC6,CQ.F4,CQ.F8,CQ.AF4,CQ.Overall
1602006678.186932,97.000000,0.000000,4087.179443,4121.538574,4100.512695,4120.000000,4128.205078,4152.820313,4139.487305,4140.512695,4151.282227,4145.128418,4124.102539,4124.102539,4134.871582,4105.641113,726.000000,4.000000,,,,0.000000,4.000000,4.000000,4.000000,4.000000,4.000000,4.000000,4.000000,4.000000,4.000000,4.000000,4.000000,4.000000,4.000000,4.000000,100.000000
1602006678.194713,98.000000,0.000000,4088.718018,4120.000000,4111.282227,4116.922852,4125.641113,4143.589844,4138.974121,4132.820313,4137.436035,4134.871582,4119.487305,4133.846191,4142.051270,4106.666504,876.000000,4.000000,,,,0.000000,4.000000,4.000000,4.000000,4.000000,4.000000,4.000000,4.000000,4.000000,4.000000,4.000000,4.000000,4.000000,4.000000,4.000000,100.000000
1602006678.202594,99.000000,0.000000,4107.692383,4117.436035,4126.666504,4117.436035,4120.512695,4134.358887,4141.538574,4124.615234,4116.922852,4124.615234,4108.205078,4143.589844,4127.692383,4109.743652,839.000000,4.000000,,,,0.000000,4.000000,4.000000,4.000000,4.000000,4.000000,4.000000,4.000000,4.000000,4.000000,4.000000,4.000000,4.000000,4.000000,4.000000,100.000000
1602006678.210475,100.000000,0.000000,4132.307617,4120.000000,4143.589844,4124.615234,4121.538574,4125.128418,4141.025879,4121.025879,4111.794922,4134.871582,4109.230957,4152.820313,4126.666504,4129.743652,765.000000,4.000000,,,,0.000000,4.000000,4.000000,4.000000,4.000000,4.000000,4.000000,4.000000,4.000000,4.000000,4.000000,4.000000,4.000000,4.000000,4.000000,100.000000
1602006678.218357,101.000000,0.000000,4142.563965,4122.563965,4149.743652,4126.666504,4125.128418,4113.333496,4131.794922,4127.179688,4116.410156,4139.487305,4123.077148,4161.025879,4136.922852,4147.692383,726.000000,4.000000,,,,0.000000,4.000000,4.000000,4.000000,4.000000,4.000000,4.000000,4.000000,4.000000,4.000000,4.000000,4.000000,4.000000,4.000000,4.000000,100.000000
1602006678.226238,102.000000,0.000000,4135.384766,4124.615234,4149.230957,4124.615234,4125.128418,4107.179688,4122.563965,4137.948730,4124.102539,4133.846191,4131.282227,4166.666504,4137.436035,4141.538574,876.000000,4.000000,,,,0.000000,4.000000,4.000000,4.000000,4.000000,4.000000,4.000000,4.000000,4.000000,4.000000,4.000000,4.000000,4.000000,4.000000,4.000000,100.000000
1602006678.234119,103.000000,0.000000,4125.128418,4124.615234,4143.077148,4125.128418,4127.692383,4112.820313,4124.102539,4141.025879,4129.230957,4134.358887,4129.230957,4161.538574,4134.358887,4125.128418,839.000000,4.000000,,,,0.000000,4.000000,4.000000,4.000000,4.000000,4.000000,4.000000,4.000000,4.000000,4.000000,4.000000,4.000000,4.000000,4.000000,4.000000,100.000000
1602006678.242000,104.000000,0.000000,4120.000000,4122.563965,4127.179688,4124.615234,4134.358887,4123.077148,4124.615234,4136.922852,4130.769043,4140.000000,4125.128418,4145.641113,4131.794922,4118.461426,765.000000,4.000000,,,,0.000000,4.000000,4.000000,4.000000,4.000000,4.000000,4.000000,4.000000,4.000000,4.000000,4.000000,4.000000,4.000000,4.000000,4.000000,100.000000
1602006678.249881,105.000000,0.000000,4118.974121,4126.666504,4114.358887,4120.512695,4138.461426,4136.922852,4124.102539,4135.897461,4142.051270,4138.974121,4122.563965,4135.384766,4131.282227,4121.025879,726.000000,4.000000,,,,0.000000,4.000000,4.000000,4.000000,4.000000,4.000000,4.000000,4.000000,4.000000,4.000000,4.000000,4.000000,4.000000,4.000000,4.000000,100.000000
1602006678.257762,106.000000,0.000000,4126.153809,4136.922852,4119.487305,4128.205078,4138.974121,4151.282227,4130.769043,4138.461426,4155.897461,4135.384766,4123.589844,4136.922852,4136.922852,4123.589844,876.000000,4.000000,,,,0.000000,4.000000,4.000000,4.000000,4.000000,4.000000,4.000000,4.000000,4.000000,4.000000,4.000000,4.000000,4.000000,4.000000,4.000000,100.000000
1602006678.265644,107.000000,0.000000,4137.436035,4143.589844,4136.922852,4141.025879,4140.000000,4164.102539,4136.922852,4138.461426,4163.077148,4140.000000,4124.102539,4140.000000,4146.153809,4123.077148,839.000000,4.000000,,,,0.000000,4.000000,4.000000,4.000000,4.000000,4.000000,4.000000,4.000000,4.000000,4.000000,4.000000,4.000000,4.000000,4.000000,4.000000,100.000000
1602006678.273525,108.000000,0.000000,4136.410156,4137.948730,4143.589844,4137.436035,4143.589844,4167.692383,4136.922852,4138.974121,4167.179688,4142.563965,4124.102539,4146.666504,4147.179688,4122.051270,765.000000,4.000000,,,,0.000000,4.000000,4.000000,4.000000,4.000000,4.000000,4.000000,4.000000,4.000000,4.000000,4.000000,4.000000,4.000000,4.000000,4.000000,100.000000
1602006678.281305,109.000000,0.000000,4124.102539,4126.153809,4136.922852,4124.102539,4141.538574,4157.436035,4139.487305,4138.974121,4164.102539,4134.871582,4124.615234,4151.282227,4143.077148,4123.589844,726.000000,4.000000,,,,0.000000,4.000000,4.000000,4.000000,4.000000,4.000000,4.000000,4.000000,4.000000,4.000000,4.000000,4.000000,4.000000,4.000000,4.000000,100.000000
1602006678.289286,110.000000,0.000000,4118.461426,4120.000000,4135.384766,4121.025879,4128.205078,4136.922852,4134.358887,4133.333496,4147.179688,4135.897461,4123.077148,4151.794922,4140.000000,4124.615234,876.000000,4.000000,,,,0.000000,4.000000,4.000000,4.000000,4.000000,4.000000,4.000000,4.000000,4.000000,4.000000,4.000000,4.000000,4.000000,4.000000,4.000000,100.000000
1602006678.297168,111.000000,0.000000,4124.615234,4121.538574,4140.512695,4125.641113,4120.000000,4126.666504,4127.692383,4132.820313,4134.358887,4153.333496,4125.641113,4164.102539,4140.000000,4121.025879,839.000000,4.000000,,,,0.000000,4.000000,4.000000,4.000000,4.000000,4.000000,4.000000,4.000000,4.000000,4.000000,4.000000,4.000000,4.000000,4.000000,4.000000,100.000000
1602006678.305049,112.000000,0.000000,4126.153809,4122.563965,4143.589844,4127.179688,4119.487305,4121.538574,4134.358887,4138.461426,4136.922852,4158.974121,4126.666504,4173.333496,4142.563965,4119.487305,765.000000,4.000000,,,,0.000000,4.000000,4.000000,4.000000,4.000000,4.000000,4.000000,4.000000,4.000000,4.000000,4.000000,4.000000,4.000000,4.000000,4.000000,100.000000
1602006678.312930,113.000000,0.000000,4111.282227,4119.487305,4136.410156,4126.153809,4112.820313,4106.666504,4139.487305,4140.512695,4136.922852,4135.897461,4122.563965,4156.922852,4138.974121,4123.589844,726.000000,4.000000,,,,0.000000,4.000000,4.000000,4.000000,4.000000,4.000000,4.000000,4.000000,4.000000,4.000000,4.000000,4.000000,4.000000,4.000000,4.000000,100.000000
1602006678.320811,114.000000,0.000000,4101.538574,4118.461426,4127.692383,4126.153809,4106.153809,4101.538574,4135.897461,4142.051270,4140.000000,4116.410156,4121.025879,4143.589844,4133.333496,4126.666504,876.000000,4.000000,,,,0.000000,4.000000,4.000000,4.000000,4.000000,4.000000,4.000000,4.000000,4.000000,4.000000,4.000000,4.000000,4.000000,4.000000,4.000000,100.000000
1602006678.328692,115.000000,0.000000,4104.615234,4121.025879,4124.615234,4125.641113,4113.846191,4117.948730,4134.871582,4150.256348,4157.436035,4129.230957,4126.153809,4149.743652,4135.897461,4117.948730,839.000000,4.000000,,,,0.000000,4.000000,4.000000,4.000000,4.000000,4.000000,4.000000,4.000000,4.000000,4.000000,4.000000,4.000000,4.000000,4.000000,4.000000,100.000000
1602006678.336573,116.000000,0.000000,4100.512695,4126.153809,4124.615234,4126.666504,4130.769043,4142.051270,4140.512695,4156.410156,4173.846191,4145.128418,4130.256348,4147.692383,4140.512695,4106.153809,765.000000,4.000000,,,,0.000000,4.000000,4.000000,4.000000,4.000000,4.000000,4.000000,4.000000,4.000000,4.000000,4.000000,4.000000,4.000000,4.000000,4.000000,100.000000
1602006678.344455,117.000000,0.000000,4087.692383,4119.487305,4121.025879,4125.128418,4137.948730,4155.897461,4142.051270,4148.205078,4173.333496,4142.051270,4120.000000,4137.436035,4130.256348,4103.077148,726.000000,4.000000,,,,0.000000,4.000000,4.000000,4.000000,4.000000,4.000000,4.000000,4.000000,4.000000,4.000000,4.000000,4.000000,4.000000,4.000000,4.000000,100.000000
1602006678.352336,118.000000,0.000000,4085.641113,4106.153809,4115.897461,4113.846191,4134.871582,4156.922852,4140.000000,4138.974121,4163.077148,4144.615234,4107.692383,4134.358887,4116.922852,4103.589844,876.000000,4.000000,,,,0.000000,4.000000,4.000000,4.000000,4.000000,4.000000,4.000000,4.000000,4.000000,4.000000,4.000000,4.000000,4.000000,4.000000,4.000000,100.000000
1602006678.360117,119.000000,0.000000,4100.000000,4110.256348,4116.410156,4112.820313,4137.948730,4154.358887,4138.974121,4140.000000,4157.436035,4153.846191,4114.871582,4136.922852,4125.128418,4104.615234,839.000000,4.000000,,,,0.000000,4.000000,4.000000,4.000000,4.000000,4.000000,4.000000,4.000000,4.000000,4.000000,4.000000,4.000000,4.000000,4.000000,4.000000,100.000000
1602006678.367998,120.000000,0.000000,4115.897461,4128.205078,4122.563965,4129.230957,4145.641113,4151.794922,4137.948730,4143.077148,4155.897461,4154.871582,4133.333496,4145.128418,4139.487305,4114.871582,765.000000,4.000000,,,,0.000000,4.000000,4.000000,4.000000,4.000000,4.000000,4.000000,4.000000,4.000000,4.000000,4.000000,4.000000,4.000000,4.000000,4.000000,100.000000
1602006678.375879,121.000000,0.000000,4127.179688,4136.922852,4133.846191,4139.487305,4144.102539,4141.538574,4129.230957,4138.461426,4152.307617,4154.871582,4140.000000,4152.307617,4145.641113,4134.358887,726.000000,4.000000,,,,0.000000,4.000000,4.000000,4.000000,4.000000,4.000000,4.000000,4.000000,4.000000,4.000000,4.000000,4.000000,4.000000,4.000000,4.000000,100.000000
1602006678.383760,122.000000,0.000000,4136.410156,4137.436035,4143.589844,4140.512695,4138.974121,4122.563965,4121.538574,4133.846191,4138.974121,4144.102539,4136.922852,4155.897461,4149.743652,4145.128418,876.000000,4.000000,,,,0.000000,4.000000,4.000000,4.000000,4.000000,4.000000,4.000000,4.000000,4.000000,4.000000,4.000000,4.000000,4.000000,4.000000,4.000000,100.000000
1602006678.391640,123.000000,0.000000,4137.948730,4138.974121,4145.128418,4140.512695,4134.358887,4115.384766,4128.717773,4135.897461,4121.025879,4116.922852,4139.487305,4158.461426,4146.666504,4144.102539,839.000000,4.000000,,,,0.000000,4.000000,4.000000,4.000000,4.000000,4.000000,4.000000,4.000000,4.000000,4.000000,4.000000,4.000000,4.000000,4.000000,4.000000,100.000000
1602006678.399521,124.000000,0.000000,4127.692383,4135.384766,4138.974121,4133.846191,4126.153809,4130.769043,4142.051270,4136.922852,4110.256348,4101.538574,4140.000000,4156.922852,4140.000000,4137.948730,765.000000,4.000000,,,,0.000000,4.000000,4.000000,4.000000,4.000000,4.000000,4.000000,4.000000,4.000000,4.000000,4.000000,4.000000,4.000000,4.000000,4.000000,100.000000
1602006678.407402,125.000000,0.000000,4117.948730,4125.128418,4137.436035,4127.692383,4120.000000,4140.000000,4149.230957,4135.384766,4116.922852,4106.153809,4126.153809,4153.846191,4139.487305,4127.179688,726.000000,4.000000,,,,0.000000,4.000000,4.000000,4.000000,4.000000,4.000000,4.000000,4.000000,4.000000,4.000000,4.000000,4.000000,4.000000,4.000000,4.000000,100.000000
1602006678.415283,126.000000,0.000000,4119.487305,4118.461426,4140.000000,4126.666504,4114.871582,4127.179688,4146.153809,4136.410156,4132.820313,4116.922852,4115.384766,4151.794922,4132.307617,4116.922852,876.000000,4.000000,,,,0.000000,4.000000,4.000000,4.000000,4.000000,4.000000,4.000000,4.000000,4.000000,4.000000,4.000000,4.000000,4.000000,4.000000,4.000000,100.000000
1602006678.423264,127.000000,0.000000,4130.769043,4125.641113,4141.025879,4125.641113,4114.358887,4124.615234,4135.384766,4138.461426,4143.589844,4129.230957,4117.436035,4146.666504,4121.025879,4123.589844,839.000000,4.000000,,,,0.000000,4.000000,4.000000,4.000000,4.000000,4.000000,4.000000,4.000000,4.000000,4.000000,4.000000,4.000000,4.000000,4.000000,4.000000,100.000000
1602006678.431145,128.000000,0.000000,4141.025879,4135.897461,4146.153809,4129.743652,4124.102539,4141.025879,4127.179688,4140.512695,4156.410156,4143.589844,4123.077148,4152.307617,4126.666504,4140.512695,765.000000,4.000000,,,,0.000000,4.000000,4.000000,4.000000,4.000000,4.000000,4.000000,4.000000,4.000000,4.000000,4.000000,4.000000,4.000000,4.000000,4.000000,100.000000
1602006678.439027,0.000000,0.000000,4143.077148,4142.563965,4146.666504,4139.487305,4137.436035,4142.051270,4123.077148,4142.563965,4172.820313,4151.794922,4132.307617,4169.230957,4138.461426,4140.512695,793.000000,4.000000,,,,0.000000,4.000000,4.000000,4.000000,4.000000,4.000000,4.000000,4.000000,4.000000,4.000000,4.000000,4.000000,4.000000,4.000000,4.000000,100.000000
1602006678.446908,1.000000,0.000000,4146.153809,4146.666504,4140.000000,4142.051270,4142.051270,4127.179688,4113.333496,4135.897461,4172.307617,4142.051270,4139.487305,4172.307617,4144.102539,4139.487305,817.000000,4.000000,,,,0.000000,4.000000,4.000000,4.000000,4.000000,4.000000,4.000000,4.000000,4.000000,4.000000,4.000000,4.000000,4.000000,4.000000,4.000000,100.000000
1602006678.454789,2.000000,0.000000,4137.436035,4129.230957,4137.948730,4130.769043,4135.384766,4117.436035,4106.153809,4126.153809,4158.974121,4126.153809,4132.820313,4160.512695,4143.077148,4146.153809,849.000000,4.000000,,,,0.000000,4.000000,4.000000,4.000000,4.000000,4.000000,4.000000,4.000000,4.000000,4.000000,4.000000,4.000000,4.000000,4.000000,4.000000,100.000000
1602006678.462670,3.000000,0.000000,4115.897461,4106.153809,4137.436035,4118.974121,4125.641113,4118.974121,4110.256348,4123.589844,4147.692383,4131.282227,4124.615234,4153.333496,4129.743652,4137.436035,871.000000,4.000000,,,,0.000000,4.000000,4.000000,4.000000,4.000000,4.000000,4.000000,4.000000,4.000000,4.000000,4.000000,4.000000,4.000000,4.000000,4.000000,100.000000
1602006678.470551,4.000000,0.000000,4128.205078,4124.615234,4138.461426,4127.692383,4125.641113,4127.179688,4116.410156,4126.666504,4142.563965,4151.794922,4125.641113,4153.333496,4121.538574,4128.717773,808.000000,4.000000,,,,0.000000,4.000000,4.000000,4.000000,4.000000,4.000000,4.000000,4.000000,4.000000,4.000000,4.000000,4.000000,4.000000,4.000000,4.000000,100.000000
1602006678.478432,5.000000,0.000000,4168.205078,4166.153809,4145.128418,4149.743652,4129.230957,4128.717773,4125.641113,4133.333496,4144.615234,4159.487305,4122.563965,4151.282227,4124.102539,4136.922852,826.000000,4.000000,,,,0.000000,4.000000,4.000000,4.000000,4.000000,4.000000,4.000000,4.000000,4.000000,4.000000,4.000000,4.000000,4.000000,4.000000,4.000000,100.000000
1602006678.486314,6.000000,0.000000,4177.436035,4174.871582,4144.615234,4157.948730,4125.128418,4125.128418,4137.436035,4135.897461,4137.948730,4148.717773,4116.922852,4136.922852,4115.384766,4134.871582,767.000000,4.000000,,,,0.000000,4.000000,4.000000,4.000000,4.000000,4.000000,4.000000,4.000000,4.000000,4.000000,4.000000,4.000000,4.000000,4.000000,4.000000,100.000000
1602006678.494195,7.000000,0.000000,4166.153809,4168.717773,4135.897461,4148.717773,4124.102539,4131.794922,4141.025879,4130.769043,4122.563965,4129.743652,4104.102539,4123.077148,4097.948730,4112.307617,663.000000,4.000000,,,,0.000000,4.000000,4.000000,4.000000,4.000000,4.000000,4.000000,4.000000,4.000000,4.000000,4.000000,4.000000,4.000000,4.000000,4.000000,100.000000
1602006678.501976,8.000000,0.000000,4168.205078,4174.871582,4132.307617,4143.077148,4126.153809,4143.077148,4137.948730,4131.282227,4117.436035,4106.666504,4086.153809,4129.230957,4085.641113,4095.897461,789.000000,4.000000,,,,0.000000,4.000000,4.000000,4.000000,4.000000,4.000000,4.000000,4.000000,4.000000,4.000000,4.000000,4.000000,4.000000,4.000000,4.000000,100.000000
1602006678.509857,9.000000,0.000000,4170.769043,4175.897461,4129.230957,4142.051270,4124.615234,4139.487305,4134.358887,4137.436035,4120.512695,4081.025635,4090.769287,4136.922852,4076.923096,4092.307617,831.000000,4.000000,,,,0.000000,4.000000,4.000000,4.000000,4.000000,4.000000,4.000000,4.000000,4.000000,4.000000,4.000000,4.000000,4.000000,4.000000,4.000000,100.000000
1602006678.517738,10.000000,0.000000,4167.179688,4166.666504,4122.563965,4141.025879,4123.077148,4125.641113,4126.666504,4137.948730,4126.153809,4075.384521,4107.179688,4127.692383,4072.820557,4090.256348,876.000000,4.000000,,,,0.000000,4.000000,4.000000,4.000000,4.000000,4.000000,4.000000,4.000000,4.000000,4.000000,4.000000,4.000000,4.000000,4.000000,4.000000,100.000000
1602006678.525619,11.000000,0.000000,4168.717773,4164.102539,4126.666504,4140.000000,4123.589844,4127.179688,4118.461426,4137.948730,4135.897461,4103.589844,4107.179688,4118.461426,4073.333252,4090.256348,839.000000,4.000000,,,,0.000000,4.000000,4.000000,4.000000,4.000000,4.000000,4.000000,4.000000,4.000000,4.000000,4.000000,4.000000,4.000000,4.000000,4.000000,100.000000
1602006678.533500,12.000000,0.000000,4170.769043,4165.128418,4135.897461,4139.487305,4123.077148,4138.461426,4118.461426,4135.384766,4135.897461,4127.692383,4100.512695,4118.974121,4077.435791,4095.384521,765.000000,4.000000,,,,0.000000,4.000000,4.000000,4.000000,4.000000,4.000000,4.000000,4.000000,4.000000,4.000000,4.000000,4.000000,4.000000,4.000000,4.000000,100.000000
1602006678.541380,13.000000,0.000000,4169.230957,4158.974121,4143.589844,4140.512695,4122.051270,4133.333496,4120.512695,4126.153809,4121.538574,4125.128418,4106.153809,4120.512695,4087.692383,4109.743652,726.000000,4.000000,,,,0.000000,4.000000,4.000000,4.000000,4.000000,4.000000,4.000000,4.000000,4.000000,4.000000,4.000000,4.000000,4.000000,4.000000,4.000000,100.000000
1602006678.549261,14.000000,0.000000,4172.820313,4154.358887,4151.794922,4140.000000,4122.051270,4123.077148,4119.487305,4120.512695,4111.282227,4116.410156,4114.871582,4128.205078,4092.307617,4124.615234,876.000000,4.000000,,,,0.000000,4.000000,4.000000,4.000000,4.000000,4.000000,4.000000,4.000000,4.000000,4.000000,4.000000,4.000000,4.000000,4.000000,4.000000,100.000000
1602006678.557142,15.000000,0.000000,4183.077148,4155.897461,4156.410156,4142.051270,4122.051270,4130.769043,4124.102539,4121.538574,4105.641113,4109.743652,4110.256348,4142.563965,4089.743652,4128.717773,839.000000,4.000000,,,,0.000000,4.000000,4.000000,4.000000,4.000000,4.000000,4.000000,4.000000,4.000000,4.000000,4.000000,4.000000,4.000000,4.000000,4.000000,100.000000
1602006678.564923,16.000000,0.000000,4189.230957,4155.384766,4156.922852,4147.179688,4122.051270,4138.461426,4133.333496,4126.153809,4101.025879,4109.230957,4106.666504,4151.282227,4099.487305,4127.179688,0.000000,4.000000,,,,0.000000,4.000000,4.000000,4.000000,4.000000,4.000000,4.000000,4.000000,4.000000,4.000000,4.000000,4.000000,4.000000,4.000000,4.000000,100.000000
1602006678.572804,17.000000,0.000000,4185.641113,4156.922852,4160.000000,4150.769043,4126.666504,4135.897461,4141.538574,4132.820313,4103.589844,4118.461426,4117.436035,4154.358887,4109.743652,4133.846191,0.000000,4.000000,,,,0.000000,4.000000,4.000000,4.000000,4.000000,4.000000,4.000000,4.000000,4.000000,4.000000,4.000000,4.000000,4.000000,4.000000,4.000000,100.000000
1602006678.580685,18.000000,0.000000,4181.025879,4164.615234,4161.025879,4149.743652,4135.897461,4138.974121,4151.794922,4143.077148,4111.794922,4124.102539,4127.692383,4155.384766,4110.769043,4141.025879,0.000000,4.000000,,,,0.000000,4.000000,4.000000,4.000000,4.000000,4.000000,4.000000,4.000000,4.000000,4.000000,4.000000,4.000000,4.000000,4.000000,4.000000,100.000000
1602006678.588566,19.000000,0.000000,4184.615234,4171.794922,4156.922852,4150.769043,4143.589844,4146.666504,4157.436035,4153.846191,4133.333496,4137.948730,4126.153809,4155.897461,4116.410156,4132.820313,0.000000,4.000000,,,,0.000000,4.000000,4.000000,4.000000,4.000000,4.000000,4.000000,4.000000,4.000000,4.000000,4.000000,4.000000,4.000000,4.000000,4.000000,100.000000
1602006678.596447,20.000000,0.000000,4183.589844,4172.307617,4153.846191,4153.846191,4135.384766,4142.051270,4147.179688,4153.846191,4154.358887,4165.128418,4124.102539,4152.307617,4121.025879,4121.538574,0.000000,4.000000,,,,0.000000,4.000000,4.000000,4.000000,4.000000,4.000000,4.000000,4.000000,4.000000,4.000000,4.000000,4.000000,4.000000,4.000000,4.000000,100.000000
1602006678.604328,21.000000,0.000000,4171.282227,4167.692383,4149.743652,4148.717773,4123.589844,4126.153809,4131.282227,4141.025879,4151.282227,4157.436035,4119.487305,4136.410156,4107.692383,4116.410156,0.000000,4.000000,,,,0.000000,4.000000,4.000000,4.000000,4.000000,4.000000,4.000000,4.000000,4.000000,4.000000,4.000000,4.000000,4.000000,4.000000,4.000000,100.000000
1602006678.612209,22.000000,0.000000,4166.153809,4168.205078,4142.051270,4148.205078,4129.743652,4120.512695,4124.102539,4135.897461,4138.461426,4113.333496,4109.230957,4118.974121,4091.794922,4113.333496,0.000000,4.000000,,,,0.000000,4.000000,4.000000,4.000000,4.000000,4.000000,4.000000,4.000000,4.000000,4.000000,4.000000,4.000000,4.000000,4.000000,4.000000,100.000000
1602006678.620090,23.000000,0.000000,4170.769043,4165.641113,4136.922852,4150.256348,4135.384766,4125.641113,4120.000000,4138.461426,4135.384766,4101.538574,4103.077148,4116.922852,4089.230713,4107.692383,0.000000,4.000000,,,,0.000000,4.000000,4.000000,4.000000,4.000000,4.000000,4.000000,4.000000,4.000000,4.000000,4.000000,4.000000,4.000000,4.000000,4.000000,100.000000
1602006678.627871,24.000000,0.000000,4170.256348,4154.358887,4135.384766,4142.051270,4128.205078,4125.641113,4116.922852,4136.410156,4140.000000,4123.077148,4097.948730,4118.461426,4090.256348,4103.589844,0.000000,4.000000,,,,0.000000,4.000000,4.000000,4.000000,4.000000,4.000000,4.000000,4.000000,4.000000,4.000000,4.000000,4.000000,4.000000,4.000000,4.000000,100.000000
1602006678.635752,25.000000,0.000000,4167.179688,4152.820313,4135.384766,4135.897461,4126.153809,4122.051270,4118.974121,4136.410156,4144.102539,4126.666504,4097.948730,4118.974121,4090.256348,4105.641113,0.000000,4.000000,,,,0.000000,4.000000,4.000000,4.000000,4.000000,4.000000,4.000000,4.000000,4.000000,4.000000,4.000000,4.000000,4.000000,4.000000,4.000000,100.000000
1602006678.643633,26.000000,0.000000,4171.282227,4160.000000,4144.102539,4141.025879,4131.282227,4129.230957,4128.717773,4139.487305,4142.563965,4118.461426,4106.153809,4127.692383,4092.307617,4107.179688,0.000000,4.000000,,,,0.000000,4.000000,4.000000,4.000000,4.000000,4.000000,4.000000,4.000000,4.000000,4.000000,4.000000,4.000000,4.000000,4.000000,4.000000,100.000000
1602006678.651514,27.000000,0.000000,4172.820313,4157.948730,4155.897461,4143.077148,4126.666504,4136.922852,4137.948730,4143.589844,4139.487305,4122.051270,4109.743652,4137.948730,4094.871826,4105.128418,0.000000,4.000000,,,,0.000000,4.000000,4.000000,4.000000,4.000000,4.000000,4.000000,4.000000,4.000000,4.000000,4.000000,4.000000,4.000000,4.000000,4.000000,100.000000
1602006678.659395,28.000000,0.000000,4169.230957,4150.769043,4157.948730,4137.948730,4123.589844,4137.948730,4143.077148,4150.256348,4141.538574,4122.563965,4112.820313,4146.153809,4101.538574,4114.871582,0.000000,4.000000,,,,0.000000,4.000000,4.000000,4.000000,4.000000,4.000000,4.000000,4.000000,4.000000,4.000000,4.000000,4.000000,4.000000,4.000000,4.000000,100.000000
1602006678.667275,29.000000,0.000000,4169.230957,4152.307617,4154.871582,4136.922852,4131.794922,4140.512695,4144.102539,4155.384766,4142.563965,4125.641113,4122.051270,4155.897461,4109.743652,4136.410156,0.000000,4.000000,,,,0.000000,4.000000,4.000000,4.000000,4.000000,4.000000,4.000000,4.000000,4.000000,4.000000,4.000000,4.000000,4.000000,4.000000,4.000000,100.000000
1602006678.675156,30.000000,0.000000,4172.307617,4157.436035,4151.794922,4141.538574,4135.897461,4140.512695,4143.077148,4150.256348,4139.487305,4137.436035,4127.692383,4155.384766,4114.358887,4142.563965,0.000000,4.000000,,,,0.000000,4.000000,4.000000,4.000000,4.000000,4.000000,4.000000,4.000000,4.000000,4.000000,4.000000,4.000000,4.000000,4.000000,4.000000,100.000000
1602006678.683037,31.000000,0.000000,4171.794922,4158.974121,4143.589844,4143.589844,4135.897461,4138.461426,4140.512695,4139.487305,4138.974121,4141.538574,4124.102539,4138.461426,4112.820313,4133.846191,0.000000,4.000000,,,,0.000000,4.000000,4.000000,4.000000,4.000000,4.000000,4.000000,4.000000,4.000000,4.000000,4.000000,4.000000,4.000000,4.000000,4.000000,100.000000
1602006678.691018,32.000000,0.000000,4169.743652,4160.000000,4133.846191,4140.000000,4136.922852,4132.820313,4133.333496,4133.846191,4127.179688,4133.333496,4113.846191,4123.589844,4105.641113,4118.974121,0.000000,4.000000,,,,0.000000,4.000000,4.000000,4.000000,4.000000,4.000000,4.000000,4.000000,4.000000,4.000000,4.000000,4.000000,4.000000,4.000000,4.000000,100.000000
1602006678.698899,33.000000,0.000000,4175.897461,4167.179688,4132.820313,4143.589844,4137.948730,4125.128418,4129.230957,4135.897461,4115.384766,4132.307617,4112.820313,4119.487305,4101.538574,4107.692383,0.000000,4.000000,,,,0.000000,4.000000,4.000000,4.000000,4.000000,4.000000,4.000000,4.000000,4.000000,4.000000,4.000000,4.000000,4.000000,4.000000,4.000000,100.000000
1602006678.706780,34.000000,0.000000,4174.871582,4171.282227,4135.897461,4151.282227,4135.384766,4127.179688,4134.358887,4137.436035,4129.743652,4141.025879,4118.461426,4121.538574,4107.179688,4112.307617,0.000000,4.000000,,,,0.000000,4.000000,4.000000,4.000000,4.000000,4.000000,4.000000,4.000000,4.000000,4.000000,4.000000,4.000000,4.000000,4.000000,4.000000,100.000000
1602006678.714661,35.000000,0.000000,4157.436035,4162.563965,4133.333496,4145.128418,4133.846191,4135.897461,4136.410156,4137.436035,4142.563965,4132.307617,4111.282227,4122.563965,4109.743652,4115.384766,0.000000,4.000000,,,,0.000000,4.000000,4.000000,4.000000,4.000000,4.000000,4.000000,4.000000,4.000000,4.000000,4.000000,4.000000,4.000000,4.000000,4.000000,100.000000
1602006678.722542,36.000000,0.000000,4153.333496,4154.358887,4129.743652,4136.922852,4135.897461,4136.922852,4127.692383,4137.436035,4133.333496,4114.358887,4107.179688,4120.000000,4104.615234,4110.256348,0.000000,4.000000,,,,0.000000,4.000000,4.000000,4.000000,4.000000,4.000000,4.000000,4.000000,4.000000,4.000000,4.000000,4.000000,4.000000,4.000000,4.000000,100.000000
1602006678.730423,37.000000,0.000000,4165.128418,4155.897461,4130.769043,4139.487305,4136.922852,4135.897461,4123.589844,4136.410156,4126.666504,4120.512695,4117.948730,4121.025879,4107.692383,4116.410156,0.000000,4.000000,,,,0.000000,4.000000,4.000000,4.000000,4.000000,4.000000,4.000000,4.000000,4.000000,4.000000,4.000000,4.000000,4.000000,4.000000,4.000000,100.000000
1602006678.738304,38.000000,0.000000,4176.922852,4162.563965,4137.948730,4141.025879,4137.948730,4137.948730,4130.256348,4143.077148,4136.922852,4140.512695,4125.128418,4135.384766,4123.589844,4129.743652,0.000000,4.000000,,,,0.000000,4.000000,4.000000,4.000000,4.000000,4.000000,4.000000,4.000000,4.000000,4.000000,4.000000,4.000000,4.000000,4.000000,4.000000,100.000000
1602006678.746185,39.000000,0.000000,4191.282227,4166.666504,4155.384766,4140.512695,4133.846191,4131.282227,4135.384766,4155.897461,4148.717773,4147.692383,4131.282227,4160.000000,4140.000000,4147.179688,0.000000,4.000000,,,,0.000000,4.000000,4.000000,4.000000,4.000000,4.000000,4.000000,4.000000,4.000000,4.000000,4.000000,4.000000,4.000000,4.000000,4.000000,100.000000
1602006678.753965,40.000000,0.000000,4205.641113,4163.589844,4178.461426,4142.563965,4125.641113,4127.179688,4138.974121,4160.000000,4149.230957,4157.436035,4141.025879,4182.051270,4144.102539,4173.846191,0.000000,4.000000,,,,0.000000,4.000000,4.000000,4.000000,4.000000,4.000000,4.000000,4.000000,4.000000,4.000000,4.000000,4.000000,4.000000,4.000000,4.000000,100.000000
1602006678.761846,41.000000,0.000000,4204.102539,4153.333496,4190.769043,4139.487305,4116.410156,4129.743652,4140.512695,4155.897461,4144.102539,4161.025879,4141.538574,4187.692383,4142.051270,4175.384766,0.000000,4.000000,,,,0.000000,4.000000,4.000000,4.000000,4.000000,4.000000,4.000000,4.000000,4.000000,4.000000,4.000000,4.000000,4.000000,4.000000,4.000000,100.000000
1602006678.769627,42.000000,0.000000,4190.769043,4144.102539,4189.743652,4136.922852,4108.205078,4125.641113,4140.512695,4155.384766,4138.461426,4136.922852,4145.128418,4181.025879,4139.487305,4156.410156,0.000000,4.000000,,,,0.000000,4.000000,4.000000,4.000000,4.000000,4.000000,4.000000,4.000000,4.000000,4.000000,4.000000,4.000000,4.000000,4.000000,4.000000,100.000000
1602006678.777508,43.000000,0.000000,4174.358887,4134.871582,4175.384766,4132.820313,4107.179688,4120.000000,4138.461426,4156.410156,4137.948730,4126.153809,4145.128418,4171.282227,4129.743652,4152.820313,0.000000,4.000000,,,,0.000000,4.000000,4.000000,4.000000,4.000000,4.000000,4.000000,4.000000,4.000000,4.000000,4.000000,4.000000,4.000000,4.000000,4.000000,100.000000
1602006678.785389,44.000000,0.000000,4157.436035,4124.102539,4149.743652,4122.563965,4109.230957,4128.717773,4137.436035,4155.897461,4135.897461,4143.077148,4126.153809,4154.358887,4113.333496,4144.615234,0.000000,4.000000,,,,0.000000,4.000000,4.000000,4.000000,4.000000,4.000000,4.000000,4.000000,4.000000,4.000000,4.000000,4.000000,4.000000,4.000000,4.000000,100.000000
1602006678.793270,45.000000,0.000000,4146.153809,4119.487305,4126.666504,4117.948730,4109.743652,4144.102539,4146.153809,4155.384766,4134.358887,4151.282227,4117.948730,4132.820313,4107.692383,4116.922852,0.000000,4.000000,,,,0.000000,4.000000,4.000000,4.000000,4.000000,4.000000,4.000000,4.000000,4.000000,4.000000,4.000000,4.000000,4.000000,4.000000,4.000000,100.000000
1602006678.801151,46.000000,0.000000,4143.589844,4121.025879,4115.384766,4120.000000,4115.384766,4147.179688,4153.846191,4152.820313,4131.794922,4138.461426,4126.153809,4120.000000,4105.128418,4100.512695,0.000000,4.000000,,,,0.000000,4.000000,4.000000,4.000000,4.000000,4.000000,4.000000,4.000000,4.000000,4.000000,4.000000,4.000000,4.000000,4.000000,4.000000,100.000000
1602006678.809032,47.000000,0.000000,4148.205078,4127.692383,4113.846191,4120.512695,4124.102539,4143.589844,4149.743652,4152.820313,4131.282227,4128.717773,4118.461426,4120.000000,4091.281982,4105.641113,0.000000,4.000000,,,,0.000000,4.000000,4.000000,4.000000,4.000000,4.000000,4.000000,4.000000,4.000000,4.000000,4.000000,4.000000,4.000000,4.000000,4.000000,100.000000
1602006678.817013,48.000000,0.000000,4149.230957,4141.025879,4116.922852,4127.692383,4127.179688,4144.615234,4144.102539,4154.871582,4138.974121,4130.256348,4106.666504,4127.179688,4087.179443,4115.384766,0.000000,4.000000,,,,0.000000,4.000000,4.000000,4.000000,4.000000,4.000000,4.000000,4.000000,4.000000,4.000000,4.000000,4.000000,4.000000,4.000000,4.000000,100.000000
1602006678.824894,49.000000,0.000000,4148.717773,4153.333496,4123.077148,4139.487305,4126.666504,4143.077148,4142.051270,4151.794922,4133.846191,4117.948730,4115.384766,4134.358887,4101.538574,4124.102539,0.000000,4.000000,,,,0.000000,4.000000,4.000000,4.000000,4.000000,4.000000,4.000000,4.000000,4.000000,4.000000,4.000000,4.000000,4.000000,4.000000,4.000000,100.000000
1602006678.832774,50.000000,0.000000,4158.461426,4154.358887,4129.230957,4137.948730,4125.128418,4132.307617,4135.897461,4147.179688,4125.641113,4098.461426,4123.589844,4135.897461,4107.179688,4124.615234,0.000000,4.000000,,,,0.000000,4.000000,4.000000,4.000000,4.000000,4.000000,4.000000,4.000000,4.000000,4.000000,4.000000,4.000000,4.000000,4.000000,4.000000,100.000000
1602006678.840655,51.000000,0.000000,4167.692383,4155.897461,4136.410156,4135.897461,4121.538574,4123.077148,4127.179688,4149.743652,4134.871582,4110.256348,4118.974121,4136.410156,4105.641113,4124.102539,0.000000,4.000000,,,,0.000000,4.000000,4.000000,4.000000,4.000000,4.000000,4.000000,4.000000,4.000000,4.000000,4.000000,4.000000,4.000000,4.000000,4.000000,100.000000
1602006678.848536,52.000000,0.000000,4176.922852,4170.256348,4147.692383,4149.230957,4122.563965,4129.743652,4125.128418,4152.820313,4143.077148,4150.256348,4124.102539,4146.153809,4118.461426,4144.615234,0.000000,4.000000,,,,0.000000,4.000000,4.000000,4.000000,4.000000,4.000000,4.000000,4.000000,4.000000,4.000000,4.000000,4.000000,4.000000,4.000000,4.000000,100.000000
1602006678.856417,53.000000,0.000000,4193.846191,4174.871582,4157.948730,4154.358887,4123.077148,4137.948730,4125.641113,4150.256348,4135.897461,4161.538574,4136.410156,4160.000000,4130.769043,4166.153809,0.000000,4.000000,,,,0.000000,4.000000,4.000000,4.000000,4.000000,4.000000,4.000000,4.000000,4.000000,4.000000,4.000000,4.000000,4.000000,4.000000,4.000000,100.000000
1602006678.864298,54.000000,0.000000,4198.461426,4160.512695,4161.025879,4143.589844,4115.897461,4131.282227,4129.743652,4150.769043,4135.384766,4152.820313,4137.948730,4171.794922,4128.717773,4162.563965,0.000000,4.000000,,,,0.000000,4.000000,4.000000,4.000000,4.000000,4.000000,4.000000,4.000000,4.000000,4.000000,4.000000,4.000000,4.000000,4.000000,4.000000,100.000000
1602006678.872079,55.000000,0.000000,4183.077148,4149.743652,4157.948730,4137.948730,4105.641113,4121.025879,4135.897461,4152.820313,4138.461426,4157.436035,4142.051270,4173.846191,4127.179688,4155.897461,0.000000,4.000000,,,,0.000000,4.000000,4.000000,4.000000,4.000000,4.000000,4.000000,4.000000,4.000000,4.000000,4.000000,4.000000,4.000000,4.000000,4.000000,100.000000
1602006678.879960,56.000000,0.000000,4169.743652,4151.282227,4160.512695,4139.487305,4105.641113,4123.077148,4138.461426,4150.769043,4125.641113,4149.743652,4143.589844,4163.077148,4126.666504,4158.974121,0.000000,4.000000,,,,0.000000,4.000000,4.000000,4.000000,4.000000,4.000000,4.000000,4.000000,4.000000,4.000000,4.000000,4.000000,4.000000,4.000000,4.000000,100.000000
1602006678.887841,57.000000,0.000000,4161.025879,4149.230957,4160.000000,4140.000000,4117.436035,4126.153809,4134.871582,4149.230957,4117.948730,4124.102539,4127.692383,4147.179688,4116.410156,4150.256348,0.000000,4.000000,,,,0.000000,4.000000,4.000000,4.000000,4.000000,4.000000,4.000000,4.000000,4.000000,4.000000,4.000000,4.000000,4.000000,4.000000,4.000000,100.000000
1602006678.895722,58.000000,0.000000,4150.256348,4138.974121,4146.153809,4135.384766,4123.077148,4121.538574,4129.743652,4152.307617,4122.563965,4112.820313,4120.000000,4137.948730,4105.128418,4134.871582,0.000000,4.000000,,,,0.000000,4.000000,4.000000,4.000000,4.000000,4.000000,4.000000,4.000000,4.000000,4.000000,4.000000,4.000000,4.000000,4.000000,4.000000,100.000000
1602006678.903603,59.000000,0.000000,4146.666504,4136.410156,4137.948730,4129.743652,4121.025879,4118.974121,4125.128418,4151.794922,4125.641113,4125.128418,4127.179688,4138.461426,4106.666504,4136.410156,0.000000,4.000000,,,,0.000000,4.000000,4.000000,4.000000,4.000000,4.000000,4.000000,4.000000,4.000000,4.000000,4.000000,4.000000,4.000000,4.000000,4.000000,100.000000
1602006678.911484,60.000000,0.000000,4152.307617,4141.025879,4138.461426,4125.128418,4124.102539,4121.538574,4122.051270,4146.153809,4129.743652,4137.948730,4125.641113,4138.974121,4110.769043,4146.153809,0.000000,4.000000,,,,0.000000,4.000000,4.000000,4.000000,4.000000,4.000000,4.000000,4.000000,4.000000,4.000000,4.000000,4.000000,4.000000,4.000000,4.000000,100.000000
1602006678.919265,61.000000,0.000000,4156.410156,4142.051270,4132.307617,4124.615234,4130.256348,4129.230957,4123.589844,4144.102539,4133.846191,4138.974121,4121.025879,4133.846191,4109.230957,4140.000000,0.000000,4.000000,,,,0.000000,4.000000,4.000000,4.000000,4.000000,4.000000,4.000000,4.000000,4.000000,4.000000,4.000000,4.000000,4.000000,4.000000,4.000000,100.000000
1602006678.927146,62.000000,0.000000,4153.846191,4138.974121,4122.563965,4125.128418,4136.922852,4141.025879,4126.153809,4145.128418,4124.615234,4137.436035,4126.153809,4135.897461,4112.820313,4123.077148,0.000000,4.000000,,,,0.000000,4.000000,4.000000,4.000000,4.000000,4.000000,4.000000,4.000000,4.000000,4.000000,4.000000,4.000000,4.000000,4.000000,4.000000,100.000000
1602006678.935027,63.000000,0.000000,4143.589844,4136.922852,4123.077148,4122.563965,4138.974121,4144.102539,4126.153809,4140.512695,4106.153809,4135.897461,4129.743652,4137.436035,4113.846191,4121.025879,0.000000,4.000000,,,,0.000000,4.000000,4.000000,4.000000,4.000000,4.000000,4.000000,4.000000,4.000000,4.000000,4.000000,4.000000,4.000000,4.000000,4.000000,100.000000
1602006678.942908,64.000000,0.000000,4134.871582,4135.897461,4125.641113,4120.512695,4130.769043,4131.794922,4123.589844,4127.692383,4094.871826,4126.666504,4117.436035,4126.666504,4102.563965,4125.128418,793.000000,4.000000,,,,0.000000,4.000000,4.000000,4.000000,4.000000,4.000000,4.000000,4.000000,4.000000,4.000000,4.000000,4.000000,4.000000,4.000000,4.000000,100.000000
1602006678.950789,65.000000,0.000000,4134.358887,4137.436035,4122.051270,4122.051270,4123.589844,4118.461426,4119.487305,4124.102539,4092.820557,4118.974121,4101.538574,4122.563965,4094.358887,4116.922852,801.000000,4.000000,,,,0.000000,4.000000,4.000000,4.000000,4.000000,4.000000,4.000000,4.000000,4.000000,4.000000,4.000000,4.000000,4.000000,4.000000,4.000000,100.000000
1602006678.958669,66.000000,0.000000,4145.641113,4145.641113,4128.205078,4130.256348,4127.692383,4121.025879,4127.179688,4135.384766,4106.666504,4125.641113,4108.717773,4136.410156,4102.051270,4124.615234,849.000000,4.000000,,,,0.000000,4.000000,4.000000,4.000000,4.000000,4.000000,4.000000,4.000000,4.000000,4.000000,4.000000,4.000000,4.000000,4.000000,4.000000,100.000000
1602006678.966451,67.000000,0.000000,4153.846191,4155.384766,4139.487305,4138.974121,4130.256348,4132.820313,4135.384766,4143.589844,4124.615234,4128.717773,4128.717773,4145.128418,4117.948730,4140.000000,871.000000,4.000000,,,,0.000000,4.000000,4.000000,4.000000,4.000000,4.000000,4.000000,4.000000,4.000000,4.000000,4.000000,4.000000,4.000000,4.000000,4.000000,100.000000
1602006678.974331,68.000000,0.000000,4153.333496,4155.897461,4134.871582,4138.461426,4122.563965,4129.743652,4128.205078,4134.358887,4119.487305,4120.000000,4129.230957,4138.974121,4121.025879,4125.128418,808.000000,4.000000,,,,0.000000,4.000000,4.000000,4.000000,4.000000,4.000000,4.000000,4.000000,4.000000,4.000000,4.000000,4.000000,4.000000,4.000000,4.000000,100.000000
1602006678.982212,69.000000,0.000000,4153.333496,4150.256348,4123.077148,4130.256348,4117.436035,4115.384766,4120.512695,4123.589844,4103.589844,4122.563965,4118.461426,4132.820313,4109.230957,4110.256348,826.000000,4.000000,,,,0.000000,4.000000,4.000000,4.000000,4.000000,4.000000,4.000000,4.000000,4.000000,4.000000,4.000000,4.000000,4.000000,4.000000,4.000000,100.000000
1602006678.990093,70.000000,0.000000,4154.358887,4144.615234,4121.538574,4126.666504,4120.512695,4115.384766,4124.615234,4126.153809,4105.641113,4128.205078,4117.948730,4134.871582,4101.025879,4116.922852,723.000000,4.000000,,,,0.000000,4.000000,4.000000,4.000000,4.000000,4.000000,4.000000,4.000000,4.000000,4.000000,4.000000,4.000000,4.000000,4.000000,4.000000,100.000000
1602006678.997974,71.000000,0.000000,4151.794922,4141.538574,4125.128418,4131.794922,4123.589844,4123.077148,4125.641113,4129.230957,4114.871582,4115.384766,4121.025879,4140.512695,4104.615234,4122.563965,663.000000,4.000000,,,,0.000000,4.000000,4.000000,4.000000,4.000000,4.000000,4.000000,4.000000,4.000000,4.000000,4.000000,4.000000,4.000000,4.000000,4.000000,100.000000
1602006679.005855,72.000000,0.000000,4153.846191,4146.153809,4130.256348,4136.410156,4123.589844,4124.102539,4121.025879,4126.153809,4110.256348,4111.282227,4122.563965,4141.538574,4106.666504,4121.025879,789.000000,4.000000,,,,0.000000,4.000000,4.000000,4.000000,4.000000,4.000000,4.000000,4.000000,4.000000,4.000000,4.000000,4.000000,4.000000,4.000000,4.000000,100.000000
1602006679.013736,73.000000,0.000000,4165.128418,4152.307617,4140.000000,4136.922852,4123.589844,4121.025879,4120.000000,4121.538574,4104.615234,4123.589844,4118.974121,4141.025879,4103.589844,4120.512695,831.000000,4.000000,,,,0.000000,4.000000,4.000000,4.000000,4.000000,4.000000,4.000000,4.000000,4.000000,4.000000,4.000000,4.000000,4.000000,4.000000,4.000000,100.000000
1602006679.021617,74.000000,0.000000,4169.230957,4150.256348,4142.563965,4136.410156,4122.563965,4117.948730,4111.282227,4120.000000,4103.589844,4113.333496,4117.948730,4145.128418,4112.307617,4120.000000,876.000000,4.000000,,,,0.000000,4.000000,4.000000,4.000000,4.000000,4.000000,4.000000,4.000000,4.000000,4.000000,4.000000,4.000000,4.000000,4.000000,4.000000,100.000000
1602006679.029398,75.000000,0.000000,4169.230957,4149.743652,4140.512695,4139.487305,4122.563965,4107.179688,4105.641113,4120.512695,4102.051270,4095.384521,4130.256348,4153.846191,4125.128418,4130.769043,839.000000,4.000000,,,,0.000000,4.000000,4.000000,4.000000,4.000000,4.000000,4.000000,4.000000,4.000000,4.000000,4.000000,4.000000,4.000000,4.000000,4.000000,100.000000
1602006679.037278,76.000000,0.000000,4175.384766,4154.871582,4142.051270,4142.563965,4123.077148,4098.974121,4116.410156,4123.589844,4103.589844,4113.846191,4141.538574,4165.641113,4127.692383,4141.538574,765.000000,4.000000,,,,0.000000,4.000000,4.000000,4.000000,4.000000,4.000000,4.000000,4.000000,4.000000,4.000000,4.000000,4.000000,4.000000,4.000000,4.000000,100.000000
1602006679.045159,77.000000,0.000000,4177.436035,4156.410156,4142.051270,4140.000000,4120.512695,4100.000000,4124.615234,4132.307617,4112.307617,4138.461426,4138.974121,4171.282227,4128.205078,4138.974121,726.000000,4.000000,,,,0.000000,4.000000,4.000000,4.000000,4.000000,4.000000,4.000000,4.000000,4.000000,4.000000,4.000000,4.000000,4.000000,4.000000,4.000000,100.000000
1602006679.053040,78.000000,0.000000,4172.307617,4154.358887,4145.128418,4138.974121,4120.000000,4102.051270,4125.641113,4137.436035,4118.461426,4143.589844,4135.897461,4163.589844,4135.897461,4144.102539,876.000000,4.000000,,,,0.000000,4.000000,4.000000,4.000000,4.000000,4.000000,4.000000,4.000000,4.000000,4.000000,4.000000,4.000000,4.000000,4.000000,4.000000,100.000000
1602006679.061021,79.000000,0.000000,4169.230957,4154.871582,4149.743652,4141.025879,4123.077148,4109.743652,4130.256348,4136.922852,4123.077148,4146.153809,4141.025879,4156.410156,4136.922852,4146.153809,839.000000,4.000000,,,,0.000000,4.000000,4.000000,4.000000,4.000000,4.000000,4.000000,4.000000,4.000000,4.000000,4.000000,4.000000,4.000000,4.000000,4.000000,100.000000
1602006679.068902,80.000000,0.000000,4169.230957,4155.897461,4147.692383,4143.077148,4122.563965,4126.153809,4132.307617,4140.000000,4132.820313,4148.717773,4143.077148,4154.358887,4131.282227,4131.282227,765.000000,4.000000,,,,0.000000,4.000000,4.000000,4.000000,4.000000,4.000000,4.000000,4.000000,4.000000,4.000000,4.000000,4.000000,4.000000,4.000000,4.000000,100.000000
1602006679.076783,81.000000,0.000000,4155.897461,4150.769043,4134.358887,4137.436035,4124.615234,4133.333496,4125.641113,4138.461426,4134.871582,4126.666504,4127.179688,4147.179688,4126.666504,4119.487305,726.000000,4.000000,,,,0.000000,4.000000,4.000000,4.000000,4.000000,4.000000,4.000000,4.000000,4.000000,4.000000,4.000000,4.000000,4.000000,4.000000,4.000000,100.000000
1602006679.084663,82.000000,0.000000,4133.333496,4136.922852,4114.871582,4122.563965,4125.641113,4123.077148,4121.025879,4124.615234,4116.410156,4091.794922,4104.102539,4134.871582,4109.230957,4110.256348,876.000000,4.000000,,,,0.000000,4.000000,4.000000,4.000000,4.000000,4.000000,4.000000,4.000000,4.000000,4.000000,4.000000,4.000000,4.000000,4.000000,4.000000,100.000000
1602006679.092544,83.000000,0.000000,4137.436035,4131.282227,4113.333496,4118.974121,4122.051270,4118.461426,4123.077148,4120.000000,4113.333496,4100.512695,4107.692383,4135.897461,4101.538574,4103.589844,839.000000,4.000000,,,,0.000000,4.000000,4.000000,4.000000,4.000000,4.000000,4.000000,4.000000,4.000000,4.000000,4.000000,4.000000,4.000000,4.000000,4.000000,100.000000
1602006679.100425,84.000000,0.000000,4165.128418,4144.615234,4131.794922,4135.897461,4127.692383,4131.282227,4124.102539,4130.769043,4132.820313,4140.000000,4134.871582,4147.692383,4118.974121,4120.000000,765.000000,4.000000,,,,0.000000,4.000000,4.000000,4.000000,4.000000,4.000000,4.000000,4.000000,4.000000,4.000000,4.000000,4.000000,4.000000,4.000000,4.000000,100.000000
1602006679.108306,85.000000,0.000000,4176.922852,4156.922852,4141.538574,4147.179688,4142.563965,4139.487305,4126.153809,4130.769043,4134.871582,4146.666504,4141.538574,4154.358887,4128.205078,4141.538574,726.000000,4.000000,,,,0.000000,4.000000,4.000000,4.000000,4.000000,4.000000,4.000000,4.000000,4.000000,4.000000,4.000000,4.000000,4.000000,4.000000,4.000000,100.000000
1602006679.116187,86.000000,0.000000,4171.794922,4158.974121,4138.974121,4143.589844,4146.153809,4138.461426,4133.333496,4123.077148,4121.538574,4131.794922,4135.384766,4153.333496,4125.128418,4137.948730,876.000000,4.000000,,,,0.000000,4.000000,4.000000,4.000000,4.000000,4.000000,4.000000,4.000000,4.000000,4.000000,4.000000,4.000000,4.000000,4.000000,4.000000,100.000000
1602006679.124168,87.000000,0.000000,4166.666504,4159.487305,4141.025879,4141.025879,4141.538574,4138.461426,4138.974121,4122.563965,4113.846191,4123.077148,4137.948730,4153.846191,4128.205078,4122.051270,839.000000,4.000000,,,,0.000000,4.000000,4.000000,4.000000,4.000000,4.000000,4.000000,4.000000,4.000000,4.000000,4.000000,4.000000,4.000000,4.000000,4.000000,100.000000
1602006679.132049,88.000000,0.000000,4157.948730,4158.974121,4138.974121,4142.563965,4140.512695,4142.051270,4138.461426,4123.589844,4107.179688,4106.153809,4127.692383,4154.871582,4126.666504,4116.410156,765.000000,4.000000,,,,0.000000,4.000000,4.000000,4.000000,4.000000,4.000000,4.000000,4.000000,4.000000,4.000000,4.000000,4.000000,4.000000,4.000000,4.000000,100.000000
1602006679.139930,89.000000,0.000000,4154.871582,4160.512695,4137.948730,4146.666504,4142.051270,4137.948730,4135.384766,4121.538574,4108.205078,4094.871826,4115.384766,4152.820313,4120.512695,4123.077148,726.000000,4.000000,,,,0.000000,4.000000,4.000000,4.000000,4.000000,4.000000,4.000000,4.000000,4.000000,4.000000,4.000000,4.000000,4.000000,4.000000,4.000000,100.000000
1602006679.147811,90.000000,0.000000,4163.589844,4168.717773,4149.743652,4152.307617,4147.179688,4132.307617,4134.871582,4125.641113,4120.000000,4110.769043,4132.307617,4152.820313,4123.077148,4135.384766,876.000000,4.000000,,,,0.000000,4.000000,4.000000,4.000000,4.000000,4.000000,4.000000,4.000000,4.000000,4.000000,4.000000,4.000000,4.000000,4.000000,4.000000,100.000000
1602006679.155692,91.000000,0.000000,4172.307617,4176.922852,4153.846191,4155.384766,4154.871582,4136.922852,4136.410156,4132.307617,4124.615234,4129.230957,4144.615234,4151.282227,4126.666504,4142.051270,839.000000,4.000000,,,,0.000000,4.000000,4.000000,4.000000,4.000000,4.000000,4.000000,4.000000,4.000000,4.000000,4.000000,4.000000,4.000000,4.000000,4.000000,100.000000
1602006679.163573,92.000000,0.000000,4171.282227,4170.256348,4141.538574,4151.282227,4149.743652,4145.128418,4137.436035,4134.358887,4116.410156,4135.897461,4127.179688,4141.025879,4124.102539,4134.358887,765.000000,4.000000,,,,0.000000,4.000000,4.000000,4.000000,4.000000,4.000000,4.000000,4.000000,4.000000,4.000000,4.000000,4.000000,4.000000,4.000000,4.000000,100.000000
1602006679.171354,93.000000,0.000000,4160.512695,4156.410156,4131.794922,4141.025879,4138.974121,4145.641113,4135.897461,4129.230957,4110.769043,4132.307617,4116.922852,4133.846191,4122.563965,4122.563965,726.000000,4.000000,,,,0.000000,4.000000,4.000000,4.000000,4.000000,4.000000,4.000000,4.000000,4.000000,4.000000,4.000000,4.000000,4.000000,4.000000,4.000000,100.000000
1602006679.179235,94.000000,0.000000,4152.307617,4150.769043,4136.922852,4136.410156,4143.589844,4139.487305,4135.897461,4123.077148,4107.692383,4112.307617,4128.717773,4135.897461,4126.666504,4122.051270,876.000000,4.000000,,,,0.000000,4.000000,4.000000,4.000000,4.000000,4.000000,4.000000,4.000000,4.000000,4.000000,4.000000,4.000000,4.000000,4.000000,4.000000,100.000000
1602006679.187115,95.000000,0.000000,4153.846191,4153.846191,4136.922852,4140.000000,4151.282227,4136.922852,4140.512695,4122.563965,4105.641113,4102.563965,4130.769043,4135.897461,4127.179688,4124.102539,839.000000,4.000000,,,,0.000000,4.000000,4.000000,4.000000,4.000000,4.000000,4.000000,4.000000,4.000000,4.000000,4.000000,4.000000,4.000000,4.000000,4.000000,100.000000
1602006679.194996,96.000000,0.000000,4154.358887,4151.794922,4127.692383,4141.025879,4149.743652,4138.974121,4144.615234,4125.641113,4110.769043,4124.102539,4119.487305,4133.333496,4122.563965,4121.025879,765.000000,4.000000,,,,0.000000,4.000000,4.000000,4.000000,4.000000,4.000000,4.000000,4.000000,4.000000,4.000000,4.000000,4.000000,4.000000,4.000000,4.000000,100.000000
1602006679.202877,97.000000,0.000000,4156.922852,4150.256348,4131.794922,4138.974121,4148.205078,4142.563965,4142.563965,4133.333496,4121.538574,4138.461426,4128.205078,4140.512695,4129.743652,4128.717773,726.000000,4.000000,,,,0.000000,4.000000,4.000000,4.000000,4.000000,4.000000,4.000000,4.000000,4.000000,4.000000,4.000000,4.000000,4.000000,4.000000,4.000000,100.000000
1602006679.210758,98.000000,0.000000,4162.051270,4153.846191,4141.025879,4138.974121,4146.666504,4142.563965,4140.000000,4135.897461,4121.538574,4128.717773,4142.563965,4146.153809,4138.461426,4137.436035,876.000000,4.000000,,,,0.000000,4.000000,4.000000,4.000000,4.000000,4.000000,4.000000,4.000000,4.000000,4.000000,4.000000,4.000000,4.000000,4.000000,4.000000,100.000000
1602006679.218539,99.000000,0.000000,4151.282227,4150.256348,4132.820313,4137.436035,4141.538574,4138.974121,4140.000000,4125.641113,4106.153809,4115.384766,4127.179688,4137.948730,4128.717773,4128.717773,839.000000,4.000000,,,,0.000000,4.000000,4.000000,4.000000,4.000000,4.000000,4.000000,4.000000,4.000000,4.000000,4.000000,4.000000,4.000000,4.000000,4.000000,100.000000
1602006679.226420,100.000000,0.000000,4135.897461,4142.051270,4119.487305,4136.410156,4138.974121,4136.410156,4134.358887,4117.436035,4105.641113,4110.769043,4108.717773,4131.282227,4118.461426,4119.487305,765.000000,4.000000,,,,0.000000,4.000000,4.000000,4.000000,4.000000,4.000000,4.000000,4.000000,4.000000,4.000000,4.000000,4.000000,4.000000,4.000000,4.000000,100.000000
1602006679.234401,101.000000,0.000000,4135.384766,4140.000000,4121.538574,4132.820313,4137.948730,4136.922852,4125.128418,4119.487305,4122.563965,4113.333496,4120.000000,4134.871582,4124.615234,4122.051270,726.000000,4.000000,,,,0.000000,4.000000,4.000000,4.000000,4.000000,4.000000,4.000000,4.000000,4.000000,4.000000,4.000000,4.000000,4.000000,4.000000,4.000000,100.000000
1602006679.242281,102.000000,0.000000,4130.256348,4138.974121,4122.563965,4126.666504,4136.922852,4138.461426,4126.666504,4118.461426,4130.256348,4120.512695,4127.692383,4135.897461,4121.538574,4115.384766,876.000000,4.000000,,,,0.000000,4.000000,4.000000,4.000000,4.000000,4.000000,4.000000,4.000000,4.000000,4.000000,4.000000,4.000000,4.000000,4.000000,4.000000,100.000000
1602006679.250162,103.000000,0.000000,4119.487305,4136.410156,4120.000000,4129.230957,4139.487305,4139.487305,4134.871582,4120.000000,4130.769043,4128.205078,4120.000000,4132.307617,4109.743652,4105.641113,839.000000,4.000000,,,,0.000000,4.000000,4.000000,4.000000,4.000000,4.000000,4.000000,4.000000,4.000000,4.000000,4.000000,4.000000,4.000000,4.000000,4.000000,100.000000
1602006679.258043,104.000000,0.000000,4127.692383,4140.512695,4130.256348,4135.897461,4138.461426,4140.512695,4138.974121,4134.358887,4134.871582,4131.282227,4120.512695,4139.487305,4114.358887,4112.307617,765.000000,4.000000,,,,0.000000,4.000000,4.000000,4.000000,4.000000,4.000000,4.000000,4.000000,4.000000,4.000000,4.000000,4.000000,4.000000,4.000000,4.000000,100.000000
1602006679.265924,105.000000,0.000000,4145.641113,4146.153809,4141.025879,4140.512695,4137.948730,4140.000000,4140.512695,4145.128418,4139.487305,4127.179688,4125.128418,4152.307617,4126.153809,4123.077148,726.000000,4.000000,,,,0.000000,4.000000,4.000000,4.000000,4.000000,4.000000,4.000000,4.000000,4.000000,4.000000,4.000000,4.000000,4.000000,4.000000,4.000000,100.000000
1602006679.273805,106.000000,0.000000,4145.128418,4144.102539,4137.948730,4140.000000,4137.948730,4132.820313,4138.974121,4141.025879,4138.461426,4127.179688,4125.641113,4153.846191,4129.230957,4127.179688,876.000000,4.000000,,,,0.000000,4.000000,4.000000,4.000000,4.000000,4.000000,4.000000,4.000000,4.000000,4.000000,4.000000,4.000000,4.000000,4.000000,4.000000,100.000000
1602006679.281586,107.000000,0.000000,4135.897461,4140.512695,4134.358887,4132.820313,4132.307617,4130.769043,4137.436035,4137.948730,4131.794922,4136.410156,4123.589844,4151.794922,4127.692383,4123.589844,839.000000,4.000000,,,,0.000000,4.000000,4.000000,4.000000,4.000000,4.000000,4.000000,4.000000,4.000000,4.000000,4.000000,4.000000,4.000000,4.000000,4.000000,100.000000
1602006679.289467,108.000000,0.000000,4138.461426,4137.948730,4134.358887,4124.102539,4126.153809,4133.333496,4135.384766,4138.974121,4122.563965,4131.282227,4122.051270,4151.794922,4124.102539,4116.410156,765.000000,4.000000,,,,0.000000,4.000000,4.000000,4.000000,4.000000,4.000000,4.000000,4.000000,4.000000,4.000000,4.000000,4.000000,4.000000,4.000000,4.000000,100.000000
1602006679.297348,109.000000,0.000000,4142.051270,4130.769043,4133.333496,4124.615234,4123.077148,4127.179688,4128.205078,4136.410156,4125.128418,4120.512695,4127.179688,4146.666504,4120.000000,4116.410156,726.000000,4.000000,,,,0.000000,4.000000,4.000000,4.000000,4.000000,4.000000,4.000000,4.000000,4.000000,4.000000,4.000000,4.000000,4.000000,4.000000,4.000000,100.000000
1602006679.305229,110.000000,0.000000,4131.794922,4126.153809,4133.333496,4128.717773,4120.512695,4119.487305,4122.051270,4133.846191,4137.948730,4137.436035,4131.794922,4141.025879,4122.051270,4122.563965,876.000000,4.000000,,,,0.000000,4.000000,4.000000,4.000000,4.000000,4.000000,4.000000,4.000000,4.000000,4.000000,4.000000,4.000000,4.000000,4.000000,4.000000,100.000000
1602006679.313110,111.000000,0.000000,4123.589844,4127.179688,4135.897461,4125.641113,4122.051270,4122.563965,4126.666504,4136.922852,4137.436035,4142.563965,4126.153809,4139.487305,4121.025879,4118.461426,839.000000,4.000000,,,,0.000000,4.000000,4.000000,4.000000,4.000000,4.000000,4.000000,4.000000,4.000000,4.000000,4.000000,4.000000,4.000000,4.000000,4.000000,100.000000
1602006679.320991,112.000000,0.000000,4130.256348,4130.769043,4135.384766,4124.102539,4123.077148,4126.153809,4134.871582,4138.974121,4125.128418,4110.769043,4112.307617,4140.512695,4108.717773,4104.102539,765.000000,4.000000,,,,0.000000,4.000000,4.000000,4.000000,4.000000,4.000000,4.000000,4.000000,4.000000,4.000000,4.000000,4.000000,4.000000,4.000000,4.000000,100.000000
1602006679.328872,113.000000,0.000000,4136.410156,4135.384766,4135.384766,4131.794922,4122.051270,4126.153809,4136.410156,4138.461426,4120.512695,4097.436035,4107.179688,4141.538574,4105.641113,4104.615234,726.000000,4.000000,,,,0.000000,4.000000,4.000000,4.000000,4.000000,4.000000,4.000000,4.000000,4.000000,4.000000,4.000000,4.000000,4.000000,4.000000,4.000000,100.000000
1602006679.336753,114.000000,0.000000,4135.897461,4140.000000,4136.410156,4140.512695,4128.717773,4130.769043,4136.410156,4138.461426,4127.179688,4116.922852,4117.436035,4136.922852,4115.897461,4118.461426,876.000000,4.000000,,,,0.000000,4.000000,4.000000,4.000000,4.000000,4.000000,4.000000,4.000000,4.000000,4.000000,4.000000,4.000000,4.000000,4.000000,4.000000,100.000000
1602006679.344734,115.000000,0.000000,4134.871582,4138.461426,4134.871582,4140.512695,4135.384766,4129.230957,4135.897461,4131.794922,4129.230957,4126.666504,4123.589844,4132.307617,4121.538574,4122.563965,839.000000,4.000000,,,,0.000000,4.000000,4.000000,4.000000,4.000000,4.000000,4.000000,4.000000,4.000000,4.000000,4.000000,4.000000,4.000000,4.000000,4.000000,100.000000
1602006679.352614,116.000000,0.000000,4138.974121,4137.948730,4137.436035,4137.436035,4136.922852,4124.102539,4135.384766,4126.666504,4121.025879,4121.025879,4115.897461,4136.410156,4120.000000,4121.538574,765.000000,4.000000,,,,0.000000,4.000000,4.000000,4.000000,4.000000,4.000000,4.000000,4.000000,4.000000,4.000000,4.000000,4.000000,4.000000,4.000000,4.000000,100.000000
1602006679.360495,117.000000,0.000000,4143.077148,4142.563965,4141.538574,4141.538574,4137.436035,4130.769043,4134.871582,4132.820313,4121.025879,4126.153809,4116.410156,4141.025879,4114.358887,4121.538574,726.000000,4.000000,,,,0.000000,4.000000,4.000000,4.000000,4.000000,4.000000,4.000000,4.000000,4.000000,4.000000,4.000000,4.000000,4.000000,4.000000,4.000000,100.000000
1602006679.368376,118.000000,0.000000,4130.769043,4135.384766,4134.871582,4142.051270,4131.282227,4137.948730,4133.333496,4136.922852,4130.769043,4127.692383,4124.102539,4135.897461,4105.128418,4110.256348,876.000000,4.000000,,,,0.000000,4.000000,4.000000,4.000000,4.000000,4.000000,4.000000,4.000000,4.000000,4.000000,4.000000,4.000000,4.000000,4.000000,4.000000,100.000000
1602006679.376257,119.000000,0.000000,4126.153809,4129.743652,4126.666504,4136.410156,4127.179688,4136.410156,4134.358887,4134.358887,4135.897461,4120.000000,4130.256348,4134.358887,4115.897461,4108.205078,839.000000,4.000000,,,,0.000000,4.000000,4.000000,4.000000,4.000000,4.000000,4.000000,4.000000,4.000000,4.000000,4.000000,4.000000,4.000000,4.000000,4.000000,100.000000
1602006679.384138,120.000000,0.000000,4138.974121,4138.461426,4132.307617,4134.871582,4136.410156,4138.461426,4138.974121,4137.948730,4141.538574,4129.743652,4145.641113,4146.153809,4146.153809,4135.384766,765.000000,4.000000,,,,0.000000,4.000000,4.000000,4.000000,4.000000,4.000000,4.000000,4.000000,4.000000,4.000000,4.000000,4.000000,4.000000,4.000000,4.000000,100.000000
1602006679.392019,121.000000,0.000000,4133.846191,4135.897461,4141.025879,4132.820313,4141.538574,4143.589844,4140.000000,4142.563965,4142.563965,4141.025879,4153.333496,4157.948730,4166.153809,4160.000000,726.000000,4.000000,,,,0.000000,4.000000,4.000000,4.000000,4.000000,4.000000,4.000000,4.000000,4.000000,4.000000,4.000000,4.000000,4.000000,4.000000,4.000000,100.000000
1602006679.399900,122.000000,0.000000,4112.307617,4115.897461,4135.897461,4125.128418,4134.871582,4140.000000,4136.410156,4137.948730,4138.461426,4141.538574,4139.487305,4156.922852,4169.230957,4157.948730,876.000000,4.000000,,,,0.000000,4.000000,4.000000,4.000000,4.000000,4.000000,4.000000,4.000000,4.000000,4.000000,4.000000,4.000000,4.000000,4.000000,4.000000,100.000000
1602006679.407881,123.000000,0.000000,4101.538574,4103.589844,4125.641113,4118.974121,4133.846191,4134.871582,4134.358887,4134.871582,4144.615234,4141.538574,4134.358887,4150.769043,4170.769043,4152.307617,839.000000,4.000000,,,,0.000000,4.000000,4.000000,4.000000,4.000000,4.000000,4.000000,4.000000,4.000000,4.000000,4.000000,4.000000,4.000000,4.000000,4.000000,100.000000
1602006679.415761,124.000000,0.000000,4096.922852,4104.102539,4121.538574,4119.487305,4139.487305,4136.922852,4136.410156,4137.436035,4155.384766,4142.051270,4150.769043,4151.794922,4177.948730,4155.384766,765.000000,4.000000,,,,0.000000,4.000000,4.000000,4.000000,4.000000,4.000000,4.000000,4.000000,4.000000,4.000000,4.000000,4.000000,4.000000,4.000000,4.000000,100.000000
1602006679.423642,125.000000,0.000000,4093.846191,4108.205078,4123.077148,4122.051270,4138.974121,4138.974121,4131.282227,4137.436035,4153.333496,4145.641113,4152.307617,4154.871582,4185.128418,4153.846191,726.000000,4.000000,,,,0.000000,4.000000,4.000000,4.000000,4.000000,4.000000,4.000000,4.000000,4.000000,4.000000,4.000000,4.000000,4.000000,4.000000,4.000000,100.000000
1602006679.431523,126.000000,0.000000,4103.589844,4118.974121,4131.282227,4127.692383,4138.974121,4138.974121,4124.102539,4135.384766,4152.307617,4164.102539,4142.563965,4153.846191,4188.717773,4152.820313,876.000000,4.000000,,,,0.000000,4.000000,4.000000,4.000000,4.000000,4.000000,4.000000,4.000000,4.000000,4.000000,4.000000,4.000000,4.000000,4.000000,4.000000,100.000000
1602006679.439403,127.000000,0.000000,4110.769043,4125.641113,4138.461426,4131.282227,4141.538574,4137.948730,4127.179688,4135.897461,4151.282227,4173.846191,4144.615234,4153.333496,4184.615234,4157.436035,839.000000,4.000000,,,,0.000000,4.000000,4.000000,4.000000,4.000000,4.000000,4.000000,4.000000,4.000000,4.000000,4.000000,4.000000,4.000000,4.000000,4.000000,100.000000
1602006679.447284,128.000000,0.000000,4103.589844,4115.897461,4131.794922,4126.153809,4134.358887,4132.820313,4134.871582,4134.871582,4131.794922,4147.692383,4151.282227,4155.384766,4172.820313,4155.384766,765.000000,4.000000,,,,0.000000,4.000000,4.000000,4.000000,4.000000,4.000000,4.000000,4.000000,4.000000,4.000000,4.000000,4.000000,4.000000,4.000000,4.000000,100.000000
1602006679.455165,0.000000,0.000000,4093.333252,4104.615234,4122.051270,4120.512695,4124.102539,4128.205078,4135.897461,4134.871582,4115.384766,4122.051270,4156.410156,4152.307617,4165.641113,4144.615234,793.000000,4.000000,,,,0.000000,4.000000,4.000000,4.000000,4.000000,4.000000,4.000000,4.000000,4.000000,4.000000,4.000000,4.000000,4.000000,4.000000,4.000000,100.000000
1602006679.463145,1.000000,0.000000,4088.718018,4104.102539,4122.051270,4120.000000,4126.153809,4127.692383,4136.410156,4138.974121,4123.077148,4131.282227,4149.230957,4141.025879,4167.692383,4143.077148,795.000000,4.000000,,,,0.000000,4.000000,4.000000,4.000000,4.000000,4.000000,4.000000,4.000000,4.000000,4.000000,4.000000,4.000000,4.000000,4.000000,4.000000,100.000000
1602006679.471026,2.000000,0.000000,4089.230713,4107.179688,4124.102539,4121.538574,4129.743652,4131.794922,4137.948730,4140.000000,4136.410156,4149.230957,4138.974121,4135.384766,4168.205078,4144.615234,849.000000,4.000000,,,,0.000000,4.000000,4.000000,4.000000,4.000000,4.000000,4.000000,4.000000,4.000000,4.000000,4.000000,4.000000,4.000000,4.000000,4.000000,100.000000
1602006679.478807,3.000000,0.000000,4095.384521,4106.153809,4126.666504,4122.051270,4126.153809,4135.384766,4135.384766,4142.051270,4140.000000,4149.230957,4145.128418,4140.512695,4166.153809,4136.922852,871.000000,4.000000,,,,0.000000,4.000000,4.000000,4.000000,4.000000,4.000000,4.000000,4.000000,4.000000,4.000000,4.000000,4.000000,4.000000,4.000000,4.000000,100.000000
1602006679.486688,4.000000,0.000000,4103.589844,4107.179688,4134.871582,4122.563965,4130.256348,4136.922852,4135.897461,4152.307617,4135.897461,4157.436035,4157.948730,4147.179688,4171.282227,4140.000000,808.000000,4.000000,,,,0.000000,4.000000,4.000000,4.000000,4.000000,4.000000,4.000000,4.000000,4.000000,4.000000,4.000000,4.000000,4.000000,4.000000,4.000000,100.000000
1602006679.494569,5.000000,0.000000,4105.641113,4111.794922,4139.487305,4122.563965,4137.436035,4138.461426,4141.025879,4158.974121,4140.512695,4169.230957,4160.512695,4147.692383,4176.410156,4155.384766,826.000000,4.000000,,,,0.000000,4.000000,4.000000,4.000000,4.000000,4.000000,4.000000,4.000000,4.000000,4.000000,4.000000,4.000000,4.000000,4.000000,4.000000,100.000000
1602006679.502450,6.000000,0.000000,4103.589844,4110.256348,4135.897461,4121.538574,4128.717773,4140.512695,4141.538574,4155.384766,4150.769043,4158.974121,4153.846191,4143.077148,4173.846191,4161.538574,754.000000,4.000000,,,,0.000000,4.000000,4.000000,4.000000,4.000000,4.000000,4.000000,4.000000,4.000000,4.000000,4.000000,4.000000,4.000000,4.000000,4.000000,100.000000
1602006679.510331,7.000000,0.000000,4102.563965,4104.615234,4129.743652,4120.512695,4118.461426,4137.948730,4135.384766,4153.333496,4146.153809,4145.641113,4145.128418,4143.589844,4169.743652,4153.333496,663.000000,4.000000,,,,0.000000,4.000000,4.000000,4.000000,4.000000,4.000000,4.000000,4.000000,4.000000,4.000000,4.000000,4.000000,4.000000,4.000000,4.000000,100.000000
1602006679.518212,8.000000,0.000000,4098.461426,4104.102539,4123.077148,4118.461426,4122.563965,4130.256348,4129.230957,4150.256348,4138.461426,4151.794922,4144.615234,4142.051270,4169.743652,4143.077148,787.000000,4.000000,,,,0.000000,4.000000,4.000000,4.000000,4.000000,4.000000,4.000000,4.000000,4.000000,4.000000,4.000000,4.000000,4.000000,4.000000,4.000000,100.000000
1602006679.526093,9.000000,0.000000,4096.410156,4114.358887,4123.077148,4120.512695,4128.205078,4128.205078,4130.769043,4141.538574,4143.589844,4164.102539,4153.846191,4131.794922,4175.384766,4146.666504,831.000000,4.000000,,,,0.000000,4.000000,4.000000,4.000000,4.000000,4.000000,4.000000,4.000000,4.000000,4.000000,4.000000,4.000000,4.000000,4.000000,4.000000,100.000000
1602006679.533974,10.000000,0.000000,4096.922852,4119.487305,4128.205078,4127.692383,4126.153809,4132.820313,4135.384766,4135.897461,4139.487305,4160.000000,4146.666504,4125.641113,4168.205078,4146.666504,876.000000,4.000000,,,,0.000000,4.000000,4.000000,4.000000,4.000000,4.000000,4.000000,4.000000,4.000000,4.000000,4.000000,4.000000,4.000000,4.000000,4.000000,100.000000
1602006679.541755,11.000000,0.000000,4092.820557,4111.282227,4126.153809,4129.743652,4123.589844,4136.922852,4134.358887,4133.846191,4123.589844,4140.000000,4130.256348,4125.641113,4150.256348,4128.717773,839.000000,4.000000,,,,0.000000,4.000000,4.000000,4.000000,4.000000,4.000000,4.000000,4.000000,4.000000,4.000000,4.000000,4.000000,4.000000,4.000000,4.000000,100.000000
1602006679.549635,12.000000,0.000000,4088.718018,4105.128418,4120.512695,4123.077148,4126.666504,4138.974121,4135.384766,4140.000000,4131.794922,4126.153809,4135.897461,4121.025879,4147.692383,4121.025879,765.000000,4.000000,,,,0.000000,4.000000,4.000000,4.000000,4.000000,4.000000,4.000000,4.000000,4.000000,4.000000,4.000000,4.000000,4.000000,4.000000,4.000000,100.000000
1602006679.557516,13.000000,0.000000,4085.641113,4106.666504,4118.461426,4118.461426,4127.179688,4140.000000,4138.974121,4152.307617,4155.384766,4146.153809,4142.563965,4118.974121,4155.897461,4135.384766,726.000000,4.000000,,,,0.000000,4.000000,4.000000,4.000000,4.000000,4.000000,4.000000,4.000000,4.000000,4.000000,4.000000,4.000000,4.000000,4.000000,4.000000,100.000000
1602006679.565397,14.000000,0.000000,4084.615479,4108.205078,4121.538574,4121.025879,4128.205078,4144.615234,4140.000000,4157.948730,4153.333496,4166.666504,4135.384766,4123.077148,4157.948730,4146.666504,876.000000,4.000000,,,,0.000000,4.000000,4.000000,4.000000,4.000000,4.000000,4.000000,4.000000,4.000000,4.000000,4.000000,4.000000,4.000000,4.000000,4.000000,100.000000
1602006679.573278,15.000000,0.000000,4089.230713,4106.153809,4123.589844,4121.538574,4129.230957,4147.179688,4137.948730,4154.871582,4141.025879,4139.487305,4132.307617,4124.102539,4159.487305,4138.461426,839.000000,4.000000,,,,0.000000,4.000000,4.000000,4.000000,4.000000,4.000000,4.000000,4.000000,4.000000,4.000000,4.000000,4.000000,4.000000,4.000000,4.000000,100.000000
1602006679.581159,16.000000,0.000000,4092.307617,4104.102539,4117.436035,4118.974121,4125.128418,4140.000000,4134.871582,4146.666504,4137.948730,4111.794922,4138.461426,4123.589844,4157.436035,4127.179688,0.000000,4.000000,,,,0.000000,4.000000,4.000000,4.000000,4.000000,4.000000,4.000000,4.000000,4.000000,4.000000,4.000000,4.000000,4.000000,4.000000,4.000000,100.000000
1602006679.589040,17.000000,0.000000,4093.333252,4104.615234,4114.358887,4121.025879,4120.000000,4132.820313,4132.820313,4139.487305,4129.230957,4134.358887,4138.461426,4126.666504,4148.205078,4131.282227,0.000000,4.000000,,,,0.000000,4.000000,4.000000,4.000000,4.000000,4.000000,4.000000,4.000000,4.000000,4.000000,4.000000,4.000000,4.000000,4.000000,4.000000,100.000000
1602006679.596921,18.000000,0.000000,4090.256348,4106.666504,4120.000000,4122.051270,4120.000000,4134.871582,4135.384766,4137.436035,4111.794922,4146.153809,4123.589844,4124.615234,4139.487305,4141.538574,0.000000,4.000000,,,,0.000000,4.000000,4.000000,4.000000,4.000000,4.000000,4.000000,4.000000,4.000000,4.000000,4.000000,4.000000,4.000000,4.000000,4.000000,100.000000
1602006679.604902,19.000000,0.000000,4084.615479,4105.641113,4120.512695,4116.922852,4121.538574,4134.358887,4136.410156,4136.410156,4101.538574,4116.922852,4114.358887,4116.410156,4134.358887,4135.897461,0.000000,4.000000,,,,0.000000,4.000000,4.000000,4.000000,4.000000,4.000000,4.000000,4.000000,4.000000,4.000000,4.000000,4.000000,4.000000,4.000000,4.000000,100.000000
1602006679.612783,20.000000,0.000000,4096.410156,4110.769043,4123.077148,4123.077148,4124.102539,4134.358887,4136.410156,4133.846191,4108.205078,4118.461426,4129.230957,4121.538574,4143.589844,4132.820313,0.000000,4.000000,,,,0.000000,4.000000,4.000000,4.000000,4.000000,4.000000,4.000000,4.000000,4.000000,4.000000,4.000000,4.000000,4.000000,4.000000,4.000000,100.000000
1602006679.620664,21.000000,0.000000,4110.769043,4121.538574,4135.897461,4135.384766,4128.205078,4141.538574,4139.487305,4135.384766,4120.000000,4147.179688,4137.948730,4136.410156,4157.436035,4145.641113,0.000000,4.000000,,,,0.000000,4.000000,4.000000,4.000000,4.000000,4.000000,4.000000,4.000000,4.000000,4.000000,4.000000,4.000000,4.000000,4.000000,4.000000,100.000000
1602006679.628545,22.000000,0.000000,4100.000000,4120.512695,4140.512695,4131.282227,4124.615234,4137.948730,4135.384766,4135.384766,4121.025879,4138.974121,4126.153809,4138.974121,4150.256348,4145.128418,0.000000,4.000000,,,,0.000000,4.000000,4.000000,4.000000,4.000000,4.000000,4.000000,4.000000,4.000000,4.000000,4.000000,4.000000,4.000000,4.000000,4.000000,100.000000
1602006679.636426,23.000000,0.000000,4095.897461,4116.410156,4136.410156,4126.153809,4122.563965,4128.205078,4129.743652,4135.384766,4118.461426,4117.948730,4126.666504,4134.358887,4144.615234,4137.948730,0.000000,4.000000,,,,0.000000,4.000000,4.000000,4.000000,4.000000,4.000000,4.000000,4.000000,4.000000,4.000000,4.000000,4.000000,4.000000,4.000000,4.000000,100.000000
1602006679.644306,24.000000,0.000000,4115.384766,4123.077148,4140.000000,4136.410156,4129.230957,4129.743652,4134.871582,4146.153809,4132.307617,4129.743652,4150.256348,4142.563965,4162.051270,4151.794922,0.000000,4.000000,,,,0.000000,4.000000,4.000000,4.000000,4.000000,4.000000,4.000000,4.000000,4.000000,4.000000,4.000000,4.000000,4.000000,4.000000,4.000000,100.000000
1602006679.652288,25.000000,0.000000,4117.948730,4126.666504,4141.538574,4141.025879,4129.230957,4126.666504,4133.333496,4148.717773,4144.102539,4144.615234,4154.871582,4153.846191,4173.333496,4161.025879,0.000000,4.000000,,,,0.000000,4.000000,4.000000,4.000000,4.000000,4.000000,4.000000,4.000000,4.000000,4.000000,4.000000,4.000000,4.000000,4.000000,4.000000,100.000000
1602006679.660169,26.000000,0.000000,4105.128418,4122.051270,4136.922852,4129.743652,4121.538574,4111.794922,4120.512695,4140.512695,4131.282227,4145.128418,4134.871582,4153.846191,4165.128418,4154.358887,0.000000,4.000000,,,,0.000000,4.000000,4.000000,4.000000,4.000000,4.000000,4.000000,4.000000,4.000000,4.000000,4.000000,4.000000,4.000000,4.000000,4.000000,100.000000
1602006679.668050,27.000000,0.000000,4109.743652,4122.051270,4136.922852,4126.666504,4121.538574,4106.666504,4118.974121,4144.102539,4126.153809,4159.487305,4137.948730,4153.846191,4165.641113,4158.461426,0.000000,4.000000,,,,0.000000,4.000000,4.000000,4.000000,4.000000,4.000000,4.000000,4.000000,4.000000,4.000000,4.000000,4.000000,4.000000,4.000000,4.000000,100.000000
1602006679.675931,28.000000,0.000000,4112.820313,4126.153809,4141.025879,4131.794922,4120.512695,4111.794922,4130.256348,4151.282227,4138.461426,4176.410156,4160.000000,4157.948730,4175.384766,4170.256348,0.000000,4.000000,,,,0.000000,4.000000,4.000000,4.000000,4.000000,4.000000,4.000000,4.000000,4.000000,4.000000,4.000000,4.000000,4.000000,4.000000,4.000000,100.000000
1602006679.683812,29.000000,0.000000,4106.666504,4122.051270,4143.077148,4126.666504,4111.794922,4115.384766,4132.307617,4143.077148,4137.948730,4162.563965,4155.897461,4161.025879,4170.256348,4165.641113,0.000000,4.000000,,,,0.000000,4.000000,4.000000,4.000000,4.000000,4.000000,4.000000,4.000000,4.000000,4.000000,4.000000,4.000000,4.000000,4.000000,4.000000,100.000000
1602006679.691693,30.000000,0.000000,4104.615234,4110.769043,4138.461426,4120.512695,4107.179688,4120.000000,4125.641113,4133.333496,4124.615234,4129.743652,4136.410156,4154.358887,4156.410156,4150.769043,0.000000,4.000000,,,,0.000000,4.000000,4.000000,4.000000,4.000000,4.000000,4.000000,4.000000,4.000000,4.000000,4.000000,4.000000,4.000000,4.000000,4.000000,100.000000
1602006679.699575,31.000000,0.000000,4095.384521,4105.128418,4128.205078,4121.025879,4110.769043,4125.128418,4124.615234,4134.358887,4120.512695,4117.948730,4140.512695,4142.563965,4149.743652,4143.077148,0.000000,4.000000,,,,0.000000,4.000000,4.000000,4.000000,4.000000,4.000000,4.000000,4.000000,4.000000,4.000000,4.000000,4.000000,4.000000,4.000000,4.000000,100.000000
1602006679.707456,32.000000,0.000000,4076.923096,4102.563965,4117.948730,4122.563965,4116.410156,4130.256348,4125.641113,4135.384766,4123.589844,4129.743652,4140.000000,4134.358887,4143.589844,4135.897461,0.000000,4.000000,,,,0.000000,4.000000,4.000000,4.000000,4.000000,4.000000,4.000000,4.000000,4.000000,4.000000,4.000000,4.000000,4.000000,4.000000,4.000000,100.000000
1602006679.715337,33.000000,0.000000,4072.820557,4097.948730,4108.717773,4118.974121,4121.538574,4137.436035,4124.615234,4134.871582,4128.205078,4136.410156,4124.102539,4128.205078,4133.846191,4120.000000,0.000000,4.000000,,,,0.000000,4.000000,4.000000,4.000000,4.000000,4.000000,4.000000,4.000000,4.000000,4.000000,4.000000,4.000000,4.000000,4.000000,4.000000,100.000000
1602006679.723318,34.000000,0.000000,4085.128174,4099.487305,4104.102539,4114.358887,4124.102539,4142.051270,4130.769043,4140.512695,4136.410156,4138.974121,4128.205078,4121.025879,4131.794922,4118.461426,0.000000,4.000000,,,,0.000000,4.000000,4.000000,4.000000,4.000000,4.000000,4.000000,4.000000,4.000000,4.000000,4.000000,4.000000,4.000000,4.000000,4.000000,100.000000
1602006679.731199,35.000000,0.000000,4098.461426,4106.666504,4106.153809,4115.384766,4125.128418,4141.538574,4137.948730,4149.230957,4146.153809,4153.333496,4142.563965,4123.589844,4138.461426,4142.051270,0.000000,4.000000,,,,0.000000,4.000000,4.000000,4.000000,4.000000,4.000000,4.000000,4.000000,4.000000,4.000000,4.000000,4.000000,4.000000,4.000000,4.000000,100.000000
1602006679.739080,36.000000,0.000000,4105.128418,4114.358887,4116.922852,4124.615234,4123.589844,4140.000000,4137.948730,4155.384766,4145.128418,4149.230957,4141.538574,4137.948730,4142.051270,4153.333496,0.000000,4.000000,,,,0.000000,4.000000,4.000000,4.000000,4.000000,4.000000,4.000000,4.000000,4.000000,4.000000,4.000000,4.000000,4.000000,4.000000,4.000000,100.000000
1602006679.746960,37.000000,0.000000,4105.128418,4117.436035,4131.794922,4131.794922,4125.128418,4146.153809,4135.897461,4152.307617,4137.948730,4126.153809,4135.897461,4151.282227,4140.512695,4146.153809,0.000000,4.000000,,,,0.000000,4.000000,4.000000,4.000000,4.000000,4.000000,4.000000,4.000000,4.000000,4.000000,4.000000,4.000000,4.000000,4.000000,4.000000,100.000000
1602006679.754841,38.000000,0.000000,4104.615234,4112.307617,4134.871582,4127.179688,4122.563965,4151.794922,4137.436035,4143.077148,4139.487305,4130.769043,4135.897461,4151.794922,4140.000000,4151.794922,0.000000,4.000000,,,,0.000000,4.000000,4.000000,4.000000,4.000000,4.000000,4.000000,4.000000,4.000000,4.000000,4.000000,4.000000,4.000000,4.000000,4.000000,100.000000
1602006679.762722,39.000000,0.000000,4105.641113,4103.077148,4125.641113,4120.512695,4111.282227,4137.436035,4137.948730,4133.846191,4136.410156,4138.974121,4135.897461,4143.077148,4139.487305,4149.230957,0.000000,4.000000,,,,0.000000,4.000000,4.000000,4.000000,4.000000,4.000000,4.000000,4.000000,4.000000,4.000000,4.000000,4.000000,4.000000,4.000000,4.000000,100.000000
1602006679.770703,40.000000,0.000000,4102.563965,4102.051270,4123.077148,4118.461426,4106.153809,4117.948730,4137.948730,4132.307617,4124.102539,4123.589844,4139.487305,4136.410156,4132.307617,4129.230957,0.000000,4.000000,,,,0.000000,4.000000,4.000000,4.000000,4.000000,4.000000,4.000000,4.000000,4.000000,4.000000,4.000000,4.000000,4.000000,4.000000,4.000000,100.000000
1602006679.778584,41.000000,0.000000,4091.794922,4103.077148,4125.641113,4115.897461,4110.769043,4122.051270,4138.974121,4135.384766,4118.974121,4130.769043,4132.307617,4132.820313,4123.589844,4126.666504,0.000000,4.000000,,,,0.000000,4.000000,4.000000,4.000000,4.000000,4.000000,4.000000,4.000000,4.000000,4.000000,4.000000,4.000000,4.000000,4.000000,4.000000,100.000000
1602006679.786465,42.000000,0.000000,4091.281982,4099.487305,4121.025879,4116.410156,4114.358887,4134.358887,4139.487305,4136.410156,4128.717773,4154.358887,4123.077148,4131.794922,4127.179688,4134.871582,0.000000,4.000000,,,,0.000000,4.000000,4.000000,4.000000,4.000000,4.000000,4.000000,4.000000,4.000000,4.000000,4.000000,4.000000,4.000000,4.000000,4.000000,100.000000
1602006679.794346,43.000000,0.000000,4108.205078,4106.153809,4124.615234,4120.000000,4117.948730,4136.410156,4139.487305,4144.102539,4144.615234,4154.358887,4137.436035,4135.897461,4143.589844,4141.538574,0.000000,4.000000,,,,0.000000,4.000000,4.000000,4.000000,4.000000,4.000000,4.000000,4.000000,4.000000,4.000000,4.000000,4.000000,4.000000,4.000000,4.000000,100.000000
1602006679.802227,44.000000,0.000000,4125.641113,4121.025879,4136.410156,4128.717773,4128.205078,4143.589844,4138.461426,4152.307617,4153.846191,4150.256348,4161.538574,4146.153809,4158.974121,4166.153809,0.000000,4.000000,,,,0.000000,4.000000,4.000000,4.000000,4.000000,4.000000,4.000000,4.000000,4.000000,4.000000,4.000000,4.000000,4.000000,4.000000,4.000000,100.000000
1602006679.810108,45.000000,0.000000,4126.666504,4126.666504,4133.333496,4133.846191,4136.922852,4153.333496,4138.461426,4148.717773,4152.820313,4157.948730,4161.025879,4155.384766,4161.025879,4176.922852,0.000000,4.000000,,,,0.000000,4.000000,4.000000,4.000000,4.000000,4.000000,4.000000,4.000000,4.000000,4.000000,4.000000,4.000000,4.000000,4.000000,4.000000,100.000000
1602006679.817989,46.000000,0.000000,4111.282227,4122.051270,4117.948730,4128.205078,4135.384766,4147.179688,4136.410156,4141.538574,4150.769043,4152.820313,4141.538574,4151.282227,4152.307617,4141.025879,0.000000,4.000000,,,,0.000000,4.000000,4.000000,4.000000,4.000000,4.000000,4.000000,4.000000,4.000000,4.000000,4.000000,4.000000,4.000000,4.000000,4.000000,100.000000
1602006679.825770,47.000000,0.000000,4100.000000,4121.025879,4115.384766,4122.051270,4130.256348,4134.358887,4128.205078,4135.897461,4148.205078,4143.077148,4133.333496,4138.974121,4145.128418,4120.000000,0.000000,4.000000,,,,0.000000,4.000000,4.000000,4.000000,4.000000,4.000000,4.000000,4.000000,4.000000,4.000000,4.000000,4.000000,4.000000,4.000000,4.000000,100.000000
1602006679.833651,48.000000,0.000000,4101.025879,4125.641113,4121.025879,4126.666504,4127.179688,4130.256348,4121.538574,4128.717773,4140.512695,4141.025879,4137.436035,4135.384766,4140.512695,4133.333496,0.000000,4.000000,,,,0.000000,4.000000,4.000000,4.000000,4.000000,4.000000,4.000000,4.000000,4.000000,4.000000,4.000000,4.000000,4.000000,4.000000,4.000000,100.000000
1602006679.841532,49.000000,0.000000,4101.538574,4125.128418,4116.922852,4129.743652,4129.230957,4132.820313,4121.538574,4123.077148,4134.871582,4137.436035,4140.000000,4138.974121,4135.897461,4130.769043,0.000000,4.000000,,,,0.000000,4.000000,4.000000,4.000000,4.000000,4.000000,4.000000,4.000000,4.000000,4.000000,4.000000,4.000000,4.000000,4.000000,4.000000,100.000000
1602006679.849412,50.000000,0.000000,4096.922852,4122.563965,4107.692383,4122.563965,4132.820313,4128.717773,4121.538574,4125.128418,4140.512695,4139.487305,4134.871582,4137.948730,4134.871582,4121.025879,0.000000,4.000000,,,,0.000000,4.000000,4.000000,4.000000,4.000000,4.000000,4.000000,4.000000,4.000000,4.000000,4.000000,4.000000,4.000000,4.000000,4.000000,100.000000
1602006679.857293,51.000000,0.000000,4103.589844,4122.563965,4112.307617,4124.102539,4138.461426,4124.102539,4124.102539,4130.256348,4153.333496,4153.333496,4133.846191,4135.384766,4139.487305,4132.307617,0.000000,4.000000,,,,0.000000,4.000000,4.000000,4.000000,4.000000,4.000000,4.000000,4.000000,4.000000,4.000000,4.000000,4.000000,4.000000,4.000000,4.000000,100.000000
1602006679.865174,52.000000,0.000000,4113.333496,4123.589844,4122.563965,4130.256348,4137.436035,4128.717773,4132.820313,4134.871582,4157.948730,4157.436035,4143.589844,4136.410156,4148.205078,4140.000000,0.000000,4.000000,,,,0.000000,4.000000,4.000000,4.000000,4.000000,4.000000,4.000000,4.000000,4.000000,4.000000,4.000000,4.000000,4.000000,4.000000,4.000000,100.000000
1602006679.873155,53.000000,0.000000,4113.846191,4123.077148,4120.000000,4126.666504,4128.205078,4134.871582,4137.436035,4135.897461,4151.794922,4150.769043,4146.666504,4146.666504,4146.666504,4132.307617,0.000000,4.000000,,,,0.000000,4.000000,4.000000,4.000000,4.000000,4.000000,4.000000,4.000000,4.000000,4.000000,4.000000,4.000000,4.000000,4.000000,4.000000,100.000000
1602006679.881036,54.000000,0.000000,4117.436035,4122.563965,4121.538574,4127.692383,4128.205078,4136.410156,4138.974121,4136.410156,4158.461426,4151.794922,4141.538574,4160.000000,4142.563965,4140.512695,0.000000,4.000000,,,,0.000000,4.000000,4.000000,4.000000,4.000000,4.000000,4.000000,4.000000,4.000000,4.000000,4.000000,4.000000,4.000000,4.000000,4.000000,100.000000
1602006679.888917,55.000000,0.000000,4126.153809,4129.743652,4134.358887,4136.922852,4136.922852,4139.487305,4142.051270,4140.000000,4172.820313,4158.461426,4146.153809,4162.563965,4158.461426,4156.410156,0.000000,4.000000,,,,0.000000,4.000000,4.000000,4.000000,4.000000,4.000000,4.000000,4.000000,4.000000,4.000000,4.000000,4.000000,4.000000,4.000000,4.000000,100.000000
1602006679.896798,56.000000,0.000000,4126.666504,4135.897461,4141.025879,4140.000000,4141.538574,4142.563965,4137.436035,4138.974121,4175.897461,4163.589844,4158.461426,4159.487305,4175.897461,4155.897461,0.000000,4.000000,,,,0.000000,4.000000,4.000000,4.000000,4.000000,4.000000,4.000000,4.000000,4.000000,4.000000,4.000000,4.000000,4.000000,4.000000,4.000000,100.000000
1602006679.904679,57.000000,0.000000,4127.692383,4136.922852,4145.128418,4137.948730,4139.487305,4137.436035,4127.692383,4138.974121,4180.000000,4176.410156,4160.000000,4164.102539,4169.230957,4151.794922,0.000000,4.000000,,,,0.000000,4.000000,4.000000,4.000000,4.000000,4.000000,4.000000,4.000000,4.000000,4.000000,4.000000,4.000000,4.000000,4.000000,4.000000,100.000000
1602006679.912560,58.000000,0.000000,4135.897461,4138.461426,4152.307617,4141.538574,4140.000000,4134.358887,4119.487305,4141.538574,4188.205078,4189.743652,4149.230957,4170.256348,4160.512695,4158.974121,0.000000,4.000000,,,,0.000000,4.000000,4.000000,4.000000,4.000000,4.000000,4.000000,4.000000,4.000000,4.000000,4.000000,4.000000,4.000000,4.000000,4.000000,100.000000
1602006679.920541,59.000000,0.000000,4134.358887,4134.871582,4144.102539,4142.563965,4142.051270,4133.846191,4110.256348,4131.794922,4170.769043,4176.922852,4140.512695,4160.512695,4155.897461,4156.922852,0.000000,4.000000,,,,0.000000,4.000000,4.000000,4.000000,4.000000,4.000000,4.000000,4.000000,4.000000,4.000000,4.000000,4.000000,4.000000,4.000000,4.000000,100.000000
1602006679.928422,60.000000,0.000000,4114.871582,4123.077148,4122.563965,4135.384766,4137.436035,4131.794922,4108.205078,4117.436035,4135.384766,4132.307617,4137.436035,4137.436035,4140.512695,4124.102539,0.000000,4.000000,,,,0.000000,4.000000,4.000000,4.000000,4.000000,4.000000,4.000000,4.000000,4.000000,4.000000,4.000000,4.000000,4.000000,4.000000,4.000000,100.000000
1602006679.936302,61.000000,0.000000,4101.025879,4116.922852,4110.769043,4130.256348,4134.871582,4135.897461,4118.461426,4118.461426,4127.179688,4108.717773,4130.769043,4127.692383,4130.769043,4098.974121,0.000000,4.000000,,,,0.000000,4.000000,4.000000,4.000000,4.000000,4.000000,4.000000,4.000000,4.000000,4.000000,4.000000,4.000000,4.000000,4.000000,4.000000,100.000000
1602006679.944183,62.000000,0.000000,4104.615234,4120.512695,4110.769043,4128.205078,4135.897461,4135.897461,4126.153809,4120.512695,4137.948730,4128.717773,4120.512695,4135.384766,4137.436035,4117.948730,0.000000,4.000000,,,,0.000000,4.000000,4.000000,4.000000,4.000000,4.000000,4.000000,4.000000,4.000000,4.000000,4.000000,4.000000,4.000000,4.000000,4.000000,100.000000
1602006679.952064,63.000000,0.000000,4106.666504,4121.025879,4108.205078,4127.179688,4134.871582,4125.641113,4130.256348,4115.384766,4136.410156,4147.179688,4122.563965,4138.974121,4141.025879,4137.948730,0.000000,4.000000,,,,0.000000,4.000000,4.000000,4.000000,4.000000,4.000000,4.000000,4.000000,4.000000,4.000000,4.000000,4.000000,4.000000,4.000000,4.000000,100.000000
1602006679.959945,64.000000,0.000000,4104.615234,4121.538574,4106.153809,4131.794922,4134.871582,4127.692383,4137.948730,4118.974121,4135.897461,4141.538574,4140.000000,4137.948730,4136.410156,4129.230957,793.000000,4.000000,,,,0.000000,4.000000,4.000000,4.000000,4.000000,4.000000,4.000000,4.000000,4.000000,4.000000,4.000000,4.000000,4.000000,4.000000,4.000000,100.000000
1602006679.967826,65.000000,0.000000,4112.820313,4126.153809,4112.820313,4136.922852,4138.974121,4140.000000,4142.051270,4127.179688,4150.769043,4142.563965,4153.846191,4146.153809,4141.538574,4125.641113,795.000000,4.000000,,,,0.000000,4.000000,4.000000,4.000000,4.000000,4.000000,4.000000,4.000000,4.000000,4.000000,4.000000,4.000000,4.000000,4.000000,4.000000,100.000000
1602006679.975707,66.000000,0.000000,4122.563965,4124.102539,4123.589844,4130.256348,4136.410156,4137.948730,4135.384766,4128.717773,4158.461426,4151.794922,4147.692383,4149.743652,4150.769043,4136.922852,849.000000,4.000000,,,,0.000000,4.000000,4.000000,4.000000,4.000000,4.000000,4.000000,4.000000,4.000000,4.000000,4.000000,4.000000,4.000000,4.000000,4.000000,100.000000
1602006679.983488,67.000000,0.000000,4126.153809,4122.563965,4127.179688,4128.717773,4131.282227,4134.871582,4129.230957,4133.333496,4157.436035,4152.307617,4143.077148,4147.692383,4155.384766,4146.666504,871.000000,4.000000,,,,0.000000,4.000000,4.000000,4.000000,4.000000,4.000000,4.000000,4.000000,4.000000,4.000000,4.000000,4.000000,4.000000,4.000000,4.000000,100.000000
1602006679.991369,68.000000,0.000000,4125.128418,4125.641113,4126.153809,4135.384766,4137.436035,4140.512695,4128.205078,4142.051270,4158.974121,4154.358887,4152.307617,4149.743652,4158.974121,4153.846191,808.000000,4.000000,,,,0.000000,4.000000,4.000000,4.000000,4.000000,4.000000,4.000000,4.000000,4.000000,4.000000,4.000000,4.000000,4.000000,4.000000,4.000000,100.000000
1602006679.999249,69.000000,0.000000,4118.461426,4120.000000,4123.589844,4128.205078,4136.410156,4132.820313,4125.641113,4137.948730,4151.794922,4158.974121,4145.128418,4147.179688,4158.974121,4138.974121,826.000000,4.000000,,,,0.000000,4.000000,4.000000,4.000000,4.000000,4.000000,4.000000,4.000000,4.000000,4.000000,4.000000,4.000000,4.000000,4.000000,4.000000,100.000000
1602006680.007130,70.000000,0.000000,4114.358887,4106.153809,4118.974121,4117.436035,4124.102539,4117.436035,4122.563965,4126.153809,4144.615234,4157.948730,4128.717773,4143.589844,4154.358887,4120.000000,758.000000,4.000000,,,,0.000000,4.000000,4.000000,4.000000,4.000000,4.000000,4.000000,4.000000,4.000000,4.000000,4.000000,4.000000,4.000000,4.000000,4.000000,100.000000
1602006680.015011,71.000000,0.000000,4115.384766,4107.179688,4120.512695,4120.512695,4123.077148,4120.000000,4122.051270,4120.000000,4139.487305,4150.769043,4133.333496,4155.384766,4150.256348,4134.358887,663.000000,4.000000,,,,0.000000,4.000000,4.000000,4.000000,4.000000,4.000000,4.000000,4.000000,4.000000,4.000000,4.000000,4.000000,4.000000,4.000000,4.000000,100.000000
1602006680.022991,72.000000,0.000000,4109.743652,4120.512695,4120.000000,4123.077148,4127.692383,4126.666504,4122.563965,4120.512695,4123.589844,4128.717773,4133.333496,4160.000000,4145.128418,4140.000000,787.000000,4.000000,,,,0.000000,4.000000,4.000000,4.000000,4.000000,4.000000,4.000000,4.000000,4.000000,4.000000,4.000000,4.000000,4.000000,4.000000,4.000000,100.000000
1602006680.030872,73.000000,0.000000,4098.461426,4121.538574,4108.717773,4120.512695,4120.512695,4121.025879,4125.128418,4117.948730,4116.922852,4108.717773,4118.974121,4142.051270,4135.384766,4117.948730,832.000000,4.000000,,,,0.000000,4.000000,4.000000,4.000000,4.000000,4.000000,4.000000,4.000000,4.000000,4.000000,4.000000,4.000000,4.000000,4.000000,4.000000,100.000000
1602006680.038753,74.000000,0.000000,4104.102539,4120.512695,4110.769043,4127.692383,4124.615234,4125.128418,4130.256348,4118.974121,4133.333496,4120.512695,4125.641113,4135.384766,4133.333496,4130.256348,876.000000,4.000000,,,,0.000000,4.000000,4.000000,4.000000,4.000000,4.000000,4.000000,4.000000,4.000000,4.000000,4.000000,4.000000,4.000000,4.000000,4.000000,100.000000
1602006680.046634,75.000000,0.000000,4121.538574,4130.256348,4124.615234,4137.436035,4140.512695,4136.922852,4130.256348,4130.256348,4146.153809,4141.025879,4139.487305,4150.256348,4142.563965,4157.436035,839.000000,4.000000,,,,0.000000,4.000000,4.000000,4.000000,4.000000,4.000000,4.000000,4.000000,4.000000,4.000000,4.000000,4.000000,4.000000,4.000000,4.000000,100.000000
1602006680.054515,76.000000,0.000000,4128.205078,4132.307617,4124.615234,4139.487305,4133.846191,4133.333496,4124.102539,4133.846191,4142.051270,4142.563965,4135.384766,4158.461426,4150.256348,4145.641113,765.000000,4.000000,,,,0.000000,4.000000,4.000000,4.000000,4.000000,4.000000,4.000000,4.000000,4.000000,4.000000,4.000000,4.000000,4.000000,4.000000,4.000000,100.000000
1602006680.062396,77.000000,0.000000,4124.102539,4130.256348,4122.563965,4137.948730,4123.077148,4128.205078,4121.538574,4125.128418,4143.589844,4138.974121,4135.384766,4155.384766,4153.333496,4128.717773,726.000000,4.000000,,,,0.000000,4.000000,4.000000,4.000000,4.000000,4.000000,4.000000,4.000000,4.000000,4.000000,4.000000,4.000000,4.000000,4.000000,4.000000,100.000000
1602006680.070277,78.000000,0.000000,4128.717773,4135.384766,4133.333496,4137.948730,4134.358887,4136.922852,4124.102539,4122.563965,4152.820313,4136.922852,4140.000000,4156.922852,4154.358887,4144.615234,876.000000,4.000000,,,,0.000000,4.000000,4.000000,4.000000,4.000000,4.000000,4.000000,4.000000,4.000000,4.000000,4.000000,4.000000,4.000000,4.000000,4.000000,100.000000
1602006680.078258,79.000000,0.000000,4143.589844,4138.461426,4143.077148,4140.000000,4140.000000,4143.589844,4133.846191,4132.820313,4154.358887,4144.102539,4137.436035,4162.563965,4158.974121,4163.077148,839.000000,4.000000,,,,0.000000,4.000000,4.000000,4.000000,4.000000,4.000000,4.000000,4.000000,4.000000,4.000000,4.000000,4.000000,4.000000,4.000000,4.000000,100.000000
1602006680.086139,80.000000,0.000000,4137.436035,4125.641113,4138.974121,4132.820313,4125.128418,4135.897461,4140.512695,4138.461426,4152.820313,4158.461426,4138.461426,4158.974121,4158.974121,4160.000000,765.000000,4.000000,,,,0.000000,4.000000,4.000000,4.000000,4.000000,4.000000,4.000000,4.000000,4.000000,4.000000,4.000000,4.000000,4.000000,4.000000,4.000000,100.000000
1602006680.094020,81.000000,0.000000,4111.282227,4108.205078,4121.538574,4115.897461,4115.897461,4124.102539,4131.282227,4131.282227,4153.333496,4152.307617,4138.974121,4148.205078,4141.538574,4139.487305,726.000000,4.000000,,,,0.000000,4.000000,4.000000,4.000000,4.000000,4.000000,4.000000,4.000000,4.000000,4.000000,4.000000,4.000000,4.000000,4.000000,4.000000,100.000000
1602006680.101901,82.000000,0.000000,4105.641113,4103.589844,4110.769043,4110.769043,4121.025879,4122.051270,4126.666504,4124.615234,4153.333496,4140.000000,4129.230957,4140.512695,4128.205078,4126.666504,876.000000,4.000000,,,,0.000000,4.000000,4.000000,4.000000,4.000000,4.000000,4.000000,4.000000,4.000000,4.000000,4.000000,4.000000,4.000000,4.000000,4.000000,100.000000
1602006680.109782,83.000000,0.000000,4118.461426,4112.820313,4116.410156,4118.974121,4127.692383,4123.589844,4133.846191,4123.589844,4150.769043,4144.102539,4124.102539,4142.051270,4134.358887,4132.307617,839.000000,4.000000,,,,0.000000,4.000000,4.000000,4.000000,4.000000,4.000000,4.000000,4.000000,4.000000,4.000000,4.000000,4.000000,4.000000,4.000000,4.000000,100.000000
1602006680.117662,84.000000,0.000000,4125.641113,4121.538574,4123.589844,4123.589844,4131.282227,4123.077148,4131.794922,4124.102539,4142.563965,4135.897461,4124.102539,4146.666504,4142.051270,4133.846191,765.000000,4.000000,,,,0.000000,4.000000,4.000000,4.000000,4.000000,4.000000,4.000000,4.000000,4.000000,4.000000,4.000000,4.000000,4.000000,4.000000,4.000000,100.000000
1602006680.125444,85.000000,0.000000,4126.666504,4121.538574,4128.717773,4126.666504,4127.692383,4121.538574,4122.563965,4120.512695,4134.358887,4119.487305,4121.025879,4148.717773,4138.461426,4130.256348,726.000000,4.000000,,,,0.000000,4.000000,4.000000,4.000000,4.000000,4.000000,4.000000,4.000000,4.000000,4.000000,4.000000,4.000000,4.000000,4.000000,4.000000,100.000000
1602006680.133324,86.000000,0.000000,4122.563965,4123.589844,4137.948730,4135.897461,4124.615234,4124.615234,4121.025879,4119.487305,4134.358887,4125.641113,4127.692383,4151.282227,4135.384766,4134.358887,876.000000,4.000000,,,,0.000000,4.000000,4.000000,4.000000,4.000000,4.000000,4.000000,4.000000,4.000000,4.000000,4.000000,4.000000,4.000000,4.000000,4.000000,100.000000
1602006680.141205,87.000000,0.000000,4116.922852,4132.820313,4141.538574,4140.512695,4131.794922,4123.589844,4126.666504,4124.615234,4140.000000,4142.563965,4145.641113,4153.333496,4143.077148,4140.512695,839.000000,4.000000,,,,0.000000,4.000000,4.000000,4.000000,4.000000,4.000000,4.000000,4.000000,4.000000,4.000000,4.000000,4.000000,4.000000,4.000000,4.000000,100.000000
1602006680.149086,88.000000,0.000000,4126.666504,4139.487305,4140.512695,4139.487305,4134.358887,4118.974121,4127.692383,4126.153809,4141.538574,4145.128418,4144.615234,4154.358887,4157.436035,4147.692383,765.000000,4.000000,,,,0.000000,4.000000,4.000000,4.000000,4.000000,4.000000,4.000000,4.000000,4.000000,4.000000,4.000000,4.000000,4.000000,4.000000,4.000000,100.000000
1602006680.156967,89.000000,0.000000,4142.051270,4140.000000,4142.563965,4141.025879,4127.692383,4125.641113,4123.589844,4121.538574,4134.871582,4131.282227,4134.871582,4155.897461,4155.384766,4153.333496,726.000000,4.000000,,,,0.000000,4.000000,4.000000,4.000000,4.000000,4.000000,4.000000,4.000000,4.000000,4.000000,4.000000,4.000000,4.000000,4.000000,4.000000,100.000000
1602006680.164848,90.000000,0.000000,4142.563965,4139.487305,4142.563965,4142.051270,4124.615234,4137.436035,4123.077148,4126.153809,4135.384766,4116.410156,4148.205078,4156.410156,4142.051270,4155.384766,876.000000,4.000000,,,,0.000000,4.000000,4.000000,4.000000,4.000000,4.000000,4.000000,4.000000,4.000000,4.000000,4.000000,4.000000,4.000000,4.000000,4.000000,100.000000
1602006680.172629,91.000000,0.000000,4136.410156,4136.410156,4141.538574,4142.051270,4125.128418,4136.922852,4132.307617,4137.948730,4145.128418,4123.077148,4164.615234,4155.897461,4143.077148,4157.948730,839.000000,4.000000,,,,0.000000,4.000000,4.000000,4.000000,4.000000,4.000000,4.000000,4.000000,4.000000,4.000000,4.000000,4.000000,4.000000,4.000000,4.000000,100.000000
1602006680.180510,92.000000,0.000000,4134.871582,4126.666504,4142.563965,4136.410156,4123.077148,4128.205078,4137.436035,4135.384766,4149.230957,4142.563965,4160.512695,4152.307617,4151.794922,4150.769043,765.000000,4.000000,,,,0.000000,4.000000,4.000000,4.000000,4.000000,4.000000,4.000000,4.000000,4.000000,4.000000,4.000000,4.000000,4.000000,4.000000,4.000000,100.000000
1602006680.188391,93.000000,0.000000,4129.743652,4117.436035,4137.948730,4126.153809,4115.384766,4123.077148,4128.717773,4123.589844,4138.461426,4144.102539,4148.205078,4142.563965,4138.974121,4124.102539,726.000000,4.000000,,,,0.000000,4.000000,4.000000,4.000000,4.000000,4.000000,4.000000,4.000000,4.000000,4.000000,4.000000,4.000000,4.000000,4.000000,4.000000,100.000000
1602006680.196272,94.000000,0.000000,4123.589844,4112.820313,4131.282227,4123.589844,4111.282227,4117.948730,4123.589844,4121.538574,4123.589844,4132.307617,4137.948730,4136.410156,4121.025879,4116.922852,876.000000,4.000000,,,,0.000000,4.000000,4.000000,4.000000,4.000000,4.000000,4.000000,4.000000,4.000000,4.000000,4.000000,4.000000,4.000000,4.000000,4.000000,100.000000
1602006680.204153,95.000000,0.000000,4125.128418,4108.717773,4131.794922,4126.153809,4114.871582,4116.410156,4128.205078,4120.512695,4127.692383,4137.948730,4132.307617,4140.000000,4126.666504,4136.922852,839.000000,4.000000,,,,0.000000,4.000000,4.000000,4.000000,4.000000,4.000000,4.000000,4.000000,4.000000,4.000000,4.000000,4.000000,4.000000,4.000000,4.000000,100.000000
1602006680.212133,96.000000,0.000000,4129.230957,4109.230957,4132.820313,4122.051270,4120.512695,4122.051270,4127.179688,4112.307617,4133.846191,4134.871582,4140.512695,4140.512695,4139.487305,4142.051270,765.000000,4.000000,,,,0.000000,4.000000,4.000000,4.000000,4.000000,4.000000,4.000000,4.000000,4.000000,4.000000,4.000000,4.000000,4.000000,4.000000,4.000000,100.000000
1602006680.220014,97.000000,0.000000,4135.897461,4121.025879,4127.179688,4123.589844,4128.717773,4127.179688,4124.102539,4111.794922,4124.102539,4097.948730,4153.333496,4141.538574,4137.436035,4134.871582,726.000000,4.000000,,,,0.000000,4.000000,4.000000,4.000000,4.000000,4.000000,4.000000,4.000000,4.000000,4.000000,4.000000,4.000000,4.000000,4.000000,4.000000,100.000000
1602006680.227895,98.000000,0.000000,4139.487305,4130.256348,4125.641113,4136.410156,4135.384766,4129.743652,4124.102539,4116.922852,4118.974121,4094.358887,4153.333496,4150.769043,4137.948730,4139.487305,876.000000,4.000000,,,,0.000000,4.000000,4.000000,4.000000,4.000000,4.000000,4.000000,4.000000,4.000000,4.000000,4.000000,4.000000,4.000000,4.000000,4.000000,100.000000
1602006680.235676,99.000000,0.000000,4128.205078,4125.128418,4126.153809,4133.846191,4128.205078,4125.641113,4116.410156,4111.794922,4127.692383,4137.436035,4149.743652,4148.717773,4141.538574,4145.641113,839.000000,4.000000,,,,0.000000,4.000000,4.000000,4.000000,4.000000,4.000000,4.000000,4.000000,4.000000,4.000000,4.000000,4.000000,4.000000,4.000000,4.000000,100.000000
1602006680.243557,100.000000,0.000000,4119.487305,4119.487305,4120.000000,4124.615234,4118.974121,4117.948730,4109.743652,4103.589844,4122.051270,4140.000000,4148.205078,4136.922852,4130.256348,4136.922852,765.000000,4.000000,,,,0.000000,4.000000,4.000000,4.000000,4.000000,4.000000,4.000000,4.000000,4.000000,4.000000,4.000000,4.000000,4.000000,4.000000,4.000000,100.000000
1602006680.251438,101.000000,0.000000,4131.282227,4126.153809,4125.641113,4133.333496,4131.794922,4125.641113,4117.436035,4111.794922,4112.820313,4115.897461,4142.051270,4137.948730,4125.128418,4135.897461,726.000000,4.000000,,,,0.000000,4.000000,4.000000,4.000000,4.000000,4.000000,4.000000,4.000000,4.000000,4.000000,4.000000,4.000000,4.000000,4.000000,4.000000,100.000000
1602006680.259319,102.000000,0.000000,4140.000000,4130.256348,4140.512695,4142.563965,4141.538574,4138.974121,4124.615234,4127.179688,4134.358887,4144.102539,4142.563965,4145.641113,4138.461426,4146.666504,876.000000,4.000000,,,,0.000000,4.000000,4.000000,4.000000,4.000000,4.000000,4.000000,4.000000,4.000000,4.000000,4.000000,4.000000,4.000000,4.000000,4.000000,100.000000
1602006680.267200,103.000000,0.000000,4140.000000,4128.205078,4140.512695,4138.461426,4129.743652,4125.641113,4123.589844,4127.692383,4147.179688,4160.000000,4151.282227,4141.025879,4143.077148,4148.205078,839.000000,4.000000,,,,0.000000,4.000000,4.000000,4.000000,4.000000,4.000000,4.000000,4.000000,4.000000,4.000000,4.000000,4.000000,4.000000,4.000000,4.000000,100.000000
1602006680.275181,104.000000,0.000000,4151.794922,4133.333496,4140.000000,4139.487305,4120.512695,4105.128418,4124.615234,4126.153809,4128.717773,4116.410156,4148.205078,4137.948730,4137.948730,4148.717773,765.000000,4.000000,,,,0.000000,4.000000,4.000000,4.000000,4.000000,4.000000,4.000000,4.000000,4.000000,4.000000,4.000000,4.000000,4.000000,4.000000,4.000000,100.000000
1602006680.283062,105.000000,0.000000,4154.871582,4138.461426,4146.153809,4143.077148,4121.538574,4109.230957,4122.051270,4129.743652,4120.512695,4098.461426,4140.512695,4147.179688,4142.051270,4150.769043,726.000000,4.000000,,,,0.000000,4.000000,4.000000,4.000000,4.000000,4.000000,4.000000,4.000000,4.000000,4.000000,4.000000,4.000000,4.000000,4.000000,4.000000,100.000000
1602006680.290943,106.000000,0.000000,4138.974121,4136.922852,4141.538574,4137.436035,4124.615234,4124.102539,4117.436035,4128.717773,4136.410156,4126.153809,4145.641113,4154.358887,4146.153809,4143.589844,876.000000,4.000000,,,,0.000000,4.000000,4.000000,4.000000,4.000000,4.000000,4.000000,4.000000,4.000000,4.000000,4.000000,4.000000,4.000000,4.000000,4.000000,100.000000
1602006680.298824,107.000000,0.000000,4133.846191,4133.333496,4134.358887,4134.358887,4129.230957,4130.256348,4120.512695,4121.538574,4142.051270,4141.538574,4158.974121,4153.333496,4140.512695,4145.641113,839.000000,4.000000,,,,0.000000,4.000000,4.000000,4.000000,4.000000,4.000000,4.000000,4.000000,4.000000,4.000000,4.000000,4.000000,4.000000,4.000000,4.000000,100.000000
1602006680.306705,108.000000,0.000000,4137.948730,4128.205078,4133.333496,4130.256348,4130.256348,4134.358887,4124.615234,4120.512695,4129.230957,4137.436035,4161.538574,4149.743652,4138.461426,4155.384766,765.000000,4.000000,,,,0.000000,4.000000,4.000000,4.000000,4.000000,4.000000,4.000000,4.000000,4.000000,4.000000,4.000000,4.000000,4.000000,4.000000,4.000000,100.000000
1602006680.314586,109.000000,0.000000,4130.256348,4122.563965,4127.179688,4124.615234,4128.717773,4144.615234,4127.179688,4123.589844,4124.102539,4129.743652,4145.641113,4144.102539,4134.358887,4139.487305,726.000000,4.000000,,,,0.000000,4.000000,4.000000,4.000000,4.000000,4.000000,4.000000,4.000000,4.000000,4.000000,4.000000,4.000000,4.000000,4.000000,4.000000,100.000000
1602006680.322468,110.000000,0.000000,4114.358887,4119.487305,4117.948730,4121.025879,4126.153809,4146.153809,4127.692383,4121.025879,4118.461426,4108.205078,4129.230957,4129.230957,4114.358887,4110.256348,876.000000,4.000000,,,,0.000000,4.000000,4.000000,4.000000,4.000000,4.000000,4.000000,4.000000,4.000000,4.000000,4.000000,4.000000,4.000000,4.000000,4.000000,100.000000
1602006680.330349,111.000000,0.000000,4108.717773,4117.436035,4116.410156,4118.974121,4121.538574,4131.794922,4124.102539,4119.487305,4107.692383,4094.358887,4123.077148,4123.077148,4101.538574,4115.897461,839.000000,4.000000,,,,0.000000,4.000000,4.000000,4.000000,4.000000,4.000000,4.000000,4.000000,4.000000,4.000000,4.000000,4.000000,4.000000,4.000000,4.000000,100.000000
1602006680.338230,112.000000,0.000000,4121.538574,4121.025879,4124.615234,4128.205078,4121.538574,4125.128418,4123.077148,4128.205078,4111.282227,4108.205078,4126.153809,4134.871582,4116.410156,4135.384766,765.000000,4.000000,,,,0.000000,4.000000,4.000000,4.000000,4.000000,4.000000,4.000000,4.000000,4.000000,4.000000,4.000000,4.000000,4.000000,4.000000,4.000000,100.000000
1602006680.346211,113.000000,0.000000,4131.794922,4127.179688,4129.230957,4136.922852,4125.128418,4126.153809,4122.563965,4135.384766,4123.589844,4116.410156,4131.282227,4136.922852,4125.128418,4128.717773,726.000000,4.000000,,,,0.000000,4.000000,4.000000,4.000000,4.000000,4.000000,4.000000,4.000000,4.000000,4.000000,4.000000,4.000000,4.000000,4.000000,4.000000,100.000000
1602006680.354091,114.000000,0.000000,4118.461426,4121.538574,4121.538574,4126.666504,4116.410156,4114.358887,4116.410156,4127.179688,4123.077148,4111.282227,4133.846191,4128.717773,4108.717773,4113.333496,876.000000,4.000000,,,,0.000000,4.000000,4.000000,4.000000,4.000000,4.000000,4.000000,4.000000,4.000000,4.000000,4.000000,4.000000,4.000000,4.000000,4.000000,100.000000
1602006680.361972,115.000000,0.000000,4106.153809,4110.256348,4121.538574,4114.871582,4104.102539,4100.512695,4114.871582,4117.948730,4117.436035,4115.897461,4137.436035,4132.307617,4105.641113,4125.641113,839.000000,4.000000,,,,0.000000,4.000000,4.000000,4.000000,4.000000,4.000000,4.000000,4.000000,4.000000,4.000000,4.000000,4.000000,4.000000,4.000000,4.000000,100.000000
1602006680.369853,116.000000,0.000000,4116.922852,4110.256348,4135.897461,4121.025879,4109.230957,4109.743652,4123.077148,4128.717773,4123.589844,4127.179688,4141.538574,4143.589844,4123.077148,4146.153809,765.000000,4.000000,,,,0.000000,4.000000,4.000000,4.000000,4.000000,4.000000,4.000000,4.000000,4.000000,4.000000,4.000000,4.000000,4.000000,4.000000,4.000000,100.000000
1602006680.377834,117.000000,0.000000,4126.666504,4113.333496,4141.538574,4125.641113,4113.333496,4124.615234,4127.179688,4138.461426,4128.205078,4126.666504,4146.153809,4143.077148,4128.717773,4134.871582,726.000000,4.000000,,,,0.000000,4.000000,4.000000,4.000000,4.000000,4.000000,4.000000,4.000000,4.000000,4.000000,4.000000,4.000000,4.000000,4.000000,4.000000,100.000000
1602006680.385715,118.000000,0.000000,4124.615234,4108.717773,4136.410156,4116.410156,4107.179688,4125.641113,4127.692383,4130.256348,4123.077148,4122.051270,4149.230957,4144.102539,4123.077148,4123.077148,876.000000,4.000000,,,,0.000000,4.000000,4.000000,4.000000,4.000000,4.000000,4.000000,4.000000,4.000000,4.000000,4.000000,4.000000,4.000000,4.000000,4.000000,100.000000
1602006680.393596,119.000000,0.000000,4120.000000,4103.077148,4137.436035,4113.846191,4109.743652,4128.205078,4135.897461,4125.128418,4118.974121,4130.256348,4150.769043,4149.743652,4123.589844,4137.948730,839.000000,4.000000,,,,0.000000,4.000000,4.000000,4.000000,4.000000,4.000000,4.000000,4.000000,4.000000,4.000000,4.000000,4.000000,4.000000,4.000000,4.000000,100.000000
1602006680.401477,120.000000,0.000000,4119.487305,4108.717773,4140.512695,4119.487305,4121.538574,4139.487305,4142.563965,4129.230957,4121.025879,4135.384766,4152.820313,4145.128418,4131.794922,4145.128418,765.000000,4.000000,,,,0.000000,4.000000,4.000000,4.000000,4.000000,4.000000,4.000000,4.000000,4.000000,4.000000,4.000000,4.000000,4.000000,4.000000,4.000000,100.000000
1602006680.409358,121.000000,0.000000,4128.717773,4117.436035,4140.000000,4121.538574,4124.615234,4143.077148,4138.974121,4126.666504,4125.641113,4127.692383,4156.410156,4140.512695,4138.461426,4137.436035,726.000000,4.000000,,,,0.000000,4.000000,4.000000,4.000000,4.000000,4.000000,4.000000,4.000000,4.000000,4.000000,4.000000,4.000000,4.000000,4.000000,4.000000,100.000000
1602006680.417239,122.000000,0.000000,4138.461426,4123.589844,4136.410156,4122.563965,4124.615234,4132.307617,4134.358887,4121.025879,4127.692383,4118.461426,4152.307617,4138.461426,4133.333496,4145.128418,876.000000,4.000000,,,,0.000000,4.000000,4.000000,4.000000,4.000000,4.000000,4.000000,4.000000,4.000000,4.000000,4.000000,4.000000,4.000000,4.000000,4.000000,100.000000
1602006680.425121,123.000000,0.000000,4139.487305,4133.846191,4135.384766,4133.846191,4132.820313,4123.077148,4130.769043,4124.615234,4126.153809,4125.641113,4143.589844,4139.487305,4128.205078,4154.358887,839.000000,4.000000,,,,0.000000,4.000000,4.000000,4.000000,4.000000,4.000000,4.000000,4.000000,4.000000,4.000000,4.000000,4.000000,4.000000,4.000000,4.000000,100.000000
1602006680.433002,124.000000,0.000000,4141.025879,4144.102539,4145.128418,4142.563965,4133.333496,4121.538574,4123.077148,4127.179688,4118.974121,4138.974121,4149.743652,4145.641113,4134.358887,4144.102539,765.000000,4.000000,,,,0.000000,4.000000,4.000000,4.000000,4.000000,4.000000,4.000000,4.000000,4.000000,4.000000,4.000000,4.000000,4.000000,4.000000,4.000000,100.000000
1602006680.440883,125.000000,0.000000,4146.153809,4147.692383,4155.384766,4141.025879,4127.179688,4120.512695,4120.000000,4129.230957,4116.922852,4140.000000,4159.487305,4155.897461,4144.102539,4143.077148,726.000000,4.000000,,,,0.000000,4.000000,4.000000,4.000000,4.000000,4.000000,4.000000,4.000000,4.000000,4.000000,4.000000,4.000000,4.000000,4.000000,4.000000,100.000000
1602006680.448664,126.000000,0.000000,4145.128418,4146.153809,4151.794922,4141.025879,4133.846191,4119.487305,4128.717773,4138.461426,4128.717773,4138.461426,4157.436035,4157.948730,4152.307617,4156.922852,876.000000,4.000000,,,,0.000000,4.000000,4.000000,4.000000,4.000000,4.000000,4.000000,4.000000,4.000000,4.000000,4.000000,4.000000,4.000000,4.000000,4.000000,100.000000
1602006680.456544,127.000000,0.000000,4141.025879,4142.051270,4143.589844,4143.589844,4136.922852,4121.538574,4135.384766,4142.563965,4134.358887,4142.563965,4156.922852,4149.743652,4151.282227,4158.974121,839.000000,4.000000,,,,0.000000,4.000000,4.000000,4.000000,4.000000,4.000000,4.000000,4.000000,4.000000,4.000000,4.000000,4.000000,4.000000,4.000000,4.000000,100.000000
1602006680.464425,128.000000,0.000000,4137.436035,4138.461426,4142.051270,4140.000000,4126.666504,4128.205078,4134.871582,4137.948730,4125.128418,4136.922852,4157.436035,4138.974121,4136.410156,4149.743652,765.000000,4.000000,,,,0.000000,4.000000,4.000000,4.000000,4.000000,4.000000,4.000000,4.000000,4.000000,4.000000,4.000000,4.000000,4.000000,4.000000,4.000000,100.000000
1602006680.472306,0.000000,0.000000,4128.717773,4136.922852,4140.000000,4134.871582,4120.000000,4135.897461,4134.871582,4134.871582,4119.487305,4117.436035,4143.077148,4135.897461,4127.179688,4148.717773,793.000000,4.000000,,,,0.000000,4.000000,4.000000,4.000000,4.000000,4.000000,4.000000,4.000000,4.000000,4.000000,4.000000,4.000000,4.000000,4.000000,4.000000,100.000000
1602006680.480287,1.000000,0.000000,4123.589844,4130.769043,4137.436035,4134.871582,4122.563965,4138.461426,4137.948730,4135.897461,4121.025879,4110.256348,4130.769043,4139.487305,4136.410156,4154.358887,795.000000,4.000000,,,,0.000000,4.000000,4.000000,4.000000,4.000000,4.000000,4.000000,4.000000,4.000000,4.000000,4.000000,4.000000,4.000000,4.000000,4.000000,100.000000
1602006680.488168,2.000000,0.000000,4131.282227,4126.153809,4137.436035,4134.358887,4122.563965,4130.769043,4137.948730,4135.897461,4123.589844,4127.179688,4143.589844,4138.461426,4139.487305,4150.769043,849.000000,4.000000,,,,0.000000,4.000000,4.000000,4.000000,4.000000,4.000000,4.000000,4.000000,4.000000,4.000000,4.000000,4.000000,4.000000,4.000000,4.000000,100.000000
1602006680.496048,3.000000,0.000000,4141.538574,4134.358887,4139.487305,4134.871582,4121.538574,4123.077148,4134.871582,4137.948730,4133.846191,4147.692383,4163.077148,4136.922852,4137.436035,4148.717773,871.000000,4.000000,,,,0.000000,4.000000,4.000000,4.000000,4.000000,4.000000,4.000000,4.000000,4.000000,4.000000,4.000000,4.000000,4.000000,4.000000,4.000000,100.000000
1602006680.503929,4.000000,0.000000,4146.153809,4140.512695,4141.025879,4138.461426,4124.102539,4131.794922,4136.410156,4141.025879,4143.077148,4153.333496,4163.589844,4142.051270,4145.128418,4160.000000,808.000000,4.000000,,,,0.000000,4.000000,4.000000,4.000000,4.000000,4.000000,4.000000,4.000000,4.000000,4.000000,4.000000,4.000000,4.000000,4.000000,4.000000,100.000000
1602006680.511810,5.000000,0.000000,4149.230957,4137.948730,4141.538574,4139.487305,4130.769043,4142.051270,4135.897461,4142.051270,4141.538574,4151.282227,4155.897461,4148.717773,4154.871582,4171.794922,826.000000,4.000000,,,,0.000000,4.000000,4.000000,4.000000,4.000000,4.000000,4.000000,4.000000,4.000000,4.000000,4.000000,4.000000,4.000000,4.000000,4.000000,100.000000
1602006680.519691,6.000000,0.000000,4153.333496,4140.000000,4145.641113,4138.974121,4141.538574,4134.358887,4127.692383,4142.563965,4136.922852,4155.897461,4156.410156,4152.820313,4156.922852,4168.717773,759.000000,4.000000,,,,0.000000,4.000000,4.000000,4.000000,4.000000,4.000000,4.000000,4.000000,4.000000,4.000000,4.000000,4.000000,4.000000,4.000000,4.000000,100.000000
1602006680.527572,7.000000,0.000000,4154.358887,4143.077148,4151.794922,4141.025879,4143.077148,4126.666504,4123.589844,4140.512695,4129.743652,4147.179688,4155.897461,4154.358887,4152.307617,4159.487305,663.000000,4.000000,,,,0.000000,4.000000,4.000000,4.000000,4.000000,4.000000,4.000000,4.000000,4.000000,4.000000,4.000000,4.000000,4.000000,4.000000,4.000000,100.000000
1602006680.535453,8.000000,0.000000,4149.743652,4141.025879,4151.794922,4144.102539,4137.948730,4134.871582,4131.282227,4136.922852,4120.000000,4118.974121,4152.307617,4154.871582,4143.589844,4155.897461,787.000000,4.000000,,,,0.000000,4.000000,4.000000,4.000000,4.000000,4.000000,4.000000,4.000000,4.000000,4.000000,4.000000,4.000000,4.000000,4.000000,4.000000,100.000000
1602006680.543434,9.000000,0.000000,4143.589844,4135.384766,4141.538574,4141.025879,4136.922852,4142.051270,4136.922852,4134.871582,4109.743652,4108.717773,4148.205078,4148.205078,4130.769043,4151.282227,832.000000,4.000000,,,,0.000000,4.000000,4.000000,4.000000,4.000000,4.000000,4.000000,4.000000,4.000000,4.000000,4.000000,4.000000,4.000000,4.000000,4.000000,100.000000
1602006680.551315,10.000000,0.000000,4133.333496,4126.666504,4128.717773,4130.769043,4132.820313,4134.871582,4135.897461,4133.846191,4103.589844,4117.948730,4135.897461,4135.384766,4118.974121,4141.025879,876.000000,4.000000,,,,0.000000,4.000000,4.000000,4.000000,4.000000,4.000000,4.000000,4.000000,4.000000,4.000000,4.000000,4.000000,4.000000,4.000000,4.000000,100.000000
1602006680.559197,11.000000,0.000000,4120.512695,4117.436035,4122.051270,4124.615234,4123.589844,4125.641113,4136.922852,4131.282227,4107.692383,4120.000000,4115.384766,4129.743652,4109.743652,4125.128418,839.000000,4.000000,,,,0.000000,4.000000,4.000000,4.000000,4.000000,4.000000,4.000000,4.000000,4.000000,4.000000,4.000000,4.000000,4.000000,4.000000,4.000000,100.000000
1602006680.567078,12.000000,0.000000,4124.615234,4122.051270,4129.230957,4132.307617,4120.000000,4122.051270,4137.436035,4127.179688,4109.230957,4115.897461,4110.256348,4133.846191,4108.717773,4119.487305,765.000000,4.000000,,,,0.000000,4.000000,4.000000,4.000000,4.000000,4.000000,4.000000,4.000000,4.000000,4.000000,4.000000,4.000000,4.000000,4.000000,4.000000,100.000000
1602006680.574959,13.000000,0.000000,4144.102539,4133.333496,4144.615234,4140.512695,4122.563965,4122.051270,4131.282227,4124.102539,4103.589844,4114.871582,4129.743652,4141.538574,4124.615234,4138.461426,726.000000,4.000000,,,,0.000000,4.000000,4.000000,4.000000,4.000000,4.000000,4.000000,4.000000,4.000000,4.000000,4.000000,4.000000,4.000000,4.000000,4.000000,100.000000
1602006680.582840,14.000000,0.000000,4155.384766,4140.000000,4153.846191,4141.025879,4128.205078,4123.077148,4124.615234,4128.717773,4109.230957,4127.179688,4149.743652,4153.846191,4140.512695,4162.051270,876.000000,4.000000,,,,0.000000,4.000000,4.000000,4.000000,4.000000,4.000000,4.000000,4.000000,4.000000,4.000000,4.000000,4.000000,4.000000,4.000000,4.000000,100.000000
1602006680.590721,15.000000,0.000000,4154.871582,4147.179688,4162.563965,4146.666504,4135.897461,4121.538574,4123.077148,4137.948730,4126.666504,4146.666504,4152.307617,4168.205078,4152.820313,4172.820313,839.000000,4.000000,,,,0.000000,4.000000,4.000000,4.000000,4.000000,4.000000,4.000000,4.000000,4.000000,4.000000,4.000000,4.000000,4.000000,4.000000,4.000000,100.000000
1602006680.598602,16.000000,0.000000,4159.487305,4152.307617,4168.717773,4152.820313,4137.436035,4116.410156,4121.538574,4143.077148,4136.410156,4156.410156,4160.000000,4173.333496,4166.666504,4176.410156,0.000000,4.000000,,,,0.000000,4.000000,4.000000,4.000000,4.000000,4.000000,4.000000,4.000000,4.000000,4.000000,4.000000,4.000000,4.000000,4.000000,4.000000,100.000000
1602006680.606484,17.000000,0.000000,4165.128418,4153.333496,4164.102539,4150.769043,4135.384766,4113.846191,4124.102539,4148.717773,4140.512695,4169.743652,4172.820313,4173.846191,4172.820313,4185.641113,0.000000,4.000000,,,,0.000000,4.000000,4.000000,4.000000,4.000000,4.000000,4.000000,4.000000,4.000000,4.000000,4.000000,4.000000,4.000000,4.000000,4.000000,100.000000
1602006680.614465,18.000000,0.000000,4157.436035,4150.256348,4151.794922,4144.615234,4137.948730,4121.538574,4133.846191,4152.307617,4147.179688,4173.846191,4156.410156,4165.641113,4159.487305,4183.589844,0.000000,4.000000,,,,0.000000,4.000000,4.000000,4.000000,4.000000,4.000000,4.000000,4.000000,4.000000,4.000000,4.000000,4.000000,4.000000,4.000000,4.000000,100.000000
1602006680.622346,19.000000,0.000000,4142.051270,4141.538574,4140.512695,4137.948730,4137.948730,4133.333496,4139.487305,4143.589844,4142.563965,4142.563965,4133.846191,4146.666504,4142.051270,4156.922852,0.000000,4.000000,,,,0.000000,4.000000,4.000000,4.000000,4.000000,4.000000,4.000000,4.000000,4.000000,4.000000,4.000000,4.000000,4.000000,4.000000,4.000000,100.000000
1602006680.630227,20.000000,0.000000,4129.230957,4128.717773,4131.794922,4132.820313,4133.333496,4135.384766,4136.410156,4134.358887,4122.563965,4119.487305,4135.897461,4132.820313,4135.897461,4141.538574,0.000000,4.000000,,,,0.000000,4.000000,4.000000,4.000000,4.000000,4.000000,4.000000,4.000000,4.000000,4.000000,4.000000,4.000000,4.000000,4.000000,4.000000,100.000000
1602006680.638108,21.000000,0.000000,4129.230957,4124.102539,4130.769043,4134.358887,4133.333496,4141.538574,4135.384766,4134.871582,4117.436035,4140.512695,4133.846191,4131.282227,4133.333496,4148.205078,0.000000,4.000000,,,,0.000000,4.000000,4.000000,4.000000,4.000000,4.000000,4.000000,4.000000,4.000000,4.000000,4.000000,4.000000,4.000000,4.000000,4.000000,100.000000
1602006680.645989,22.000000,0.000000,4135.384766,4132.820313,4135.384766,4138.461426,4136.410156,4151.794922,4137.436035,4137.436035,4134.871582,4155.897461,4123.077148,4134.871582,4127.692383,4146.666504,0.000000,4.000000,,,,0.000000,4.000000,4.000000,4.000000,4.000000,4.000000,4.000000,4.000000,4.000000,4.000000,4.000000,4.000000,4.000000,4.000000,4.000000,100.000000
1602006680.653870,23.000000,0.000000,4130.256348,4134.358887,4133.846191,4133.846191,4135.384766,4142.051270,4131.282227,4135.897461,4145.641113,4148.205078,4127.179688,4130.769043,4127.692383,4133.846191,0.000000,4.000000,,,,0.000000,4.000000,4.000000,4.000000,4.000000,4.000000,4.000000,4.000000,4.000000,4.000000,4.000000,4.000000,4.000000,4.000000,4.000000,100.000000
1602006680.661752,24.000000,0.000000,4126.666504,4133.333496,4134.358887,4134.358887,4135.897461,4129.230957,4127.692383,4133.846191,4134.871582,4137.436035,4129.230957,4126.666504,4135.384766,4142.051270,0.000000,4.000000,,,,0.000000,4.000000,4.000000,4.000000,4.000000,4.000000,4.000000,4.000000,4.000000,4.000000,4.000000,4.000000,4.000000,4.000000,4.000000,100.000000
1602006680.669633,25.000000,0.000000,4143.077148,4146.666504,4142.051270,4149.743652,4140.512695,4134.358887,4132.820313,4135.384766,4124.102539,4127.692383,4131.282227,4132.820313,4139.487305,4161.025879,0.000000,4.000000,,,,0.000000,4.000000,4.000000,4.000000,4.000000,4.000000,4.000000,4.000000,4.000000,4.000000,4.000000,4.000000,4.000000,4.000000,4.000000,100.000000
1602006680.677514,26.000000,0.000000,4152.820313,4153.846191,4145.128418,4154.871582,4134.358887,4127.179688,4129.743652,4136.922852,4117.436035,4129.743652,4143.077148,4136.922852,4136.922852,4157.436035,0.000000,4.000000,,,,0.000000,4.000000,4.000000,4.000000,4.000000,4.000000,4.000000,4.000000,4.000000,4.000000,4.000000,4.000000,4.000000,4.000000,4.000000,100.000000
1602006680.685495,27.000000,0.000000,4147.692383,4146.666504,4146.153809,4148.205078,4123.077148,4105.641113,4121.025879,4136.922852,4105.641113,4140.512695,4141.538574,4137.436035,4133.846191,4147.692383,0.000000,4.000000,,,,0.000000,4.000000,4.000000,4.000000,4.000000,4.000000,4.000000,4.000000,4.000000,4.000000,4.000000,4.000000,4.000000,4.000000,4.000000,100.000000
1602006680.693376,28.000000,0.000000,4151.282227,4151.794922,4158.461426,4150.256348,4126.666504,4110.256348,4121.538574,4137.948730,4105.641113,4142.051270,4138.461426,4147.692383,4141.025879,4161.025879,0.000000,4.000000,,,,0.000000,4.000000,4.000000,4.000000,4.000000,4.000000,4.000000,4.000000,4.000000,4.000000,4.000000,4.000000,4.000000,4.000000,4.000000,100.000000
1602006680.701257,29.000000,0.000000,4159.487305,4163.077148,4168.717773,4156.410156,4136.922852,4125.128418,4123.589844,4138.974121,4120.512695,4145.128418,4152.820313,4157.948730,4152.820313,4176.410156,0.000000,4.000000,,,,0.000000,4.000000,4.000000,4.000000,4.000000,4.000000,4.000000,4.000000,4.000000,4.000000,4.000000,4.000000,4.000000,4.000000,4.000000,100.000000
