Timestamp,EEG.Counter,EEG.Interpolated,EEG.AF3,EEG.F7,EEG.F3,EEG.FC5,EEG.T7,EEG.P7,EEG.O1,EEG.O2,EEG.P8,EEG.T8,EEG.FC6,EEG.F4,EEG.F8,EEG.AF4,EEG.RawCq,EEG.Battery,MarkerIndex,MarkerType,MarkerValueInt,EEG.MarkerHardware,CQ.AF3,CQ.F7,CQ.F3,CQ.FC5,CQ.T7,CQ.P7,CQ.O1,CQ.O2,CQ.P8,CQ.T8,CQ.FC6,CQ.F4,CQ.F8,CQ.AF4,CQ.Overall
1602006698.881590,14.000000,0.000000,4143.077148,4157.948730,4122.051270,4147.179688,4143.589844,4141.025879,4124.615234,4125.128418,4131.794922,4119.487305,4123.589844,4131.794922,4121.025879,4127.179688,875.000000,4.000000,,,,0.000000,4.000000,4.000000,4.000000,4.000000,4.000000,4.000000,4.000000,4.000000,4.000000,4.000000,4.000000,4.000000,4.000000,4.000000,100.000000
1602006698.889371,15.000000,0.000000,4142.563965,4154.871582,4126.153809,4141.025879,4140.512695,4140.512695,4125.641113,4126.666504,4122.563965,4119.487305,4122.563965,4135.384766,4113.846191,4124.102539,840.000000,4.000000,,,,0.000000,4.000000,4.000000,4.000000,4.000000,4.000000,4.000000,4.000000,4.000000,4.000000,4.000000,4.000000,4.000000,4.000000,4.000000,100.000000
1602006698.897253,16.000000,0.000000,4151.794922,4156.922852,4140.000000,4144.615234,4141.025879,4145.128418,4137.436035,4131.282227,4129.230957,4124.615234,4131.794922,4143.589844,4109.230957,4124.102539,0.000000,4.000000,,,,0.000000,4.000000,4.000000,4.000000,4.000000,4.000000,4.000000,4.000000,4.000000,4.000000,4.000000,4.000000,4.000000,4.000000,4.000000,100.000000
1602006698.905134,17.000000,0.000000,4154.871582,4160.000000,4145.128418,4145.128418,4144.615234,4144.102539,4135.897461,4135.897461,4136.922852,4129.743652,4128.205078,4141.025879,4111.794922,4127.179688,0.000000,4.000000,,,,0.000000,4.000000,4.000000,4.000000,4.000000,4.000000,4.000000,4.000000,4.000000,4.000000,4.000000,4.000000,4.000000,4.000000,4.000000,100.000000
1602006698.913015,18.000000,0.000000,4143.589844,4156.410156,4135.897461,4140.512695,4144.102539,4130.769043,4124.102539,4137.436035,4136.922852,4124.615234,4121.538574,4133.333496,4111.794922,4120.512695,0.000000,4.000000,,,,0.000000,4.000000,4.000000,4.000000,4.000000,4.000000,4.000000,4.000000,4.000000,4.000000,4.000000,4.000000,4.000000,4.000000,4.000000,100.000000
1602006698.920896,19.000000,0.000000,4137.436035,4151.282227,4124.102539,4139.487305,4138.461426,4121.538574,4121.025879,4135.384766,4134.871582,4123.077148,4128.205078,4133.846191,4111.282227,4115.384766,0.000000,4.000000,,,,0.000000,4.000000,4.000000,4.000000,4.000000,4.000000,4.000000,4.000000,4.000000,4.000000,4.000000,4.000000,4.000000,4.000000,4.000000,100.000000
1602006698.928777,20.000000,0.000000,4146.153809,4155.897461,4123.077148,4139.487305,4136.410156,4125.128418,4123.589844,4135.384766,4134.358887,4129.743652,4130.256348,4138.974121,4124.102539,4121.538574,0.000000,4.000000,,,,0.000000,4.000000,4.000000,4.000000,4.000000,4.000000,4.000000,4.000000,4.000000,4.000000,4.000000,4.000000,4.000000,4.000000,4.000000,100.000000
1602006698.936658,21.000000,0.000000,4142.051270,4153.846191,4121.538574,4138.461426,4138.974121,4128.717773,4122.563965,4136.922852,4137.948730,4128.205078,4115.897461,4138.461426,4126.666504,4128.205078,0.000000,4.000000,,,,0.000000,4.000000,4.000000,4.000000,4.000000,4.000000,4.000000,4.000000,4.000000,4.000000,4.000000,4.000000,4.000000,4.000000,4.000000,100.000000
1602006698.944540,22.000000,0.000000,4122.051270,4141.025879,4112.307617,4135.897461,4137.948730,4125.128418,4121.025879,4134.358887,4139.487305,4118.974121,4107.179688,4129.743652,4108.205078,4125.641113,0.000000,4.000000,,,,0.000000,4.000000,4.000000,4.000000,4.000000,4.000000,4.000000,4.000000,4.000000,4.000000,4.000000,4.000000,4.000000,4.000000,4.000000,100.000000
1602006698.952421,23.000000,0.000000,4123.077148,4144.615234,4112.307617,4135.384766,4133.333496,4132.307617,4128.205078,4135.897461,4137.948730,4122.051270,4122.051270,4126.153809,4109.743652,4119.487305,0.000000,4.000000,,,,0.000000,4.000000,4.000000,4.000000,4.000000,4.000000,4.000000,4.000000,4.000000,4.000000,4.000000,4.000000,4.000000,4.000000,4.000000,100.000000
1602006698.960401,24.000000,0.000000,4140.512695,4154.871582,4123.077148,4135.897461,4132.307617,4147.179688,4137.948730,4139.487305,4141.025879,4135.384766,4139.487305,4131.282227,4123.077148,4121.538574,0.000000,4.000000,,,,0.000000,4.000000,4.000000,4.000000,4.000000,4.000000,4.000000,4.000000,4.000000,4.000000,4.000000,4.000000,4.000000,4.000000,4.000000,100.000000
1602006698.968282,25.000000,0.000000,4138.974121,4144.615234,4123.077148,4134.358887,4132.307617,4144.615234,4141.025879,4137.948730,4141.538574,4128.717773,4132.307617,4136.410156,4123.589844,4126.666504,0.000000,4.000000,,,,0.000000,4.000000,4.000000,4.000000,4.000000,4.000000,4.000000,4.000000,4.000000,4.000000,4.000000,4.000000,4.000000,4.000000,4.000000,100.000000
1602006698.976163,26.000000,0.000000,4127.179688,4133.333496,4124.102539,4134.871582,4132.820313,4136.410156,4141.025879,4134.871582,4131.282227,4118.461426,4116.922852,4141.025879,4120.000000,4118.974121,0.000000,4.000000,,,,0.000000,4.000000,4.000000,4.000000,4.000000,4.000000,4.000000,4.000000,4.000000,4.000000,4.000000,4.000000,4.000000,4.000000,4.000000,100.000000
1602006698.984043,27.000000,0.000000,4134.871582,4136.410156,4135.897461,4136.410156,4132.820313,4137.948730,4141.025879,4135.897461,4119.487305,4117.948730,4114.871582,4146.153809,4114.871582,4112.307617,0.000000,4.000000,,,,0.000000,4.000000,4.000000,4.000000,4.000000,4.000000,4.000000,4.000000,4.000000,4.000000,4.000000,4.000000,4.000000,4.000000,4.000000,100.000000
1602006698.992024,28.000000,0.000000,4148.205078,4137.436035,4143.077148,4136.922852,4136.410156,4139.487305,4140.000000,4138.461426,4115.897461,4113.333496,4121.025879,4145.641113,4113.333496,4128.205078,0.000000,4.000000,,,,0.000000,4.000000,4.000000,4.000000,4.000000,4.000000,4.000000,4.000000,4.000000,4.000000,4.000000,4.000000,4.000000,4.000000,4.000000,100.000000
1602006698.999905,29.000000,0.000000,4146.666504,4138.974121,4140.512695,4136.410156,4144.102539,4140.000000,4140.512695,4140.000000,4122.051270,4114.358887,4133.333496,4143.077148,4125.128418,4146.153809,0.000000,4.000000,,,,0.000000,4.000000,4.000000,4.000000,4.000000,4.000000,4.000000,4.000000,4.000000,4.000000,4.000000,4.000000,4.000000,4.000000,4.000000,100.000000
1602006699.007786,30.000000,0.000000,4138.461426,4143.077148,4132.307617,4136.410156,4144.615234,4140.000000,4138.461426,4140.512695,4127.692383,4123.077148,4138.461426,4141.025879,4133.333496,4143.589844,0.000000,4.000000,,,,0.000000,4.000000,4.000000,4.000000,4.000000,4.000000,4.000000,4.000000,4.000000,4.000000,4.000000,4.000000,4.000000,4.000000,4.000000,100.000000
1602006699.015667,31.000000,0.000000,4134.358887,4133.333496,4125.128418,4135.897461,4140.512695,4140.512695,4130.769043,4137.948730,4124.102539,4126.666504,4127.692383,4138.461426,4124.615234,4135.384766,0.000000,4.000000,,,,0.000000,4.000000,4.000000,4.000000,4.000000,4.000000,4.000000,4.000000,4.000000,4.000000,4.000000,4.000000,4.000000,4.000000,4.000000,100.000000
1602006699.023548,32.000000,0.000000,4134.358887,4127.692383,4125.641113,4135.384766,4140.000000,4142.051270,4127.179688,4132.307617,4122.563965,4121.538574,4120.000000,4140.000000,4115.384766,4128.717773,0.000000,4.000000,,,,0.000000,4.000000,4.000000,4.000000,4.000000,4.000000,4.000000,4.000000,4.000000,4.000000,4.000000,4.000000,4.000000,4.000000,4.000000,100.000000
1602006699.031429,33.000000,0.000000,4141.025879,4138.974121,4126.153809,4137.948730,4133.846191,4138.461426,4123.589844,4124.615234,4120.000000,4114.358887,4123.077148,4137.436035,4112.307617,4111.794922,0.000000,4.000000,,,,0.000000,4.000000,4.000000,4.000000,4.000000,4.000000,4.000000,4.000000,4.000000,4.000000,4.000000,4.000000,4.000000,4.000000,4.000000,100.000000
1602006699.039310,34.000000,0.000000,4152.307617,4148.205078,4126.153809,4142.051270,4129.230957,4133.846191,4116.410156,4118.974121,4105.641113,4103.589844,4120.000000,4127.179688,4108.205078,4100.000000,0.000000,4.000000,,,,0.000000,4.000000,4.000000,4.000000,4.000000,4.000000,4.000000,4.000000,4.000000,4.000000,4.000000,4.000000,4.000000,4.000000,4.000000,100.000000
1602006699.047191,35.000000,0.000000,4151.794922,4149.743652,4133.846191,4141.025879,4135.897461,4138.461426,4118.461426,4119.487305,4107.692383,4100.000000,4118.974121,4123.077148,4106.153809,4111.794922,0.000000,4.000000,,,,0.000000,4.000000,4.000000,4.000000,4.000000,4.000000,4.000000,4.000000,4.000000,4.000000,4.000000,4.000000,4.000000,4.000000,4.000000,100.000000
1602006699.054972,36.000000,0.000000,4140.512695,4149.230957,4135.384766,4141.025879,4137.948730,4136.922852,4125.128418,4122.051270,4124.102539,4117.436035,4124.615234,4129.230957,4107.692383,4125.641113,0.000000,4.000000,,,,0.000000,4.000000,4.000000,4.000000,4.000000,4.000000,4.000000,4.000000,4.000000,4.000000,4.000000,4.000000,4.000000,4.000000,4.000000,100.000000
1602006699.062852,37.000000,0.000000,4137.436035,4143.077148,4124.615234,4140.000000,4125.128418,4125.128418,4122.563965,4121.538574,4117.948730,4127.179688,4119.487305,4133.846191,4104.615234,4125.128418,0.000000,4.000000,,,,0.000000,4.000000,4.000000,4.000000,4.000000,4.000000,4.000000,4.000000,4.000000,4.000000,4.000000,4.000000,4.000000,4.000000,4.000000,100.000000
1602006699.070733,38.000000,0.000000,4140.512695,4134.871582,4120.000000,4129.743652,4118.974121,4121.538574,4119.487305,4125.641113,4106.153809,4114.871582,4118.461426,4134.871582,4096.410156,4119.487305,0.000000,4.000000,,,,0.000000,4.000000,4.000000,4.000000,4.000000,4.000000,4.000000,4.000000,4.000000,4.000000,4.000000,4.000000,4.000000,4.000000,4.000000,100.000000
1602006699.078614,39.000000,0.000000,4142.051270,4135.897461,4124.102539,4126.666504,4128.717773,4127.179688,4129.743652,4136.410156,4117.948730,4112.307617,4127.692383,4137.948730,4098.461426,4114.871582,0.000000,4.000000,,,,0.000000,4.000000,4.000000,4.000000,4.000000,4.000000,4.000000,4.000000,4.000000,4.000000,4.000000,4.000000,4.000000,4.000000,4.000000,100.000000
1602006699.086395,40.000000,0.000000,4141.538574,4138.461426,4127.692383,4134.358887,4140.000000,4133.846191,4139.487305,4141.025879,4126.153809,4120.512695,4118.974121,4142.563965,4104.615234,4111.282227,0.000000,4.000000,,,,0.000000,4.000000,4.000000,4.000000,4.000000,4.000000,4.000000,4.000000,4.000000,4.000000,4.000000,4.000000,4.000000,4.000000,4.000000,100.000000
1602006699.094276,41.000000,0.000000,4135.384766,4137.948730,4124.615234,4132.820313,4141.025879,4140.000000,4133.333496,4131.794922,4114.871582,4103.589844,4102.051270,4137.948730,4096.922852,4102.051270,0.000000,4.000000,,,,0.000000,4.000000,4.000000,4.000000,4.000000,4.000000,4.000000,4.000000,4.000000,4.000000,4.000000,4.000000,4.000000,4.000000,4.000000,100.000000
1602006699.102156,42.000000,0.000000,4130.769043,4137.436035,4121.025879,4128.205078,4132.820313,4143.077148,4122.051270,4120.000000,4106.153809,4095.897461,4101.538574,4126.666504,4092.307617,4091.281982,0.000000,4.000000,,,,0.000000,4.000000,4.000000,4.000000,4.000000,4.000000,4.000000,4.000000,4.000000,4.000000,4.000000,4.000000,4.000000,4.000000,4.000000,100.000000
1602006699.110037,43.000000,0.000000,4138.461426,4138.461426,4123.077148,4135.384766,4131.794922,4134.358887,4118.974121,4117.948730,4106.666504,4132.307617,4109.743652,4126.666504,4098.974121,4094.358887,0.000000,4.000000,,,,0.000000,4.000000,4.000000,4.000000,4.000000,4.000000,4.000000,4.000000,4.000000,4.000000,4.000000,4.000000,4.000000,4.000000,4.000000,100.000000
1602006699.117918,44.000000,0.000000,4151.794922,4147.692383,4131.282227,4142.051270,4137.948730,4129.230957,4118.974121,4121.538574,4113.846191,4149.743652,4117.948730,4136.410156,4105.128418,4112.307617,0.000000,4.000000,,,,0.000000,4.000000,4.000000,4.000000,4.000000,4.000000,4.000000,4.000000,4.000000,4.000000,4.000000,4.000000,4.000000,4.000000,4.000000,100.000000
1602006699.125799,45.000000,0.000000,4150.256348,4152.820313,4139.487305,4139.487305,4138.974121,4132.307617,4120.512695,4123.589844,4124.102539,4134.358887,4121.025879,4138.461426,4106.666504,4123.589844,0.000000,4.000000,,,,0.000000,4.000000,4.000000,4.000000,4.000000,4.000000,4.000000,4.000000,4.000000,4.000000,4.000000,4.000000,4.000000,4.000000,4.000000,100.000000
1602006699.133680,46.000000,0.000000,4141.025879,4146.666504,4141.025879,4137.436035,4135.897461,4127.179688,4121.538574,4129.743652,4125.641113,4134.358887,4110.256348,4133.846191,4104.102539,4121.025879,0.000000,4.000000,,,,0.000000,4.000000,4.000000,4.000000,4.000000,4.000000,4.000000,4.000000,4.000000,4.000000,4.000000,4.000000,4.000000,4.000000,4.000000,100.000000
1602006699.141561,47.000000,0.000000,4149.230957,4144.615234,4142.051270,4140.512695,4135.897461,4120.512695,4121.538574,4138.461426,4124.615234,4125.641113,4101.025879,4136.922852,4098.974121,4117.436035,0.000000,4.000000,,,,0.000000,4.000000,4.000000,4.000000,4.000000,4.000000,4.000000,4.000000,4.000000,4.000000,4.000000,4.000000,4.000000,4.000000,4.000000,100.000000
1602006699.149442,48.000000,0.000000,4155.897461,4143.077148,4142.051270,4141.538574,4132.307617,4124.102539,4121.025879,4136.410156,4121.538574,4096.410156,4107.692383,4139.487305,4093.333252,4106.666504,0.000000,4.000000,,,,0.000000,4.000000,4.000000,4.000000,4.000000,4.000000,4.000000,4.000000,4.000000,4.000000,4.000000,4.000000,4.000000,4.000000,4.000000,100.000000
1602006699.157223,49.000000,0.000000,4135.897461,4129.743652,4129.230957,4132.307617,4122.051270,4125.128418,4119.487305,4125.128418,4112.307617,4092.820557,4110.769043,4129.230957,4089.230713,4094.358887,0.000000,4.000000,,,,0.000000,4.000000,4.000000,4.000000,4.000000,4.000000,4.000000,4.000000,4.000000,4.000000,4.000000,4.000000,4.000000,4.000000,4.000000,100.000000
1602006699.165103,50.000000,0.000000,4122.051270,4124.615234,4118.974121,4126.153809,4125.128418,4117.948730,4119.487305,4122.051270,4108.717773,4115.384766,4106.153809,4124.615234,4087.692383,4095.897461,0.000000,4.000000,,,,0.000000,4.000000,4.000000,4.000000,4.000000,4.000000,4.000000,4.000000,4.000000,4.000000,4.000000,4.000000,4.000000,4.000000,4.000000,100.000000
1602006699.172984,51.000000,0.000000,4137.436035,4136.922852,4130.256348,4135.897461,4137.436035,4127.179688,4122.051270,4132.307617,4113.333496,4132.307617,4114.358887,4129.743652,4091.794922,4105.641113,0.000000,4.000000,,,,0.000000,4.000000,4.000000,4.000000,4.000000,4.000000,4.000000,4.000000,4.000000,4.000000,4.000000,4.000000,4.000000,4.000000,4.000000,100.000000
1602006699.180865,52.000000,0.000000,4147.692383,4141.538574,4138.974121,4142.051270,4135.897461,4141.025879,4125.641113,4134.358887,4109.743652,4139.487305,4126.666504,4126.666504,4101.538574,4114.871582,0.000000,4.000000,,,,0.000000,4.000000,4.000000,4.000000,4.000000,4.000000,4.000000,4.000000,4.000000,4.000000,4.000000,4.000000,4.000000,4.000000,4.000000,100.000000
1602006699.188646,53.000000,0.000000,4140.512695,4140.000000,4127.692383,4138.461426,4130.256348,4133.846191,4128.205078,4128.717773,4106.153809,4137.948730,4123.077148,4120.000000,4108.205078,4123.077148,0.000000,4.000000,,,,0.000000,4.000000,4.000000,4.000000,4.000000,4.000000,4.000000,4.000000,4.000000,4.000000,4.000000,4.000000,4.000000,4.000000,4.000000,100.000000
1602006699.196527,54.000000,0.000000,4136.410156,4142.563965,4120.000000,4137.436035,4135.384766,4121.538574,4126.153809,4132.307617,4114.358887,4126.666504,4118.461426,4119.487305,4113.333496,4124.615234,0.000000,4.000000,,,,0.000000,4.000000,4.000000,4.000000,4.000000,4.000000,4.000000,4.000000,4.000000,4.000000,4.000000,4.000000,4.000000,4.000000,4.000000,100.000000
1602006699.204408,55.000000,0.000000,4133.333496,4139.487305,4121.538574,4137.948730,4137.948730,4119.487305,4123.077148,4137.948730,4125.641113,4118.974121,4126.666504,4120.512695,4120.000000,4120.000000,0.000000,4.000000,,,,0.000000,4.000000,4.000000,4.000000,4.000000,4.000000,4.000000,4.000000,4.000000,4.000000,4.000000,4.000000,4.000000,4.000000,4.000000,100.000000
1602006699.212289,56.000000,0.000000,4125.128418,4137.436035,4122.051270,4136.410156,4134.871582,4121.538574,4122.563965,4131.282227,4131.794922,4126.666504,4130.256348,4128.205078,4125.641113,4120.512695,0.000000,4.000000,,,,0.000000,4.000000,4.000000,4.000000,4.000000,4.000000,4.000000,4.000000,4.000000,4.000000,4.000000,4.000000,4.000000,4.000000,4.000000,100.000000
1602006699.220170,57.000000,0.000000,4122.563965,4140.512695,4127.179688,4134.871582,4137.948730,4120.512695,4118.974121,4124.615234,4129.743652,4142.051270,4126.666504,4139.487305,4122.051270,4126.153809,0.000000,4.000000,,,,0.000000,4.000000,4.000000,4.000000,4.000000,4.000000,4.000000,4.000000,4.000000,4.000000,4.000000,4.000000,4.000000,4.000000,4.000000,100.000000
1602006699.228051,58.000000,0.000000,4133.333496,4140.000000,4136.922852,4135.384766,4142.051270,4126.666504,4116.410156,4130.769043,4124.615234,4157.948730,4134.871582,4145.641113,4123.077148,4133.333496,0.000000,4.000000,,,,0.000000,4.000000,4.000000,4.000000,4.000000,4.000000,4.000000,4.000000,4.000000,4.000000,4.000000,4.000000,4.000000,4.000000,4.000000,100.000000
1602006699.235931,59.000000,0.000000,4141.025879,4145.128418,4142.563965,4140.512695,4140.512695,4137.436035,4120.000000,4134.871582,4125.128418,4163.589844,4141.025879,4153.333496,4135.897461,4140.512695,0.000000,4.000000,,,,0.000000,4.000000,4.000000,4.000000,4.000000,4.000000,4.000000,4.000000,4.000000,4.000000,4.000000,4.000000,4.000000,4.000000,4.000000,100.000000
1602006699.243912,60.000000,0.000000,4141.025879,4151.794922,4140.512695,4142.051270,4140.000000,4140.000000,4123.589844,4128.205078,4122.051270,4142.563965,4135.384766,4152.307617,4134.871582,4141.538574,0.000000,4.000000,,,,0.000000,4.000000,4.000000,4.000000,4.000000,4.000000,4.000000,4.000000,4.000000,4.000000,4.000000,4.000000,4.000000,4.000000,4.000000,100.000000
1602006699.251793,61.000000,0.000000,4146.666504,4146.153809,4134.871582,4139.487305,4141.025879,4136.922852,4125.128418,4123.077148,4118.974121,4121.025879,4136.922852,4141.538574,4126.153809,4142.051270,0.000000,4.000000,,,,0.000000,4.000000,4.000000,4.000000,4.000000,4.000000,4.000000,4.000000,4.000000,4.000000,4.000000,4.000000,4.000000,4.000000,4.000000,100.000000
1602006699.259673,62.000000,0.000000,4145.128418,4137.948730,4123.589844,4135.384766,4136.410156,4128.717773,4127.179688,4123.077148,4122.051270,4130.256348,4135.897461,4137.948730,4134.358887,4137.436035,0.000000,4.000000,,,,0.000000,4.000000,4.000000,4.000000,4.000000,4.000000,4.000000,4.000000,4.000000,4.000000,4.000000,4.000000,4.000000,4.000000,4.000000,100.000000
1602006699.267654,63.000000,0.000000,4128.717773,4136.922852,4113.846191,4129.230957,4129.743652,4122.051270,4130.256348,4128.205078,4123.589844,4141.025879,4123.589844,4138.974121,4141.538574,4120.512695,0.000000,4.000000,,,,0.000000,4.000000,4.000000,4.000000,4.000000,4.000000,4.000000,4.000000,4.000000,4.000000,4.000000,4.000000,4.000000,4.000000,4.000000,100.000000
1602006699.275535,64.000000,0.000000,4117.948730,4136.410156,4115.897461,4125.128418,4133.846191,4129.743652,4135.384766,4136.410156,4125.641113,4129.743652,4120.000000,4135.897461,4126.153809,4106.153809,789.000000,4.000000,,,,0.000000,4.000000,4.000000,4.000000,4.000000,4.000000,4.000000,4.000000,4.000000,4.000000,4.000000,4.000000,4.000000,4.000000,4.000000,100.000000
1602006699.283415,65.000000,0.000000,4121.538574,4135.897461,4118.461426,4128.717773,4148.717773,4142.051270,4137.948730,4134.871582,4136.410156,4132.820313,4121.025879,4138.974121,4115.384766,4105.641113,786.000000,4.000000,,,,0.000000,4.000000,4.000000,4.000000,4.000000,4.000000,4.000000,4.000000,4.000000,4.000000,4.000000,4.000000,4.000000,4.000000,4.000000,100.000000
1602006699.291396,66.000000,0.000000,4126.666504,4138.461426,4117.436035,4132.820313,4154.871582,4142.051270,4137.948730,4126.666504,4145.128418,4145.128418,4115.897461,4141.538574,4123.589844,4109.230957,830.000000,4.000000,,,,0.000000,4.000000,4.000000,4.000000,4.000000,4.000000,4.000000,4.000000,4.000000,4.000000,4.000000,4.000000,4.000000,4.000000,4.000000,100.000000
1602006699.299277,67.000000,0.000000,4126.153809,4138.461426,4119.487305,4134.871582,4146.666504,4138.974121,4136.922852,4126.153809,4143.077148,4126.666504,4113.846191,4137.436035,4123.589844,4104.102539,868.000000,4.000000,,,,0.000000,4.000000,4.000000,4.000000,4.000000,4.000000,4.000000,4.000000,4.000000,4.000000,4.000000,4.000000,4.000000,4.000000,4.000000,100.000000
1602006699.307158,68.000000,0.000000,4125.641113,4139.487305,4126.153809,4138.461426,4139.487305,4140.000000,4130.256348,4126.153809,4135.384766,4114.358887,4120.000000,4141.025879,4116.410156,4095.897461,812.000000,4.000000,,,,0.000000,4.000000,4.000000,4.000000,4.000000,4.000000,4.000000,4.000000,4.000000,4.000000,4.000000,4.000000,4.000000,4.000000,4.000000,100.000000
1602006699.315039,69.000000,0.000000,4128.717773,4140.000000,4126.666504,4137.948730,4137.948730,4137.948730,4121.538574,4122.051270,4134.358887,4132.820313,4125.641113,4149.230957,4115.897461,4098.974121,818.000000,4.000000,,,,0.000000,4.000000,4.000000,4.000000,4.000000,4.000000,4.000000,4.000000,4.000000,4.000000,4.000000,4.000000,4.000000,4.000000,4.000000,100.000000
1602006699.322920,70.000000,0.000000,4136.410156,4141.538574,4129.230957,4136.410156,4135.384766,4133.846191,4120.512695,4123.077148,4138.974121,4142.051270,4132.820313,4153.333496,4120.512695,4115.384766,775.000000,4.000000,,,,0.000000,4.000000,4.000000,4.000000,4.000000,4.000000,4.000000,4.000000,4.000000,4.000000,4.000000,4.000000,4.000000,4.000000,4.000000,100.000000
1602006699.330801,71.000000,0.000000,4150.256348,4147.692383,4138.461426,4138.461426,4134.871582,4131.794922,4122.051270,4125.641113,4134.871582,4133.333496,4141.025879,4154.358887,4125.641113,4128.205078,664.000000,4.000000,,,,0.000000,4.000000,4.000000,4.000000,4.000000,4.000000,4.000000,4.000000,4.000000,4.000000,4.000000,4.000000,4.000000,4.000000,4.000000,100.000000
1602006699.338582,72.000000,0.000000,4153.846191,4150.769043,4142.051270,4140.512695,4136.922852,4130.769043,4123.589844,4123.077148,4126.153809,4136.410156,4135.897461,4156.410156,4126.666504,4122.563965,782.000000,4.000000,,,,0.000000,4.000000,4.000000,4.000000,4.000000,4.000000,4.000000,4.000000,4.000000,4.000000,4.000000,4.000000,4.000000,4.000000,4.000000,100.000000
1602006699.346463,73.000000,0.000000,4143.589844,4147.179688,4135.897461,4140.512695,4141.025879,4137.948730,4129.743652,4118.974121,4131.794922,4135.897461,4125.641113,4155.384766,4123.077148,4110.256348,858.000000,4.000000,,,,0.000000,4.000000,4.000000,4.000000,4.000000,4.000000,4.000000,4.000000,4.000000,4.000000,4.000000,4.000000,4.000000,4.000000,4.000000,100.000000
1602006699.354344,74.000000,0.000000,4138.461426,4143.077148,4125.128418,4140.512695,4149.743652,4149.230957,4135.897461,4120.512695,4140.000000,4126.153809,4124.615234,4148.205078,4123.589844,4111.282227,875.000000,4.000000,,,,0.000000,4.000000,4.000000,4.000000,4.000000,4.000000,4.000000,4.000000,4.000000,4.000000,4.000000,4.000000,4.000000,4.000000,4.000000,100.000000
1602006699.362226,75.000000,0.000000,4138.461426,4141.538574,4118.974121,4134.871582,4150.769043,4146.153809,4137.436035,4122.051270,4133.846191,4127.692383,4121.025879,4138.974121,4123.077148,4113.846191,840.000000,4.000000,,,,0.000000,4.000000,4.000000,4.000000,4.000000,4.000000,4.000000,4.000000,4.000000,4.000000,4.000000,4.000000,4.000000,4.000000,4.000000,100.000000
1602006699.370107,76.000000,0.000000,4127.179688,4136.410156,4116.922852,4125.641113,4140.512695,4136.410156,4135.897461,4119.487305,4125.128418,4121.025879,4106.153809,4133.846191,4105.128418,4101.538574,767.000000,4.000000,,,,0.000000,4.000000,4.000000,4.000000,4.000000,4.000000,4.000000,4.000000,4.000000,4.000000,4.000000,4.000000,4.000000,4.000000,4.000000,100.000000
1602006699.377988,77.000000,0.000000,4116.922852,4129.743652,4120.512695,4123.589844,4136.922852,4142.563965,4136.410156,4120.000000,4127.179688,4110.769043,4102.051270,4134.358887,4094.871826,4106.153809,728.000000,4.000000,,,,0.000000,4.000000,4.000000,4.000000,4.000000,4.000000,4.000000,4.000000,4.000000,4.000000,4.000000,4.000000,4.000000,4.000000,4.000000,100.000000
1602006699.385869,78.000000,0.000000,4124.102539,4130.256348,4123.589844,4127.179688,4142.051270,4149.230957,4138.461426,4124.102539,4127.179688,4117.948730,4118.461426,4142.051270,4112.307617,4126.153809,875.000000,4.000000,,,,0.000000,4.000000,4.000000,4.000000,4.000000,4.000000,4.000000,4.000000,4.000000,4.000000,4.000000,4.000000,4.000000,4.000000,4.000000,100.000000
1602006699.393750,79.000000,0.000000,4134.871582,4134.871582,4122.563965,4129.743652,4136.922852,4141.025879,4136.410156,4124.615234,4126.666504,4115.897461,4127.692383,4149.743652,4121.538574,4121.025879,840.000000,4.000000,,,,0.000000,4.000000,4.000000,4.000000,4.000000,4.000000,4.000000,4.000000,4.000000,4.000000,4.000000,4.000000,4.000000,4.000000,4.000000,100.000000
1602006699.401631,80.000000,0.000000,4140.000000,4136.410156,4127.179688,4135.897461,4129.230957,4137.948730,4134.358887,4124.615234,4132.820313,4109.743652,4123.077148,4152.307617,4118.974121,4106.666504,767.000000,4.000000,,,,0.000000,4.000000,4.000000,4.000000,4.000000,4.000000,4.000000,4.000000,4.000000,4.000000,4.000000,4.000000,4.000000,4.000000,4.000000,100.000000
1602006699.409612,81.000000,0.000000,4139.487305,4135.897461,4136.410156,4137.948730,4131.794922,4141.025879,4134.871582,4126.666504,4136.410156,4128.205078,4121.025879,4153.846191,4121.538574,4107.179688,728.000000,4.000000,,,,0.000000,4.000000,4.000000,4.000000,4.000000,4.000000,4.000000,4.000000,4.000000,4.000000,4.000000,4.000000,4.000000,4.000000,4.000000,100.000000
1602006699.417493,82.000000,0.000000,4134.871582,4133.846191,4137.436035,4131.282227,4136.410156,4141.025879,4135.384766,4131.282227,4143.589844,4147.692383,4124.615234,4156.410156,4123.589844,4111.794922,875.000000,4.000000,,,,0.000000,4.000000,4.000000,4.000000,4.000000,4.000000,4.000000,4.000000,4.000000,4.000000,4.000000,4.000000,4.000000,4.000000,4.000000,100.000000
1602006699.425373,83.000000,0.000000,4135.384766,4135.384766,4131.282227,4127.692383,4138.461426,4147.179688,4133.846191,4134.358887,4153.846191,4154.358887,4130.769043,4153.846191,4127.179688,4124.615234,840.000000,4.000000,,,,0.000000,4.000000,4.000000,4.000000,4.000000,4.000000,4.000000,4.000000,4.000000,4.000000,4.000000,4.000000,4.000000,4.000000,4.000000,100.000000
1602006699.433254,84.000000,0.000000,4138.974121,4137.436035,4127.179688,4127.692383,4139.487305,4157.948730,4135.897461,4129.743652,4148.205078,4162.563965,4139.487305,4152.307617,4140.000000,4142.563965,767.000000,4.000000,,,,0.000000,4.000000,4.000000,4.000000,4.000000,4.000000,4.000000,4.000000,4.000000,4.000000,4.000000,4.000000,4.000000,4.000000,4.000000,100.000000
1602006699.441235,85.000000,0.000000,4132.307617,4130.769043,4121.538574,4122.563965,4139.487305,4158.461426,4138.461426,4121.538574,4134.358887,4150.769043,4135.897461,4151.794922,4139.487305,4132.820313,728.000000,4.000000,,,,0.000000,4.000000,4.000000,4.000000,4.000000,4.000000,4.000000,4.000000,4.000000,4.000000,4.000000,4.000000,4.000000,4.000000,4.000000,100.000000
1602006699.449115,86.000000,0.000000,4119.487305,4123.077148,4118.461426,4118.974121,4133.333496,4144.102539,4131.794922,4118.974121,4135.384766,4121.538574,4123.077148,4150.256348,4125.128418,4112.307617,875.000000,4.000000,,,,0.000000,4.000000,4.000000,4.000000,4.000000,4.000000,4.000000,4.000000,4.000000,4.000000,4.000000,4.000000,4.000000,4.000000,4.000000,100.000000
1602006699.456996,87.000000,0.000000,4123.077148,4129.743652,4128.717773,4122.563965,4126.153809,4134.358887,4127.179688,4124.102539,4140.512695,4113.333496,4128.717773,4152.820313,4128.205078,4116.410156,840.000000,4.000000,,,,0.000000,4.000000,4.000000,4.000000,4.000000,4.000000,4.000000,4.000000,4.000000,4.000000,4.000000,4.000000,4.000000,4.000000,4.000000,100.000000
1602006699.464877,88.000000,0.000000,4141.025879,4137.948730,4138.974121,4127.179688,4124.102539,4137.948730,4134.871582,4134.358887,4139.487305,4127.179688,4136.410156,4150.769043,4138.974121,4128.205078,767.000000,4.000000,,,,0.000000,4.000000,4.000000,4.000000,4.000000,4.000000,4.000000,4.000000,4.000000,4.000000,4.000000,4.000000,4.000000,4.000000,4.000000,100.000000
1602006699.472657,89.000000,0.000000,4139.487305,4136.922852,4137.436035,4126.666504,4123.077148,4139.487305,4141.538574,4139.487305,4138.974121,4137.436035,4124.615234,4142.563965,4131.794922,4121.025879,728.000000,4.000000,,,,0.000000,4.000000,4.000000,4.000000,4.000000,4.000000,4.000000,4.000000,4.000000,4.000000,4.000000,4.000000,4.000000,4.000000,4.000000,100.000000
1602006699.480438,90.000000,0.000000,4125.128418,4135.897461,4133.333496,4126.153809,4122.051270,4132.820313,4134.871582,4131.794922,4129.743652,4133.846191,4121.538574,4137.948730,4120.000000,4105.128418,875.000000,4.000000,,,,0.000000,4.000000,4.000000,4.000000,4.000000,4.000000,4.000000,4.000000,4.000000,4.000000,4.000000,4.000000,4.000000,4.000000,4.000000,100.000000
1602006699.488319,91.000000,0.000000,4128.205078,4136.410156,4134.871582,4126.666504,4129.743652,4133.333496,4130.769043,4124.615234,4120.512695,4129.230957,4127.179688,4138.974121,4119.487305,4111.282227,840.000000,4.000000,,,,0.000000,4.000000,4.000000,4.000000,4.000000,4.000000,4.000000,4.000000,4.000000,4.000000,4.000000,4.000000,4.000000,4.000000,4.000000,100.000000
1602006699.496200,92.000000,0.000000,4141.538574,4136.410156,4138.974121,4127.179688,4141.538574,4140.000000,4134.871582,4122.563965,4123.077148,4123.077148,4122.051270,4145.641113,4128.205078,4135.897461,767.000000,4.000000,,,,0.000000,4.000000,4.000000,4.000000,4.000000,4.000000,4.000000,4.000000,4.000000,4.000000,4.000000,4.000000,4.000000,4.000000,4.000000,100.000000
1602006699.504081,93.000000,0.000000,4144.102539,4138.461426,4142.563965,4128.205078,4142.563965,4143.077148,4133.846191,4125.641113,4132.307617,4108.205078,4128.717773,4156.922852,4136.922852,4146.666504,728.000000,4.000000,,,,0.000000,4.000000,4.000000,4.000000,4.000000,4.000000,4.000000,4.000000,4.000000,4.000000,4.000000,4.000000,4.000000,4.000000,4.000000,100.000000
1602006699.511962,94.000000,0.000000,4138.974121,4135.897461,4143.077148,4127.179688,4140.000000,4145.641113,4127.692383,4131.794922,4147.179688,4118.461426,4142.051270,4158.974121,4142.051270,4144.615234,875.000000,4.000000,,,,0.000000,4.000000,4.000000,4.000000,4.000000,4.000000,4.000000,4.000000,4.000000,4.000000,4.000000,4.000000,4.000000,4.000000,4.000000,100.000000
1602006699.519843,95.000000,0.000000,4135.897461,4126.666504,4137.948730,4125.128418,4140.512695,4140.000000,4121.538574,4129.230957,4158.974121,4156.922852,4126.153809,4153.333496,4144.615234,4140.512695,840.000000,4.000000,,,,0.000000,4.000000,4.000000,4.000000,4.000000,4.000000,4.000000,4.000000,4.000000,4.000000,4.000000,4.000000,4.000000,4.000000,4.000000,100.000000
1602006699.527724,96.000000,0.000000,4140.000000,4124.102539,4138.974121,4125.641113,4133.846191,4137.436035,4126.666504,4122.051270,4156.410156,4171.282227,4121.538574,4155.897461,4144.102539,4128.717773,767.000000,4.000000,,,,0.000000,4.000000,4.000000,4.000000,4.000000,4.000000,4.000000,4.000000,4.000000,4.000000,4.000000,4.000000,4.000000,4.000000,4.000000,100.000000
1602006699.535605,97.000000,0.000000,4138.461426,4126.666504,4141.538574,4126.153809,4123.077148,4142.563965,4137.948730,4118.461426,4142.563965,4150.256348,4139.487305,4152.307617,4133.333496,4119.487305,728.000000,4.000000,,,,0.000000,4.000000,4.000000,4.000000,4.000000,4.000000,4.000000,4.000000,4.000000,4.000000,4.000000,4.000000,4.000000,4.000000,4.000000,100.000000
1602006699.543386,98.000000,0.000000,4126.153809,4124.615234,4132.820313,4122.051270,4121.025879,4132.820313,4134.871582,4109.230957,4127.179688,4124.102539,4127.179688,4138.461426,4113.333496,4122.051270,875.000000,4.000000,,,,0.000000,4.000000,4.000000,4.000000,4.000000,4.000000,4.000000,4.000000,4.000000,4.000000,4.000000,4.000000,4.000000,4.000000,4.000000,100.000000
1602006699.551266,99.000000,0.000000,4119.487305,4121.025879,4123.589844,4120.000000,4121.538574,4115.384766,4123.077148,4104.102539,4116.922852,4105.641113,4103.077148,4132.307617,4101.025879,4116.410156,840.000000,4.000000,,,,0.000000,4.000000,4.000000,4.000000,4.000000,4.000000,4.000000,4.000000,4.000000,4.000000,4.000000,4.000000,4.000000,4.000000,4.000000,100.000000
1602006699.559147,100.000000,0.000000,4121.025879,4121.025879,4124.102539,4123.077148,4124.102539,4117.436035,4122.563965,4113.333496,4117.436035,4099.487305,4114.358887,4135.384766,4102.051270,4104.615234,767.000000,4.000000,,,,0.000000,4.000000,4.000000,4.000000,4.000000,4.000000,4.000000,4.000000,4.000000,4.000000,4.000000,4.000000,4.000000,4.000000,4.000000,100.000000
1602006699.567028,101.000000,0.000000,4118.974121,4125.641113,4118.974121,4124.102539,4135.384766,4129.230957,4130.769043,4126.666504,4123.589844,4112.307617,4125.641113,4137.436035,4108.717773,4107.692383,728.000000,4.000000,,,,0.000000,4.000000,4.000000,4.000000,4.000000,4.000000,4.000000,4.000000,4.000000,4.000000,4.000000,4.000000,4.000000,4.000000,4.000000,100.000000
1602006699.574908,102.000000,0.000000,4118.974121,4133.846191,4109.743652,4123.589844,4142.051270,4132.307617,4129.230957,4134.871582,4124.102539,4126.666504,4121.025879,4137.436035,4112.820313,4120.000000,875.000000,4.000000,,,,0.000000,4.000000,4.000000,4.000000,4.000000,4.000000,4.000000,4.000000,4.000000,4.000000,4.000000,4.000000,4.000000,4.000000,4.000000,100.000000
1602006699.582889,103.000000,0.000000,4122.563965,4137.948730,4115.384766,4123.589844,4132.820313,4127.179688,4124.102539,4139.487305,4128.717773,4125.128418,4124.102539,4140.000000,4114.358887,4122.563965,840.000000,4.000000,,,,0.000000,4.000000,4.000000,4.000000,4.000000,4.000000,4.000000,4.000000,4.000000,4.000000,4.000000,4.000000,4.000000,4.000000,4.000000,100.000000
1602006699.590770,104.000000,0.000000,4127.692383,4135.384766,4129.230957,4123.077148,4121.538574,4119.487305,4121.025879,4137.436035,4142.563965,4118.974121,4126.666504,4146.153809,4115.897461,4117.948730,767.000000,4.000000,,,,0.000000,4.000000,4.000000,4.000000,4.000000,4.000000,4.000000,4.000000,4.000000,4.000000,4.000000,4.000000,4.000000,4.000000,4.000000,100.000000
1602006699.598651,105.000000,0.000000,4136.922852,4141.025879,4138.461426,4127.179688,4122.563965,4124.615234,4121.025879,4131.794922,4151.794922,4129.230957,4129.230957,4153.846191,4128.205078,4124.615234,728.000000,4.000000,,,,0.000000,4.000000,4.000000,4.000000,4.000000,4.000000,4.000000,4.000000,4.000000,4.000000,4.000000,4.000000,4.000000,4.000000,4.000000,100.000000
1602006699.606532,106.000000,0.000000,4151.794922,4150.769043,4148.205078,4138.461426,4130.769043,4137.436035,4124.102539,4129.743652,4155.897461,4143.077148,4141.538574,4158.461426,4147.692383,4142.051270,875.000000,4.000000,,,,0.000000,4.000000,4.000000,4.000000,4.000000,4.000000,4.000000,4.000000,4.000000,4.000000,4.000000,4.000000,4.000000,4.000000,4.000000,100.000000
1602006699.614413,107.000000,0.000000,4158.974121,4145.128418,4150.769043,4142.051270,4129.743652,4130.769043,4124.615234,4125.641113,4157.948730,4139.487305,4146.666504,4154.871582,4148.205078,4145.641113,840.000000,4.000000,,,,0.000000,4.000000,4.000000,4.000000,4.000000,4.000000,4.000000,4.000000,4.000000,4.000000,4.000000,4.000000,4.000000,4.000000,4.000000,100.000000
1602006699.622294,108.000000,0.000000,4148.205078,4134.871582,4141.025879,4132.820313,4119.487305,4116.410156,4121.025879,4120.000000,4151.794922,4136.410156,4131.794922,4140.000000,4134.871582,4130.769043,767.000000,4.000000,,,,0.000000,4.000000,4.000000,4.000000,4.000000,4.000000,4.000000,4.000000,4.000000,4.000000,4.000000,4.000000,4.000000,4.000000,4.000000,100.000000
1602006699.630075,109.000000,0.000000,4133.846191,4135.384766,4134.358887,4125.641113,4121.538574,4116.922852,4120.000000,4117.948730,4143.589844,4150.256348,4123.077148,4131.282227,4133.333496,4115.897461,728.000000,4.000000,,,,0.000000,4.000000,4.000000,4.000000,4.000000,4.000000,4.000000,4.000000,4.000000,4.000000,4.000000,4.000000,4.000000,4.000000,4.000000,100.000000
1602006699.637956,110.000000,0.000000,4138.974121,4138.461426,4134.871582,4126.153809,4135.897461,4124.615234,4122.563965,4125.128418,4147.179688,4159.487305,4131.794922,4134.871582,4137.948730,4113.846191,875.000000,4.000000,,,,0.000000,4.000000,4.000000,4.000000,4.000000,4.000000,4.000000,4.000000,4.000000,4.000000,4.000000,4.000000,4.000000,4.000000,4.000000,100.000000
1602006699.645837,111.000000,0.000000,4153.846191,4138.974121,4134.871582,4127.179688,4140.512695,4127.179688,4124.615234,4135.384766,4154.871582,4150.769043,4142.563965,4134.871582,4137.948730,4129.230957,840.000000,4.000000,,,,0.000000,4.000000,4.000000,4.000000,4.000000,4.000000,4.000000,4.000000,4.000000,4.000000,4.000000,4.000000,4.000000,4.000000,4.000000,100.000000
1602006699.653719,112.000000,0.000000,4150.769043,4140.000000,4134.358887,4131.794922,4133.333496,4119.487305,4121.538574,4137.436035,4153.333496,4138.461426,4143.589844,4133.846191,4138.974121,4146.153809,767.000000,4.000000,,,,0.000000,4.000000,4.000000,4.000000,4.000000,4.000000,4.000000,4.000000,4.000000,4.000000,4.000000,4.000000,4.000000,4.000000,4.000000,100.000000
1602006699.661600,113.000000,0.000000,4140.512695,4137.948730,4133.846191,4133.846191,4126.666504,4106.666504,4118.974121,4132.820313,4136.922852,4125.641113,4132.820313,4138.974121,4141.025879,4142.051270,728.000000,4.000000,,,,0.000000,4.000000,4.000000,4.000000,4.000000,4.000000,4.000000,4.000000,4.000000,4.000000,4.000000,4.000000,4.000000,4.000000,4.000000,100.000000
1602006699.669481,114.000000,0.000000,4139.487305,4135.897461,4137.948730,4129.743652,4120.000000,4103.077148,4118.974121,4125.641113,4114.358887,4121.025879,4122.563965,4138.974121,4139.487305,4127.179688,875.000000,4.000000,,,,0.000000,4.000000,4.000000,4.000000,4.000000,4.000000,4.000000,4.000000,4.000000,4.000000,4.000000,4.000000,4.000000,4.000000,4.000000,100.000000
1602006699.677362,115.000000,0.000000,4140.000000,4137.436035,4148.205078,4128.205078,4112.307617,4111.282227,4120.000000,4117.948730,4104.102539,4121.025879,4122.051270,4142.051270,4136.410156,4129.230957,840.000000,4.000000,,,,0.000000,4.000000,4.000000,4.000000,4.000000,4.000000,4.000000,4.000000,4.000000,4.000000,4.000000,4.000000,4.000000,4.000000,4.000000,100.000000
1602006699.685243,116.000000,0.000000,4145.641113,4138.974121,4154.871582,4132.307617,4110.769043,4119.487305,4120.512695,4115.384766,4111.282227,4116.922852,4133.846191,4152.820313,4133.333496,4146.153809,767.000000,4.000000,,,,0.000000,4.000000,4.000000,4.000000,4.000000,4.000000,4.000000,4.000000,4.000000,4.000000,4.000000,4.000000,4.000000,4.000000,4.000000,100.000000
1602006699.693124,117.000000,0.000000,4155.897461,4137.948730,4154.358887,4129.230957,4111.794922,4124.615234,4122.563965,4122.051270,4121.538574,4123.589844,4141.538574,4155.384766,4138.974121,4157.436035,728.000000,4.000000,,,,0.000000,4.000000,4.000000,4.000000,4.000000,4.000000,4.000000,4.000000,4.000000,4.000000,4.000000,4.000000,4.000000,4.000000,4.000000,100.000000
1602006699.701105,118.000000,0.000000,4154.871582,4134.871582,4153.333496,4123.589844,4114.358887,4125.641113,4129.743652,4132.307617,4136.410156,4143.077148,4140.000000,4154.871582,4148.205078,4155.384766,875.000000,4.000000,,,,0.000000,4.000000,4.000000,4.000000,4.000000,4.000000,4.000000,4.000000,4.000000,4.000000,4.000000,4.000000,4.000000,4.000000,4.000000,100.000000
1602006699.708986,119.000000,0.000000,4148.205078,4136.922852,4155.384766,4130.769043,4124.615234,4122.051270,4136.922852,4136.410156,4152.307617,4146.666504,4147.692383,4164.615234,4156.410156,4152.820313,840.000000,4.000000,,,,0.000000,4.000000,4.000000,4.000000,4.000000,4.000000,4.000000,4.000000,4.000000,4.000000,4.000000,4.000000,4.000000,4.000000,4.000000,100.000000
1602006699.716867,120.000000,0.000000,4143.589844,4141.538574,4155.384766,4135.384766,4137.948730,4126.153809,4132.307617,4135.384766,4152.820313,4133.846191,4146.153809,4165.641113,4160.512695,4152.307617,767.000000,4.000000,,,,0.000000,4.000000,4.000000,4.000000,4.000000,4.000000,4.000000,4.000000,4.000000,4.000000,4.000000,4.000000,4.000000,4.000000,4.000000,100.000000
1602006699.724748,121.000000,0.000000,4131.282227,4134.358887,4143.589844,4126.153809,4138.461426,4132.307617,4123.077148,4134.358887,4145.128418,4142.563965,4127.179688,4150.769043,4149.230957,4145.641113,728.000000,4.000000,,,,0.000000,4.000000,4.000000,4.000000,4.000000,4.000000,4.000000,4.000000,4.000000,4.000000,4.000000,4.000000,4.000000,4.000000,4.000000,100.000000
1602006699.732629,122.000000,0.000000,4116.922852,4121.025879,4125.641113,4117.436035,4135.384766,4123.077148,4123.589844,4135.384766,4138.974121,4158.974121,4125.128418,4139.487305,4134.871582,4136.922852,875.000000,4.000000,,,,0.000000,4.000000,4.000000,4.000000,4.000000,4.000000,4.000000,4.000000,4.000000,4.000000,4.000000,4.000000,4.000000,4.000000,4.000000,100.000000
1602006699.740510,123.000000,0.000000,4124.102539,4121.538574,4123.077148,4123.077148,4137.436035,4116.922852,4127.179688,4136.410156,4137.436035,4144.102539,4138.974121,4136.410156,4135.384766,4136.922852,840.000000,4.000000,,,,0.000000,4.000000,4.000000,4.000000,4.000000,4.000000,4.000000,4.000000,4.000000,4.000000,4.000000,4.000000,4.000000,4.000000,4.000000,100.000000
1602006699.748391,124.000000,0.000000,4137.436035,4133.846191,4134.358887,4127.692383,4132.307617,4134.871582,4125.641113,4136.410156,4141.025879,4125.641113,4141.025879,4140.512695,4139.487305,4149.230957,767.000000,4.000000,,,,0.000000,4.000000,4.000000,4.000000,4.000000,4.000000,4.000000,4.000000,4.000000,4.000000,4.000000,4.000000,4.000000,4.000000,4.000000,100.000000
1602006699.756172,125.000000,0.000000,4133.333496,4135.384766,4137.436035,4123.077148,4124.102539,4143.077148,4128.717773,4137.948730,4142.051270,4131.282227,4138.461426,4149.230957,4140.000000,4155.384766,728.000000,4.000000,,,,0.000000,4.000000,4.000000,4.000000,4.000000,4.000000,4.000000,4.000000,4.000000,4.000000,4.000000,4.000000,4.000000,4.000000,4.000000,100.000000
1602006699.764053,126.000000,0.000000,4128.205078,4126.666504,4135.384766,4122.563965,4117.436035,4127.179688,4135.897461,4138.974121,4140.000000,4140.512695,4134.358887,4153.846191,4142.563965,4144.102539,875.000000,4.000000,,,,0.000000,4.000000,4.000000,4.000000,4.000000,4.000000,4.000000,4.000000,4.000000,4.000000,4.000000,4.000000,4.000000,4.000000,4.000000,100.000000
1602006699.771934,127.000000,0.000000,4137.948730,4126.666504,4136.922852,4126.153809,4113.333496,4120.512695,4139.487305,4139.487305,4134.871582,4138.461426,4123.589844,4153.846191,4137.436035,4132.820313,840.000000,4.000000,,,,0.000000,4.000000,4.000000,4.000000,4.000000,4.000000,4.000000,4.000000,4.000000,4.000000,4.000000,4.000000,4.000000,4.000000,4.000000,100.000000
1602006699.779815,128.000000,0.000000,4141.538574,4131.794922,4139.487305,4127.179688,4116.922852,4123.077148,4136.922852,4140.512695,4130.256348,4139.487305,4127.179688,4152.820313,4127.692383,4134.871582,767.000000,4.000000,,,,0.000000,4.000000,4.000000,4.000000,4.000000,4.000000,4.000000,4.000000,4.000000,4.000000,4.000000,4.000000,4.000000,4.000000,4.000000,100.000000
1602006699.787697,0.000000,0.000000,4135.384766,4134.871582,4144.615234,4129.230957,4123.589844,4116.410156,4127.692383,4136.410156,4129.230957,4138.974121,4135.384766,4150.769043,4134.871582,4144.102539,789.000000,4.000000,,,,0.000000,4.000000,4.000000,4.000000,4.000000,4.000000,4.000000,4.000000,4.000000,4.000000,4.000000,4.000000,4.000000,4.000000,4.000000,100.000000
1602006699.795578,1.000000,0.000000,4144.102539,4144.102539,4155.384766,4136.922852,4128.205078,4115.384766,4116.922852,4125.128418,4126.153809,4130.256348,4134.358887,4149.230957,4142.563965,4155.897461,786.000000,4.000000,,,,0.000000,4.000000,4.000000,4.000000,4.000000,4.000000,4.000000,4.000000,4.000000,4.000000,4.000000,4.000000,4.000000,4.000000,4.000000,100.000000
1602006699.803459,2.000000,0.000000,4156.922852,4151.794922,4162.563965,4143.077148,4135.384766,4122.051270,4108.717773,4120.000000,4115.897461,4125.128418,4140.000000,4152.307617,4132.820313,4157.436035,843.000000,4.000000,,,,0.000000,4.000000,4.000000,4.000000,4.000000,4.000000,4.000000,4.000000,4.000000,4.000000,4.000000,4.000000,4.000000,4.000000,4.000000,100.000000
1602006699.811340,3.000000,0.000000,4148.205078,4143.589844,4154.358887,4136.410156,4137.948730,4121.025879,4103.589844,4115.384766,4106.153809,4113.333496,4134.358887,4149.230957,4122.051270,4136.410156,868.000000,4.000000,,,,0.000000,4.000000,4.000000,4.000000,4.000000,4.000000,4.000000,4.000000,4.000000,4.000000,4.000000,4.000000,4.000000,4.000000,4.000000,100.000000
1602006699.819221,4.000000,0.000000,4131.794922,4133.333496,4142.051270,4124.102539,4136.922852,4121.538574,4106.666504,4107.692383,4101.025879,4105.128418,4111.282227,4141.025879,4117.948730,4120.512695,812.000000,4.000000,,,,0.000000,4.000000,4.000000,4.000000,4.000000,4.000000,4.000000,4.000000,4.000000,4.000000,4.000000,4.000000,4.000000,4.000000,4.000000,100.000000
1602006699.827202,5.000000,0.000000,4124.102539,4128.717773,4134.871582,4120.512695,4135.384766,4131.794922,4120.000000,4113.333496,4105.641113,4116.410156,4103.077148,4135.897461,4109.230957,4116.410156,818.000000,4.000000,,,,0.000000,4.000000,4.000000,4.000000,4.000000,4.000000,4.000000,4.000000,4.000000,4.000000,4.000000,4.000000,4.000000,4.000000,4.000000,100.000000
1602006699.835083,6.000000,0.000000,4121.538574,4122.563965,4125.128418,4123.589844,4126.666504,4137.948730,4126.666504,4131.794922,4117.948730,4126.153809,4107.692383,4128.205078,4103.077148,4108.205078,781.000000,4.000000,,,,0.000000,4.000000,4.000000,4.000000,4.000000,4.000000,4.000000,4.000000,4.000000,4.000000,4.000000,4.000000,4.000000,4.000000,4.000000,100.000000
1602006699.842964,7.000000,0.000000,4124.102539,4125.128418,4121.538574,4124.102539,4124.615234,4137.948730,4131.282227,4147.179688,4134.358887,4129.743652,4118.974121,4124.102539,4114.358887,4111.282227,664.000000,4.000000,,,,0.000000,4.000000,4.000000,4.000000,4.000000,4.000000,4.000000,4.000000,4.000000,4.000000,4.000000,4.000000,4.000000,4.000000,4.000000,100.000000
1602006699.850845,8.000000,0.000000,4134.871582,4135.897461,4138.461426,4126.153809,4136.922852,4133.846191,4137.948730,4158.461426,4149.743652,4143.077148,4141.538574,4135.897461,4133.846191,4129.743652,782.000000,4.000000,,,,0.000000,4.000000,4.000000,4.000000,4.000000,4.000000,4.000000,4.000000,4.000000,4.000000,4.000000,4.000000,4.000000,4.000000,4.000000,100.000000
1602006699.858726,9.000000,0.000000,4143.077148,4147.692383,4157.436035,4135.897461,4139.487305,4129.743652,4134.358887,4158.974121,4151.282227,4158.974121,4148.205078,4150.769043,4143.589844,4140.512695,855.000000,4.000000,,,,0.000000,4.000000,4.000000,4.000000,4.000000,4.000000,4.000000,4.000000,4.000000,4.000000,4.000000,4.000000,4.000000,4.000000,4.000000,100.000000
1602006699.866607,10.000000,0.000000,4139.487305,4151.282227,4157.436035,4140.512695,4133.333496,4125.641113,4123.077148,4144.102539,4131.282227,4155.897461,4135.897461,4147.692383,4143.077148,4142.051270,875.000000,4.000000,,,,0.000000,4.000000,4.000000,4.000000,4.000000,4.000000,4.000000,4.000000,4.000000,4.000000,4.000000,4.000000,4.000000,4.000000,4.000000,100.000000
1602006699.874488,11.000000,0.000000,4136.922852,4143.589844,4152.307617,4136.922852,4135.384766,4120.000000,4118.461426,4136.410156,4108.717773,4140.000000,4134.358887,4141.538574,4137.436035,4141.538574,840.000000,4.000000,,,,0.000000,4.000000,4.000000,4.000000,4.000000,4.000000,4.000000,4.000000,4.000000,4.000000,4.000000,4.000000,4.000000,4.000000,4.000000,100.000000
1602006699.882369,12.000000,0.000000,4142.563965,4142.563965,4156.410156,4138.974121,4136.922852,4118.974121,4120.512695,4134.871582,4109.230957,4135.897461,4142.051270,4149.743652,4134.358887,4140.000000,767.000000,4.000000,,,,0.000000,4.000000,4.000000,4.000000,4.000000,4.000000,4.000000,4.000000,4.000000,4.000000,4.000000,4.000000,4.000000,4.000000,4.000000,100.000000
1602006699.890150,13.000000,0.000000,4147.179688,4150.256348,4155.384766,4139.487305,4135.384766,4121.538574,4120.000000,4126.666504,4118.461426,4137.948730,4143.589844,4153.846191,4142.563965,4141.025879,728.000000,4.000000,,,,0.000000,4.000000,4.000000,4.000000,4.000000,4.000000,4.000000,4.000000,4.000000,4.000000,4.000000,4.000000,4.000000,4.000000,4.000000,100.000000
1602006699.898031,14.000000,0.000000,4137.948730,4144.102539,4141.025879,4127.692383,4137.436035,4124.102539,4118.974121,4118.974121,4118.974121,4125.128418,4135.384766,4142.051270,4142.563965,4137.436035,875.000000,4.000000,,,,0.000000,4.000000,4.000000,4.000000,4.000000,4.000000,4.000000,4.000000,4.000000,4.000000,4.000000,4.000000,4.000000,4.000000,4.000000,100.000000
1602006699.905911,15.000000,0.000000,4131.794922,4133.846191,4132.307617,4118.974121,4134.358887,4131.282227,4118.461426,4121.025879,4122.051270,4118.974121,4129.230957,4133.846191,4134.358887,4130.256348,840.000000,4.000000,,,,0.000000,4.000000,4.000000,4.000000,4.000000,4.000000,4.000000,4.000000,4.000000,4.000000,4.000000,4.000000,4.000000,4.000000,4.000000,100.000000
1602006699.913792,16.000000,0.000000,4138.461426,4140.000000,4139.487305,4126.666504,4131.282227,4139.487305,4120.000000,4130.256348,4132.820313,4146.153809,4138.461426,4135.384766,4144.615234,4137.436035,0.000000,4.000000,,,,0.000000,4.000000,4.000000,4.000000,4.000000,4.000000,4.000000,4.000000,4.000000,4.000000,4.000000,4.000000,4.000000,4.000000,4.000000,100.000000
1602006699.921673,17.000000,0.000000,4132.820313,4142.563965,4140.000000,4130.769043,4136.410156,4138.974121,4122.051270,4137.948730,4141.025879,4169.230957,4141.538574,4128.205078,4155.384766,4137.948730,0.000000,4.000000,,,,0.000000,4.000000,4.000000,4.000000,4.000000,4.000000,4.000000,4.000000,4.000000,4.000000,4.000000,4.000000,4.000000,4.000000,4.000000,100.000000
1602006699.929554,18.000000,0.000000,4114.871582,4137.948730,4125.128418,4123.589844,4140.000000,4139.487305,4123.589844,4139.487305,4147.179688,4151.794922,4125.128418,4115.897461,4142.051270,4113.846191,0.000000,4.000000,,,,0.000000,4.000000,4.000000,4.000000,4.000000,4.000000,4.000000,4.000000,4.000000,4.000000,4.000000,4.000000,4.000000,4.000000,4.000000,100.000000
1602006699.937535,19.000000,0.000000,4108.205078,4133.333496,4112.307617,4120.512695,4136.922852,4141.025879,4128.717773,4141.025879,4156.410156,4143.077148,4124.615234,4111.282227,4132.820313,4101.025879,0.000000,4.000000,,,,0.000000,4.000000,4.000000,4.000000,4.000000,4.000000,4.000000,4.000000,4.000000,4.000000,4.000000,4.000000,4.000000,4.000000,4.000000,100.000000
1602006699.945416,20.000000,0.000000,4114.871582,4127.179688,4108.205078,4123.077148,4130.769043,4131.282227,4136.410156,4148.205078,4156.410156,4161.538574,4142.563965,4105.641113,4134.871582,4109.743652,0.000000,4.000000,,,,0.000000,4.000000,4.000000,4.000000,4.000000,4.000000,4.000000,4.000000,4.000000,4.000000,4.000000,4.000000,4.000000,4.000000,4.000000,100.000000
1602006699.953297,21.000000,0.000000,4118.461426,4128.205078,4108.717773,4122.563965,4128.205078,4122.563965,4137.948730,4147.692383,4143.077148,4148.205078,4139.487305,4099.487305,4126.666504,4111.282227,0.000000,4.000000,,,,0.000000,4.000000,4.000000,4.000000,4.000000,4.000000,4.000000,4.000000,4.000000,4.000000,4.000000,4.000000,4.000000,4.000000,4.000000,100.000000
1602006699.961178,22.000000,0.000000,4120.000000,4137.436035,4115.897461,4126.666504,4130.769043,4118.974121,4126.153809,4133.333496,4119.487305,4115.897461,4120.000000,4105.128418,4118.974121,4104.615234,0.000000,4.000000,,,,0.000000,4.000000,4.000000,4.000000,4.000000,4.000000,4.000000,4.000000,4.000000,4.000000,4.000000,4.000000,4.000000,4.000000,4.000000,100.000000
1602006699.969059,23.000000,0.000000,4129.743652,4143.589844,4129.743652,4136.922852,4130.256348,4118.461426,4119.487305,4122.563965,4102.051270,4120.512695,4114.358887,4120.000000,4122.563965,4105.128418,0.000000,4.000000,,,,0.000000,4.000000,4.000000,4.000000,4.000000,4.000000,4.000000,4.000000,4.000000,4.000000,4.000000,4.000000,4.000000,4.000000,4.000000,100.000000
1602006699.976940,24.000000,0.000000,4143.077148,4144.615234,4142.051270,4140.512695,4127.179688,4128.717773,4126.153809,4123.077148,4103.589844,4134.358887,4124.102539,4123.589844,4124.102539,4112.820313,0.000000,4.000000,,,,0.000000,4.000000,4.000000,4.000000,4.000000,4.000000,4.000000,4.000000,4.000000,4.000000,4.000000,4.000000,4.000000,4.000000,4.000000,100.000000
1602006699.984921,25.000000,0.000000,4141.538574,4142.051270,4141.025879,4137.436035,4133.846191,4138.974121,4122.051270,4122.051270,4104.102539,4115.384766,4126.666504,4112.820313,4123.077148,4117.436035,0.000000,4.000000,,,,0.000000,4.000000,4.000000,4.000000,4.000000,4.000000,4.000000,4.000000,4.000000,4.000000,4.000000,4.000000,4.000000,4.000000,4.000000,100.000000
1602006699.992801,26.000000,0.000000,4128.717773,4140.512695,4131.282227,4135.384766,4141.538574,4140.512695,4108.205078,4112.820313,4103.589844,4101.538574,4122.051270,4107.179688,4122.051270,4113.846191,0.000000,4.000000,,,,0.000000,4.000000,4.000000,4.000000,4.000000,4.000000,4.000000,4.000000,4.000000,4.000000,4.000000,4.000000,4.000000,4.000000,4.000000,100.000000
1602006700.000682,27.000000,0.000000,4127.692383,4138.974121,4125.641113,4130.769043,4137.948730,4142.563965,4110.769043,4112.820313,4116.410156,4116.410156,4129.230957,4112.307617,4124.102539,4107.692383,0.000000,4.000000,,,,0.000000,4.000000,4.000000,4.000000,4.000000,4.000000,4.000000,4.000000,4.000000,4.000000,4.000000,4.000000,4.000000,4.000000,4.000000,100.000000
1602006700.008563,28.000000,0.000000,4125.641113,4130.256348,4120.512695,4123.589844,4129.230957,4139.487305,4120.000000,4118.461426,4116.410156,4124.615234,4128.205078,4106.666504,4124.102539,4105.128418,0.000000,4.000000,,,,0.000000,4.000000,4.000000,4.000000,4.000000,4.000000,4.000000,4.000000,4.000000,4.000000,4.000000,4.000000,4.000000,4.000000,4.000000,100.000000
1602006700.016444,29.000000,0.000000,4113.846191,4120.000000,4110.769043,4117.948730,4122.563965,4131.794922,4120.512695,4118.974121,4098.461426,4117.948730,4104.615234,4095.897461,4115.384766,4105.641113,0.000000,4.000000,,,,0.000000,4.000000,4.000000,4.000000,4.000000,4.000000,4.000000,4.000000,4.000000,4.000000,4.000000,4.000000,4.000000,4.000000,4.000000,100.000000
1602006700.024325,30.000000,0.000000,4112.820313,4120.512695,4109.743652,4118.461426,4122.051270,4133.846191,4128.205078,4128.717773,4105.641113,4129.743652,4101.538574,4102.563965,4115.897461,4106.153809,0.000000,4.000000,,,,0.000000,4.000000,4.000000,4.000000,4.000000,4.000000,4.000000,4.000000,4.000000,4.000000,4.000000,4.000000,4.000000,4.000000,4.000000,100.000000
1602006700.032206,31.000000,0.000000,4120.512695,4129.743652,4117.948730,4123.589844,4125.641113,4133.846191,4138.974121,4147.692383,4129.230957,4156.410156,4130.256348,4119.487305,4132.307617,4107.692383,0.000000,4.000000,,,,0.000000,4.000000,4.000000,4.000000,4.000000,4.000000,4.000000,4.000000,4.000000,4.000000,4.000000,4.000000,4.000000,4.000000,4.000000,100.000000
1602006700.040087,32.000000,0.000000,4121.025879,4136.410156,4128.205078,4124.615234,4127.692383,4121.538574,4136.410156,4154.871582,4127.692383,4148.205078,4144.102539,4128.205078,4140.000000,4124.102539,0.000000,4.000000,,,,0.000000,4.000000,4.000000,4.000000,4.000000,4.000000,4.000000,4.000000,4.000000,4.000000,4.000000,4.000000,4.000000,4.000000,4.000000,100.000000
1602006700.047968,33.000000,0.000000,4120.512695,4136.410156,4135.897461,4123.077148,4132.820313,4119.487305,4133.846191,4151.794922,4120.512695,4126.153809,4138.974121,4132.820313,4136.410156,4136.922852,0.000000,4.000000,,,,0.000000,4.000000,4.000000,4.000000,4.000000,4.000000,4.000000,4.000000,4.000000,4.000000,4.000000,4.000000,4.000000,4.000000,4.000000,100.000000
1602006700.055849,34.000000,0.000000,4127.179688,4138.974121,4142.051270,4132.820313,4138.461426,4135.384766,4140.512695,4153.333496,4133.333496,4142.563965,4142.051270,4139.487305,4142.563965,4130.256348,0.000000,4.000000,,,,0.000000,4.000000,4.000000,4.000000,4.000000,4.000000,4.000000,4.000000,4.000000,4.000000,4.000000,4.000000,4.000000,4.000000,4.000000,100.000000
1602006700.063730,35.000000,0.000000,4130.256348,4144.615234,4142.563965,4140.000000,4143.077148,4150.769043,4143.077148,4151.282227,4141.025879,4162.563965,4146.153809,4142.563965,4147.179688,4132.307617,0.000000,4.000000,,,,0.000000,4.000000,4.000000,4.000000,4.000000,4.000000,4.000000,4.000000,4.000000,4.000000,4.000000,4.000000,4.000000,4.000000,4.000000,100.000000
1602006700.071611,36.000000,0.000000,4123.589844,4142.051270,4133.333496,4128.205078,4143.077148,4155.384766,4137.948730,4136.410156,4125.128418,4151.794922,4142.051270,4140.000000,4141.025879,4140.512695,0.000000,4.000000,,,,0.000000,4.000000,4.000000,4.000000,4.000000,4.000000,4.000000,4.000000,4.000000,4.000000,4.000000,4.000000,4.000000,4.000000,4.000000,100.000000
1602006700.079492,37.000000,0.000000,4118.974121,4136.410156,4121.538574,4119.487305,4138.461426,4155.384766,4136.410156,4123.589844,4110.769043,4138.461426,4132.820313,4132.307617,4136.410156,4126.666504,0.000000,4.000000,,,,0.000000,4.000000,4.000000,4.000000,4.000000,4.000000,4.000000,4.000000,4.000000,4.000000,4.000000,4.000000,4.000000,4.000000,4.000000,100.000000
1602006700.087373,38.000000,0.000000,4121.025879,4136.922852,4122.051270,4126.153809,4137.436035,4158.461426,4134.871582,4123.077148,4113.846191,4127.179688,4122.051270,4122.563965,4133.333496,4106.666504,0.000000,4.000000,,,,0.000000,4.000000,4.000000,4.000000,4.000000,4.000000,4.000000,4.000000,4.000000,4.000000,4.000000,4.000000,4.000000,4.000000,4.000000,100.000000
1602006700.095354,39.000000,0.000000,4116.922852,4135.897461,4128.717773,4129.230957,4139.487305,4152.307617,4126.153809,4125.641113,4111.794922,4113.333496,4121.025879,4112.307617,4121.538574,4094.871826,0.000000,4.000000,,,,0.000000,4.000000,4.000000,4.000000,4.000000,4.000000,4.000000,4.000000,4.000000,4.000000,4.000000,4.000000,4.000000,4.000000,4.000000,100.000000
1602006700.103235,40.000000,0.000000,4103.589844,4132.820313,4124.102539,4121.538574,4134.358887,4139.487305,4118.974121,4127.179688,4102.051270,4112.820313,4122.563965,4103.077148,4114.358887,4085.128174,0.000000,4.000000,,,,0.000000,4.000000,4.000000,4.000000,4.000000,4.000000,4.000000,4.000000,4.000000,4.000000,4.000000,4.000000,4.000000,4.000000,4.000000,100.000000
1602006700.111116,41.000000,0.000000,4111.794922,4137.436035,4122.563965,4121.538574,4132.307617,4135.897461,4124.102539,4134.871582,4113.846191,4129.743652,4119.487305,4105.641113,4129.743652,4101.025879,0.000000,4.000000,,,,0.000000,4.000000,4.000000,4.000000,4.000000,4.000000,4.000000,4.000000,4.000000,4.000000,4.000000,4.000000,4.000000,4.000000,4.000000,100.000000
1602006700.118997,42.000000,0.000000,4131.282227,4142.051270,4131.794922,4132.307617,4137.948730,4130.769043,4132.820313,4145.641113,4140.000000,4151.282227,4127.692383,4116.410156,4142.051270,4122.563965,0.000000,4.000000,,,,0.000000,4.000000,4.000000,4.000000,4.000000,4.000000,4.000000,4.000000,4.000000,4.000000,4.000000,4.000000,4.000000,4.000000,4.000000,100.000000
1602006700.126878,43.000000,0.000000,4130.769043,4142.563965,4140.000000,4139.487305,4141.538574,4121.538574,4134.871582,4157.436035,4147.692383,4157.948730,4144.102539,4126.153809,4134.358887,4118.974121,0.000000,4.000000,,,,0.000000,4.000000,4.000000,4.000000,4.000000,4.000000,4.000000,4.000000,4.000000,4.000000,4.000000,4.000000,4.000000,4.000000,4.000000,100.000000
1602006700.134759,44.000000,0.000000,4132.820313,4152.820313,4149.230957,4140.512695,4142.563965,4120.512695,4135.384766,4166.666504,4138.974121,4161.025879,4152.820313,4137.436035,4142.051270,4132.307617,0.000000,4.000000,,,,0.000000,4.000000,4.000000,4.000000,4.000000,4.000000,4.000000,4.000000,4.000000,4.000000,4.000000,4.000000,4.000000,4.000000,4.000000,100.000000
1602006700.142641,45.000000,0.000000,4140.000000,4157.948730,4153.846191,4140.000000,4141.538574,4124.615234,4133.846191,4161.538574,4137.948730,4161.538574,4151.282227,4142.563965,4164.615234,4156.922852,0.000000,4.000000,,,,0.000000,4.000000,4.000000,4.000000,4.000000,4.000000,4.000000,4.000000,4.000000,4.000000,4.000000,4.000000,4.000000,4.000000,4.000000,100.000000
1602006700.150522,46.000000,0.000000,4126.153809,4141.538574,4144.615234,4133.333496,4138.974121,4129.230957,4133.846191,4147.179688,4137.948730,4140.000000,4146.666504,4136.410156,4167.179688,4148.717773,0.000000,4.000000,,,,0.000000,4.000000,4.000000,4.000000,4.000000,4.000000,4.000000,4.000000,4.000000,4.000000,4.000000,4.000000,4.000000,4.000000,4.000000,100.000000
1602006700.158403,47.000000,0.000000,4105.641113,4120.512695,4135.897461,4122.051270,4138.461426,4138.461426,4134.358887,4136.410156,4121.025879,4126.153809,4148.205078,4134.358887,4163.589844,4131.282227,0.000000,4.000000,,,,0.000000,4.000000,4.000000,4.000000,4.000000,4.000000,4.000000,4.000000,4.000000,4.000000,4.000000,4.000000,4.000000,4.000000,4.000000,100.000000
1602006700.166384,48.000000,0.000000,4097.948730,4110.256348,4139.487305,4118.461426,4139.487305,4152.307617,4136.410156,4128.717773,4107.179688,4142.051270,4156.410156,4140.512695,4172.307617,4136.410156,0.000000,4.000000,,,,0.000000,4.000000,4.000000,4.000000,4.000000,4.000000,4.000000,4.000000,4.000000,4.000000,4.000000,4.000000,4.000000,4.000000,4.000000,100.000000
1602006700.174265,49.000000,0.000000,4089.743652,4105.128418,4136.410156,4118.974121,4139.487305,4160.000000,4140.000000,4125.641113,4111.794922,4149.230957,4150.256348,4148.205078,4172.820313,4138.974121,0.000000,4.000000,,,,0.000000,4.000000,4.000000,4.000000,4.000000,4.000000,4.000000,4.000000,4.000000,4.000000,4.000000,4.000000,4.000000,4.000000,4.000000,100.000000
1602006700.182146,50.000000,0.000000,4086.666748,4100.512695,4124.615234,4112.820313,4138.974121,4161.538574,4140.000000,4124.615234,4113.333496,4136.410156,4137.436035,4153.846191,4166.666504,4131.794922,0.000000,4.000000,,,,0.000000,4.000000,4.000000,4.000000,4.000000,4.000000,4.000000,4.000000,4.000000,4.000000,4.000000,4.000000,4.000000,4.000000,4.000000,100.000000
1602006700.190027,51.000000,0.000000,4091.281982,4097.436035,4124.615234,4106.666504,4134.871582,4156.922852,4135.384766,4124.102539,4105.128418,4125.641113,4136.410156,4151.282227,4170.256348,4136.922852,0.000000,4.000000,,,,0.000000,4.000000,4.000000,4.000000,4.000000,4.000000,4.000000,4.000000,4.000000,4.000000,4.000000,4.000000,4.000000,4.000000,4.000000,100.000000
1602006700.197907,52.000000,0.000000,4085.128174,4096.410156,4132.307617,4107.179688,4133.333496,4143.077148,4132.820313,4129.743652,4112.820313,4133.846191,4138.461426,4151.794922,4177.436035,4150.769043,0.000000,4.000000,,,,0.000000,4.000000,4.000000,4.000000,4.000000,4.000000,4.000000,4.000000,4.000000,4.000000,4.000000,4.000000,4.000000,4.000000,4.000000,100.000000
1602006700.205788,53.000000,0.000000,4095.384521,4111.794922,4143.077148,4119.487305,4140.000000,4134.871582,4138.974121,4148.717773,4149.230957,4160.512695,4157.948730,4174.871582,4193.846191,4168.205078,0.000000,4.000000,,,,0.000000,4.000000,4.000000,4.000000,4.000000,4.000000,4.000000,4.000000,4.000000,4.000000,4.000000,4.000000,4.000000,4.000000,4.000000,100.000000
1602006700.213569,54.000000,0.000000,4119.487305,4129.230957,4149.743652,4132.820313,4144.615234,4140.000000,4143.077148,4165.128418,4181.538574,4178.461426,4182.563965,4192.820313,4211.282227,4177.948730,0.000000,4.000000,,,,0.000000,4.000000,4.000000,4.000000,4.000000,4.000000,4.000000,4.000000,4.000000,4.000000,4.000000,4.000000,4.000000,4.000000,4.000000,100.000000
1602006700.221450,55.000000,0.000000,4118.974121,4127.692383,4146.666504,4130.769043,4141.538574,4134.358887,4138.461426,4162.563965,4184.102539,4181.025879,4175.384766,4182.051270,4209.743652,4170.769043,0.000000,4.000000,,,,0.000000,4.000000,4.000000,4.000000,4.000000,4.000000,4.000000,4.000000,4.000000,4.000000,4.000000,4.000000,4.000000,4.000000,4.000000,100.000000
1602006700.229430,56.000000,0.000000,4105.128418,4122.051270,4141.538574,4123.077148,4137.948730,4117.436035,4131.282227,4150.256348,4163.077148,4183.589844,4162.563965,4173.333496,4197.948730,4158.974121,0.000000,4.000000,,,,0.000000,4.000000,4.000000,4.000000,4.000000,4.000000,4.000000,4.000000,4.000000,4.000000,4.000000,4.000000,4.000000,4.000000,4.000000,100.000000
1602006700.237311,57.000000,0.000000,4106.153809,4119.487305,4142.563965,4125.128418,4137.436035,4123.589844,4135.384766,4142.051270,4139.487305,4173.846191,4175.897461,4181.025879,4198.461426,4155.384766,0.000000,4.000000,,,,0.000000,4.000000,4.000000,4.000000,4.000000,4.000000,4.000000,4.000000,4.000000,4.000000,4.000000,4.000000,4.000000,4.000000,4.000000,100.000000
1602006700.245292,58.000000,0.000000,4110.256348,4114.358887,4142.563965,4125.128418,4130.769043,4144.615234,4146.666504,4137.948730,4132.820313,4149.743652,4176.922852,4177.948730,4202.563965,4157.948730,0.000000,4.000000,,,,0.000000,4.000000,4.000000,4.000000,4.000000,4.000000,4.000000,4.000000,4.000000,4.000000,4.000000,4.000000,4.000000,4.000000,4.000000,100.000000
1602006700.253272,59.000000,0.000000,4103.077148,4105.128418,4136.922852,4115.897461,4122.051270,4150.256348,4147.692383,4134.871582,4133.846191,4135.897461,4149.743652,4161.025879,4187.179688,4149.230957,0.000000,4.000000,,,,0.000000,4.000000,4.000000,4.000000,4.000000,4.000000,4.000000,4.000000,4.000000,4.000000,4.000000,4.000000,4.000000,4.000000,4.000000,100.000000
1602006700.261153,60.000000,0.000000,4096.922852,4097.948730,4132.307617,4111.282227,4122.051270,4149.230957,4148.205078,4134.358887,4133.333496,4140.512695,4134.358887,4151.794922,4168.717773,4138.974121,0.000000,4.000000,,,,0.000000,4.000000,4.000000,4.000000,4.000000,4.000000,4.000000,4.000000,4.000000,4.000000,4.000000,4.000000,4.000000,4.000000,4.000000,100.000000
1602006700.269034,61.000000,0.000000,4091.794922,4093.333252,4125.128418,4109.230957,4125.128418,4147.179688,4151.282227,4135.897461,4140.512695,4157.436035,4144.102539,4151.794922,4165.128418,4134.871582,0.000000,4.000000,,,,0.000000,4.000000,4.000000,4.000000,4.000000,4.000000,4.000000,4.000000,4.000000,4.000000,4.000000,4.000000,4.000000,4.000000,4.000000,100.000000
1602006700.276915,62.000000,0.000000,4088.205078,4090.769287,4118.461426,4104.102539,4124.102539,4139.487305,4145.641113,4138.461426,4153.333496,4154.871582,4149.230957,4152.307617,4163.077148,4121.538574,0.000000,4.000000,,,,0.000000,4.000000,4.000000,4.000000,4.000000,4.000000,4.000000,4.000000,4.000000,4.000000,4.000000,4.000000,4.000000,4.000000,4.000000,100.000000
1602006700.284796,63.000000,0.000000,4089.230713,4097.436035,4124.102539,4108.717773,4123.077148,4135.384766,4135.897461,4141.025879,4157.436035,4140.000000,4141.538574,4152.820313,4164.102539,4107.179688,0.000000,4.000000,,,,0.000000,4.000000,4.000000,4.000000,4.000000,4.000000,4.000000,4.000000,4.000000,4.000000,4.000000,4.000000,4.000000,4.000000,4.000000,100.000000
1602006700.292677,64.000000,0.000000,4090.256348,4104.102539,4135.897461,4120.000000,4129.230957,4137.948730,4136.410156,4140.000000,4163.077148,4155.897461,4145.641113,4152.820313,4175.384766,4114.358887,789.000000,4.000000,,,,0.000000,4.000000,4.000000,4.000000,4.000000,4.000000,4.000000,4.000000,4.000000,4.000000,4.000000,4.000000,4.000000,4.000000,4.000000,100.000000
1602006700.300558,65.000000,0.000000,4095.897461,4108.205078,4140.512695,4124.102539,4136.410156,4135.384766,4135.384766,4140.000000,4169.230957,4164.615234,4159.487305,4157.436035,4182.563965,4127.179688,786.000000,4.000000,,,,0.000000,4.000000,4.000000,4.000000,4.000000,4.000000,4.000000,4.000000,4.000000,4.000000,4.000000,4.000000,4.000000,4.000000,4.000000,100.000000
1602006700.308439,66.000000,0.000000,4107.692383,4118.974121,4140.512695,4127.179688,4140.512695,4125.641113,4124.615234,4141.025879,4162.051270,4148.717773,4155.384766,4163.589844,4177.436035,4127.179688,848.000000,4.000000,,,,0.000000,4.000000,4.000000,4.000000,4.000000,4.000000,4.000000,4.000000,4.000000,4.000000,4.000000,4.000000,4.000000,4.000000,4.000000,100.000000
1602006700.316420,67.000000,0.000000,4108.717773,4126.153809,4141.538574,4128.205078,4135.897461,4118.461426,4119.487305,4135.384766,4151.282227,4141.025879,4138.461426,4155.897461,4166.666504,4120.512695,868.000000,4.000000,,,,0.000000,4.000000,4.000000,4.000000,4.000000,4.000000,4.000000,4.000000,4.000000,4.000000,4.000000,4.000000,4.000000,4.000000,4.000000,100.000000
1602006700.324301,68.000000,0.000000,4095.384521,4116.922852,4134.358887,4123.589844,4125.128418,4117.436035,4121.538574,4125.641113,4136.410156,4128.205078,4127.179688,4136.410156,4153.333496,4119.487305,812.000000,4.000000,,,,0.000000,4.000000,4.000000,4.000000,4.000000,4.000000,4.000000,4.000000,4.000000,4.000000,4.000000,4.000000,4.000000,4.000000,4.000000,100.000000
1602006700.332182,69.000000,0.000000,4090.769287,4107.179688,4122.051270,4118.974121,4126.153809,4122.051270,4128.717773,4126.666504,4120.000000,4121.025879,4125.641113,4130.769043,4147.692383,4122.051270,818.000000,4.000000,,,,0.000000,4.000000,4.000000,4.000000,4.000000,4.000000,4.000000,4.000000,4.000000,4.000000,4.000000,4.000000,4.000000,4.000000,4.000000,100.000000
1602006700.340063,70.000000,0.000000,4092.307617,4109.230957,4121.538574,4117.436035,4137.436035,4134.358887,4135.897461,4135.384766,4125.128418,4136.922852,4125.128418,4138.461426,4154.871582,4116.410156,773.000000,4.000000,,,,0.000000,4.000000,4.000000,4.000000,4.000000,4.000000,4.000000,4.000000,4.000000,4.000000,4.000000,4.000000,4.000000,4.000000,4.000000,100.000000
1602006700.347945,71.000000,0.000000,4084.615479,4107.179688,4123.077148,4110.256348,4139.487305,4144.615234,4136.922852,4137.948730,4141.538574,4138.461426,4125.128418,4143.589844,4156.922852,4104.615234,664.000000,4.000000,,,,0.000000,4.000000,4.000000,4.000000,4.000000,4.000000,4.000000,4.000000,4.000000,4.000000,4.000000,4.000000,4.000000,4.000000,4.000000,100.000000
1602006700.355826,72.000000,0.000000,4075.897461,4102.563965,4118.974121,4104.102539,4129.230957,4143.077148,4138.974121,4136.410156,4137.436035,4123.589844,4132.307617,4146.153809,4144.102539,4104.615234,782.000000,4.000000,,,,0.000000,4.000000,4.000000,4.000000,4.000000,4.000000,4.000000,4.000000,4.000000,4.000000,4.000000,4.000000,4.000000,4.000000,4.000000,100.000000
1602006700.363707,73.000000,0.000000,4083.076904,4103.589844,4125.128418,4110.256348,4126.666504,4137.948730,4141.025879,4136.410156,4134.358887,4132.820313,4142.563965,4151.794922,4144.102539,4118.461426,845.000000,4.000000,,,,0.000000,4.000000,4.000000,4.000000,4.000000,4.000000,4.000000,4.000000,4.000000,4.000000,4.000000,4.000000,4.000000,4.000000,4.000000,100.000000
1602006700.371588,74.000000,0.000000,4098.974121,4108.717773,4138.461426,4120.000000,4134.358887,4137.436035,4142.051270,4139.487305,4157.436035,4150.256348,4147.179688,4160.512695,4163.589844,4131.794922,875.000000,4.000000,,,,0.000000,4.000000,4.000000,4.000000,4.000000,4.000000,4.000000,4.000000,4.000000,4.000000,4.000000,4.000000,4.000000,4.000000,4.000000,100.000000
1602006700.379469,75.000000,0.000000,4106.153809,4112.820313,4139.487305,4122.563965,4139.487305,4136.922852,4147.179688,4142.563965,4174.871582,4152.307617,4148.717773,4168.717773,4174.871582,4139.487305,840.000000,4.000000,,,,0.000000,4.000000,4.000000,4.000000,4.000000,4.000000,4.000000,4.000000,4.000000,4.000000,4.000000,4.000000,4.000000,4.000000,4.000000,100.000000
1602006700.387450,76.000000,0.000000,4105.641113,4113.846191,4134.358887,4120.000000,4141.538574,4137.948730,4153.846191,4143.589844,4164.102539,4151.282227,4151.282227,4168.717773,4172.820313,4144.615234,767.000000,4.000000,,,,0.000000,4.000000,4.000000,4.000000,4.000000,4.000000,4.000000,4.000000,4.000000,4.000000,4.000000,4.000000,4.000000,4.000000,4.000000,100.000000
1602006700.395331,77.000000,0.000000,4105.641113,4113.333496,4136.922852,4119.487305,4141.025879,4140.000000,4148.717773,4143.589844,4148.205078,4145.128418,4151.282227,4165.641113,4166.666504,4145.641113,728.000000,4.000000,,,,0.000000,4.000000,4.000000,4.000000,4.000000,4.000000,4.000000,4.000000,4.000000,4.000000,4.000000,4.000000,4.000000,4.000000,4.000000,100.000000
1602006700.403212,78.000000,0.000000,4109.230957,4111.282227,4140.512695,4120.512695,4131.794922,4131.794922,4138.974121,4142.051270,4143.589844,4135.384766,4144.615234,4166.153809,4158.974121,4135.897461,875.000000,4.000000,,,,0.000000,4.000000,4.000000,4.000000,4.000000,4.000000,4.000000,4.000000,4.000000,4.000000,4.000000,4.000000,4.000000,4.000000,4.000000,100.000000
1602006700.411093,79.000000,0.000000,4109.743652,4108.205078,4141.025879,4121.538574,4123.589844,4125.128418,4137.436035,4142.563965,4146.153809,4143.077148,4135.897461,4168.205078,4160.000000,4126.666504,840.000000,4.000000,,,,0.000000,4.000000,4.000000,4.000000,4.000000,4.000000,4.000000,4.000000,4.000000,4.000000,4.000000,4.000000,4.000000,4.000000,4.000000,100.000000
1602006700.418974,80.000000,0.000000,4104.615234,4109.743652,4143.589844,4123.077148,4132.820313,4135.384766,4136.410156,4152.820313,4161.538574,4168.205078,4144.615234,4170.256348,4174.358887,4136.410156,767.000000,4.000000,,,,0.000000,4.000000,4.000000,4.000000,4.000000,4.000000,4.000000,4.000000,4.000000,4.000000,4.000000,4.000000,4.000000,4.000000,4.000000,100.000000
1602006700.426855,81.000000,0.000000,4094.358887,4105.641113,4142.051270,4117.436035,4140.000000,4137.948730,4127.179688,4154.871582,4171.282227,4163.589844,4158.461426,4164.615234,4175.897461,4140.000000,728.000000,4.000000,,,,0.000000,4.000000,4.000000,4.000000,4.000000,4.000000,4.000000,4.000000,4.000000,4.000000,4.000000,4.000000,4.000000,4.000000,4.000000,100.000000
1602006700.434736,82.000000,0.000000,4087.179443,4093.333252,4137.436035,4109.743652,4127.692383,4125.128418,4123.589844,4142.051270,4158.461426,4138.461426,4146.666504,4156.922852,4160.000000,4131.794922,875.000000,4.000000,,,,0.000000,4.000000,4.000000,4.000000,4.000000,4.000000,4.000000,4.000000,4.000000,4.000000,4.000000,4.000000,4.000000,4.000000,4.000000,100.000000
1602006700.442517,83.000000,0.000000,4092.820557,4093.333252,4137.436035,4112.307617,4120.000000,4122.051270,4135.384766,4136.922852,4144.615234,4144.102539,4141.025879,4161.025879,4154.358887,4133.333496,840.000000,4.000000,,,,0.000000,4.000000,4.000000,4.000000,4.000000,4.000000,4.000000,4.000000,4.000000,4.000000,4.000000,4.000000,4.000000,4.000000,4.000000,100.000000
1602006700.450398,84.000000,0.000000,4096.410156,4100.000000,4132.820313,4114.358887,4126.153809,4127.692383,4146.666504,4142.563965,4147.179688,4152.820313,4153.846191,4163.077148,4154.358887,4130.256348,767.000000,4.000000,,,,0.000000,4.000000,4.000000,4.000000,4.000000,4.000000,4.000000,4.000000,4.000000,4.000000,4.000000,4.000000,4.000000,4.000000,4.000000,100.000000
1602006700.458278,85.000000,0.000000,4084.615479,4093.846191,4122.051270,4109.230957,4121.538574,4122.051270,4145.641113,4141.025879,4153.333496,4136.922852,4148.205078,4150.769043,4146.153809,4114.871582,728.000000,4.000000,,,,0.000000,4.000000,4.000000,4.000000,4.000000,4.000000,4.000000,4.000000,4.000000,4.000000,4.000000,4.000000,4.000000,4.000000,4.000000,100.000000
1602006700.466159,86.000000,0.000000,4081.538574,4090.769287,4121.025879,4110.256348,4107.179688,4115.897461,4141.025879,4138.461426,4146.666504,4127.692383,4132.307617,4144.102539,4143.589844,4112.820313,875.000000,4.000000,,,,0.000000,4.000000,4.000000,4.000000,4.000000,4.000000,4.000000,4.000000,4.000000,4.000000,4.000000,4.000000,4.000000,4.000000,4.000000,100.000000
1602006700.474040,87.000000,0.000000,4098.974121,4105.641113,4133.846191,4121.025879,4111.282227,4125.128418,4140.000000,4137.948730,4140.000000,4131.794922,4137.436035,4150.256348,4153.333496,4118.974121,840.000000,4.000000,,,,0.000000,4.000000,4.000000,4.000000,4.000000,4.000000,4.000000,4.000000,4.000000,4.000000,4.000000,4.000000,4.000000,4.000000,4.000000,100.000000
1602006700.481921,88.000000,0.000000,4110.769043,4119.487305,4142.563965,4126.666504,4128.717773,4137.436035,4140.512695,4137.948730,4155.384766,4141.538574,4149.743652,4154.358887,4164.615234,4122.563965,767.000000,4.000000,,,,0.000000,4.000000,4.000000,4.000000,4.000000,4.000000,4.000000,4.000000,4.000000,4.000000,4.000000,4.000000,4.000000,4.000000,4.000000,100.000000
1602006700.489902,89.000000,0.000000,4108.205078,4117.948730,4142.563965,4126.153809,4131.282227,4136.922852,4134.358887,4142.563965,4171.282227,4158.461426,4154.358887,4156.410156,4169.743652,4127.179688,728.000000,4.000000,,,,0.000000,4.000000,4.000000,4.000000,4.000000,4.000000,4.000000,4.000000,4.000000,4.000000,4.000000,4.000000,4.000000,4.000000,4.000000,100.000000
1602006700.497783,90.000000,0.000000,4102.051270,4110.256348,4136.410156,4124.615234,4123.077148,4127.179688,4123.589844,4138.461426,4161.025879,4153.846191,4150.256348,4151.794922,4162.563965,4119.487305,875.000000,4.000000,,,,0.000000,4.000000,4.000000,4.000000,4.000000,4.000000,4.000000,4.000000,4.000000,4.000000,4.000000,4.000000,4.000000,4.000000,4.000000,100.000000
1602006700.505664,91.000000,0.000000,4093.846191,4106.153809,4128.205078,4123.589844,4123.077148,4124.102539,4118.461426,4125.641113,4148.205078,4132.820313,4137.948730,4133.846191,4145.128418,4103.077148,840.000000,4.000000,,,,0.000000,4.000000,4.000000,4.000000,4.000000,4.000000,4.000000,4.000000,4.000000,4.000000,4.000000,4.000000,4.000000,4.000000,4.000000,100.000000
1602006700.513545,92.000000,0.000000,4089.230713,4105.128418,4121.025879,4121.025879,4127.179688,4129.743652,4121.538574,4121.025879,4144.102539,4121.538574,4134.358887,4124.102539,4135.897461,4100.512695,767.000000,4.000000,,,,0.000000,4.000000,4.000000,4.000000,4.000000,4.000000,4.000000,4.000000,4.000000,4.000000,4.000000,4.000000,4.000000,4.000000,4.000000,100.000000
1602006700.521426,93.000000,0.000000,4093.333252,4104.615234,4120.512695,4121.025879,4126.666504,4136.922852,4125.128418,4123.077148,4137.436035,4105.641113,4140.000000,4134.358887,4138.461426,4114.358887,728.000000,4.000000,,,,0.000000,4.000000,4.000000,4.000000,4.000000,4.000000,4.000000,4.000000,4.000000,4.000000,4.000000,4.000000,4.000000,4.000000,4.000000,100.000000
1602006700.529307,94.000000,0.000000,4101.538574,4108.205078,4131.282227,4124.102539,4126.666504,4141.538574,4128.205078,4126.153809,4142.051270,4107.692383,4138.461426,4144.102539,4144.615234,4124.615234,875.000000,4.000000,,,,0.000000,4.000000,4.000000,4.000000,4.000000,4.000000,4.000000,4.000000,4.000000,4.000000,4.000000,4.000000,4.000000,4.000000,4.000000,100.000000
1602006700.537188,95.000000,0.000000,4109.230957,4111.794922,4141.538574,4124.615234,4125.641113,4138.461426,4133.846191,4133.846191,4154.358887,4144.615234,4137.436035,4141.025879,4153.333496,4125.128418,840.000000,4.000000,,,,0.000000,4.000000,4.000000,4.000000,4.000000,4.000000,4.000000,4.000000,4.000000,4.000000,4.000000,4.000000,4.000000,4.000000,4.000000,100.000000
1602006700.545069,96.000000,0.000000,4112.307617,4108.717773,4142.563965,4125.128418,4121.025879,4135.897461,4137.948730,4140.512695,4152.820313,4171.282227,4142.051270,4144.615234,4157.948730,4128.717773,767.000000,4.000000,,,,0.000000,4.000000,4.000000,4.000000,4.000000,4.000000,4.000000,4.000000,4.000000,4.000000,4.000000,4.000000,4.000000,4.000000,4.000000,100.000000
1602006700.553049,97.000000,0.000000,4101.025879,4106.153809,4136.922852,4124.615234,4119.487305,4140.000000,4140.512695,4140.512695,4149.230957,4154.358887,4145.128418,4152.307617,4155.897461,4127.179688,728.000000,4.000000,,,,0.000000,4.000000,4.000000,4.000000,4.000000,4.000000,4.000000,4.000000,4.000000,4.000000,4.000000,4.000000,4.000000,4.000000,4.000000,100.000000
1602006700.560930,98.000000,0.000000,4085.641113,4106.666504,4128.717773,4116.410156,4122.051270,4134.358887,4138.461426,4140.000000,4154.871582,4136.410156,4149.230957,4147.179688,4151.794922,4111.794922,875.000000,4.000000,,,,0.000000,4.000000,4.000000,4.000000,4.000000,4.000000,4.000000,4.000000,4.000000,4.000000,4.000000,4.000000,4.000000,4.000000,4.000000,100.000000
1602006700.568811,99.000000,0.000000,4085.641113,4105.641113,4122.563965,4112.307617,4122.051270,4121.025879,4131.282227,4138.461426,4153.333496,4146.153809,4157.436035,4138.974121,4153.846191,4107.179688,840.000000,4.000000,,,,0.000000,4.000000,4.000000,4.000000,4.000000,4.000000,4.000000,4.000000,4.000000,4.000000,4.000000,4.000000,4.000000,4.000000,4.000000,100.000000
1602006700.576692,100.000000,0.000000,4090.769287,4107.692383,4123.589844,4121.538574,4121.538574,4124.615234,4129.230957,4137.948730,4141.025879,4139.487305,4153.333496,4140.000000,4156.410156,4121.025879,767.000000,4.000000,,,,0.000000,4.000000,4.000000,4.000000,4.000000,4.000000,4.000000,4.000000,4.000000,4.000000,4.000000,4.000000,4.000000,4.000000,4.000000,100.000000
1602006700.584573,101.000000,0.000000,4083.076904,4107.692383,4123.589844,4120.512695,4123.077148,4139.487305,4135.897461,4141.025879,4136.922852,4117.948730,4138.974121,4139.487305,4143.589844,4113.846191,728.000000,4.000000,,,,0.000000,4.000000,4.000000,4.000000,4.000000,4.000000,4.000000,4.000000,4.000000,4.000000,4.000000,4.000000,4.000000,4.000000,4.000000,100.000000
1602006700.592454,102.000000,0.000000,4077.948730,4100.000000,4110.769043,4105.641113,4123.077148,4140.000000,4141.025879,4140.000000,4138.461426,4128.205078,4133.846191,4130.256348,4134.358887,4088.718018,875.000000,4.000000,,,,0.000000,4.000000,4.000000,4.000000,4.000000,4.000000,4.000000,4.000000,4.000000,4.000000,4.000000,4.000000,4.000000,4.000000,4.000000,100.000000
1602006700.600235,103.000000,0.000000,4090.256348,4098.974121,4108.205078,4104.102539,4121.025879,4131.794922,4140.512695,4137.948730,4127.179688,4142.051270,4133.333496,4126.153809,4140.512695,4090.256348,840.000000,4.000000,,,,0.000000,4.000000,4.000000,4.000000,4.000000,4.000000,4.000000,4.000000,4.000000,4.000000,4.000000,4.000000,4.000000,4.000000,4.000000,100.000000
1602006700.608116,104.000000,0.000000,4105.128418,4111.794922,4127.692383,4121.025879,4121.025879,4135.897461,4140.000000,4138.461426,4120.512695,4116.922852,4130.256348,4134.358887,4139.487305,4114.871582,767.000000,4.000000,,,,0.000000,4.000000,4.000000,4.000000,4.000000,4.000000,4.000000,4.000000,4.000000,4.000000,4.000000,4.000000,4.000000,4.000000,4.000000,100.000000
1602006700.615997,105.000000,0.000000,4111.282227,4123.589844,4148.205078,4131.794922,4121.538574,4145.128418,4140.512695,4133.333496,4133.846191,4113.846191,4131.794922,4149.743652,4137.436035,4126.666504,728.000000,4.000000,,,,0.000000,4.000000,4.000000,4.000000,4.000000,4.000000,4.000000,4.000000,4.000000,4.000000,4.000000,4.000000,4.000000,4.000000,4.000000,100.000000
1602006700.623878,106.000000,0.000000,4113.333496,4123.077148,4156.410156,4128.717773,4123.589844,4146.153809,4137.436035,4124.102539,4141.025879,4144.102539,4138.461426,4158.461426,4146.666504,4125.128418,875.000000,4.000000,,,,0.000000,4.000000,4.000000,4.000000,4.000000,4.000000,4.000000,4.000000,4.000000,4.000000,4.000000,4.000000,4.000000,4.000000,4.000000,100.000000
1602006700.631759,107.000000,0.000000,4113.333496,4117.948730,4151.794922,4124.102539,4124.102539,4134.871582,4131.282227,4121.538574,4133.333496,4135.384766,4140.512695,4149.743652,4147.179688,4126.153809,840.000000,4.000000,,,,0.000000,4.000000,4.000000,4.000000,4.000000,4.000000,4.000000,4.000000,4.000000,4.000000,4.000000,4.000000,4.000000,4.000000,4.000000,100.000000
1602006700.639640,108.000000,0.000000,4110.256348,4112.307617,4138.461426,4123.589844,4122.563965,4122.051270,4130.769043,4127.692383,4134.871582,4112.820313,4136.922852,4137.436035,4137.436035,4126.153809,767.000000,4.000000,,,,0.000000,4.000000,4.000000,4.000000,4.000000,4.000000,4.000000,4.000000,4.000000,4.000000,4.000000,4.000000,4.000000,4.000000,4.000000,100.000000
1602006700.647521,109.000000,0.000000,4106.666504,4110.256348,4133.333496,4122.563965,4121.538574,4123.077148,4136.922852,4135.384766,4138.974121,4131.282227,4137.948730,4140.000000,4138.974121,4121.538574,728.000000,4.000000,,,,0.000000,4.000000,4.000000,4.000000,4.000000,4.000000,4.000000,4.000000,4.000000,4.000000,4.000000,4.000000,4.000000,4.000000,4.000000,100.000000
1602006700.655502,110.000000,0.000000,4107.179688,4117.948730,4140.512695,4122.563965,4121.025879,4128.205078,4138.461426,4137.436035,4136.410156,4149.230957,4141.538574,4150.769043,4144.615234,4114.871582,875.000000,4.000000,,,,0.000000,4.000000,4.000000,4.000000,4.000000,4.000000,4.000000,4.000000,4.000000,4.000000,4.000000,4.000000,4.000000,4.000000,4.000000,100.000000
1602006700.663383,111.000000,0.000000,4111.282227,4122.051270,4144.615234,4124.102539,4120.512695,4123.077148,4134.358887,4140.000000,4146.153809,4143.077148,4145.128418,4155.384766,4143.589844,4109.230957,840.000000,4.000000,,,,0.000000,4.000000,4.000000,4.000000,4.000000,4.000000,4.000000,4.000000,4.000000,4.000000,4.000000,4.000000,4.000000,4.000000,4.000000,100.000000
1602006700.671264,112.000000,0.000000,4110.256348,4114.871582,4138.974121,4121.538574,4118.974121,4118.461426,4129.743652,4137.436035,4142.051270,4138.461426,4136.410156,4151.282227,4138.974121,4105.128418,767.000000,4.000000,,,,0.000000,4.000000,4.000000,4.000000,4.000000,4.000000,4.000000,4.000000,4.000000,4.000000,4.000000,4.000000,4.000000,4.000000,4.000000,100.000000
1602006700.679145,113.000000,0.000000,4102.563965,4116.410156,4130.769043,4119.487305,4122.563965,4131.282227,4126.153809,4126.153809,4115.897461,4131.282227,4120.000000,4140.000000,4136.410156,4103.589844,728.000000,4.000000,,,,0.000000,4.000000,4.000000,4.000000,4.000000,4.000000,4.000000,4.000000,4.000000,4.000000,4.000000,4.000000,4.000000,4.000000,4.000000,100.000000
1602006700.687026,114.000000,0.000000,4092.820557,4122.051270,4122.563965,4123.589844,4130.256348,4143.589844,4126.153809,4121.538574,4113.333496,4116.410156,4121.538574,4126.666504,4136.922852,4105.641113,875.000000,4.000000,,,,0.000000,4.000000,4.000000,4.000000,4.000000,4.000000,4.000000,4.000000,4.000000,4.000000,4.000000,4.000000,4.000000,4.000000,4.000000,100.000000
1602006700.694907,115.000000,0.000000,4089.743652,4115.384766,4117.436035,4122.563965,4124.615234,4133.846191,4127.179688,4121.538574,4128.205078,4122.051270,4137.436035,4123.077148,4135.897461,4109.230957,840.000000,4.000000,,,,0.000000,4.000000,4.000000,4.000000,4.000000,4.000000,4.000000,4.000000,4.000000,4.000000,4.000000,4.000000,4.000000,4.000000,4.000000,100.000000
1602006700.702789,116.000000,0.000000,4095.384521,4113.333496,4120.512695,4118.461426,4121.025879,4126.666504,4127.179688,4120.512695,4120.512695,4131.794922,4144.102539,4131.794922,4140.000000,4114.358887,767.000000,4.000000,,,,0.000000,4.000000,4.000000,4.000000,4.000000,4.000000,4.000000,4.000000,4.000000,4.000000,4.000000,4.000000,4.000000,4.000000,4.000000,100.000000
1602006700.710670,117.000000,0.000000,4105.641113,4123.077148,4132.307617,4127.179688,4133.333496,4137.436035,4129.230957,4131.794922,4118.461426,4123.589844,4145.641113,4147.179688,4152.820313,4129.743652,728.000000,4.000000,,,,0.000000,4.000000,4.000000,4.000000,4.000000,4.000000,4.000000,4.000000,4.000000,4.000000,4.000000,4.000000,4.000000,4.000000,4.000000,100.000000
1602006700.718551,118.000000,0.000000,4117.436035,4127.179688,4149.230957,4138.461426,4135.384766,4143.077148,4127.692383,4148.205078,4140.000000,4126.153809,4157.948730,4161.538574,4159.487305,4148.205078,875.000000,4.000000,,,,0.000000,4.000000,4.000000,4.000000,4.000000,4.000000,4.000000,4.000000,4.000000,4.000000,4.000000,4.000000,4.000000,4.000000,4.000000,100.000000
1602006700.726332,119.000000,0.000000,4124.102539,4123.589844,4159.487305,4135.384766,4125.128418,4127.692383,4126.153809,4145.128418,4140.000000,4141.538574,4162.051270,4169.743652,4154.871582,4142.563965,840.000000,4.000000,,,,0.000000,4.000000,4.000000,4.000000,4.000000,4.000000,4.000000,4.000000,4.000000,4.000000,4.000000,4.000000,4.000000,4.000000,4.000000,100.000000
1602006700.734212,120.000000,0.000000,4124.102539,4121.538574,4152.307617,4126.153809,4129.230957,4121.025879,4133.333496,4137.436035,4121.025879,4136.922852,4150.256348,4170.256348,4153.333496,4131.282227,767.000000,4.000000,,,,0.000000,4.000000,4.000000,4.000000,4.000000,4.000000,4.000000,4.000000,4.000000,4.000000,4.000000,4.000000,4.000000,4.000000,4.000000,100.000000
1602006700.742093,121.000000,0.000000,4117.436035,4121.025879,4141.538574,4124.102539,4137.436035,4134.871582,4140.000000,4141.025879,4122.051270,4133.846191,4140.512695,4164.102539,4152.820313,4138.974121,728.000000,4.000000,,,,0.000000,4.000000,4.000000,4.000000,4.000000,4.000000,4.000000,4.000000,4.000000,4.000000,4.000000,4.000000,4.000000,4.000000,4.000000,100.000000
1602006700.749974,122.000000,0.000000,4108.717773,4122.051270,4138.974121,4123.077148,4131.282227,4141.025879,4138.461426,4141.538574,4127.179688,4135.897461,4136.922852,4152.307617,4147.692383,4137.436035,875.000000,4.000000,,,,0.000000,4.000000,4.000000,4.000000,4.000000,4.000000,4.000000,4.000000,4.000000,4.000000,4.000000,4.000000,4.000000,4.000000,4.000000,100.000000
1602006700.757755,123.000000,0.000000,4104.615234,4123.589844,4133.333496,4120.000000,4128.205078,4134.358887,4131.282227,4130.256348,4116.410156,4125.128418,4136.410156,4142.563965,4143.077148,4117.436035,840.000000,4.000000,,,,0.000000,4.000000,4.000000,4.000000,4.000000,4.000000,4.000000,4.000000,4.000000,4.000000,4.000000,4.000000,4.000000,4.000000,4.000000,100.000000
1602006700.765636,124.000000,0.000000,4104.615234,4121.025879,4121.025879,4120.512695,4124.102539,4134.871582,4125.641113,4119.487305,4116.922852,4124.102539,4135.897461,4140.512695,4138.974121,4108.205078,767.000000,4.000000,,,,0.000000,4.000000,4.000000,4.000000,4.000000,4.000000,4.000000,4.000000,4.000000,4.000000,4.000000,4.000000,4.000000,4.000000,4.000000,100.000000
1602006700.773517,125.000000,0.000000,4098.461426,4120.000000,4117.436035,4122.563965,4120.512695,4137.948730,4127.692383,4124.102539,4136.410156,4140.512695,4137.948730,4142.051270,4141.025879,4112.307617,728.000000,4.000000,,,,0.000000,4.000000,4.000000,4.000000,4.000000,4.000000,4.000000,4.000000,4.000000,4.000000,4.000000,4.000000,4.000000,4.000000,4.000000,100.000000
1602006700.781398,126.000000,0.000000,4089.743652,4120.000000,4121.025879,4120.512695,4130.769043,4129.743652,4134.871582,4134.871582,4142.563965,4146.666504,4139.487305,4141.025879,4150.769043,4115.384766,875.000000,4.000000,,,,0.000000,4.000000,4.000000,4.000000,4.000000,4.000000,4.000000,4.000000,4.000000,4.000000,4.000000,4.000000,4.000000,4.000000,4.000000,100.000000
1602006700.789279,127.000000,0.000000,4098.974121,4118.461426,4125.128418,4121.025879,4134.358887,4126.153809,4135.384766,4137.948730,4127.692383,4133.846191,4137.436035,4143.589844,4155.384766,4117.436035,840.000000,4.000000,,,,0.000000,4.000000,4.000000,4.000000,4.000000,4.000000,4.000000,4.000000,4.000000,4.000000,4.000000,4.000000,4.000000,4.000000,4.000000,100.000000
1602006700.797159,128.000000,0.000000,4120.512695,4124.615234,4136.922852,4132.820313,4129.230957,4134.871582,4133.333496,4136.410156,4120.000000,4120.000000,4139.487305,4150.769043,4153.333496,4121.025879,767.000000,4.000000,,,,0.000000,4.000000,4.000000,4.000000,4.000000,4.000000,4.000000,4.000000,4.000000,4.000000,4.000000,4.000000,4.000000,4.000000,4.000000,100.000000
1602006700.804941,0.000000,0.000000,4124.615234,4132.307617,4147.179688,4137.948730,4131.282227,4139.487305,4136.922852,4137.948730,4124.102539,4116.922852,4143.077148,4157.436035,4152.820313,4123.589844,789.000000,4.000000,,,,0.000000,4.000000,4.000000,4.000000,4.000000,4.000000,4.000000,4.000000,4.000000,4.000000,4.000000,4.000000,4.000000,4.000000,4.000000,100.000000
1602006700.812821,1.000000,0.000000,4111.282227,4127.179688,4141.538574,4128.717773,4132.307617,4136.410156,4138.974121,4144.102539,4124.615234,4125.128418,4137.948730,4157.436035,4151.794922,4123.077148,786.000000,4.000000,,,,0.000000,4.000000,4.000000,4.000000,4.000000,4.000000,4.000000,4.000000,4.000000,4.000000,4.000000,4.000000,4.000000,4.000000,4.000000,100.000000
1602006700.820702,2.000000,0.000000,4112.820313,4122.051270,4139.487305,4124.615234,4126.666504,4136.410156,4137.436035,4149.230957,4127.692383,4134.358887,4137.948730,4153.333496,4152.307617,4122.563965,848.000000,4.000000,,,,0.000000,4.000000,4.000000,4.000000,4.000000,4.000000,4.000000,4.000000,4.000000,4.000000,4.000000,4.000000,4.000000,4.000000,4.000000,100.000000
1602006700.828583,3.000000,0.000000,4127.179688,4126.153809,4146.666504,4128.205078,4125.128418,4140.512695,4137.436035,4146.153809,4135.897461,4139.487305,4148.717773,4153.333496,4153.846191,4123.077148,868.000000,4.000000,,,,0.000000,4.000000,4.000000,4.000000,4.000000,4.000000,4.000000,4.000000,4.000000,4.000000,4.000000,4.000000,4.000000,4.000000,4.000000,100.000000
1602006700.836464,4.000000,0.000000,4120.000000,4129.230957,4147.692383,4130.256348,4127.179688,4141.538574,4139.487305,4138.974121,4135.897461,4144.615234,4146.666504,4156.410156,4149.743652,4124.102539,812.000000,4.000000,,,,0.000000,4.000000,4.000000,4.000000,4.000000,4.000000,4.000000,4.000000,4.000000,4.000000,4.000000,4.000000,4.000000,4.000000,4.000000,100.000000
1602006700.844345,5.000000,0.000000,4105.641113,4129.230957,4140.000000,4134.871582,4129.230957,4138.974121,4134.358887,4133.846191,4123.077148,4139.487305,4135.897461,4150.256348,4147.692383,4125.128418,818.000000,4.000000,,,,0.000000,4.000000,4.000000,4.000000,4.000000,4.000000,4.000000,4.000000,4.000000,4.000000,4.000000,4.000000,4.000000,4.000000,4.000000,100.000000
1602006700.852326,6.000000,0.000000,4110.769043,4131.282227,4137.436035,4140.512695,4136.410156,4135.897461,4127.692383,4128.205078,4112.820313,4128.717773,4133.333496,4138.461426,4146.153809,4119.487305,768.000000,4.000000,,,,0.000000,4.000000,4.000000,4.000000,4.000000,4.000000,4.000000,4.000000,4.000000,4.000000,4.000000,4.000000,4.000000,4.000000,4.000000,100.000000
1602006700.860207,7.000000,0.000000,4113.333496,4130.256348,4136.410156,4133.333496,4138.461426,4134.871582,4130.256348,4124.615234,4110.256348,4115.384766,4130.769043,4134.871582,4138.461426,4105.128418,664.000000,4.000000,,,,0.000000,4.000000,4.000000,4.000000,4.000000,4.000000,4.000000,4.000000,4.000000,4.000000,4.000000,4.000000,4.000000,4.000000,4.000000,100.000000
1602006700.868089,8.000000,0.000000,4101.025879,4124.102539,4127.179688,4124.615234,4132.820313,4136.922852,4135.384766,4128.205078,4107.692383,4112.820313,4124.102539,4135.897461,4135.897461,4099.487305,782.000000,4.000000,,,,0.000000,4.000000,4.000000,4.000000,4.000000,4.000000,4.000000,4.000000,4.000000,4.000000,4.000000,4.000000,4.000000,4.000000,4.000000,100.000000
1602006700.875970,9.000000,0.000000,4090.256348,4115.384766,4119.487305,4121.538574,4126.153809,4132.820313,4137.436035,4133.846191,4110.256348,4124.102539,4128.717773,4135.897461,4140.512695,4107.179688,842.000000,4.000000,,,,0.000000,4.000000,4.000000,4.000000,4.000000,4.000000,4.000000,4.000000,4.000000,4.000000,4.000000,4.000000,4.000000,4.000000,4.000000,100.000000
1602006700.883851,10.000000,0.000000,4085.641113,4106.153809,4117.436035,4114.871582,4120.000000,4119.487305,4137.948730,4141.025879,4119.487305,4137.948730,4138.974121,4136.410156,4140.000000,4109.230957,875.000000,4.000000,,,,0.000000,4.000000,4.000000,4.000000,4.000000,4.000000,4.000000,4.000000,4.000000,4.000000,4.000000,4.000000,4.000000,4.000000,4.000000,100.000000
1602006700.891732,11.000000,0.000000,4091.281982,4106.666504,4125.128418,4111.794922,4120.512695,4116.922852,4140.000000,4149.743652,4127.179688,4154.871582,4142.563965,4143.589844,4143.589844,4108.717773,840.000000,4.000000,,,,0.000000,4.000000,4.000000,4.000000,4.000000,4.000000,4.000000,4.000000,4.000000,4.000000,4.000000,4.000000,4.000000,4.000000,4.000000,100.000000
1602006700.899613,12.000000,0.000000,4104.102539,4111.794922,4135.897461,4114.871582,4121.025879,4131.794922,4142.051270,4150.769043,4122.051270,4147.692383,4139.487305,4152.820313,4146.153809,4119.487305,767.000000,4.000000,,,,0.000000,4.000000,4.000000,4.000000,4.000000,4.000000,4.000000,4.000000,4.000000,4.000000,4.000000,4.000000,4.000000,4.000000,4.000000,100.000000
1602006700.907494,13.000000,0.000000,4108.205078,4110.769043,4140.512695,4117.948730,4121.025879,4138.974121,4141.025879,4143.589844,4112.820313,4112.307617,4136.410156,4153.333496,4140.000000,4128.205078,728.000000,4.000000,,,,0.000000,4.000000,4.000000,4.000000,4.000000,4.000000,4.000000,4.000000,4.000000,4.000000,4.000000,4.000000,4.000000,4.000000,4.000000,100.000000
1602006700.915376,14.000000,0.000000,4105.641113,4113.333496,4138.461426,4119.487305,4121.538574,4136.410156,4141.025879,4138.461426,4108.717773,4101.538574,4137.948730,4150.256348,4143.589844,4124.102539,875.000000,4.000000,,,,0.000000,4.000000,4.000000,4.000000,4.000000,4.000000,4.000000,4.000000,4.000000,4.000000,4.000000,4.000000,4.000000,4.000000,4.000000,100.000000
1602006700.923257,15.000000,0.000000,4107.692383,4119.487305,4139.487305,4123.077148,4121.025879,4137.436035,4143.077148,4137.436035,4113.333496,4122.051270,4138.974121,4153.846191,4147.692383,4119.487305,840.000000,4.000000,,,,0.000000,4.000000,4.000000,4.000000,4.000000,4.000000,4.000000,4.000000,4.000000,4.000000,4.000000,4.000000,4.000000,4.000000,4.000000,100.000000
1602006700.931037,16.000000,0.000000,4113.333496,4121.538574,4144.615234,4124.102539,4128.717773,4137.948730,4144.102539,4135.384766,4121.538574,4127.692383,4140.000000,4155.897461,4141.025879,4124.102539,0.000000,4.000000,,,,0.000000,4.000000,4.000000,4.000000,4.000000,4.000000,4.000000,4.000000,4.000000,4.000000,4.000000,4.000000,4.000000,4.000000,4.000000,100.000000
1602006700.938918,17.000000,0.000000,4115.897461,4123.589844,4141.538574,4123.589844,4136.410156,4139.487305,4137.948730,4126.666504,4114.871582,4122.051270,4142.051270,4148.205078,4138.461426,4123.077148,0.000000,4.000000,,,,0.000000,4.000000,4.000000,4.000000,4.000000,4.000000,4.000000,4.000000,4.000000,4.000000,4.000000,4.000000,4.000000,4.000000,4.000000,100.000000
1602006700.946799,18.000000,0.000000,4106.666504,4121.025879,4128.205078,4123.077148,4127.692383,4136.922852,4128.717773,4117.436035,4098.461426,4126.153809,4135.384766,4136.922852,4134.871582,4110.256348,0.000000,4.000000,,,,0.000000,4.000000,4.000000,4.000000,4.000000,4.000000,4.000000,4.000000,4.000000,4.000000,4.000000,4.000000,4.000000,4.000000,4.000000,100.000000
1602006700.954680,19.000000,0.000000,4085.641113,4107.692383,4117.436035,4119.487305,4117.436035,4127.179688,4126.153809,4118.974121,4098.974121,4120.000000,4121.025879,4128.717773,4122.051270,4102.563965,0.000000,4.000000,,,,0.000000,4.000000,4.000000,4.000000,4.000000,4.000000,4.000000,4.000000,4.000000,4.000000,4.000000,4.000000,4.000000,4.000000,4.000000,100.000000
1602006700.962560,20.000000,0.000000,4082.564209,4104.102539,4121.025879,4119.487305,4121.538574,4126.153809,4133.333496,4123.589844,4105.641113,4106.153809,4120.000000,4128.717773,4116.410156,4104.615234,0.000000,4.000000,,,,0.000000,4.000000,4.000000,4.000000,4.000000,4.000000,4.000000,4.000000,4.000000,4.000000,4.000000,4.000000,4.000000,4.000000,4.000000,100.000000
1602006700.970341,21.000000,0.000000,4102.563965,4116.922852,4127.179688,4122.051270,4130.256348,4136.922852,4140.512695,4121.538574,4098.461426,4105.128418,4124.102539,4136.410156,4119.487305,4109.230957,0.000000,4.000000,,,,0.000000,4.000000,4.000000,4.000000,4.000000,4.000000,4.000000,4.000000,4.000000,4.000000,4.000000,4.000000,4.000000,4.000000,4.000000,100.000000
1602006700.978222,22.000000,0.000000,4106.666504,4117.948730,4124.615234,4123.077148,4130.769043,4140.512695,4135.897461,4121.538574,4098.461426,4113.846191,4120.512695,4140.512695,4125.641113,4106.666504,0.000000,4.000000,,,,0.000000,4.000000,4.000000,4.000000,4.000000,4.000000,4.000000,4.000000,4.000000,4.000000,4.000000,4.000000,4.000000,4.000000,4.000000,100.000000
1602006700.986103,23.000000,0.000000,4093.846191,4109.743652,4122.563965,4122.563965,4127.692383,4133.333496,4125.641113,4126.666504,4111.282227,4122.563965,4127.692383,4138.974121,4132.820313,4095.897461,0.000000,4.000000,,,,0.000000,4.000000,4.000000,4.000000,4.000000,4.000000,4.000000,4.000000,4.000000,4.000000,4.000000,4.000000,4.000000,4.000000,4.000000,100.000000
1602006700.993984,24.000000,0.000000,4086.666748,4107.692383,4122.051270,4121.538574,4123.077148,4124.102539,4121.025879,4124.102539,4114.358887,4129.230957,4138.461426,4137.436035,4126.666504,4094.871826,0.000000,4.000000,,,,0.000000,4.000000,4.000000,4.000000,4.000000,4.000000,4.000000,4.000000,4.000000,4.000000,4.000000,4.000000,4.000000,4.000000,4.000000,100.000000
1602006701.001865,25.000000,0.000000,4092.307617,4107.692383,4123.589844,4120.000000,4121.538574,4122.051270,4121.025879,4125.128418,4111.794922,4132.820313,4128.205078,4140.000000,4121.538574,4106.153809,0.000000,4.000000,,,,0.000000,4.000000,4.000000,4.000000,4.000000,4.000000,4.000000,4.000000,4.000000,4.000000,4.000000,4.000000,4.000000,4.000000,4.000000,100.000000
1602006701.009746,26.000000,0.000000,4101.538574,4107.179688,4132.307617,4120.512695,4121.025879,4133.333496,4123.077148,4135.384766,4118.974121,4127.692383,4119.487305,4145.128418,4134.358887,4107.692383,0.000000,4.000000,,,,0.000000,4.000000,4.000000,4.000000,4.000000,4.000000,4.000000,4.000000,4.000000,4.000000,4.000000,4.000000,4.000000,4.000000,4.000000,100.000000
1602006701.017727,27.000000,0.000000,4106.153809,4109.230957,4138.461426,4120.512695,4120.000000,4138.461426,4131.282227,4141.538574,4129.230957,4116.410156,4133.846191,4151.282227,4143.077148,4108.717773,0.000000,4.000000,,,,0.000000,4.000000,4.000000,4.000000,4.000000,4.000000,4.000000,4.000000,4.000000,4.000000,4.000000,4.000000,4.000000,4.000000,4.000000,100.000000
1602006701.025608,28.000000,0.000000,4109.230957,4112.820313,4138.974121,4121.025879,4122.051270,4134.871582,4135.897461,4142.563965,4129.230957,4116.410156,4138.974121,4154.871582,4138.974121,4121.538574,0.000000,4.000000,,,,0.000000,4.000000,4.000000,4.000000,4.000000,4.000000,4.000000,4.000000,4.000000,4.000000,4.000000,4.000000,4.000000,4.000000,4.000000,100.000000
1602006701.033489,29.000000,0.000000,4114.358887,4116.922852,4137.436035,4123.077148,4124.615234,4130.769043,4126.153809,4136.410156,4117.436035,4117.436035,4122.563965,4152.307617,4135.897461,4128.717773,0.000000,4.000000,,,,0.000000,4.000000,4.000000,4.000000,4.000000,4.000000,4.000000,4.000000,4.000000,4.000000,4.000000,4.000000,4.000000,4.000000,4.000000,100.000000
1602006701.041369,30.000000,0.000000,4114.358887,4122.051270,4130.769043,4122.563965,4124.615234,4118.974121,4118.461426,4124.615234,4111.794922,4119.487305,4123.077148,4146.153809,4137.948730,4123.077148,0.000000,4.000000,,,,0.000000,4.000000,4.000000,4.000000,4.000000,4.000000,4.000000,4.000000,4.000000,4.000000,4.000000,4.000000,4.000000,4.000000,4.000000,100.000000
1602006701.049250,31.000000,0.000000,4112.820313,4122.563965,4128.205078,4125.641113,4123.589844,4110.256348,4121.538574,4120.512695,4123.077148,4137.436035,4137.436035,4143.077148,4140.000000,4120.000000,0.000000,4.000000,,,,0.000000,4.000000,4.000000,4.000000,4.000000,4.000000,4.000000,4.000000,4.000000,4.000000,4.000000,4.000000,4.000000,4.000000,4.000000,100.000000
1602006701.057131,32.000000,0.000000,4117.436035,4122.563965,4136.922852,4131.794922,4123.589844,4115.384766,4120.512695,4123.077148,4124.102539,4143.589844,4137.436035,4144.102539,4135.897461,4124.102539,0.000000,4.000000,,,,0.000000,4.000000,4.000000,4.000000,4.000000,4.000000,4.000000,4.000000,4.000000,4.000000,4.000000,4.000000,4.000000,4.000000,4.000000,100.000000
1602006701.065012,33.000000,0.000000,4116.922852,4124.615234,4133.846191,4129.230957,4126.153809,4123.077148,4118.974121,4122.051270,4110.256348,4128.205078,4123.077148,4141.025879,4126.666504,4120.512695,0.000000,4.000000,,,,0.000000,4.000000,4.000000,4.000000,4.000000,4.000000,4.000000,4.000000,4.000000,4.000000,4.000000,4.000000,4.000000,4.000000,4.000000,100.000000
1602006701.072893,34.000000,0.000000,4106.153809,4121.025879,4121.538574,4121.025879,4128.205078,4129.230957,4127.179688,4123.077148,4110.256348,4115.897461,4112.307617,4134.358887,4121.538574,4101.025879,0.000000,4.000000,,,,0.000000,4.000000,4.000000,4.000000,4.000000,4.000000,4.000000,4.000000,4.000000,4.000000,4.000000,4.000000,4.000000,4.000000,4.000000,100.000000
1602006701.080874,35.000000,0.000000,4103.589844,4117.948730,4123.077148,4123.589844,4126.666504,4137.948730,4136.922852,4130.769043,4119.487305,4109.743652,4114.358887,4133.846191,4121.538574,4088.718018,0.000000,4.000000,,,,0.000000,4.000000,4.000000,4.000000,4.000000,4.000000,4.000000,4.000000,4.000000,4.000000,4.000000,4.000000,4.000000,4.000000,4.000000,100.000000
1602006701.088755,36.000000,0.000000,4107.692383,4121.538574,4126.666504,4127.179688,4126.153809,4138.974121,4140.000000,4135.897461,4124.102539,4108.717773,4128.717773,4137.948730,4129.743652,4105.641113,0.000000,4.000000,,,,0.000000,4.000000,4.000000,4.000000,4.000000,4.000000,4.000000,4.000000,4.000000,4.000000,4.000000,4.000000,4.000000,4.000000,4.000000,100.000000
1602006701.096637,37.000000,0.000000,4110.769043,4123.589844,4123.077148,4125.128418,4133.846191,4138.461426,4140.512695,4144.615234,4133.846191,4125.128418,4138.461426,4145.128418,4146.666504,4125.128418,0.000000,4.000000,,,,0.000000,4.000000,4.000000,4.000000,4.000000,4.000000,4.000000,4.000000,4.000000,4.000000,4.000000,4.000000,4.000000,4.000000,4.000000,100.000000
1602006701.104518,38.000000,0.000000,4117.436035,4124.615234,4126.666504,4131.282227,4140.512695,4135.897461,4138.461426,4155.384766,4149.743652,4148.717773,4135.897461,4152.307617,4156.410156,4126.666504,0.000000,4.000000,,,,0.000000,4.000000,4.000000,4.000000,4.000000,4.000000,4.000000,4.000000,4.000000,4.000000,4.000000,4.000000,4.000000,4.000000,4.000000,100.000000
1602006701.112399,39.000000,0.000000,4125.641113,4127.179688,4131.794922,4135.384766,4136.922852,4124.615234,4127.179688,4154.871582,4157.948730,4164.615234,4138.974121,4153.333496,4150.256348,4121.025879,0.000000,4.000000,,,,0.000000,4.000000,4.000000,4.000000,4.000000,4.000000,4.000000,4.000000,4.000000,4.000000,4.000000,4.000000,4.000000,4.000000,4.000000,100.000000
1602006701.120280,40.000000,0.000000,4121.025879,4126.666504,4128.205078,4126.666504,4137.436035,4128.717773,4120.512695,4144.102539,4153.333496,4162.051270,4141.025879,4151.794922,4141.025879,4112.307617,0.000000,4.000000,,,,0.000000,4.000000,4.000000,4.000000,4.000000,4.000000,4.000000,4.000000,4.000000,4.000000,4.000000,4.000000,4.000000,4.000000,4.000000,100.000000
1602006701.128161,41.000000,0.000000,4109.743652,4121.538574,4123.589844,4121.025879,4139.487305,4140.000000,4129.230957,4138.461426,4147.179688,4143.077148,4129.230957,4152.820313,4137.436035,4107.179688,0.000000,4.000000,,,,0.000000,4.000000,4.000000,4.000000,4.000000,4.000000,4.000000,4.000000,4.000000,4.000000,4.000000,4.000000,4.000000,4.000000,4.000000,100.000000
1602006701.136042,42.000000,0.000000,4107.692383,4120.512695,4124.102539,4125.128418,4129.230957,4131.282227,4137.948730,4140.000000,4143.589844,4136.922852,4121.538574,4151.794922,4135.384766,4109.230957,0.000000,4.000000,,,,0.000000,4.000000,4.000000,4.000000,4.000000,4.000000,4.000000,4.000000,4.000000,4.000000,4.000000,4.000000,4.000000,4.000000,4.000000,100.000000
1602006701.143924,43.000000,0.000000,4110.256348,4123.077148,4124.102539,4126.666504,4127.179688,4129.230957,4138.974121,4133.846191,4137.436035,4142.563965,4123.589844,4150.769043,4132.307617,4102.051270,0.000000,4.000000,,,,0.000000,4.000000,4.000000,4.000000,4.000000,4.000000,4.000000,4.000000,4.000000,4.000000,4.000000,4.000000,4.000000,4.000000,4.000000,100.000000
1602006701.151805,44.000000,0.000000,4104.102539,4117.948730,4120.512695,4123.589844,4135.384766,4137.436035,4140.000000,4122.563965,4132.820313,4134.358887,4124.615234,4153.333496,4128.205078,4089.230713,0.000000,4.000000,,,,0.000000,4.000000,4.000000,4.000000,4.000000,4.000000,4.000000,4.000000,4.000000,4.000000,4.000000,4.000000,4.000000,4.000000,4.000000,100.000000
1602006701.159586,45.000000,0.000000,4100.000000,4107.179688,4117.436035,4122.051270,4129.230957,4126.666504,4136.410156,4118.974121,4137.436035,4120.000000,4119.487305,4150.769043,4121.538574,4087.179443,0.000000,4.000000,,,,0.000000,4.000000,4.000000,4.000000,4.000000,4.000000,4.000000,4.000000,4.000000,4.000000,4.000000,4.000000,4.000000,4.000000,4.000000,100.000000
1602006701.167467,46.000000,0.000000,4103.077148,4106.153809,4119.487305,4120.512695,4118.461426,4114.871582,4128.205078,4122.051270,4140.000000,4118.461426,4116.410156,4143.077148,4117.948730,4093.846191,0.000000,4.000000,,,,0.000000,4.000000,4.000000,4.000000,4.000000,4.000000,4.000000,4.000000,4.000000,4.000000,4.000000,4.000000,4.000000,4.000000,4.000000,100.000000
1602006701.175348,47.000000,0.000000,4107.179688,4110.256348,4121.025879,4121.025879,4126.153809,4122.051270,4128.717773,4121.025879,4136.410156,4138.974121,4119.487305,4141.025879,4124.615234,4103.589844,0.000000,4.000000,,,,0.000000,4.000000,4.000000,4.000000,4.000000,4.000000,4.000000,4.000000,4.000000,4.000000,4.000000,4.000000,4.000000,4.000000,4.000000,100.000000
1602006701.183229,48.000000,0.000000,4105.128418,4107.179688,4113.846191,4120.512695,4130.769043,4126.666504,4136.410156,4122.563965,4142.051270,4154.871582,4125.641113,4144.615234,4127.692383,4108.205078,0.000000,4.000000,,,,0.000000,4.000000,4.000000,4.000000,4.000000,4.000000,4.000000,4.000000,4.000000,4.000000,4.000000,4.000000,4.000000,4.000000,4.000000,100.000000
1602006701.191111,49.000000,0.000000,4104.102539,4108.205078,4111.282227,4118.974121,4123.589844,4120.512695,4137.436035,4134.358887,4153.846191,4137.948730,4133.846191,4150.769043,4124.102539,4104.102539,0.000000,4.000000,,,,0.000000,4.000000,4.000000,4.000000,4.000000,4.000000,4.000000,4.000000,4.000000,4.000000,4.000000,4.000000,4.000000,4.000000,4.000000,100.000000
1602006701.198992,50.000000,0.000000,4113.333496,4119.487305,4123.077148,4122.563965,4128.717773,4119.487305,4133.333496,4144.102539,4154.871582,4141.025879,4145.641113,4156.922852,4135.384766,4110.769043,0.000000,4.000000,,,,0.000000,4.000000,4.000000,4.000000,4.000000,4.000000,4.000000,4.000000,4.000000,4.000000,4.000000,4.000000,4.000000,4.000000,4.000000,100.000000
1602006701.206873,51.000000,0.000000,4125.128418,4128.205078,4137.436035,4133.846191,4140.000000,4131.282227,4135.384766,4145.128418,4154.358887,4172.307617,4153.333496,4165.641113,4155.384766,4123.077148,0.000000,4.000000,,,,0.000000,4.000000,4.000000,4.000000,4.000000,4.000000,4.000000,4.000000,4.000000,4.000000,4.000000,4.000000,4.000000,4.000000,4.000000,100.000000
1602006701.214754,52.000000,0.000000,4127.179688,4130.769043,4143.077148,4141.025879,4141.025879,4140.000000,4135.897461,4142.563965,4161.025879,4163.077148,4149.230957,4168.205078,4154.358887,4120.512695,0.000000,4.000000,,,,0.000000,4.000000,4.000000,4.000000,4.000000,4.000000,4.000000,4.000000,4.000000,4.000000,4.000000,4.000000,4.000000,4.000000,4.000000,100.000000
1602006701.222635,53.000000,0.000000,4126.666504,4130.256348,4137.436035,4133.846191,4137.436035,4132.820313,4130.769043,4141.025879,4159.487305,4137.948730,4138.974121,4161.025879,4140.512695,4116.922852,0.000000,4.000000,,,,0.000000,4.000000,4.000000,4.000000,4.000000,4.000000,4.000000,4.000000,4.000000,4.000000,4.000000,4.000000,4.000000,4.000000,4.000000,100.000000
1602006701.230416,54.000000,0.000000,4127.179688,4126.153809,4127.692383,4125.641113,4141.538574,4127.179688,4123.077148,4134.871582,4150.769043,4148.717773,4126.153809,4153.333496,4136.410156,4118.974121,0.000000,4.000000,,,,0.000000,4.000000,4.000000,4.000000,4.000000,4.000000,4.000000,4.000000,4.000000,4.000000,4.000000,4.000000,4.000000,4.000000,4.000000,100.000000
1602006701.238297,55.000000,0.000000,4121.538574,4122.051270,4122.563965,4127.179688,4142.563965,4136.410156,4123.077148,4125.128418,4153.333496,4157.948730,4122.051270,4152.307617,4136.922852,4112.307617,0.000000,4.000000,,,,0.000000,4.000000,4.000000,4.000000,4.000000,4.000000,4.000000,4.000000,4.000000,4.000000,4.000000,4.000000,4.000000,4.000000,4.000000,100.000000
1602006701.246177,56.000000,0.000000,4118.461426,4123.077148,4124.615234,4130.769043,4142.051270,4143.077148,4132.820313,4120.000000,4153.846191,4150.769043,4129.743652,4153.846191,4138.974121,4103.589844,0.000000,4.000000,,,,0.000000,4.000000,4.000000,4.000000,4.000000,4.000000,4.000000,4.000000,4.000000,4.000000,4.000000,4.000000,4.000000,4.000000,4.000000,100.000000
1602006701.253958,57.000000,0.000000,4122.051270,4125.128418,4125.128418,4128.717773,4140.000000,4134.871582,4137.436035,4123.077148,4140.512695,4157.436035,4130.256348,4153.846191,4143.077148,4106.666504,0.000000,4.000000,,,,0.000000,4.000000,4.000000,4.000000,4.000000,4.000000,4.000000,4.000000,4.000000,4.000000,4.000000,4.000000,4.000000,4.000000,4.000000,100.000000
1602006701.261839,58.000000,0.000000,4121.025879,4117.948730,4124.102539,4123.589844,4125.128418,4119.487305,4133.846191,4123.077148,4135.384766,4157.948730,4123.077148,4153.846191,4132.820313,4109.743652,0.000000,4.000000,,,,0.000000,4.000000,4.000000,4.000000,4.000000,4.000000,4.000000,4.000000,4.000000,4.000000,4.000000,4.000000,4.000000,4.000000,4.000000,100.000000
1602006701.269720,59.000000,0.000000,4118.974121,4112.307617,4123.589844,4121.538574,4122.051270,4119.487305,4134.871582,4124.615234,4143.077148,4136.410156,4121.025879,4149.230957,4122.563965,4102.563965,0.000000,4.000000,,,,0.000000,4.000000,4.000000,4.000000,4.000000,4.000000,4.000000,4.000000,4.000000,4.000000,4.000000,4.000000,4.000000,4.000000,4.000000,100.000000
1602006701.277501,60.000000,0.000000,4122.563965,4119.487305,4124.102539,4123.077148,4138.461426,4138.974121,4139.487305,4132.820313,4142.051270,4130.256348,4124.615234,4141.025879,4131.282227,4091.281982,0.000000,4.000000,,,,0.000000,4.000000,4.000000,4.000000,4.000000,4.000000,4.000000,4.000000,4.000000,4.000000,4.000000,4.000000,4.000000,4.000000,4.000000,100.000000
1602006701.285382,61.000000,0.000000,4115.897461,4118.974121,4121.538574,4123.589844,4137.436035,4141.025879,4134.871582,4136.922852,4135.897461,4138.461426,4122.563965,4135.897461,4131.282227,4087.179443,0.000000,4.000000,,,,0.000000,4.000000,4.000000,4.000000,4.000000,4.000000,4.000000,4.000000,4.000000,4.000000,4.000000,4.000000,4.000000,4.000000,4.000000,100.000000
1602006701.293263,62.000000,0.000000,4103.589844,4111.282227,4113.846191,4121.538574,4122.563965,4126.666504,4133.333496,4134.871582,4138.974121,4133.846191,4114.871582,4136.410156,4117.948730,4091.281982,0.000000,4.000000,,,,0.000000,4.000000,4.000000,4.000000,4.000000,4.000000,4.000000,4.000000,4.000000,4.000000,4.000000,4.000000,4.000000,4.000000,4.000000,100.000000
1602006701.301143,63.000000,0.000000,4111.282227,4115.897461,4109.743652,4122.051270,4129.230957,4130.769043,4132.820313,4134.358887,4141.538574,4133.333496,4113.846191,4135.897461,4118.461426,4095.384521,0.000000,4.000000,,,,0.000000,4.000000,4.000000,4.000000,4.000000,4.000000,4.000000,4.000000,4.000000,4.000000,4.000000,4.000000,4.000000,4.000000,4.000000,100.000000
1602006701.309024,64.000000,0.000000,4123.077148,4124.102539,4112.307617,4125.128418,4141.025879,4138.461426,4125.641113,4136.922852,4145.641113,4136.922852,4118.974121,4134.871582,4126.153809,4096.922852,789.000000,4.000000,,,,0.000000,4.000000,4.000000,4.000000,4.000000,4.000000,4.000000,4.000000,4.000000,4.000000,4.000000,4.000000,4.000000,4.000000,4.000000,100.000000
1602006701.316905,65.000000,0.000000,4113.846191,4119.487305,4113.846191,4124.615234,4131.282227,4127.179688,4124.102539,4135.384766,4154.871582,4119.487305,4122.051270,4137.436035,4124.102539,4096.922852,786.000000,4.000000,,,,0.000000,4.000000,4.000000,4.000000,4.000000,4.000000,4.000000,4.000000,4.000000,4.000000,4.000000,4.000000,4.000000,4.000000,4.000000,100.000000
1602006701.324886,66.000000,0.000000,4110.256348,4111.794922,4110.769043,4122.051270,4120.512695,4117.948730,4127.692383,4125.641113,4143.589844,4110.769043,4124.102539,4138.461426,4123.589844,4094.358887,848.000000,4.000000,,,,0.000000,4.000000,4.000000,4.000000,4.000000,4.000000,4.000000,4.000000,4.000000,4.000000,4.000000,4.000000,4.000000,4.000000,4.000000,100.000000
1602006701.332767,67.000000,0.000000,4121.538574,4107.692383,4114.358887,4122.051270,4121.025879,4121.538574,4124.102539,4117.436035,4122.563965,4127.179688,4118.974121,4137.948730,4124.102539,4088.205078,868.000000,4.000000,,,,0.000000,4.000000,4.000000,4.000000,4.000000,4.000000,4.000000,4.000000,4.000000,4.000000,4.000000,4.000000,4.000000,4.000000,4.000000,100.000000
1602006701.340648,68.000000,0.000000,4125.641113,4107.179688,4123.077148,4122.051270,4125.128418,4122.563965,4124.615234,4120.000000,4121.025879,4125.641113,4110.256348,4137.436035,4120.512695,4089.743652,812.000000,4.000000,,,,0.000000,4.000000,4.000000,4.000000,4.000000,4.000000,4.000000,4.000000,4.000000,4.000000,4.000000,4.000000,4.000000,4.000000,4.000000,100.000000
1602006701.348529,69.000000,0.000000,4122.051270,4115.384766,4126.153809,4121.025879,4125.128418,4121.538574,4133.333496,4121.538574,4128.717773,4118.461426,4117.948730,4135.384766,4120.512695,4096.922852,818.000000,4.000000,,,,0.000000,4.000000,4.000000,4.000000,4.000000,4.000000,4.000000,4.000000,4.000000,4.000000,4.000000,4.000000,4.000000,4.000000,4.000000,100.000000
1602006701.356410,70.000000,0.000000,4117.436035,4120.512695,4121.025879,4120.000000,4125.641113,4129.230957,4136.922852,4123.589844,4131.794922,4141.538574,4127.179688,4132.820313,4120.000000,4094.871826,768.000000,4.000000,,,,0.000000,4.000000,4.000000,4.000000,4.000000,4.000000,4.000000,4.000000,4.000000,4.000000,4.000000,4.000000,4.000000,4.000000,4.000000,100.000000
1602006701.364291,71.000000,0.000000,4115.384766,4119.487305,4120.000000,4121.025879,4133.846191,4144.615234,4135.897461,4132.820313,4145.128418,4154.871582,4120.000000,4133.333496,4125.641113,4097.436035,664.000000,4.000000,,,,0.000000,4.000000,4.000000,4.000000,4.000000,4.000000,4.000000,4.000000,4.000000,4.000000,4.000000,4.000000,4.000000,4.000000,4.000000,100.000000
1602006701.372172,72.000000,0.000000,4122.051270,4121.025879,4126.666504,4125.128418,4138.461426,4153.846191,4139.487305,4140.512695,4159.487305,4138.974121,4126.666504,4138.461426,4134.871582,4108.717773,782.000000,4.000000,,,,0.000000,4.000000,4.000000,4.000000,4.000000,4.000000,4.000000,4.000000,4.000000,4.000000,4.000000,4.000000,4.000000,4.000000,4.000000,100.000000
1602006701.380053,73.000000,0.000000,4123.589844,4122.051270,4126.153809,4125.128418,4128.205078,4144.102539,4142.051270,4136.922852,4149.743652,4130.256348,4140.512695,4142.563965,4133.333496,4100.000000,842.000000,4.000000,,,,0.000000,4.000000,4.000000,4.000000,4.000000,4.000000,4.000000,4.000000,4.000000,4.000000,4.000000,4.000000,4.000000,4.000000,4.000000,100.000000
1602006701.388034,74.000000,0.000000,4119.487305,4120.512695,4120.000000,4122.051270,4124.102539,4129.230957,4140.512695,4127.179688,4128.717773,4116.922852,4121.538574,4138.974121,4121.025879,4091.281982,875.000000,4.000000,,,,0.000000,4.000000,4.000000,4.000000,4.000000,4.000000,4.000000,4.000000,4.000000,4.000000,4.000000,4.000000,4.000000,4.000000,4.000000,100.000000
1602006701.395915,75.000000,0.000000,4130.256348,4121.538574,4124.102539,4128.717773,4133.846191,4126.153809,4135.384766,4126.666504,4127.692383,4110.256348,4100.000000,4137.948730,4117.948730,4104.615234,840.000000,4.000000,,,,0.000000,4.000000,4.000000,4.000000,4.000000,4.000000,4.000000,4.000000,4.000000,4.000000,4.000000,4.000000,4.000000,4.000000,4.000000,100.000000
