Timestamp,EEG.Counter,EEG.Interpolated,EEG.AF3,EEG.F7,EEG.F3,EEG.FC5,EEG.T7,EEG.P7,EEG.O1,EEG.O2,EEG.P8,EEG.T8,EEG.FC6,EEG.F4,EEG.F8,EEG.AF4,EEG.RawCq,EEG.Battery,MarkerIndex,MarkerType,MarkerValueInt,EEG.MarkerHardware,CQ.AF3,CQ.F7,CQ.F3,CQ.FC5,CQ.T7,CQ.P7,CQ.O1,CQ.O2,CQ.P8,CQ.T8,CQ.FC6,CQ.F4,CQ.F8,CQ.AF4,CQ.Overall
1602006757.174110,57.000000,0.000000,4117.436035,4114.358887,4125.128418,4118.974121,4140.512695,4132.820313,4124.615234,4142.051270,4123.077148,4157.948730,4142.051270,4149.743652,4127.692383,4121.538574,0.000000,4.000000,,,,0.000000,4.000000,4.000000,4.000000,4.000000,4.000000,4.000000,4.000000,4.000000,4.000000,4.000000,4.000000,4.000000,4.000000,4.000000,100.000000
1602006757.181891,58.000000,0.000000,4108.205078,4100.000000,4126.153809,4107.179688,4125.128418,4113.333496,4123.077148,4131.282227,4108.717773,4130.769043,4136.922852,4142.563965,4117.948730,4120.000000,0.000000,4.000000,,,,0.000000,4.000000,4.000000,4.000000,4.000000,4.000000,4.000000,4.000000,4.000000,4.000000,4.000000,4.000000,4.000000,4.000000,4.000000,100.000000
1602006757.189772,59.000000,0.000000,4104.102539,4096.922852,4123.589844,4103.077148,4105.128418,4104.615234,4118.974121,4126.666504,4097.436035,4114.871582,4121.025879,4135.897461,4107.692383,4114.358887,0.000000,4.000000,,,,0.000000,4.000000,4.000000,4.000000,4.000000,4.000000,4.000000,4.000000,4.000000,4.000000,4.000000,4.000000,4.000000,4.000000,4.000000,100.000000
1602006757.197654,60.000000,0.000000,4107.692383,4104.102539,4126.153809,4108.717773,4108.717773,4126.666504,4126.153809,4135.384766,4104.615234,4137.436035,4126.666504,4144.615234,4123.077148,4127.179688,0.000000,4.000000,,,,0.000000,4.000000,4.000000,4.000000,4.000000,4.000000,4.000000,4.000000,4.000000,4.000000,4.000000,4.000000,4.000000,4.000000,4.000000,100.000000
1602006757.205535,61.000000,0.000000,4114.871582,4112.307617,4127.692383,4114.871582,4124.102539,4140.512695,4139.487305,4141.025879,4124.102539,4152.820313,4137.436035,4151.794922,4144.102539,4143.077148,0.000000,4.000000,,,,0.000000,4.000000,4.000000,4.000000,4.000000,4.000000,4.000000,4.000000,4.000000,4.000000,4.000000,4.000000,4.000000,4.000000,4.000000,100.000000
1602006757.213416,62.000000,0.000000,4116.922852,4118.461426,4115.384766,4119.487305,4124.102539,4131.794922,4133.846191,4139.487305,4136.922852,4153.333496,4133.846191,4145.641113,4135.384766,4136.922852,0.000000,4.000000,,,,0.000000,4.000000,4.000000,4.000000,4.000000,4.000000,4.000000,4.000000,4.000000,4.000000,4.000000,4.000000,4.000000,4.000000,4.000000,100.000000
1602006757.221297,63.000000,0.000000,4114.871582,4121.538574,4105.128418,4121.025879,4123.077148,4130.256348,4123.077148,4140.000000,4140.000000,4154.871582,4126.153809,4144.615234,4121.538574,4123.077148,0.000000,4.000000,,,,0.000000,4.000000,4.000000,4.000000,4.000000,4.000000,4.000000,4.000000,4.000000,4.000000,4.000000,4.000000,4.000000,4.000000,4.000000,100.000000
1602006757.229178,64.000000,0.000000,4120.000000,4122.563965,4115.384766,4122.563965,4135.384766,4139.487305,4130.256348,4141.538574,4146.666504,4147.692383,4123.077148,4152.307617,4123.077148,4121.538574,788.000000,4.000000,,,,0.000000,4.000000,4.000000,4.000000,4.000000,4.000000,4.000000,4.000000,4.000000,4.000000,4.000000,4.000000,4.000000,4.000000,4.000000,100.000000
1602006757.237059,65.000000,0.000000,4120.000000,4124.102539,4124.102539,4126.153809,4143.077148,4143.589844,4139.487305,4141.538574,4154.358887,4142.051270,4122.563965,4156.410156,4123.589844,4123.589844,789.000000,4.000000,,,,0.000000,4.000000,4.000000,4.000000,4.000000,4.000000,4.000000,4.000000,4.000000,4.000000,4.000000,4.000000,4.000000,4.000000,4.000000,100.000000
1602006757.244941,66.000000,0.000000,4109.743652,4124.102539,4119.487305,4125.641113,4138.461426,4136.410156,4137.948730,4141.025879,4143.077148,4142.563965,4122.051270,4154.358887,4119.487305,4119.487305,852.000000,4.000000,,,,0.000000,4.000000,4.000000,4.000000,4.000000,4.000000,4.000000,4.000000,4.000000,4.000000,4.000000,4.000000,4.000000,4.000000,4.000000,100.000000
1602006757.252721,67.000000,0.000000,4109.230957,4123.077148,4124.102539,4123.589844,4136.410156,4127.179688,4138.974121,4138.461426,4126.153809,4136.922852,4121.538574,4147.179688,4117.948730,4117.948730,868.000000,4.000000,,,,0.000000,4.000000,4.000000,4.000000,4.000000,4.000000,4.000000,4.000000,4.000000,4.000000,4.000000,4.000000,4.000000,4.000000,4.000000,100.000000
1602006757.260602,68.000000,0.000000,4121.538574,4122.563965,4138.461426,4126.666504,4134.871582,4125.128418,4140.000000,4138.974121,4130.256348,4137.436035,4121.025879,4142.563965,4120.000000,4117.948730,815.000000,4.000000,,,,0.000000,4.000000,4.000000,4.000000,4.000000,4.000000,4.000000,4.000000,4.000000,4.000000,4.000000,4.000000,4.000000,4.000000,4.000000,100.000000
1602006757.268383,69.000000,0.000000,4130.769043,4121.025879,4149.743652,4132.820313,4126.666504,4126.153809,4137.436035,4143.077148,4147.692383,4149.743652,4127.692383,4149.230957,4132.307617,4118.974121,815.000000,4.000000,,,,0.000000,4.000000,4.000000,4.000000,4.000000,4.000000,4.000000,4.000000,4.000000,4.000000,4.000000,4.000000,4.000000,4.000000,4.000000,100.000000
1602006757.276264,70.000000,0.000000,4139.487305,4124.615234,4153.846191,4135.384766,4119.487305,4123.589844,4138.461426,4145.128418,4148.717773,4157.948730,4145.128418,4163.077148,4149.230957,4131.282227,759.000000,4.000000,,,,0.000000,4.000000,4.000000,4.000000,4.000000,4.000000,4.000000,4.000000,4.000000,4.000000,4.000000,4.000000,4.000000,4.000000,4.000000,100.000000
1602006757.284044,71.000000,0.000000,4140.000000,4123.077148,4147.179688,4128.717773,4119.487305,4122.051270,4134.358887,4142.563965,4140.512695,4157.948730,4151.794922,4167.179688,4156.410156,4143.589844,665.000000,4.000000,,,,0.000000,4.000000,4.000000,4.000000,4.000000,4.000000,4.000000,4.000000,4.000000,4.000000,4.000000,4.000000,4.000000,4.000000,4.000000,100.000000
1602006757.291925,72.000000,0.000000,4127.179688,4107.179688,4133.333496,4115.897461,4119.487305,4122.563965,4124.615234,4133.846191,4136.410156,4148.717773,4142.563965,4160.000000,4155.897461,4142.563965,779.000000,4.000000,,,,0.000000,4.000000,4.000000,4.000000,4.000000,4.000000,4.000000,4.000000,4.000000,4.000000,4.000000,4.000000,4.000000,4.000000,4.000000,100.000000
1602006757.299706,73.000000,0.000000,4120.000000,4093.846191,4126.666504,4107.179688,4110.769043,4112.820313,4118.974121,4122.563965,4124.615234,4135.897461,4136.922852,4154.871582,4150.769043,4141.538574,838.000000,4.000000,,,,0.000000,4.000000,4.000000,4.000000,4.000000,4.000000,4.000000,4.000000,4.000000,4.000000,4.000000,4.000000,4.000000,4.000000,4.000000,100.000000
1602006757.307687,74.000000,0.000000,4123.077148,4097.948730,4126.666504,4105.128418,4106.666504,4111.282227,4120.512695,4118.461426,4115.384766,4133.333496,4136.410156,4153.333496,4138.461426,4144.102539,873.000000,4.000000,,,,0.000000,4.000000,4.000000,4.000000,4.000000,4.000000,4.000000,4.000000,4.000000,4.000000,4.000000,4.000000,4.000000,4.000000,4.000000,100.000000
1602006757.315568,75.000000,0.000000,4116.410156,4100.512695,4122.051270,4105.641113,4119.487305,4128.717773,4128.717773,4125.128418,4131.282227,4136.410156,4128.717773,4144.615234,4127.179688,4130.256348,837.000000,4.000000,,,,0.000000,4.000000,4.000000,4.000000,4.000000,4.000000,4.000000,4.000000,4.000000,4.000000,4.000000,4.000000,4.000000,4.000000,4.000000,100.000000
1602006757.323448,76.000000,0.000000,4101.025879,4101.538574,4112.307617,4111.282227,4139.487305,4146.153809,4138.974121,4135.384766,4151.282227,4135.384766,4123.077148,4134.358887,4125.641113,4109.743652,769.000000,4.000000,,,,0.000000,4.000000,4.000000,4.000000,4.000000,4.000000,4.000000,4.000000,4.000000,4.000000,4.000000,4.000000,4.000000,4.000000,4.000000,100.000000
1602006757.331329,77.000000,0.000000,4101.538574,4116.922852,4104.102539,4118.461426,4146.666504,4144.615234,4137.436035,4140.000000,4148.717773,4137.436035,4122.563965,4134.871582,4124.102539,4104.615234,733.000000,4.000000,,,,0.000000,4.000000,4.000000,4.000000,4.000000,4.000000,4.000000,4.000000,4.000000,4.000000,4.000000,4.000000,4.000000,4.000000,4.000000,100.000000
1602006757.339210,78.000000,0.000000,4123.077148,4138.974121,4107.692383,4127.692383,4143.589844,4131.794922,4128.717773,4140.512695,4149.743652,4147.179688,4121.025879,4132.307617,4113.846191,4107.692383,873.000000,4.000000,,,,0.000000,4.000000,4.000000,4.000000,4.000000,4.000000,4.000000,4.000000,4.000000,4.000000,4.000000,4.000000,4.000000,4.000000,4.000000,100.000000
1602006757.347091,79.000000,0.000000,4140.512695,4150.769043,4117.948730,4135.897461,4142.563965,4127.179688,4132.307617,4142.051270,4162.051270,4155.897461,4125.128418,4129.230957,4106.666504,4105.641113,837.000000,4.000000,,,,0.000000,4.000000,4.000000,4.000000,4.000000,4.000000,4.000000,4.000000,4.000000,4.000000,4.000000,4.000000,4.000000,4.000000,4.000000,100.000000
1602006757.354972,80.000000,0.000000,4142.563965,4156.922852,4122.051270,4138.461426,4139.487305,4125.641113,4137.948730,4142.563965,4154.871582,4162.563965,4124.615234,4131.282227,4106.153809,4100.000000,769.000000,4.000000,,,,0.000000,4.000000,4.000000,4.000000,4.000000,4.000000,4.000000,4.000000,4.000000,4.000000,4.000000,4.000000,4.000000,4.000000,4.000000,100.000000
1602006757.362853,81.000000,0.000000,4141.025879,4157.436035,4122.051270,4137.436035,4128.205078,4124.102539,4137.948730,4132.820313,4134.358887,4146.666504,4109.743652,4129.230957,4098.461426,4091.794922,733.000000,4.000000,,,,0.000000,4.000000,4.000000,4.000000,4.000000,4.000000,4.000000,4.000000,4.000000,4.000000,4.000000,4.000000,4.000000,4.000000,4.000000,100.000000
1602006757.370634,82.000000,0.000000,4147.692383,4152.820313,4123.589844,4137.948730,4122.563965,4130.256348,4135.384766,4124.102539,4124.615234,4112.307617,4100.512695,4125.641113,4087.179443,4085.641113,873.000000,4.000000,,,,0.000000,4.000000,4.000000,4.000000,4.000000,4.000000,4.000000,4.000000,4.000000,4.000000,4.000000,4.000000,4.000000,4.000000,4.000000,100.000000
1602006757.378515,83.000000,0.000000,4153.846191,4150.769043,4126.666504,4137.948730,4124.102539,4135.384766,4126.153809,4117.948730,4122.051270,4099.487305,4109.230957,4132.307617,4090.256348,4096.922852,837.000000,4.000000,,,,0.000000,4.000000,4.000000,4.000000,4.000000,4.000000,4.000000,4.000000,4.000000,4.000000,4.000000,4.000000,4.000000,4.000000,4.000000,100.000000
1602006757.386395,84.000000,0.000000,4145.128418,4143.589844,4126.666504,4134.871582,4115.384766,4127.179688,4118.974121,4108.205078,4114.871582,4104.615234,4111.794922,4136.922852,4088.718018,4103.589844,769.000000,4.000000,,,,0.000000,4.000000,4.000000,4.000000,4.000000,4.000000,4.000000,4.000000,4.000000,4.000000,4.000000,4.000000,4.000000,4.000000,4.000000,100.000000
1602006757.394376,85.000000,0.000000,4133.333496,4135.897461,4124.615234,4136.410156,4104.102539,4121.025879,4122.051270,4108.717773,4114.871582,4106.666504,4104.102539,4134.358887,4081.538574,4094.871826,733.000000,4.000000,,,,0.000000,4.000000,4.000000,4.000000,4.000000,4.000000,4.000000,4.000000,4.000000,4.000000,4.000000,4.000000,4.000000,4.000000,4.000000,100.000000
1602006757.402356,86.000000,0.000000,4140.000000,4144.615234,4133.333496,4140.512695,4105.641113,4125.641113,4124.615234,4123.589844,4130.769043,4122.051270,4111.794922,4143.589844,4094.358887,4101.025879,873.000000,4.000000,,,,0.000000,4.000000,4.000000,4.000000,4.000000,4.000000,4.000000,4.000000,4.000000,4.000000,4.000000,4.000000,4.000000,4.000000,4.000000,100.000000
1602006757.410237,87.000000,0.000000,4155.384766,4157.436035,4151.794922,4141.538574,4110.256348,4122.563965,4122.051270,4130.256348,4133.846191,4144.102539,4126.666504,4156.410156,4112.307617,4116.410156,837.000000,4.000000,,,,0.000000,4.000000,4.000000,4.000000,4.000000,4.000000,4.000000,4.000000,4.000000,4.000000,4.000000,4.000000,4.000000,4.000000,4.000000,100.000000
1602006757.418118,88.000000,0.000000,4157.948730,4156.410156,4155.897461,4140.512695,4113.846191,4115.897461,4126.666504,4127.179688,4114.871582,4140.000000,4125.641113,4155.384766,4110.256348,4113.846191,769.000000,4.000000,,,,0.000000,4.000000,4.000000,4.000000,4.000000,4.000000,4.000000,4.000000,4.000000,4.000000,4.000000,4.000000,4.000000,4.000000,4.000000,100.000000
1602006757.425998,89.000000,0.000000,4153.333496,4147.179688,4144.615234,4134.358887,4120.512695,4116.922852,4135.897461,4133.333496,4102.051270,4126.153809,4120.512695,4151.794922,4104.102539,4108.205078,733.000000,4.000000,,,,0.000000,4.000000,4.000000,4.000000,4.000000,4.000000,4.000000,4.000000,4.000000,4.000000,4.000000,4.000000,4.000000,4.000000,4.000000,100.000000
1602006757.433780,90.000000,0.000000,4150.769043,4141.025879,4141.025879,4128.205078,4124.615234,4117.948730,4146.153809,4136.410156,4099.487305,4112.820313,4122.563965,4155.384766,4106.153809,4112.307617,873.000000,4.000000,,,,0.000000,4.000000,4.000000,4.000000,4.000000,4.000000,4.000000,4.000000,4.000000,4.000000,4.000000,4.000000,4.000000,4.000000,4.000000,100.000000
1602006757.441660,91.000000,0.000000,4143.589844,4132.307617,4137.948730,4123.589844,4122.563965,4125.128418,4150.256348,4126.666504,4089.743652,4093.333252,4121.025879,4149.743652,4101.538574,4109.230957,837.000000,4.000000,,,,0.000000,4.000000,4.000000,4.000000,4.000000,4.000000,4.000000,4.000000,4.000000,4.000000,4.000000,4.000000,4.000000,4.000000,4.000000,100.000000
1602006757.449541,92.000000,0.000000,4127.179688,4123.077148,4120.512695,4116.922852,4120.000000,4137.948730,4143.589844,4120.000000,4087.692383,4090.769287,4110.769043,4135.384766,4090.769287,4103.077148,769.000000,4.000000,,,,0.000000,4.000000,4.000000,4.000000,4.000000,4.000000,4.000000,4.000000,4.000000,4.000000,4.000000,4.000000,4.000000,4.000000,4.000000,100.000000
1602006757.457422,93.000000,0.000000,4117.436035,4120.000000,4108.717773,4113.846191,4122.051270,4141.538574,4136.922852,4123.077148,4104.102539,4108.717773,4105.641113,4135.897461,4086.153809,4103.589844,733.000000,4.000000,,,,0.000000,4.000000,4.000000,4.000000,4.000000,4.000000,4.000000,4.000000,4.000000,4.000000,4.000000,4.000000,4.000000,4.000000,4.000000,100.000000
1602006757.465303,94.000000,0.000000,4123.589844,4121.025879,4118.974121,4120.000000,4125.128418,4138.974121,4133.333496,4126.666504,4125.641113,4126.666504,4115.897461,4145.641113,4089.743652,4106.666504,873.000000,4.000000,,,,0.000000,4.000000,4.000000,4.000000,4.000000,4.000000,4.000000,4.000000,4.000000,4.000000,4.000000,4.000000,4.000000,4.000000,4.000000,100.000000
1602006757.473184,95.000000,0.000000,4137.948730,4125.641113,4135.384766,4126.666504,4124.615234,4135.384766,4126.666504,4127.692383,4146.153809,4137.948730,4124.102539,4144.615234,4093.333252,4105.128418,837.000000,4.000000,,,,0.000000,4.000000,4.000000,4.000000,4.000000,4.000000,4.000000,4.000000,4.000000,4.000000,4.000000,4.000000,4.000000,4.000000,4.000000,100.000000
1602006757.481065,96.000000,0.000000,4142.563965,4126.153809,4145.641113,4123.589844,4122.051270,4127.179688,4120.512695,4131.794922,4155.384766,4146.153809,4122.563965,4142.051270,4089.230713,4097.436035,769.000000,4.000000,,,,0.000000,4.000000,4.000000,4.000000,4.000000,4.000000,4.000000,4.000000,4.000000,4.000000,4.000000,4.000000,4.000000,4.000000,4.000000,100.000000
1602006757.488846,97.000000,0.000000,4132.820313,4121.025879,4152.820313,4122.563965,4120.000000,4119.487305,4125.128418,4137.948730,4155.897461,4147.692383,4124.102539,4151.794922,4092.820557,4097.948730,733.000000,4.000000,,,,0.000000,4.000000,4.000000,4.000000,4.000000,4.000000,4.000000,4.000000,4.000000,4.000000,4.000000,4.000000,4.000000,4.000000,4.000000,100.000000
1602006757.496727,98.000000,0.000000,4138.974121,4129.230957,4159.487305,4134.358887,4120.000000,4122.051270,4131.794922,4140.000000,4156.922852,4137.948730,4129.230957,4162.563965,4106.666504,4117.948730,873.000000,4.000000,,,,0.000000,4.000000,4.000000,4.000000,4.000000,4.000000,4.000000,4.000000,4.000000,4.000000,4.000000,4.000000,4.000000,4.000000,4.000000,100.000000
1602006757.504608,99.000000,0.000000,4151.794922,4143.589844,4152.307617,4137.948730,4121.025879,4122.051270,4134.871582,4132.307617,4145.128418,4120.000000,4123.077148,4153.333496,4103.077148,4122.563965,837.000000,4.000000,,,,0.000000,4.000000,4.000000,4.000000,4.000000,4.000000,4.000000,4.000000,4.000000,4.000000,4.000000,4.000000,4.000000,4.000000,4.000000,100.000000
1602006757.512489,100.000000,0.000000,4144.102539,4138.974121,4132.307617,4124.102539,4124.102539,4122.051270,4135.384766,4123.077148,4120.000000,4108.205078,4109.230957,4130.256348,4079.487061,4098.974121,769.000000,4.000000,,,,0.000000,4.000000,4.000000,4.000000,4.000000,4.000000,4.000000,4.000000,4.000000,4.000000,4.000000,4.000000,4.000000,4.000000,4.000000,100.000000
1602006757.520370,101.000000,0.000000,4133.333496,4133.333496,4117.436035,4117.436035,4124.615234,4131.282227,4135.384766,4122.051270,4109.743652,4115.384766,4102.563965,4120.512695,4076.410156,4085.128174,733.000000,4.000000,,,,0.000000,4.000000,4.000000,4.000000,4.000000,4.000000,4.000000,4.000000,4.000000,4.000000,4.000000,4.000000,4.000000,4.000000,4.000000,100.000000
1602006757.528251,102.000000,0.000000,4137.948730,4139.487305,4111.282227,4125.128418,4126.153809,4144.615234,4138.461426,4122.051270,4117.436035,4122.051270,4105.128418,4124.102539,4090.256348,4093.333252,873.000000,4.000000,,,,0.000000,4.000000,4.000000,4.000000,4.000000,4.000000,4.000000,4.000000,4.000000,4.000000,4.000000,4.000000,4.000000,4.000000,4.000000,100.000000
1602006757.536032,103.000000,0.000000,4141.538574,4142.563965,4106.153809,4125.641113,4136.410156,4149.743652,4139.487305,4118.974121,4121.025879,4116.922852,4107.179688,4117.948730,4088.205078,4093.333252,837.000000,4.000000,,,,0.000000,4.000000,4.000000,4.000000,4.000000,4.000000,4.000000,4.000000,4.000000,4.000000,4.000000,4.000000,4.000000,4.000000,4.000000,100.000000
1602006757.543913,104.000000,0.000000,4138.461426,4145.128418,4101.538574,4123.589844,4142.563965,4145.641113,4132.820313,4114.871582,4113.333496,4120.000000,4100.512695,4112.307617,4077.948730,4077.948730,769.000000,4.000000,,,,0.000000,4.000000,4.000000,4.000000,4.000000,4.000000,4.000000,4.000000,4.000000,4.000000,4.000000,4.000000,4.000000,4.000000,4.000000,100.000000
1602006757.551794,105.000000,0.000000,4135.384766,4150.256348,4106.153809,4130.256348,4132.307617,4139.487305,4121.538574,4108.205078,4105.128418,4125.641113,4092.307617,4118.461426,4078.461426,4070.769287,733.000000,4.000000,,,,0.000000,4.000000,4.000000,4.000000,4.000000,4.000000,4.000000,4.000000,4.000000,4.000000,4.000000,4.000000,4.000000,4.000000,4.000000,100.000000
1602006757.559676,106.000000,0.000000,4142.051270,4156.410156,4122.051270,4138.461426,4129.230957,4137.948730,4116.410156,4103.589844,4113.333496,4106.666504,4096.922852,4126.153809,4085.128174,4081.025635,873.000000,4.000000,,,,0.000000,4.000000,4.000000,4.000000,4.000000,4.000000,4.000000,4.000000,4.000000,4.000000,4.000000,4.000000,4.000000,4.000000,4.000000,100.000000
1602006757.567557,107.000000,0.000000,4165.128418,4168.205078,4138.461426,4142.563965,4136.410156,4140.000000,4120.512695,4110.256348,4125.641113,4101.538574,4106.153809,4131.794922,4091.281982,4094.358887,837.000000,4.000000,,,,0.000000,4.000000,4.000000,4.000000,4.000000,4.000000,4.000000,4.000000,4.000000,4.000000,4.000000,4.000000,4.000000,4.000000,4.000000,100.000000
1602006757.575438,108.000000,0.000000,4177.436035,4167.179688,4146.666504,4141.538574,4129.230957,4134.871582,4121.538574,4116.410156,4124.102539,4131.794922,4107.179688,4136.922852,4091.794922,4093.846191,769.000000,4.000000,,,,0.000000,4.000000,4.000000,4.000000,4.000000,4.000000,4.000000,4.000000,4.000000,4.000000,4.000000,4.000000,4.000000,4.000000,4.000000,100.000000
1602006757.583319,109.000000,0.000000,4171.794922,4155.897461,4153.333496,4139.487305,4116.922852,4124.102539,4122.051270,4115.897461,4120.512695,4133.846191,4105.641113,4137.948730,4089.743652,4090.769287,733.000000,4.000000,,,,0.000000,4.000000,4.000000,4.000000,4.000000,4.000000,4.000000,4.000000,4.000000,4.000000,4.000000,4.000000,4.000000,4.000000,4.000000,100.000000
1602006757.591200,110.000000,0.000000,4171.794922,4151.282227,4158.461426,4135.384766,4114.358887,4121.025879,4130.769043,4118.974121,4123.077148,4114.358887,4108.205078,4141.025879,4090.769287,4095.897461,873.000000,4.000000,,,,0.000000,4.000000,4.000000,4.000000,4.000000,4.000000,4.000000,4.000000,4.000000,4.000000,4.000000,4.000000,4.000000,4.000000,4.000000,100.000000
1602006757.599181,111.000000,0.000000,4171.282227,4145.128418,4150.769043,4127.692383,4111.282227,4122.563965,4139.487305,4125.128418,4123.589844,4128.205078,4109.230957,4142.563965,4090.256348,4097.436035,837.000000,4.000000,,,,0.000000,4.000000,4.000000,4.000000,4.000000,4.000000,4.000000,4.000000,4.000000,4.000000,4.000000,4.000000,4.000000,4.000000,4.000000,100.000000
1602006757.607062,112.000000,0.000000,4166.153809,4141.538574,4141.025879,4129.230957,4113.333496,4127.692383,4141.025879,4128.717773,4122.051270,4137.436035,4107.692383,4139.487305,4090.256348,4100.512695,769.000000,4.000000,,,,0.000000,4.000000,4.000000,4.000000,4.000000,4.000000,4.000000,4.000000,4.000000,4.000000,4.000000,4.000000,4.000000,4.000000,4.000000,100.000000
1602006757.614944,113.000000,0.000000,4169.743652,4152.307617,4137.948730,4137.436035,4129.230957,4145.128418,4143.077148,4128.717773,4128.205078,4123.589844,4107.692383,4140.000000,4095.384521,4112.307617,733.000000,4.000000,,,,0.000000,4.000000,4.000000,4.000000,4.000000,4.000000,4.000000,4.000000,4.000000,4.000000,4.000000,4.000000,4.000000,4.000000,4.000000,100.000000
1602006757.622825,114.000000,0.000000,4167.692383,4156.922852,4130.256348,4138.461426,4143.077148,4157.436035,4144.615234,4128.205078,4125.128418,4121.538574,4106.666504,4135.897461,4096.922852,4113.333496,873.000000,4.000000,,,,0.000000,4.000000,4.000000,4.000000,4.000000,4.000000,4.000000,4.000000,4.000000,4.000000,4.000000,4.000000,4.000000,4.000000,4.000000,100.000000
1602006757.630706,115.000000,0.000000,4149.743652,4147.179688,4116.410156,4133.846191,4145.128418,4145.641113,4133.846191,4123.589844,4113.846191,4118.974121,4103.589844,4125.128418,4089.230713,4102.051270,837.000000,4.000000,,,,0.000000,4.000000,4.000000,4.000000,4.000000,4.000000,4.000000,4.000000,4.000000,4.000000,4.000000,4.000000,4.000000,4.000000,4.000000,100.000000
1602006757.638587,116.000000,0.000000,4135.897461,4141.025879,4108.717773,4135.897461,4139.487305,4132.307617,4120.512695,4115.384766,4115.384766,4112.307617,4105.128418,4120.000000,4081.538574,4096.922852,769.000000,4.000000,,,,0.000000,4.000000,4.000000,4.000000,4.000000,4.000000,4.000000,4.000000,4.000000,4.000000,4.000000,4.000000,4.000000,4.000000,4.000000,100.000000
1602006757.646468,117.000000,0.000000,4132.820313,4140.512695,4111.794922,4135.897461,4137.948730,4130.256348,4117.436035,4110.769043,4121.538574,4119.487305,4105.641113,4118.974121,4079.487061,4094.358887,733.000000,4.000000,,,,0.000000,4.000000,4.000000,4.000000,4.000000,4.000000,4.000000,4.000000,4.000000,4.000000,4.000000,4.000000,4.000000,4.000000,4.000000,100.000000
1602006757.654349,118.000000,0.000000,4137.436035,4147.179688,4123.589844,4134.871582,4140.000000,4126.153809,4120.512695,4117.948730,4118.461426,4127.692383,4102.051270,4125.641113,4086.153809,4095.384521,873.000000,4.000000,,,,0.000000,4.000000,4.000000,4.000000,4.000000,4.000000,4.000000,4.000000,4.000000,4.000000,4.000000,4.000000,4.000000,4.000000,4.000000,100.000000
1602006757.662231,119.000000,0.000000,4147.179688,4155.384766,4137.436035,4137.436035,4132.820313,4118.974121,4119.487305,4122.563965,4118.461426,4130.769043,4108.717773,4144.102539,4100.512695,4113.333496,837.000000,4.000000,,,,0.000000,4.000000,4.000000,4.000000,4.000000,4.000000,4.000000,4.000000,4.000000,4.000000,4.000000,4.000000,4.000000,4.000000,4.000000,100.000000
1602006757.670012,120.000000,0.000000,4157.948730,4156.922852,4143.589844,4140.000000,4129.743652,4123.589844,4118.974121,4124.102539,4132.820313,4140.512695,4124.615234,4156.922852,4108.717773,4130.769043,769.000000,4.000000,,,,0.000000,4.000000,4.000000,4.000000,4.000000,4.000000,4.000000,4.000000,4.000000,4.000000,4.000000,4.000000,4.000000,4.000000,4.000000,100.000000
1602006757.677893,121.000000,0.000000,4165.641113,4155.384766,4143.589844,4139.487305,4132.307617,4137.436035,4129.230957,4133.846191,4142.051270,4149.230957,4127.179688,4155.897461,4113.333496,4126.666504,733.000000,4.000000,,,,0.000000,4.000000,4.000000,4.000000,4.000000,4.000000,4.000000,4.000000,4.000000,4.000000,4.000000,4.000000,4.000000,4.000000,4.000000,100.000000
1602006757.685774,122.000000,0.000000,4169.230957,4153.846191,4140.512695,4137.948730,4130.256348,4140.512695,4138.974121,4139.487305,4142.051270,4152.820313,4118.974121,4149.743652,4118.461426,4124.615234,873.000000,4.000000,,,,0.000000,4.000000,4.000000,4.000000,4.000000,4.000000,4.000000,4.000000,4.000000,4.000000,4.000000,4.000000,4.000000,4.000000,4.000000,100.000000
1602006757.693655,123.000000,0.000000,4169.743652,4154.871582,4136.922852,4140.512695,4131.282227,4136.922852,4138.461426,4137.948730,4143.077148,4158.974121,4129.230957,4147.692383,4123.077148,4140.000000,837.000000,4.000000,,,,0.000000,4.000000,4.000000,4.000000,4.000000,4.000000,4.000000,4.000000,4.000000,4.000000,4.000000,4.000000,4.000000,4.000000,4.000000,100.000000
1602006757.701536,124.000000,0.000000,4165.128418,4159.487305,4139.487305,4142.563965,4132.820313,4135.384766,4137.436035,4140.000000,4139.487305,4155.384766,4145.641113,4148.205078,4128.205078,4148.205078,769.000000,4.000000,,,,0.000000,4.000000,4.000000,4.000000,4.000000,4.000000,4.000000,4.000000,4.000000,4.000000,4.000000,4.000000,4.000000,4.000000,4.000000,100.000000
1602006757.709418,125.000000,0.000000,4156.922852,4160.512695,4134.871582,4141.025879,4125.641113,4125.128418,4135.384766,4134.871582,4124.615234,4144.615234,4138.974121,4143.589844,4125.641113,4138.461426,733.000000,4.000000,,,,0.000000,4.000000,4.000000,4.000000,4.000000,4.000000,4.000000,4.000000,4.000000,4.000000,4.000000,4.000000,4.000000,4.000000,4.000000,100.000000
1602006757.717299,126.000000,0.000000,4146.153809,4155.384766,4122.563965,4139.487305,4121.025879,4114.358887,4124.615234,4121.025879,4104.102539,4137.436035,4123.077148,4134.358887,4110.769043,4120.000000,873.000000,4.000000,,,,0.000000,4.000000,4.000000,4.000000,4.000000,4.000000,4.000000,4.000000,4.000000,4.000000,4.000000,4.000000,4.000000,4.000000,4.000000,100.000000
1602006757.725180,127.000000,0.000000,4148.205078,4153.333496,4124.615234,4140.000000,4121.538574,4117.948730,4117.436035,4114.871582,4094.358887,4134.871582,4119.487305,4132.820313,4102.051270,4109.743652,837.000000,4.000000,,,,0.000000,4.000000,4.000000,4.000000,4.000000,4.000000,4.000000,4.000000,4.000000,4.000000,4.000000,4.000000,4.000000,4.000000,4.000000,100.000000
1602006757.733061,128.000000,0.000000,4160.000000,4153.333496,4137.948730,4140.512695,4120.512695,4122.051270,4123.589844,4122.563965,4096.922852,4134.871582,4121.025879,4134.871582,4106.153809,4112.820313,769.000000,4.000000,,,,0.000000,4.000000,4.000000,4.000000,4.000000,4.000000,4.000000,4.000000,4.000000,4.000000,4.000000,4.000000,4.000000,4.000000,4.000000,100.000000
1602006757.741042,0.000000,0.000000,4167.692383,4152.307617,4146.666504,4138.974121,4130.256348,4125.128418,4132.820313,4130.256348,4107.179688,4133.333496,4118.461426,4134.358887,4102.563965,4118.461426,788.000000,4.000000,,,,0.000000,4.000000,4.000000,4.000000,4.000000,4.000000,4.000000,4.000000,4.000000,4.000000,4.000000,4.000000,4.000000,4.000000,4.000000,100.000000
1602006757.748922,1.000000,0.000000,4177.436035,4155.384766,4158.974121,4141.025879,4142.051270,4135.897461,4136.922852,4128.205078,4121.025879,4137.436035,4122.051270,4143.589844,4105.128418,4124.615234,789.000000,4.000000,,,,0.000000,4.000000,4.000000,4.000000,4.000000,4.000000,4.000000,4.000000,4.000000,4.000000,4.000000,4.000000,4.000000,4.000000,4.000000,100.000000
1602006757.756803,2.000000,0.000000,4187.179688,4153.333496,4173.846191,4142.563965,4138.974121,4136.922852,4137.948730,4128.205078,4132.307617,4137.948730,4131.794922,4157.436035,4118.974121,4136.410156,852.000000,4.000000,,,,0.000000,4.000000,4.000000,4.000000,4.000000,4.000000,4.000000,4.000000,4.000000,4.000000,4.000000,4.000000,4.000000,4.000000,4.000000,100.000000
1602006757.764584,3.000000,0.000000,4188.205078,4143.589844,4169.743652,4132.820313,4134.871582,4134.358887,4138.461426,4144.102539,4137.948730,4133.333496,4138.461426,4160.000000,4124.102539,4149.230957,868.000000,4.000000,,,,0.000000,4.000000,4.000000,4.000000,4.000000,4.000000,4.000000,4.000000,4.000000,4.000000,4.000000,4.000000,4.000000,4.000000,4.000000,100.000000
1602006757.772465,4.000000,0.000000,4181.538574,4138.974121,4155.897461,4123.077148,4136.922852,4144.615234,4142.051270,4157.948730,4140.512695,4146.153809,4137.948730,4154.358887,4124.102539,4152.820313,815.000000,4.000000,,,,0.000000,4.000000,4.000000,4.000000,4.000000,4.000000,4.000000,4.000000,4.000000,4.000000,4.000000,4.000000,4.000000,4.000000,4.000000,100.000000
1602006757.780445,5.000000,0.000000,4177.436035,4144.102539,4155.384766,4125.128418,4141.025879,4156.410156,4148.717773,4155.897461,4142.563965,4169.230957,4139.487305,4157.948730,4135.897461,4153.333496,815.000000,4.000000,,,,0.000000,4.000000,4.000000,4.000000,4.000000,4.000000,4.000000,4.000000,4.000000,4.000000,4.000000,4.000000,4.000000,4.000000,4.000000,100.000000
1602006757.788426,6.000000,0.000000,4175.384766,4141.538574,4157.948730,4131.282227,4144.102539,4159.487305,4154.358887,4154.358887,4136.922852,4175.897461,4142.051270,4169.743652,4142.563965,4155.897461,759.000000,4.000000,,,,0.000000,4.000000,4.000000,4.000000,4.000000,4.000000,4.000000,4.000000,4.000000,4.000000,4.000000,4.000000,4.000000,4.000000,4.000000,100.000000
1602006757.796307,7.000000,0.000000,4170.256348,4133.333496,4151.794922,4130.769043,4139.487305,4156.410156,4152.820313,4156.922852,4125.641113,4167.692383,4140.000000,4168.205078,4133.846191,4154.358887,665.000000,4.000000,,,,0.000000,4.000000,4.000000,4.000000,4.000000,4.000000,4.000000,4.000000,4.000000,4.000000,4.000000,4.000000,4.000000,4.000000,4.000000,100.000000
1602006757.804188,8.000000,0.000000,4175.384766,4142.051270,4152.307617,4135.384766,4136.922852,4156.922852,4149.230957,4153.333496,4123.589844,4162.051270,4141.538574,4160.000000,4132.820313,4155.384766,779.000000,4.000000,,,,0.000000,4.000000,4.000000,4.000000,4.000000,4.000000,4.000000,4.000000,4.000000,4.000000,4.000000,4.000000,4.000000,4.000000,4.000000,100.000000
1602006757.812069,9.000000,0.000000,4183.589844,4159.487305,4158.461426,4144.615234,4145.641113,4155.897461,4143.077148,4144.102539,4130.256348,4152.820313,4140.000000,4157.948730,4134.871582,4154.871582,838.000000,4.000000,,,,0.000000,4.000000,4.000000,4.000000,4.000000,4.000000,4.000000,4.000000,4.000000,4.000000,4.000000,4.000000,4.000000,4.000000,4.000000,100.000000
1602006757.819950,10.000000,0.000000,4177.948730,4161.538574,4147.692383,4141.538574,4143.589844,4136.410156,4128.205078,4132.820313,4122.051270,4128.205078,4126.153809,4149.230957,4124.102539,4138.461426,873.000000,4.000000,,,,0.000000,4.000000,4.000000,4.000000,4.000000,4.000000,4.000000,4.000000,4.000000,4.000000,4.000000,4.000000,4.000000,4.000000,4.000000,100.000000
1602006757.827831,11.000000,0.000000,4162.051270,4158.974121,4131.794922,4138.461426,4130.256348,4117.436035,4115.897461,4123.589844,4104.615234,4113.846191,4120.000000,4136.410156,4116.410156,4121.025879,837.000000,4.000000,,,,0.000000,4.000000,4.000000,4.000000,4.000000,4.000000,4.000000,4.000000,4.000000,4.000000,4.000000,4.000000,4.000000,4.000000,4.000000,100.000000
1602006757.835612,12.000000,0.000000,4156.922852,4169.230957,4136.922852,4150.769043,4132.820313,4123.077148,4117.436035,4124.615234,4105.128418,4130.769043,4127.692383,4136.922852,4119.487305,4124.102539,769.000000,4.000000,,,,0.000000,4.000000,4.000000,4.000000,4.000000,4.000000,4.000000,4.000000,4.000000,4.000000,4.000000,4.000000,4.000000,4.000000,4.000000,100.000000
1602006757.843493,13.000000,0.000000,4157.436035,4172.820313,4144.102539,4154.871582,4143.077148,4129.230957,4122.563965,4125.128418,4110.769043,4143.589844,4120.512695,4139.487305,4117.948730,4129.743652,733.000000,4.000000,,,,0.000000,4.000000,4.000000,4.000000,4.000000,4.000000,4.000000,4.000000,4.000000,4.000000,4.000000,4.000000,4.000000,4.000000,4.000000,100.000000
1602006757.851373,14.000000,0.000000,4152.820313,4159.487305,4138.974121,4142.563965,4134.871582,4122.051270,4120.512695,4118.974121,4103.077148,4130.769043,4101.025879,4138.461426,4107.179688,4131.794922,873.000000,4.000000,,,,0.000000,4.000000,4.000000,4.000000,4.000000,4.000000,4.000000,4.000000,4.000000,4.000000,4.000000,4.000000,4.000000,4.000000,4.000000,100.000000
1602006757.859254,15.000000,0.000000,4156.922852,4151.794922,4142.563965,4136.922852,4122.051270,4121.538574,4121.025879,4124.102539,4101.025879,4123.589844,4108.205078,4148.205078,4107.692383,4146.153809,837.000000,4.000000,,,,0.000000,4.000000,4.000000,4.000000,4.000000,4.000000,4.000000,4.000000,4.000000,4.000000,4.000000,4.000000,4.000000,4.000000,4.000000,100.000000
1602006757.867135,16.000000,0.000000,4166.666504,4155.384766,4154.871582,4138.974121,4122.051270,4125.128418,4132.820313,4140.000000,4110.256348,4137.948730,4134.871582,4164.102539,4128.205078,4157.948730,0.000000,4.000000,,,,0.000000,4.000000,4.000000,4.000000,4.000000,4.000000,4.000000,4.000000,4.000000,4.000000,4.000000,4.000000,4.000000,4.000000,4.000000,100.000000
1602006757.875016,17.000000,0.000000,4171.794922,4151.794922,4152.820313,4137.436035,4124.615234,4125.128418,4142.051270,4143.077148,4109.743652,4142.563965,4146.153809,4167.179688,4145.641113,4161.025879,0.000000,4.000000,,,,0.000000,4.000000,4.000000,4.000000,4.000000,4.000000,4.000000,4.000000,4.000000,4.000000,4.000000,4.000000,4.000000,4.000000,4.000000,100.000000
1602006757.882897,18.000000,0.000000,4165.641113,4141.538574,4140.512695,4133.846191,4118.461426,4123.077148,4134.871582,4137.436035,4108.717773,4133.333496,4136.922852,4158.974121,4137.436035,4157.436035,0.000000,4.000000,,,,0.000000,4.000000,4.000000,4.000000,4.000000,4.000000,4.000000,4.000000,4.000000,4.000000,4.000000,4.000000,4.000000,4.000000,4.000000,100.000000
1602006757.890878,19.000000,0.000000,4157.436035,4136.922852,4135.897461,4128.717773,4114.871582,4117.436035,4123.589844,4138.461426,4118.461426,4136.922852,4125.128418,4149.230957,4122.563965,4141.538574,0.000000,4.000000,,,,0.000000,4.000000,4.000000,4.000000,4.000000,4.000000,4.000000,4.000000,4.000000,4.000000,4.000000,4.000000,4.000000,4.000000,4.000000,100.000000
1602006757.898758,20.000000,0.000000,4154.871582,4133.846191,4135.897461,4122.563965,4121.025879,4111.282227,4121.538574,4140.512695,4124.615234,4154.871582,4124.102539,4141.025879,4120.512695,4129.230957,0.000000,4.000000,,,,0.000000,4.000000,4.000000,4.000000,4.000000,4.000000,4.000000,4.000000,4.000000,4.000000,4.000000,4.000000,4.000000,4.000000,4.000000,100.000000
1602006757.906639,21.000000,0.000000,4151.282227,4130.769043,4135.384766,4124.102539,4123.589844,4115.384766,4121.025879,4136.922852,4126.153809,4162.563965,4127.692383,4137.436035,4124.102539,4135.384766,0.000000,4.000000,,,,0.000000,4.000000,4.000000,4.000000,4.000000,4.000000,4.000000,4.000000,4.000000,4.000000,4.000000,4.000000,4.000000,4.000000,4.000000,100.000000
1602006757.914520,22.000000,0.000000,4152.820313,4137.436035,4136.410156,4133.333496,4127.179688,4128.205078,4119.487305,4135.384766,4129.743652,4154.871582,4126.153809,4137.948730,4122.051270,4137.948730,0.000000,4.000000,,,,0.000000,4.000000,4.000000,4.000000,4.000000,4.000000,4.000000,4.000000,4.000000,4.000000,4.000000,4.000000,4.000000,4.000000,4.000000,100.000000
1602006757.922301,23.000000,0.000000,4152.307617,4144.615234,4132.820313,4136.410156,4139.487305,4138.974121,4121.538574,4137.948730,4126.153809,4142.051270,4119.487305,4132.820313,4115.384766,4125.641113,0.000000,4.000000,,,,0.000000,4.000000,4.000000,4.000000,4.000000,4.000000,4.000000,4.000000,4.000000,4.000000,4.000000,4.000000,4.000000,4.000000,4.000000,100.000000
1602006757.930181,24.000000,0.000000,4141.538574,4141.538574,4123.589844,4128.717773,4144.102539,4141.025879,4123.077148,4133.333496,4112.307617,4128.717773,4114.358887,4122.563965,4106.153809,4112.820313,0.000000,4.000000,,,,0.000000,4.000000,4.000000,4.000000,4.000000,4.000000,4.000000,4.000000,4.000000,4.000000,4.000000,4.000000,4.000000,4.000000,4.000000,100.000000
1602006757.937962,25.000000,0.000000,4139.487305,4143.589844,4118.974121,4128.205078,4135.897461,4138.461426,4122.051270,4126.153809,4109.230957,4123.077148,4114.871582,4118.461426,4100.000000,4113.846191,0.000000,4.000000,,,,0.000000,4.000000,4.000000,4.000000,4.000000,4.000000,4.000000,4.000000,4.000000,4.000000,4.000000,4.000000,4.000000,4.000000,4.000000,100.000000
1602006757.945743,26.000000,0.000000,4153.333496,4155.384766,4128.205078,4139.487305,4136.922852,4137.436035,4125.128418,4131.794922,4119.487305,4123.589844,4119.487305,4124.102539,4105.128418,4122.563965,0.000000,4.000000,,,,0.000000,4.000000,4.000000,4.000000,4.000000,4.000000,4.000000,4.000000,4.000000,4.000000,4.000000,4.000000,4.000000,4.000000,4.000000,100.000000
1602006757.953624,27.000000,0.000000,4157.436035,4160.512695,4140.512695,4142.563965,4139.487305,4134.871582,4132.820313,4146.153809,4125.128418,4120.512695,4129.743652,4133.846191,4117.436035,4129.230957,0.000000,4.000000,,,,0.000000,4.000000,4.000000,4.000000,4.000000,4.000000,4.000000,4.000000,4.000000,4.000000,4.000000,4.000000,4.000000,4.000000,4.000000,100.000000
1602006757.961505,28.000000,0.000000,4156.922852,4158.461426,4148.717773,4137.436035,4134.358887,4135.384766,4135.897461,4153.333496,4123.589844,4133.846191,4140.000000,4144.615234,4123.589844,4133.846191,0.000000,4.000000,,,,0.000000,4.000000,4.000000,4.000000,4.000000,4.000000,4.000000,4.000000,4.000000,4.000000,4.000000,4.000000,4.000000,4.000000,4.000000,100.000000
1602006757.969386,29.000000,0.000000,4169.743652,4156.922852,4154.871582,4140.512695,4135.384766,4142.051270,4135.897461,4153.846191,4124.615234,4158.461426,4143.077148,4152.307617,4125.128418,4138.461426,0.000000,4.000000,,,,0.000000,4.000000,4.000000,4.000000,4.000000,4.000000,4.000000,4.000000,4.000000,4.000000,4.000000,4.000000,4.000000,4.000000,4.000000,100.000000
1602006757.977267,30.000000,0.000000,4170.256348,4149.743652,4153.846191,4141.538574,4134.871582,4142.051270,4136.922852,4154.871582,4126.153809,4161.538574,4140.512695,4153.846191,4128.205078,4137.948730,0.000000,4.000000,,,,0.000000,4.000000,4.000000,4.000000,4.000000,4.000000,4.000000,4.000000,4.000000,4.000000,4.000000,4.000000,4.000000,4.000000,4.000000,100.000000
1602006757.985247,31.000000,0.000000,4157.948730,4134.358887,4145.128418,4130.769043,4126.153809,4136.410156,4130.769043,4150.769043,4124.102539,4152.307617,4141.538574,4153.846191,4128.205078,4137.948730,0.000000,4.000000,,,,0.000000,4.000000,4.000000,4.000000,4.000000,4.000000,4.000000,4.000000,4.000000,4.000000,4.000000,4.000000,4.000000,4.000000,4.000000,100.000000
1602006757.993128,32.000000,0.000000,4154.358887,4123.589844,4138.461426,4120.512695,4118.974121,4132.820313,4122.563965,4141.538574,4119.487305,4150.769043,4140.512695,4158.461426,4121.025879,4140.512695,0.000000,4.000000,,,,0.000000,4.000000,4.000000,4.000000,4.000000,4.000000,4.000000,4.000000,4.000000,4.000000,4.000000,4.000000,4.000000,4.000000,4.000000,100.000000
1602006758.001009,33.000000,0.000000,4154.358887,4124.615234,4140.000000,4121.538574,4120.512695,4136.410156,4124.615234,4136.922852,4118.974121,4151.282227,4137.948730,4162.051270,4123.077148,4138.461426,0.000000,4.000000,,,,0.000000,4.000000,4.000000,4.000000,4.000000,4.000000,4.000000,4.000000,4.000000,4.000000,4.000000,4.000000,4.000000,4.000000,4.000000,100.000000
1602006758.008989,34.000000,0.000000,4145.641113,4124.102539,4140.000000,4122.051270,4125.641113,4137.948730,4130.256348,4134.871582,4124.102539,4141.538574,4137.436035,4151.794922,4127.179688,4132.307617,0.000000,4.000000,,,,0.000000,4.000000,4.000000,4.000000,4.000000,4.000000,4.000000,4.000000,4.000000,4.000000,4.000000,4.000000,4.000000,4.000000,4.000000,100.000000
1602006758.016870,35.000000,0.000000,4125.641113,4109.230957,4131.794922,4112.820313,4125.641113,4127.692383,4129.230957,4125.641113,4116.410156,4120.000000,4129.743652,4137.948730,4110.769043,4115.384766,0.000000,4.000000,,,,0.000000,4.000000,4.000000,4.000000,4.000000,4.000000,4.000000,4.000000,4.000000,4.000000,4.000000,4.000000,4.000000,4.000000,4.000000,100.000000
1602006758.024651,36.000000,0.000000,4114.871582,4105.128418,4121.538574,4111.794922,4121.025879,4118.974121,4125.641113,4119.487305,4098.974121,4111.794922,4125.128418,4134.871582,4103.077148,4103.077148,0.000000,4.000000,,,,0.000000,4.000000,4.000000,4.000000,4.000000,4.000000,4.000000,4.000000,4.000000,4.000000,4.000000,4.000000,4.000000,4.000000,4.000000,100.000000
1602006758.032631,37.000000,0.000000,4129.230957,4125.641113,4120.512695,4121.538574,4126.153809,4127.179688,4124.615234,4121.538574,4105.641113,4136.410156,4134.358887,4136.922852,4126.153809,4121.025879,0.000000,4.000000,,,,0.000000,4.000000,4.000000,4.000000,4.000000,4.000000,4.000000,4.000000,4.000000,4.000000,4.000000,4.000000,4.000000,4.000000,4.000000,100.000000
1602006758.040512,38.000000,0.000000,4147.179688,4142.051270,4133.846191,4131.282227,4137.948730,4137.436035,4124.615234,4125.128418,4122.563965,4159.487305,4147.179688,4141.025879,4153.333496,4150.769043,0.000000,4.000000,,,,0.000000,4.000000,4.000000,4.000000,4.000000,4.000000,4.000000,4.000000,4.000000,4.000000,4.000000,4.000000,4.000000,4.000000,4.000000,100.000000
1602006758.048393,39.000000,0.000000,4145.641113,4141.025879,4138.461426,4137.436035,4137.436035,4135.897461,4118.974121,4131.794922,4118.461426,4153.333496,4154.358887,4144.102539,4163.077148,4158.974121,0.000000,4.000000,,,,0.000000,4.000000,4.000000,4.000000,4.000000,4.000000,4.000000,4.000000,4.000000,4.000000,4.000000,4.000000,4.000000,4.000000,4.000000,100.000000
1602006758.056173,40.000000,0.000000,4133.333496,4138.461426,4129.230957,4140.512695,4132.820313,4136.410156,4115.384766,4137.436035,4112.307617,4150.769043,4157.948730,4144.102539,4169.743652,4154.358887,0.000000,4.000000,,,,0.000000,4.000000,4.000000,4.000000,4.000000,4.000000,4.000000,4.000000,4.000000,4.000000,4.000000,4.000000,4.000000,4.000000,4.000000,100.000000
1602006758.063954,41.000000,0.000000,4125.641113,4132.820313,4127.692383,4135.897461,4139.487305,4138.974121,4117.948730,4137.436035,4116.410156,4156.410156,4150.256348,4147.692383,4171.794922,4155.384766,0.000000,4.000000,,,,0.000000,4.000000,4.000000,4.000000,4.000000,4.000000,4.000000,4.000000,4.000000,4.000000,4.000000,4.000000,4.000000,4.000000,4.000000,100.000000
1602006758.071835,42.000000,0.000000,4123.077148,4122.563965,4136.922852,4127.179688,4144.102539,4137.436035,4122.563965,4136.410156,4111.282227,4134.358887,4140.000000,4153.846191,4161.025879,4156.410156,0.000000,4.000000,,,,0.000000,4.000000,4.000000,4.000000,4.000000,4.000000,4.000000,4.000000,4.000000,4.000000,4.000000,4.000000,4.000000,4.000000,4.000000,100.000000
1602006758.079716,43.000000,0.000000,4124.102539,4125.128418,4140.512695,4125.128418,4141.025879,4140.512695,4129.743652,4137.948730,4113.333496,4114.871582,4144.615234,4154.358887,4156.410156,4158.461426,0.000000,4.000000,,,,0.000000,4.000000,4.000000,4.000000,4.000000,4.000000,4.000000,4.000000,4.000000,4.000000,4.000000,4.000000,4.000000,4.000000,4.000000,100.000000
1602006758.087597,44.000000,0.000000,4124.102539,4133.846191,4133.333496,4124.615234,4135.897461,4137.436035,4140.000000,4139.487305,4137.436035,4140.512695,4146.153809,4152.307617,4154.871582,4152.820313,0.000000,4.000000,,,,0.000000,4.000000,4.000000,4.000000,4.000000,4.000000,4.000000,4.000000,4.000000,4.000000,4.000000,4.000000,4.000000,4.000000,4.000000,100.000000
1602006758.095478,45.000000,0.000000,4121.538574,4133.846191,4125.641113,4122.051270,4134.871582,4129.230957,4144.102539,4143.589844,4152.307617,4172.307617,4140.000000,4149.230957,4151.794922,4138.974121,0.000000,4.000000,,,,0.000000,4.000000,4.000000,4.000000,4.000000,4.000000,4.000000,4.000000,4.000000,4.000000,4.000000,4.000000,4.000000,4.000000,4.000000,100.000000
1602006758.103359,46.000000,0.000000,4115.897461,4135.384766,4124.102539,4126.153809,4145.128418,4131.794922,4142.563965,4146.153809,4144.102539,4165.641113,4142.563965,4144.102539,4156.922852,4141.538574,0.000000,4.000000,,,,0.000000,4.000000,4.000000,4.000000,4.000000,4.000000,4.000000,4.000000,4.000000,4.000000,4.000000,4.000000,4.000000,4.000000,4.000000,100.000000
1602006758.111340,47.000000,0.000000,4108.205078,4139.487305,4125.128418,4132.307617,4151.794922,4139.487305,4138.461426,4140.000000,4133.846191,4148.205078,4148.205078,4146.153809,4162.051270,4152.820313,0.000000,4.000000,,,,0.000000,4.000000,4.000000,4.000000,4.000000,4.000000,4.000000,4.000000,4.000000,4.000000,4.000000,4.000000,4.000000,4.000000,4.000000,100.000000
1602006758.119221,48.000000,0.000000,4104.615234,4132.820313,4122.051270,4126.666504,4143.077148,4138.461426,4128.717773,4126.666504,4127.179688,4145.128418,4141.025879,4149.743652,4154.358887,4143.589844,0.000000,4.000000,,,,0.000000,4.000000,4.000000,4.000000,4.000000,4.000000,4.000000,4.000000,4.000000,4.000000,4.000000,4.000000,4.000000,4.000000,4.000000,100.000000
1602006758.127102,49.000000,0.000000,4109.230957,4125.641113,4118.974121,4119.487305,4140.512695,4137.436035,4121.538574,4118.461426,4120.000000,4142.563965,4139.487305,4151.282227,4153.333496,4131.794922,0.000000,4.000000,,,,0.000000,4.000000,4.000000,4.000000,4.000000,4.000000,4.000000,4.000000,4.000000,4.000000,4.000000,4.000000,4.000000,4.000000,4.000000,100.000000
1602006758.134984,50.000000,0.000000,4121.025879,4134.871582,4125.128418,4125.641113,4149.230957,4140.512695,4123.589844,4123.589844,4124.102539,4132.820313,4152.307617,4164.102539,4167.179688,4145.641113,0.000000,4.000000,,,,0.000000,4.000000,4.000000,4.000000,4.000000,4.000000,4.000000,4.000000,4.000000,4.000000,4.000000,4.000000,4.000000,4.000000,4.000000,100.000000
1602006758.142865,51.000000,0.000000,4124.102539,4141.025879,4130.256348,4128.717773,4147.179688,4137.948730,4124.615234,4129.230957,4135.384766,4135.897461,4157.436035,4175.897461,4170.769043,4157.948730,0.000000,4.000000,,,,0.000000,4.000000,4.000000,4.000000,4.000000,4.000000,4.000000,4.000000,4.000000,4.000000,4.000000,4.000000,4.000000,4.000000,4.000000,100.000000
1602006758.150746,52.000000,0.000000,4112.307617,4131.282227,4127.692383,4123.589844,4140.000000,4135.384766,4122.051270,4126.666504,4140.000000,4161.025879,4153.846191,4172.307617,4167.692383,4153.333496,0.000000,4.000000,,,,0.000000,4.000000,4.000000,4.000000,4.000000,4.000000,4.000000,4.000000,4.000000,4.000000,4.000000,4.000000,4.000000,4.000000,4.000000,100.000000
1602006758.158627,53.000000,0.000000,4108.205078,4123.589844,4124.102539,4121.538574,4142.051270,4132.307617,4122.563965,4128.205078,4142.563965,4170.769043,4155.384766,4169.230957,4170.769043,4150.769043,0.000000,4.000000,,,,0.000000,4.000000,4.000000,4.000000,4.000000,4.000000,4.000000,4.000000,4.000000,4.000000,4.000000,4.000000,4.000000,4.000000,4.000000,100.000000
1602006758.166508,54.000000,0.000000,4114.358887,4124.615234,4123.077148,4123.589844,4141.025879,4127.179688,4124.615234,4136.410156,4153.846191,4158.974121,4158.461426,4172.307617,4169.743652,4154.358887,0.000000,4.000000,,,,0.000000,4.000000,4.000000,4.000000,4.000000,4.000000,4.000000,4.000000,4.000000,4.000000,4.000000,4.000000,4.000000,4.000000,4.000000,100.000000
1602006758.174389,55.000000,0.000000,4114.358887,4125.128418,4122.563965,4123.589844,4136.922852,4130.769043,4128.205078,4141.025879,4162.051270,4151.794922,4155.897461,4170.256348,4167.692383,4153.333496,0.000000,4.000000,,,,0.000000,4.000000,4.000000,4.000000,4.000000,4.000000,4.000000,4.000000,4.000000,4.000000,4.000000,4.000000,4.000000,4.000000,4.000000,100.000000
1602006758.182370,56.000000,0.000000,4109.230957,4123.589844,4122.051270,4119.487305,4141.025879,4137.436035,4133.333496,4141.025879,4152.820313,4144.615234,4156.410156,4169.230957,4171.282227,4144.615234,0.000000,4.000000,,,,0.000000,4.000000,4.000000,4.000000,4.000000,4.000000,4.000000,4.000000,4.000000,4.000000,4.000000,4.000000,4.000000,4.000000,4.000000,100.000000
1602006758.190251,57.000000,0.000000,4110.256348,4122.051270,4123.077148,4117.436035,4145.128418,4136.410156,4135.897461,4140.512695,4142.563965,4134.871582,4156.410156,4166.666504,4167.692383,4137.948730,0.000000,4.000000,,,,0.000000,4.000000,4.000000,4.000000,4.000000,4.000000,4.000000,4.000000,4.000000,4.000000,4.000000,4.000000,4.000000,4.000000,4.000000,100.000000
1602006758.198132,58.000000,0.000000,4112.307617,4123.589844,4120.000000,4121.025879,4140.000000,4135.384766,4138.461426,4140.512695,4140.000000,4140.000000,4147.179688,4155.897461,4158.974121,4137.948730,0.000000,4.000000,,,,0.000000,4.000000,4.000000,4.000000,4.000000,4.000000,4.000000,4.000000,4.000000,4.000000,4.000000,4.000000,4.000000,4.000000,4.000000,100.000000
1602006758.206013,59.000000,0.000000,4106.153809,4123.589844,4108.717773,4122.051270,4138.974121,4140.512695,4137.948730,4134.871582,4128.717773,4134.871582,4135.384766,4145.641113,4151.794922,4132.307617,0.000000,4.000000,,,,0.000000,4.000000,4.000000,4.000000,4.000000,4.000000,4.000000,4.000000,4.000000,4.000000,4.000000,4.000000,4.000000,4.000000,4.000000,100.000000
1602006758.213894,60.000000,0.000000,4099.487305,4120.512695,4100.512695,4115.897461,4146.153809,4141.025879,4129.230957,4124.102539,4113.846191,4115.897461,4133.846191,4147.179688,4142.051270,4123.077148,0.000000,4.000000,,,,0.000000,4.000000,4.000000,4.000000,4.000000,4.000000,4.000000,4.000000,4.000000,4.000000,4.000000,4.000000,4.000000,4.000000,4.000000,100.000000
1602006758.221875,61.000000,0.000000,4107.692383,4125.128418,4110.256348,4116.410156,4151.282227,4137.948730,4125.128418,4120.000000,4120.512695,4131.282227,4144.615234,4159.487305,4145.641113,4133.333496,0.000000,4.000000,,,,0.000000,4.000000,4.000000,4.000000,4.000000,4.000000,4.000000,4.000000,4.000000,4.000000,4.000000,4.000000,4.000000,4.000000,4.000000,100.000000
1602006758.229755,62.000000,0.000000,4123.589844,4143.077148,4126.666504,4129.743652,4150.256348,4136.922852,4126.666504,4125.641113,4136.922852,4155.897461,4155.384766,4168.717773,4167.692383,4153.846191,0.000000,4.000000,,,,0.000000,4.000000,4.000000,4.000000,4.000000,4.000000,4.000000,4.000000,4.000000,4.000000,4.000000,4.000000,4.000000,4.000000,4.000000,100.000000
1602006758.237636,63.000000,0.000000,4127.692383,4152.820313,4129.230957,4136.410156,4150.769043,4138.461426,4122.051270,4127.179688,4137.948730,4148.205078,4156.922852,4169.743652,4176.922852,4160.512695,0.000000,4.000000,,,,0.000000,4.000000,4.000000,4.000000,4.000000,4.000000,4.000000,4.000000,4.000000,4.000000,4.000000,4.000000,4.000000,4.000000,4.000000,100.000000
1602006758.245417,64.000000,0.000000,4122.563965,4145.641113,4126.153809,4131.282227,4153.846191,4141.538574,4125.641113,4125.128418,4137.436035,4141.025879,4151.282227,4166.153809,4164.102539,4155.897461,788.000000,4.000000,,,,0.000000,4.000000,4.000000,4.000000,4.000000,4.000000,4.000000,4.000000,4.000000,4.000000,4.000000,4.000000,4.000000,4.000000,4.000000,100.000000
1602006758.253298,65.000000,0.000000,4121.025879,4139.487305,4123.589844,4125.128418,4148.717773,4135.897461,4136.922852,4123.077148,4141.538574,4141.538574,4144.102539,4160.000000,4153.846191,4147.692383,743.000000,4.000000,,,,0.000000,4.000000,4.000000,4.000000,4.000000,4.000000,4.000000,4.000000,4.000000,4.000000,4.000000,4.000000,4.000000,4.000000,4.000000,100.000000
1602006758.261179,66.000000,0.000000,4117.948730,4137.948730,4122.563965,4122.563965,4138.974121,4127.692383,4136.410156,4125.128418,4142.051270,4132.820313,4141.025879,4156.410156,4154.358887,4142.563965,852.000000,4.000000,,,,0.000000,4.000000,4.000000,4.000000,4.000000,4.000000,4.000000,4.000000,4.000000,4.000000,4.000000,4.000000,4.000000,4.000000,4.000000,100.000000
1602006758.269060,67.000000,0.000000,4116.922852,4140.512695,4131.282227,4128.717773,4139.487305,4128.205078,4134.358887,4134.871582,4141.025879,4142.051270,4150.769043,4168.717773,4162.563965,4154.358887,868.000000,4.000000,,,,0.000000,4.000000,4.000000,4.000000,4.000000,4.000000,4.000000,4.000000,4.000000,4.000000,4.000000,4.000000,4.000000,4.000000,4.000000,100.000000
1602006758.276941,68.000000,0.000000,4123.589844,4145.641113,4142.051270,4137.436035,4143.077148,4128.205078,4138.974121,4143.589844,4143.077148,4161.538574,4166.666504,4185.128418,4169.743652,4169.743652,815.000000,4.000000,,,,0.000000,4.000000,4.000000,4.000000,4.000000,4.000000,4.000000,4.000000,4.000000,4.000000,4.000000,4.000000,4.000000,4.000000,4.000000,100.000000
1602006758.284822,69.000000,0.000000,4124.615234,4144.615234,4141.538574,4132.307617,4138.461426,4120.000000,4134.871582,4141.538574,4143.077148,4147.692383,4165.641113,4189.743652,4168.205078,4170.769043,815.000000,4.000000,,,,0.000000,4.000000,4.000000,4.000000,4.000000,4.000000,4.000000,4.000000,4.000000,4.000000,4.000000,4.000000,4.000000,4.000000,4.000000,100.000000
1602006758.292803,70.000000,0.000000,4123.077148,4136.410156,4137.436035,4120.512695,4131.794922,4116.922852,4125.641113,4131.282227,4130.769043,4120.000000,4156.922852,4185.641113,4166.153809,4165.641113,759.000000,4.000000,,,,0.000000,4.000000,4.000000,4.000000,4.000000,4.000000,4.000000,4.000000,4.000000,4.000000,4.000000,4.000000,4.000000,4.000000,4.000000,100.000000
1602006758.300684,71.000000,0.000000,4121.538574,4128.205078,4132.820313,4120.000000,4132.820313,4120.512695,4122.563965,4123.589844,4114.871582,4117.436035,4149.230957,4175.384766,4160.000000,4154.871582,665.000000,4.000000,,,,0.000000,4.000000,4.000000,4.000000,4.000000,4.000000,4.000000,4.000000,4.000000,4.000000,4.000000,4.000000,4.000000,4.000000,4.000000,100.000000
1602006758.308565,72.000000,0.000000,4115.384766,4123.589844,4123.589844,4123.077148,4133.846191,4124.615234,4123.589844,4122.563965,4110.769043,4128.717773,4140.000000,4165.641113,4148.717773,4138.974121,779.000000,4.000000,,,,0.000000,4.000000,4.000000,4.000000,4.000000,4.000000,4.000000,4.000000,4.000000,4.000000,4.000000,4.000000,4.000000,4.000000,4.000000,100.000000
1602006758.316446,73.000000,0.000000,4116.410156,4122.563965,4124.615234,4121.025879,4135.384766,4130.769043,4123.077148,4123.589844,4121.025879,4137.436035,4143.589844,4165.128418,4145.641113,4141.538574,838.000000,4.000000,,,,0.000000,4.000000,4.000000,4.000000,4.000000,4.000000,4.000000,4.000000,4.000000,4.000000,4.000000,4.000000,4.000000,4.000000,4.000000,100.000000
1602006758.324327,74.000000,0.000000,4124.615234,4125.641113,4136.410156,4120.000000,4136.410156,4137.436035,4124.615234,4124.102539,4130.769043,4137.948730,4155.897461,4172.307617,4159.487305,4158.461426,873.000000,4.000000,,,,0.000000,4.000000,4.000000,4.000000,4.000000,4.000000,4.000000,4.000000,4.000000,4.000000,4.000000,4.000000,4.000000,4.000000,4.000000,100.000000
1602006758.332208,75.000000,0.000000,4126.666504,4126.666504,4144.102539,4122.051270,4136.922852,4141.025879,4131.282227,4126.666504,4136.922852,4137.948730,4156.410156,4177.436035,4168.205078,4162.563965,837.000000,4.000000,,,,0.000000,4.000000,4.000000,4.000000,4.000000,4.000000,4.000000,4.000000,4.000000,4.000000,4.000000,4.000000,4.000000,4.000000,4.000000,100.000000
1602006758.340090,76.000000,0.000000,4124.102539,4123.589844,4142.051270,4122.563965,4137.436035,4135.897461,4132.307617,4130.769043,4145.128418,4148.717773,4150.256348,4175.384766,4161.538574,4149.230957,768.000000,4.000000,,,,0.000000,4.000000,4.000000,4.000000,4.000000,4.000000,4.000000,4.000000,4.000000,4.000000,4.000000,4.000000,4.000000,4.000000,4.000000,100.000000
1602006758.347971,77.000000,0.000000,4119.487305,4119.487305,4130.256348,4114.358887,4132.307617,4125.641113,4127.179688,4133.846191,4146.153809,4151.794922,4149.230957,4171.282227,4153.333496,4140.512695,731.000000,4.000000,,,,0.000000,4.000000,4.000000,4.000000,4.000000,4.000000,4.000000,4.000000,4.000000,4.000000,4.000000,4.000000,4.000000,4.000000,4.000000,100.000000
1602006758.355852,78.000000,0.000000,4114.871582,4119.487305,4122.051270,4110.769043,4124.615234,4125.641113,4130.256348,4139.487305,4142.563965,4132.307617,4146.666504,4166.153809,4148.205078,4142.563965,873.000000,4.000000,,,,0.000000,4.000000,4.000000,4.000000,4.000000,4.000000,4.000000,4.000000,4.000000,4.000000,4.000000,4.000000,4.000000,4.000000,4.000000,100.000000
1602006758.363833,79.000000,0.000000,4114.871582,4123.077148,4121.538574,4117.948730,4128.205078,4128.205078,4132.820313,4142.563965,4140.000000,4121.025879,4140.512695,4156.410156,4142.051270,4133.846191,837.000000,4.000000,,,,0.000000,4.000000,4.000000,4.000000,4.000000,4.000000,4.000000,4.000000,4.000000,4.000000,4.000000,4.000000,4.000000,4.000000,4.000000,100.000000
1602006758.371714,80.000000,0.000000,4115.897461,4124.615234,4118.974121,4119.487305,4135.897461,4123.589844,4123.077148,4137.948730,4141.025879,4133.846191,4135.897461,4147.692383,4141.538574,4123.589844,768.000000,4.000000,,,,0.000000,4.000000,4.000000,4.000000,4.000000,4.000000,4.000000,4.000000,4.000000,4.000000,4.000000,4.000000,4.000000,4.000000,4.000000,100.000000
1602006758.379595,81.000000,0.000000,4123.589844,4132.820313,4126.153809,4122.051270,4137.948730,4117.948730,4117.436035,4134.871582,4140.000000,4145.641113,4142.563965,4150.256348,4152.307617,4137.948730,731.000000,4.000000,,,,0.000000,4.000000,4.000000,4.000000,4.000000,4.000000,4.000000,4.000000,4.000000,4.000000,4.000000,4.000000,4.000000,4.000000,4.000000,100.000000
1602006758.387476,82.000000,0.000000,4140.512695,4150.769043,4146.666504,4135.897461,4142.051270,4127.179688,4126.153809,4135.897461,4132.307617,4144.102539,4150.769043,4159.487305,4160.512695,4156.922852,873.000000,4.000000,,,,0.000000,4.000000,4.000000,4.000000,4.000000,4.000000,4.000000,4.000000,4.000000,4.000000,4.000000,4.000000,4.000000,4.000000,4.000000,100.000000
1602006758.395356,83.000000,0.000000,4140.000000,4151.794922,4150.256348,4137.948730,4146.153809,4134.871582,4128.205078,4130.769043,4123.077148,4133.333496,4143.077148,4157.948730,4152.307617,4142.563965,837.000000,4.000000,,,,0.000000,4.000000,4.000000,4.000000,4.000000,4.000000,4.000000,4.000000,4.000000,4.000000,4.000000,4.000000,4.000000,4.000000,4.000000,100.000000
1602006758.403338,84.000000,0.000000,4120.512695,4137.436035,4132.820313,4125.641113,4141.025879,4130.769043,4122.051270,4121.538574,4114.358887,4125.128418,4132.820313,4145.128418,4138.974121,4120.000000,768.000000,4.000000,,,,0.000000,4.000000,4.000000,4.000000,4.000000,4.000000,4.000000,4.000000,4.000000,4.000000,4.000000,4.000000,4.000000,4.000000,4.000000,100.000000
1602006758.411219,85.000000,0.000000,4109.743652,4132.820313,4123.077148,4122.051270,4136.922852,4131.282227,4126.666504,4117.948730,4113.846191,4123.589844,4134.358887,4140.000000,4136.410156,4119.487305,731.000000,4.000000,,,,0.000000,4.000000,4.000000,4.000000,4.000000,4.000000,4.000000,4.000000,4.000000,4.000000,4.000000,4.000000,4.000000,4.000000,4.000000,100.000000
1602006758.419100,86.000000,0.000000,4111.794922,4130.256348,4123.589844,4122.563965,4137.948730,4133.846191,4136.922852,4125.128418,4124.102539,4118.974121,4136.410156,4146.153809,4139.487305,4129.230957,873.000000,4.000000,,,,0.000000,4.000000,4.000000,4.000000,4.000000,4.000000,4.000000,4.000000,4.000000,4.000000,4.000000,4.000000,4.000000,4.000000,4.000000,100.000000
1602006758.426981,87.000000,0.000000,4116.410156,4123.589844,4129.230957,4118.461426,4135.384766,4130.769043,4139.487305,4135.384766,4137.436035,4123.589844,4138.461426,4158.974121,4139.487305,4136.410156,837.000000,4.000000,,,,0.000000,4.000000,4.000000,4.000000,4.000000,4.000000,4.000000,4.000000,4.000000,4.000000,4.000000,4.000000,4.000000,4.000000,4.000000,100.000000
1602006758.434862,88.000000,0.000000,4129.230957,4130.769043,4143.077148,4126.666504,4135.897461,4133.333496,4138.461426,4140.000000,4142.051270,4144.615234,4150.256348,4173.846191,4150.769043,4145.641113,768.000000,4.000000,,,,0.000000,4.000000,4.000000,4.000000,4.000000,4.000000,4.000000,4.000000,4.000000,4.000000,4.000000,4.000000,4.000000,4.000000,4.000000,100.000000
1602006758.442743,89.000000,0.000000,4143.589844,4144.615234,4155.384766,4137.948730,4139.487305,4133.333496,4137.948730,4141.025879,4144.102539,4163.589844,4164.102539,4189.230957,4170.256348,4167.179688,731.000000,4.000000,,,,0.000000,4.000000,4.000000,4.000000,4.000000,4.000000,4.000000,4.000000,4.000000,4.000000,4.000000,4.000000,4.000000,4.000000,4.000000,100.000000
1602006758.450625,90.000000,0.000000,4145.128418,4145.128418,4157.436035,4138.461426,4137.436035,4122.563965,4129.230957,4144.615234,4152.307617,4168.717773,4171.282227,4196.922852,4181.538574,4185.128418,873.000000,4.000000,,,,0.000000,4.000000,4.000000,4.000000,4.000000,4.000000,4.000000,4.000000,4.000000,4.000000,4.000000,4.000000,4.000000,4.000000,4.000000,100.000000
1602006758.458506,91.000000,0.000000,4141.025879,4143.589844,4155.897461,4138.461426,4135.384766,4125.128418,4120.512695,4147.179688,4157.436035,4167.179688,4171.794922,4193.333496,4188.717773,4180.000000,837.000000,4.000000,,,,0.000000,4.000000,4.000000,4.000000,4.000000,4.000000,4.000000,4.000000,4.000000,4.000000,4.000000,4.000000,4.000000,4.000000,4.000000,100.000000
1602006758.466387,92.000000,0.000000,4142.051270,4144.102539,4150.769043,4137.436035,4138.974121,4137.948730,4126.153809,4142.563965,4158.974121,4163.077148,4169.743652,4188.205078,4186.666504,4169.230957,768.000000,4.000000,,,,0.000000,4.000000,4.000000,4.000000,4.000000,4.000000,4.000000,4.000000,4.000000,4.000000,4.000000,4.000000,4.000000,4.000000,4.000000,100.000000
1602006758.474168,93.000000,0.000000,4140.512695,4140.512695,4143.589844,4130.256348,4140.000000,4138.461426,4135.384766,4137.436035,4158.461426,4154.358887,4165.128418,4181.025879,4174.358887,4170.769043,731.000000,4.000000,,,,0.000000,4.000000,4.000000,4.000000,4.000000,4.000000,4.000000,4.000000,4.000000,4.000000,4.000000,4.000000,4.000000,4.000000,4.000000,100.000000
1602006758.482049,94.000000,0.000000,4137.436035,4134.358887,4143.589844,4127.179688,4137.948730,4136.922852,4138.974121,4139.487305,4152.820313,4142.563965,4161.025879,4176.410156,4169.230957,4173.846191,873.000000,4.000000,,,,0.000000,4.000000,4.000000,4.000000,4.000000,4.000000,4.000000,4.000000,4.000000,4.000000,4.000000,4.000000,4.000000,4.000000,4.000000,100.000000
1602006758.489930,95.000000,0.000000,4134.871582,4126.666504,4144.102539,4125.641113,4135.897461,4138.461426,4137.436035,4140.512695,4141.538574,4131.282227,4157.436035,4171.794922,4164.102539,4166.666504,837.000000,4.000000,,,,0.000000,4.000000,4.000000,4.000000,4.000000,4.000000,4.000000,4.000000,4.000000,4.000000,4.000000,4.000000,4.000000,4.000000,4.000000,100.000000
1602006758.497811,96.000000,0.000000,4123.077148,4122.051270,4132.307617,4120.000000,4135.897461,4137.948730,4138.461426,4132.307617,4131.282227,4134.358887,4148.205078,4162.051270,4152.307617,4147.179688,768.000000,4.000000,,,,0.000000,4.000000,4.000000,4.000000,4.000000,4.000000,4.000000,4.000000,4.000000,4.000000,4.000000,4.000000,4.000000,4.000000,4.000000,100.000000
1602006758.505692,97.000000,0.000000,4107.179688,4121.025879,4121.025879,4118.974121,4136.922852,4135.384766,4141.025879,4126.666504,4132.820313,4145.128418,4134.871582,4148.205078,4148.717773,4128.205078,731.000000,4.000000,,,,0.000000,4.000000,4.000000,4.000000,4.000000,4.000000,4.000000,4.000000,4.000000,4.000000,4.000000,4.000000,4.000000,4.000000,4.000000,100.000000
1602006758.513573,98.000000,0.000000,4102.051270,4119.487305,4119.487305,4122.563965,4137.948730,4127.692383,4134.358887,4127.692383,4138.461426,4144.102539,4134.358887,4137.436035,4147.179688,4129.230957,873.000000,4.000000,,,,0.000000,4.000000,4.000000,4.000000,4.000000,4.000000,4.000000,4.000000,4.000000,4.000000,4.000000,4.000000,4.000000,4.000000,4.000000,100.000000
1602006758.521453,99.000000,0.000000,4111.794922,4121.538574,4121.025879,4123.077148,4138.461426,4122.563965,4122.563965,4127.179688,4136.922852,4139.487305,4142.051270,4138.974121,4144.615234,4138.461426,837.000000,4.000000,,,,0.000000,4.000000,4.000000,4.000000,4.000000,4.000000,4.000000,4.000000,4.000000,4.000000,4.000000,4.000000,4.000000,4.000000,4.000000,100.000000
1602006758.529434,100.000000,0.000000,4118.974121,4126.153809,4122.051270,4124.102539,4140.000000,4125.641113,4118.461426,4126.153809,4142.563965,4152.307617,4141.538574,4138.974121,4151.794922,4137.948730,768.000000,4.000000,,,,0.000000,4.000000,4.000000,4.000000,4.000000,4.000000,4.000000,4.000000,4.000000,4.000000,4.000000,4.000000,4.000000,4.000000,4.000000,100.000000
1602006758.537315,101.000000,0.000000,4114.358887,4126.666504,4120.000000,4123.077148,4139.487305,4126.153809,4116.922852,4127.179688,4153.846191,4156.410156,4137.948730,4134.871582,4153.846191,4132.307617,731.000000,4.000000,,,,0.000000,4.000000,4.000000,4.000000,4.000000,4.000000,4.000000,4.000000,4.000000,4.000000,4.000000,4.000000,4.000000,4.000000,4.000000,100.000000
1602006758.545196,102.000000,0.000000,4122.563965,4130.769043,4127.179688,4126.153809,4136.410156,4121.025879,4109.230957,4123.589844,4148.717773,4124.615234,4146.666504,4142.051270,4149.230957,4135.384766,873.000000,4.000000,,,,0.000000,4.000000,4.000000,4.000000,4.000000,4.000000,4.000000,4.000000,4.000000,4.000000,4.000000,4.000000,4.000000,4.000000,4.000000,100.000000
1602006758.553077,103.000000,0.000000,4149.230957,4138.461426,4145.641113,4137.436035,4135.384766,4121.025879,4109.230957,4121.538574,4140.512695,4120.000000,4157.436035,4160.000000,4157.436035,4147.692383,837.000000,4.000000,,,,0.000000,4.000000,4.000000,4.000000,4.000000,4.000000,4.000000,4.000000,4.000000,4.000000,4.000000,4.000000,4.000000,4.000000,4.000000,100.000000
1602006758.560958,104.000000,0.000000,4150.256348,4135.384766,4149.743652,4137.948730,4137.948730,4128.205078,4120.000000,4122.563965,4140.512695,4160.512695,4151.282227,4158.974121,4159.487305,4147.179688,768.000000,4.000000,,,,0.000000,4.000000,4.000000,4.000000,4.000000,4.000000,4.000000,4.000000,4.000000,4.000000,4.000000,4.000000,4.000000,4.000000,4.000000,100.000000
1602006758.568939,105.000000,0.000000,4118.461426,4120.000000,4125.128418,4122.051270,4130.769043,4127.692383,4122.051270,4115.384766,4124.615234,4154.358887,4131.282227,4130.769043,4130.769043,4117.436035,731.000000,4.000000,,,,0.000000,4.000000,4.000000,4.000000,4.000000,4.000000,4.000000,4.000000,4.000000,4.000000,4.000000,4.000000,4.000000,4.000000,4.000000,100.000000
1602006758.576820,106.000000,0.000000,4101.025879,4107.179688,4106.666504,4110.769043,4121.025879,4124.615234,4120.512695,4112.820313,4104.102539,4108.205078,4117.436035,4113.333496,4103.077148,4093.333252,873.000000,4.000000,,,,0.000000,4.000000,4.000000,4.000000,4.000000,4.000000,4.000000,4.000000,4.000000,4.000000,4.000000,4.000000,4.000000,4.000000,4.000000,100.000000
1602006758.584701,107.000000,0.000000,4105.641113,4106.153809,4112.307617,4114.871582,4127.692383,4129.743652,4131.282227,4127.692383,4112.820313,4108.717773,4114.871582,4117.948730,4106.666504,4101.025879,837.000000,4.000000,,,,0.000000,4.000000,4.000000,4.000000,4.000000,4.000000,4.000000,4.000000,4.000000,4.000000,4.000000,4.000000,4.000000,4.000000,4.000000,100.000000
1602006758.592582,108.000000,0.000000,4107.692383,4112.820313,4120.000000,4121.538574,4133.846191,4129.230957,4142.051270,4142.563965,4129.743652,4127.692383,4116.922852,4121.538574,4118.974121,4116.922852,768.000000,4.000000,,,,0.000000,4.000000,4.000000,4.000000,4.000000,4.000000,4.000000,4.000000,4.000000,4.000000,4.000000,4.000000,4.000000,4.000000,4.000000,100.000000
1602006758.600462,109.000000,0.000000,4110.256348,4120.512695,4125.128418,4124.102539,4128.717773,4123.077148,4140.512695,4142.563965,4134.871582,4119.487305,4124.615234,4124.615234,4125.128418,4128.717773,731.000000,4.000000,,,,0.000000,4.000000,4.000000,4.000000,4.000000,4.000000,4.000000,4.000000,4.000000,4.000000,4.000000,4.000000,4.000000,4.000000,4.000000,100.000000
1602006758.608343,110.000000,0.000000,4128.717773,4125.128418,4138.461426,4127.179688,4131.794922,4124.615234,4140.000000,4141.025879,4141.538574,4124.615234,4135.897461,4133.333496,4133.846191,4143.077148,873.000000,4.000000,,,,0.000000,4.000000,4.000000,4.000000,4.000000,4.000000,4.000000,4.000000,4.000000,4.000000,4.000000,4.000000,4.000000,4.000000,4.000000,100.000000
1602006758.616224,111.000000,0.000000,4139.487305,4126.153809,4140.000000,4128.717773,4140.512695,4129.230957,4142.051270,4144.615234,4143.589844,4142.563965,4145.641113,4138.974121,4142.563965,4153.846191,837.000000,4.000000,,,,0.000000,4.000000,4.000000,4.000000,4.000000,4.000000,4.000000,4.000000,4.000000,4.000000,4.000000,4.000000,4.000000,4.000000,4.000000,100.000000
1602006758.624005,112.000000,0.000000,4127.692383,4122.051270,4122.051270,4123.589844,4136.410156,4120.512695,4133.846191,4140.512695,4126.666504,4138.461426,4151.794922,4141.538574,4146.666504,4154.358887,768.000000,4.000000,,,,0.000000,4.000000,4.000000,4.000000,4.000000,4.000000,4.000000,4.000000,4.000000,4.000000,4.000000,4.000000,4.000000,4.000000,4.000000,100.000000
1602006758.631886,113.000000,0.000000,4127.179688,4123.077148,4126.153809,4122.051270,4132.820313,4109.230957,4121.538574,4134.358887,4124.615234,4136.922852,4157.436035,4154.358887,4153.333496,4157.948730,731.000000,4.000000,,,,0.000000,4.000000,4.000000,4.000000,4.000000,4.000000,4.000000,4.000000,4.000000,4.000000,4.000000,4.000000,4.000000,4.000000,4.000000,100.000000
1602006758.639767,114.000000,0.000000,4145.641113,4129.230957,4154.358887,4129.743652,4137.948730,4113.333496,4119.487305,4136.410156,4141.538574,4155.897461,4161.025879,4169.743652,4161.538574,4171.794922,873.000000,4.000000,,,,0.000000,4.000000,4.000000,4.000000,4.000000,4.000000,4.000000,4.000000,4.000000,4.000000,4.000000,4.000000,4.000000,4.000000,4.000000,100.000000
1602006758.647648,115.000000,0.000000,4144.102539,4126.666504,4163.077148,4129.743652,4131.794922,4119.487305,4119.487305,4138.461426,4136.410156,4156.410156,4152.307617,4169.230957,4158.974121,4174.358887,837.000000,4.000000,,,,0.000000,4.000000,4.000000,4.000000,4.000000,4.000000,4.000000,4.000000,4.000000,4.000000,4.000000,4.000000,4.000000,4.000000,4.000000,100.000000
1602006758.655529,116.000000,0.000000,4122.051270,4118.461426,4152.820313,4120.000000,4113.333496,4116.922852,4123.077148,4135.897461,4122.051270,4131.282227,4144.102539,4161.025879,4148.717773,4157.948730,768.000000,4.000000,,,,0.000000,4.000000,4.000000,4.000000,4.000000,4.000000,4.000000,4.000000,4.000000,4.000000,4.000000,4.000000,4.000000,4.000000,4.000000,100.000000
1602006758.663410,117.000000,0.000000,4110.256348,4111.282227,4143.589844,4111.282227,4107.692383,4121.538574,4136.922852,4137.948730,4131.794922,4124.102539,4146.666504,4148.717773,4141.538574,4147.179688,731.000000,4.000000,,,,0.000000,4.000000,4.000000,4.000000,4.000000,4.000000,4.000000,4.000000,4.000000,4.000000,4.000000,4.000000,4.000000,4.000000,4.000000,100.000000
1602006758.671291,118.000000,0.000000,4098.974121,4105.641113,4124.102539,4107.692383,4117.948730,4138.461426,4144.102539,4140.512695,4142.051270,4140.000000,4141.538574,4129.230957,4132.820313,4140.000000,873.000000,4.000000,,,,0.000000,4.000000,4.000000,4.000000,4.000000,4.000000,4.000000,4.000000,4.000000,4.000000,4.000000,4.000000,4.000000,4.000000,4.000000,100.000000
1602006758.679272,119.000000,0.000000,4084.102539,4102.563965,4097.948730,4105.641113,4123.077148,4140.000000,4137.436035,4138.461426,4133.846191,4147.179688,4120.512695,4113.333496,4120.000000,4120.000000,837.000000,4.000000,,,,0.000000,4.000000,4.000000,4.000000,4.000000,4.000000,4.000000,4.000000,4.000000,4.000000,4.000000,4.000000,4.000000,4.000000,4.000000,100.000000
1602006758.687153,120.000000,0.000000,4087.692383,4102.051270,4093.333252,4104.102539,4127.179688,4138.461426,4141.025879,4142.563965,4127.692383,4133.333496,4116.922852,4116.410156,4116.922852,4116.410156,768.000000,4.000000,,,,0.000000,4.000000,4.000000,4.000000,4.000000,4.000000,4.000000,4.000000,4.000000,4.000000,4.000000,4.000000,4.000000,4.000000,4.000000,100.000000
1602006758.695034,121.000000,0.000000,4105.128418,4107.179688,4107.179688,4105.128418,4146.153809,4155.897461,4151.282227,4154.871582,4140.000000,4130.769043,4137.436035,4132.820313,4134.871582,4134.358887,731.000000,4.000000,,,,0.000000,4.000000,4.000000,4.000000,4.000000,4.000000,4.000000,4.000000,4.000000,4.000000,4.000000,4.000000,4.000000,4.000000,4.000000,100.000000
1602006758.702915,122.000000,0.000000,4109.230957,4117.436035,4109.230957,4112.820313,4160.512695,4163.589844,4144.615234,4156.922852,4155.897461,4152.820313,4147.692383,4138.974121,4151.282227,4141.538574,873.000000,4.000000,,,,0.000000,4.000000,4.000000,4.000000,4.000000,4.000000,4.000000,4.000000,4.000000,4.000000,4.000000,4.000000,4.000000,4.000000,4.000000,100.000000
1602006758.710797,123.000000,0.000000,4103.077148,4119.487305,4105.128418,4120.000000,4150.769043,4152.307617,4132.307617,4143.589844,4146.153809,4152.820313,4137.948730,4130.256348,4145.128418,4136.410156,837.000000,4.000000,,,,0.000000,4.000000,4.000000,4.000000,4.000000,4.000000,4.000000,4.000000,4.000000,4.000000,4.000000,4.000000,4.000000,4.000000,4.000000,100.000000
1602006758.718678,124.000000,0.000000,4113.333496,4116.922852,4114.358887,4122.051270,4134.871582,4151.282227,4128.205078,4133.846191,4122.051270,4131.794922,4133.846191,4124.102539,4134.871582,4139.487305,768.000000,4.000000,,,,0.000000,4.000000,4.000000,4.000000,4.000000,4.000000,4.000000,4.000000,4.000000,4.000000,4.000000,4.000000,4.000000,4.000000,4.000000,100.000000
1602006758.726559,125.000000,0.000000,4126.666504,4120.512695,4126.666504,4122.051270,4126.153809,4154.358887,4126.153809,4135.897461,4120.512695,4136.410156,4139.487305,4130.256348,4140.000000,4142.051270,731.000000,4.000000,,,,0.000000,4.000000,4.000000,4.000000,4.000000,4.000000,4.000000,4.000000,4.000000,4.000000,4.000000,4.000000,4.000000,4.000000,4.000000,100.000000
1602006758.734440,126.000000,0.000000,4125.641113,4121.538574,4124.102539,4120.000000,4120.512695,4144.615234,4123.077148,4135.384766,4129.743652,4145.128418,4137.436035,4136.410156,4141.025879,4138.974121,873.000000,4.000000,,,,0.000000,4.000000,4.000000,4.000000,4.000000,4.000000,4.000000,4.000000,4.000000,4.000000,4.000000,4.000000,4.000000,4.000000,4.000000,100.000000
1602006758.742321,127.000000,0.000000,4125.641113,4119.487305,4118.974121,4120.000000,4118.974121,4136.410156,4123.077148,4129.743652,4121.538574,4130.256348,4126.666504,4134.871582,4125.641113,4137.948730,837.000000,4.000000,,,,0.000000,4.000000,4.000000,4.000000,4.000000,4.000000,4.000000,4.000000,4.000000,4.000000,4.000000,4.000000,4.000000,4.000000,4.000000,100.000000
1602006758.750103,128.000000,0.000000,4138.461426,4121.538574,4130.769043,4123.589844,4120.000000,4136.410156,4126.153809,4128.717773,4108.205078,4120.000000,4121.025879,4134.871582,4118.974121,4138.461426,768.000000,4.000000,,,,0.000000,4.000000,4.000000,4.000000,4.000000,4.000000,4.000000,4.000000,4.000000,4.000000,4.000000,4.000000,4.000000,4.000000,4.000000,100.000000
1602006758.757984,0.000000,0.000000,4145.641113,4126.153809,4140.512695,4126.153809,4122.051270,4137.436035,4133.846191,4132.820313,4109.230957,4127.179688,4130.256348,4145.641113,4128.205078,4142.051270,788.000000,4.000000,,,,0.000000,4.000000,4.000000,4.000000,4.000000,4.000000,4.000000,4.000000,4.000000,4.000000,4.000000,4.000000,4.000000,4.000000,4.000000,100.000000
1602006758.765865,1.000000,0.000000,4134.871582,4123.589844,4131.794922,4122.563965,4131.794922,4139.487305,4137.436035,4137.436035,4114.871582,4124.615234,4134.358887,4152.820313,4127.692383,4140.000000,773.000000,4.000000,,,,0.000000,4.000000,4.000000,4.000000,4.000000,4.000000,4.000000,4.000000,4.000000,4.000000,4.000000,4.000000,4.000000,4.000000,4.000000,100.000000
1602006758.773746,2.000000,0.000000,4121.538574,4114.358887,4125.128418,4118.461426,4136.410156,4140.000000,4130.256348,4134.358887,4109.230957,4108.717773,4123.077148,4143.589844,4117.948730,4126.666504,852.000000,4.000000,,,,0.000000,4.000000,4.000000,4.000000,4.000000,4.000000,4.000000,4.000000,4.000000,4.000000,4.000000,4.000000,4.000000,4.000000,4.000000,100.000000
1602006758.781627,3.000000,0.000000,4117.948730,4109.743652,4124.615234,4116.410156,4125.641113,4134.358887,4125.641113,4128.717773,4104.102539,4104.615234,4116.922852,4135.897461,4113.846191,4123.589844,868.000000,4.000000,,,,0.000000,4.000000,4.000000,4.000000,4.000000,4.000000,4.000000,4.000000,4.000000,4.000000,4.000000,4.000000,4.000000,4.000000,4.000000,100.000000
1602006758.789508,4.000000,0.000000,4127.179688,4118.974121,4124.102539,4118.974121,4125.641113,4134.358887,4130.769043,4132.307617,4114.871582,4123.077148,4128.717773,4140.512695,4122.051270,4143.077148,814.000000,4.000000,,,,0.000000,4.000000,4.000000,4.000000,4.000000,4.000000,4.000000,4.000000,4.000000,4.000000,4.000000,4.000000,4.000000,4.000000,4.000000,100.000000
1602006758.797390,5.000000,0.000000,4135.384766,4126.666504,4129.743652,4125.641113,4135.384766,4140.000000,4137.436035,4142.051270,4130.256348,4138.461426,4141.025879,4144.615234,4137.948730,4161.025879,815.000000,4.000000,,,,0.000000,4.000000,4.000000,4.000000,4.000000,4.000000,4.000000,4.000000,4.000000,4.000000,4.000000,4.000000,4.000000,4.000000,4.000000,100.000000
1602006758.805271,6.000000,0.000000,4141.025879,4128.717773,4137.436035,4127.692383,4129.743652,4142.051270,4137.948730,4142.563965,4135.897461,4140.000000,4142.051270,4143.589844,4146.666504,4161.025879,805.000000,4.000000,,,,0.000000,4.000000,4.000000,4.000000,4.000000,4.000000,4.000000,4.000000,4.000000,4.000000,4.000000,4.000000,4.000000,4.000000,4.000000,100.000000
1602006758.813152,7.000000,0.000000,4148.717773,4133.333496,4137.436035,4126.666504,4121.538574,4146.153809,4135.384766,4141.025879,4137.436035,4152.820313,4142.563965,4142.563965,4144.102539,4155.897461,664.000000,4.000000,,,,0.000000,4.000000,4.000000,4.000000,4.000000,4.000000,4.000000,4.000000,4.000000,4.000000,4.000000,4.000000,4.000000,4.000000,4.000000,100.000000
1602006758.820933,8.000000,0.000000,4149.230957,4134.358887,4136.410156,4127.179688,4131.794922,4153.846191,4137.436035,4144.102539,4140.000000,4163.077148,4144.615234,4142.563965,4143.077148,4158.974121,779.000000,4.000000,,,,0.000000,4.000000,4.000000,4.000000,4.000000,4.000000,4.000000,4.000000,4.000000,4.000000,4.000000,4.000000,4.000000,4.000000,4.000000,100.000000
1602006758.828813,9.000000,0.000000,4140.000000,4129.230957,4131.794922,4125.128418,4141.538574,4154.871582,4139.487305,4142.051270,4140.000000,4145.641113,4143.077148,4146.666504,4143.077148,4159.487305,838.000000,4.000000,,,,0.000000,4.000000,4.000000,4.000000,4.000000,4.000000,4.000000,4.000000,4.000000,4.000000,4.000000,4.000000,4.000000,4.000000,4.000000,100.000000
1602006758.836794,10.000000,0.000000,4134.871582,4125.128418,4123.589844,4123.077148,4138.461426,4145.641113,4137.436035,4138.461426,4133.846191,4133.333496,4140.512695,4145.128418,4134.871582,4150.769043,873.000000,4.000000,,,,0.000000,4.000000,4.000000,4.000000,4.000000,4.000000,4.000000,4.000000,4.000000,4.000000,4.000000,4.000000,4.000000,4.000000,4.000000,100.000000
1602006758.844675,11.000000,0.000000,4134.358887,4120.000000,4123.589844,4122.051270,4134.358887,4136.922852,4136.410156,4137.948730,4126.666504,4135.897461,4136.922852,4130.256348,4120.512695,4136.922852,837.000000,4.000000,,,,0.000000,4.000000,4.000000,4.000000,4.000000,4.000000,4.000000,4.000000,4.000000,4.000000,4.000000,4.000000,4.000000,4.000000,4.000000,100.000000
1602006758.852456,12.000000,0.000000,4118.974121,4108.205078,4118.461426,4113.333496,4133.333496,4135.897461,4136.410156,4132.820313,4121.025879,4121.025879,4126.153809,4113.846191,4107.692383,4119.487305,768.000000,4.000000,,,,0.000000,4.000000,4.000000,4.000000,4.000000,4.000000,4.000000,4.000000,4.000000,4.000000,4.000000,4.000000,4.000000,4.000000,4.000000,100.000000
1602006758.860337,13.000000,0.000000,4101.538574,4101.538574,4100.512695,4103.077148,4135.384766,4136.922852,4130.769043,4126.153809,4117.436035,4106.666504,4116.922852,4101.538574,4101.538574,4105.128418,731.000000,4.000000,,,,0.000000,4.000000,4.000000,4.000000,4.000000,4.000000,4.000000,4.000000,4.000000,4.000000,4.000000,4.000000,4.000000,4.000000,4.000000,100.000000
1602006758.868218,14.000000,0.000000,4108.717773,4109.230957,4093.846191,4109.230957,4137.436035,4134.358887,4123.077148,4125.641113,4118.974121,4121.538574,4120.000000,4096.410156,4103.077148,4106.153809,873.000000,4.000000,,,,0.000000,4.000000,4.000000,4.000000,4.000000,4.000000,4.000000,4.000000,4.000000,4.000000,4.000000,4.000000,4.000000,4.000000,4.000000,100.000000
1602006758.876099,15.000000,0.000000,4124.615234,4120.000000,4104.102539,4123.589844,4139.487305,4133.846191,4120.000000,4127.692383,4122.563965,4128.717773,4121.538574,4100.000000,4105.128418,4114.871582,837.000000,4.000000,,,,0.000000,4.000000,4.000000,4.000000,4.000000,4.000000,4.000000,4.000000,4.000000,4.000000,4.000000,4.000000,4.000000,4.000000,4.000000,100.000000
1602006758.883981,16.000000,0.000000,4124.615234,4128.717773,4107.692383,4127.692383,4148.205078,4141.025879,4121.025879,4129.743652,4121.025879,4118.461426,4123.589844,4102.051270,4108.717773,4118.974121,0.000000,4.000000,,,,0.000000,4.000000,4.000000,4.000000,4.000000,4.000000,4.000000,4.000000,4.000000,4.000000,4.000000,4.000000,4.000000,4.000000,4.000000,100.000000
1602006758.891862,17.000000,0.000000,4123.077148,4134.871582,4106.153809,4126.153809,4154.871582,4141.538574,4124.102539,4135.897461,4125.128418,4132.820313,4136.922852,4106.153809,4121.538574,4125.641113,0.000000,4.000000,,,,0.000000,4.000000,4.000000,4.000000,4.000000,4.000000,4.000000,4.000000,4.000000,4.000000,4.000000,4.000000,4.000000,4.000000,4.000000,100.000000
1602006758.899743,18.000000,0.000000,4139.487305,4140.512695,4121.025879,4129.743652,4153.333496,4140.000000,4131.794922,4148.717773,4144.102539,4160.000000,4155.897461,4129.743652,4144.102539,4144.102539,0.000000,4.000000,,,,0.000000,4.000000,4.000000,4.000000,4.000000,4.000000,4.000000,4.000000,4.000000,4.000000,4.000000,4.000000,4.000000,4.000000,4.000000,100.000000
1602006758.907624,19.000000,0.000000,4156.922852,4143.589844,4146.666504,4137.436035,4150.769043,4147.179688,4145.128418,4164.615234,4166.153809,4157.948730,4169.230957,4161.538574,4166.666504,4167.179688,0.000000,4.000000,,,,0.000000,4.000000,4.000000,4.000000,4.000000,4.000000,4.000000,4.000000,4.000000,4.000000,4.000000,4.000000,4.000000,4.000000,4.000000,100.000000
1602006758.915605,20.000000,0.000000,4158.974121,4142.563965,4164.102539,4141.025879,4148.717773,4147.692383,4155.897461,4171.794922,4176.410156,4163.077148,4177.436035,4180.000000,4176.410156,4176.922852,0.000000,4.000000,,,,0.000000,4.000000,4.000000,4.000000,4.000000,4.000000,4.000000,4.000000,4.000000,4.000000,4.000000,4.000000,4.000000,4.000000,4.000000,100.000000
1602006758.923486,21.000000,0.000000,4154.871582,4141.538574,4170.256348,4138.974121,4144.102539,4141.538574,4158.974121,4171.794922,4176.922852,4187.692383,4179.487305,4188.205078,4173.846191,4177.948730,0.000000,4.000000,,,,0.000000,4.000000,4.000000,4.000000,4.000000,4.000000,4.000000,4.000000,4.000000,4.000000,4.000000,4.000000,4.000000,4.000000,4.000000,100.000000
1602006758.931367,22.000000,0.000000,4155.384766,4144.615234,4168.205078,4138.974121,4141.538574,4145.128418,4159.487305,4172.307617,4171.282227,4180.000000,4176.922852,4189.230957,4171.794922,4185.128418,0.000000,4.000000,,,,0.000000,4.000000,4.000000,4.000000,4.000000,4.000000,4.000000,4.000000,4.000000,4.000000,4.000000,4.000000,4.000000,4.000000,4.000000,100.000000
1602006758.939248,23.000000,0.000000,4160.000000,4143.589844,4160.512695,4139.487305,4137.436035,4147.179688,4157.436035,4162.051270,4163.077148,4150.256348,4173.333496,4180.000000,4168.717773,4186.153809,0.000000,4.000000,,,,0.000000,4.000000,4.000000,4.000000,4.000000,4.000000,4.000000,4.000000,4.000000,4.000000,4.000000,4.000000,4.000000,4.000000,4.000000,100.000000
1602006758.947129,24.000000,0.000000,4153.333496,4131.794922,4149.743652,4131.794922,4131.794922,4138.461426,4153.846191,4143.077148,4154.358887,4147.179688,4160.512695,4166.666504,4152.820313,4168.205078,0.000000,4.000000,,,,0.000000,4.000000,4.000000,4.000000,4.000000,4.000000,4.000000,4.000000,4.000000,4.000000,4.000000,4.000000,4.000000,4.000000,4.000000,100.000000
1602006758.955110,25.000000,0.000000,4134.871582,4122.051270,4140.512695,4124.615234,4133.333496,4135.897461,4151.282227,4136.410156,4140.000000,4153.333496,4144.102539,4155.897461,4138.974121,4145.128418,0.000000,4.000000,,,,0.000000,4.000000,4.000000,4.000000,4.000000,4.000000,4.000000,4.000000,4.000000,4.000000,4.000000,4.000000,4.000000,4.000000,4.000000,100.000000
1602006758.962991,26.000000,0.000000,4120.512695,4122.563965,4132.820313,4124.615234,4136.922852,4137.948730,4145.128418,4136.410156,4128.205078,4132.307617,4135.897461,4147.179688,4135.897461,4138.461426,0.000000,4.000000,,,,0.000000,4.000000,4.000000,4.000000,4.000000,4.000000,4.000000,4.000000,4.000000,4.000000,4.000000,4.000000,4.000000,4.000000,4.000000,100.000000
1602006758.970872,27.000000,0.000000,4121.025879,4122.563965,4123.077148,4124.615234,4135.384766,4133.333496,4138.974121,4133.333496,4133.846191,4116.410156,4138.974121,4142.051270,4135.384766,4140.000000,0.000000,4.000000,,,,0.000000,4.000000,4.000000,4.000000,4.000000,4.000000,4.000000,4.000000,4.000000,4.000000,4.000000,4.000000,4.000000,4.000000,4.000000,100.000000
1602006758.978753,28.000000,0.000000,4131.282227,4120.000000,4119.487305,4120.512695,4137.436035,4132.820313,4135.897461,4133.333496,4141.025879,4138.461426,4147.179688,4146.666504,4138.461426,4136.922852,0.000000,4.000000,,,,0.000000,4.000000,4.000000,4.000000,4.000000,4.000000,4.000000,4.000000,4.000000,4.000000,4.000000,4.000000,4.000000,4.000000,4.000000,100.000000
1602006758.986634,29.000000,0.000000,4138.461426,4122.051270,4129.230957,4126.153809,4141.025879,4132.820313,4130.256348,4136.922852,4136.410156,4154.358887,4154.871582,4153.846191,4148.717773,4138.461426,0.000000,4.000000,,,,0.000000,4.000000,4.000000,4.000000,4.000000,4.000000,4.000000,4.000000,4.000000,4.000000,4.000000,4.000000,4.000000,4.000000,4.000000,100.000000
1602006758.994515,30.000000,0.000000,4144.102539,4127.179688,4140.512695,4135.384766,4139.487305,4125.641113,4121.538574,4137.948730,4136.410156,4142.563965,4160.000000,4155.897461,4156.922852,4152.307617,0.000000,4.000000,,,,0.000000,4.000000,4.000000,4.000000,4.000000,4.000000,4.000000,4.000000,4.000000,4.000000,4.000000,4.000000,4.000000,4.000000,4.000000,100.000000
1602006759.002397,31.000000,0.000000,4151.794922,4127.692383,4140.512695,4133.846191,4134.358887,4121.538574,4118.974121,4137.948730,4142.563965,4134.358887,4160.512695,4156.410156,4152.307617,4158.974121,0.000000,4.000000,,,,0.000000,4.000000,4.000000,4.000000,4.000000,4.000000,4.000000,4.000000,4.000000,4.000000,4.000000,4.000000,4.000000,4.000000,4.000000,100.000000
1602006759.010278,32.000000,0.000000,4156.410156,4132.820313,4139.487305,4129.743652,4127.692383,4124.102539,4126.153809,4137.436035,4142.051270,4139.487305,4156.922852,4159.487305,4143.589844,4151.282227,0.000000,4.000000,,,,0.000000,4.000000,4.000000,4.000000,4.000000,4.000000,4.000000,4.000000,4.000000,4.000000,4.000000,4.000000,4.000000,4.000000,4.000000,100.000000
1602006759.018259,33.000000,0.000000,4149.743652,4136.922852,4140.512695,4127.179688,4125.128418,4123.077148,4135.897461,4133.846191,4133.846191,4138.461426,4147.692383,4153.333496,4136.410156,4136.922852,0.000000,4.000000,,,,0.000000,4.000000,4.000000,4.000000,4.000000,4.000000,4.000000,4.000000,4.000000,4.000000,4.000000,4.000000,4.000000,4.000000,4.000000,100.000000
1602006759.026140,34.000000,0.000000,4140.512695,4128.717773,4137.436035,4125.128418,4125.128418,4120.000000,4141.025879,4130.256348,4124.615234,4130.256348,4139.487305,4140.000000,4125.641113,4123.077148,0.000000,4.000000,,,,0.000000,4.000000,4.000000,4.000000,4.000000,4.000000,4.000000,4.000000,4.000000,4.000000,4.000000,4.000000,4.000000,4.000000,4.000000,100.000000
1602006759.034020,35.000000,0.000000,4139.487305,4124.102539,4134.871582,4127.179688,4124.615234,4123.589844,4142.051270,4134.358887,4121.538574,4122.563965,4135.897461,4135.384766,4116.922852,4122.563965,0.000000,4.000000,,,,0.000000,4.000000,4.000000,4.000000,4.000000,4.000000,4.000000,4.000000,4.000000,4.000000,4.000000,4.000000,4.000000,4.000000,4.000000,100.000000
1602006759.041901,36.000000,0.000000,4138.461426,4129.230957,4137.948730,4129.230957,4129.230957,4128.205078,4141.025879,4136.410156,4118.461426,4111.282227,4137.948730,4140.000000,4118.461426,4129.743652,0.000000,4.000000,,,,0.000000,4.000000,4.000000,4.000000,4.000000,4.000000,4.000000,4.000000,4.000000,4.000000,4.000000,4.000000,4.000000,4.000000,4.000000,100.000000
1602006759.049782,37.000000,0.000000,4134.358887,4127.692383,4135.384766,4124.102539,4138.461426,4128.205078,4137.948730,4127.692383,4112.820313,4103.589844,4139.487305,4142.051270,4122.563965,4124.615234,0.000000,4.000000,,,,0.000000,4.000000,4.000000,4.000000,4.000000,4.000000,4.000000,4.000000,4.000000,4.000000,4.000000,4.000000,4.000000,4.000000,4.000000,100.000000
1602006759.057663,38.000000,0.000000,4127.692383,4122.051270,4126.153809,4120.512695,4143.077148,4132.307617,4133.333496,4119.487305,4114.358887,4103.077148,4130.256348,4135.897461,4115.384766,4117.436035,0.000000,4.000000,,,,0.000000,4.000000,4.000000,4.000000,4.000000,4.000000,4.000000,4.000000,4.000000,4.000000,4.000000,4.000000,4.000000,4.000000,4.000000,100.000000
1602006759.065644,39.000000,0.000000,4124.102539,4122.563965,4120.512695,4121.538574,4141.538574,4137.948730,4126.666504,4119.487305,4118.461426,4113.333496,4126.153809,4132.820313,4110.256348,4120.512695,0.000000,4.000000,,,,0.000000,4.000000,4.000000,4.000000,4.000000,4.000000,4.000000,4.000000,4.000000,4.000000,4.000000,4.000000,4.000000,4.000000,4.000000,100.000000
1602006759.073525,40.000000,0.000000,4127.692383,4122.563965,4118.974121,4121.538574,4140.000000,4136.410156,4126.666504,4119.487305,4117.436035,4126.666504,4132.820313,4138.974121,4118.974121,4120.000000,0.000000,4.000000,,,,0.000000,4.000000,4.000000,4.000000,4.000000,4.000000,4.000000,4.000000,4.000000,4.000000,4.000000,4.000000,4.000000,4.000000,4.000000,100.000000
1602006759.081407,41.000000,0.000000,4137.436035,4122.051270,4126.153809,4121.025879,4141.025879,4134.358887,4136.922852,4125.641113,4129.230957,4133.846191,4141.538574,4152.307617,4132.307617,4123.077148,0.000000,4.000000,,,,0.000000,4.000000,4.000000,4.000000,4.000000,4.000000,4.000000,4.000000,4.000000,4.000000,4.000000,4.000000,4.000000,4.000000,4.000000,100.000000
1602006759.089288,42.000000,0.000000,4143.589844,4124.102539,4141.538574,4123.077148,4136.410156,4141.025879,4144.102539,4138.461426,4148.717773,4143.077148,4151.794922,4163.077148,4142.563965,4146.153809,0.000000,4.000000,,,,0.000000,4.000000,4.000000,4.000000,4.000000,4.000000,4.000000,4.000000,4.000000,4.000000,4.000000,4.000000,4.000000,4.000000,4.000000,100.000000
1602006759.097169,43.000000,0.000000,4142.051270,4122.563965,4144.102539,4124.102539,4127.179688,4142.051270,4140.512695,4141.538574,4144.102539,4139.487305,4159.487305,4161.538574,4142.563965,4157.436035,0.000000,4.000000,,,,0.000000,4.000000,4.000000,4.000000,4.000000,4.000000,4.000000,4.000000,4.000000,4.000000,4.000000,4.000000,4.000000,4.000000,4.000000,100.000000
1602006759.105050,44.000000,0.000000,4142.051270,4120.512695,4136.922852,4124.102539,4119.487305,4130.769043,4137.948730,4135.384766,4133.333496,4122.563965,4151.282227,4158.974121,4137.948730,4144.615234,0.000000,4.000000,,,,0.000000,4.000000,4.000000,4.000000,4.000000,4.000000,4.000000,4.000000,4.000000,4.000000,4.000000,4.000000,4.000000,4.000000,4.000000,100.000000
1602006759.112931,45.000000,0.000000,4149.230957,4129.230957,4144.615234,4130.256348,4120.000000,4128.205078,4139.487305,4132.307617,4137.436035,4121.538574,4148.205078,4169.743652,4143.589844,4145.641113,0.000000,4.000000,,,,0.000000,4.000000,4.000000,4.000000,4.000000,4.000000,4.000000,4.000000,4.000000,4.000000,4.000000,4.000000,4.000000,4.000000,4.000000,100.000000
1602006759.120812,46.000000,0.000000,4162.563965,4142.563965,4157.948730,4142.051270,4128.717773,4134.358887,4139.487305,4137.948730,4145.641113,4143.589844,4165.641113,4185.641113,4158.974121,4169.230957,0.000000,4.000000,,,,0.000000,4.000000,4.000000,4.000000,4.000000,4.000000,4.000000,4.000000,4.000000,4.000000,4.000000,4.000000,4.000000,4.000000,4.000000,100.000000
1602006759.128694,47.000000,0.000000,4173.333496,4146.666504,4159.487305,4147.179688,4136.922852,4129.743652,4131.794922,4137.436035,4148.717773,4157.436035,4172.307617,4185.641113,4162.563965,4173.333496,0.000000,4.000000,,,,0.000000,4.000000,4.000000,4.000000,4.000000,4.000000,4.000000,4.000000,4.000000,4.000000,4.000000,4.000000,4.000000,4.000000,4.000000,100.000000
1602006759.136475,48.000000,0.000000,4168.717773,4142.563965,4154.871582,4142.051270,4135.897461,4120.512695,4123.077148,4127.179688,4143.589844,4152.820313,4155.897461,4170.256348,4150.769043,4151.794922,0.000000,4.000000,,,,0.000000,4.000000,4.000000,4.000000,4.000000,4.000000,4.000000,4.000000,4.000000,4.000000,4.000000,4.000000,4.000000,4.000000,4.000000,100.000000
1602006759.144356,49.000000,0.000000,4156.922852,4138.974121,4145.128418,4137.436035,4134.358887,4123.589844,4128.205078,4123.077148,4132.820313,4139.487305,4141.538574,4157.436035,4140.000000,4141.025879,0.000000,4.000000,,,,0.000000,4.000000,4.000000,4.000000,4.000000,4.000000,4.000000,4.000000,4.000000,4.000000,4.000000,4.000000,4.000000,4.000000,4.000000,100.000000
1602006759.152237,50.000000,0.000000,4151.794922,4132.820313,4136.922852,4136.410156,4136.922852,4131.794922,4138.461426,4133.333496,4131.794922,4123.589844,4137.948730,4154.358887,4137.948730,4140.512695,0.000000,4.000000,,,,0.000000,4.000000,4.000000,4.000000,4.000000,4.000000,4.000000,4.000000,4.000000,4.000000,4.000000,4.000000,4.000000,4.000000,4.000000,100.000000
1602006759.160117,51.000000,0.000000,4149.743652,4126.666504,4137.948730,4132.307617,4138.461426,4135.897461,4141.025879,4143.077148,4139.487305,4126.666504,4137.948730,4150.256348,4136.922852,4133.333496,0.000000,4.000000,,,,0.000000,4.000000,4.000000,4.000000,4.000000,4.000000,4.000000,4.000000,4.000000,4.000000,4.000000,4.000000,4.000000,4.000000,4.000000,100.000000
1602006759.167998,52.000000,0.000000,4140.000000,4123.077148,4140.000000,4125.641113,4134.358887,4136.922852,4138.461426,4135.897461,4138.974121,4135.897461,4134.871582,4139.487305,4129.743652,4126.666504,0.000000,4.000000,,,,0.000000,4.000000,4.000000,4.000000,4.000000,4.000000,4.000000,4.000000,4.000000,4.000000,4.000000,4.000000,4.000000,4.000000,4.000000,100.000000
1602006759.175779,53.000000,0.000000,4135.897461,4114.871582,4137.948730,4121.025879,4127.179688,4135.384766,4133.333496,4122.563965,4135.384766,4131.282227,4127.179688,4135.897461,4121.025879,4126.666504,0.000000,4.000000,,,,0.000000,4.000000,4.000000,4.000000,4.000000,4.000000,4.000000,4.000000,4.000000,4.000000,4.000000,4.000000,4.000000,4.000000,4.000000,100.000000
1602006759.183660,54.000000,0.000000,4139.487305,4105.641113,4137.436035,4120.000000,4125.641113,4136.922852,4126.666504,4119.487305,4135.384766,4126.153809,4120.000000,4138.974121,4120.000000,4124.102539,0.000000,4.000000,,,,0.000000,4.000000,4.000000,4.000000,4.000000,4.000000,4.000000,4.000000,4.000000,4.000000,4.000000,4.000000,4.000000,4.000000,4.000000,100.000000
1602006759.191541,55.000000,0.000000,4135.384766,4107.692383,4138.461426,4120.512695,4131.794922,4136.410156,4126.153809,4123.077148,4138.974121,4134.358887,4125.128418,4139.487305,4124.615234,4120.512695,0.000000,4.000000,,,,0.000000,4.000000,4.000000,4.000000,4.000000,4.000000,4.000000,4.000000,4.000000,4.000000,4.000000,4.000000,4.000000,4.000000,4.000000,100.000000
1602006759.199422,56.000000,0.000000,4136.922852,4120.000000,4146.153809,4127.179688,4136.922852,4128.717773,4127.179688,4122.563965,4145.128418,4145.641113,4136.922852,4141.025879,4128.717773,4123.077148,0.000000,4.000000,,,,0.000000,4.000000,4.000000,4.000000,4.000000,4.000000,4.000000,4.000000,4.000000,4.000000,4.000000,4.000000,4.000000,4.000000,4.000000,100.000000
1602006759.207303,57.000000,0.000000,4150.256348,4131.794922,4153.333496,4138.974121,4141.025879,4122.051270,4128.205078,4122.051270,4144.615234,4135.897461,4137.436035,4145.641113,4127.692383,4124.615234,0.000000,4.000000,,,,0.000000,4.000000,4.000000,4.000000,4.000000,4.000000,4.000000,4.000000,4.000000,4.000000,4.000000,4.000000,4.000000,4.000000,4.000000,100.000000
1602006759.215184,58.000000,0.000000,4148.205078,4133.333496,4140.512695,4141.538574,4136.410156,4114.871582,4133.333496,4126.666504,4136.922852,4120.000000,4127.179688,4143.589844,4122.563965,4121.025879,0.000000,4.000000,,,,0.000000,4.000000,4.000000,4.000000,4.000000,4.000000,4.000000,4.000000,4.000000,4.000000,4.000000,4.000000,4.000000,4.000000,4.000000,100.000000
1602006759.223065,59.000000,0.000000,4126.666504,4126.666504,4123.077148,4131.794922,4122.563965,4105.128418,4132.307617,4129.230957,4129.743652,4124.102539,4121.025879,4138.461426,4118.974121,4116.922852,0.000000,4.000000,,,,0.000000,4.000000,4.000000,4.000000,4.000000,4.000000,4.000000,4.000000,4.000000,4.000000,4.000000,4.000000,4.000000,4.000000,4.000000,100.000000
1602006759.231046,60.000000,0.000000,4119.487305,4123.589844,4120.000000,4127.179688,4123.077148,4108.717773,4127.692383,4130.256348,4132.820313,4136.410156,4124.102539,4139.487305,4122.051270,4121.538574,0.000000,4.000000,,,,0.000000,4.000000,4.000000,4.000000,4.000000,4.000000,4.000000,4.000000,4.000000,4.000000,4.000000,4.000000,4.000000,4.000000,4.000000,100.000000
1602006759.238926,61.000000,0.000000,4126.153809,4125.641113,4121.025879,4128.717773,4137.436035,4122.563965,4129.230957,4130.256348,4136.410156,4135.384766,4127.179688,4141.538574,4125.641113,4127.179688,0.000000,4.000000,,,,0.000000,4.000000,4.000000,4.000000,4.000000,4.000000,4.000000,4.000000,4.000000,4.000000,4.000000,4.000000,4.000000,4.000000,4.000000,100.000000
1602006759.246807,62.000000,0.000000,4124.102539,4123.077148,4123.077148,4129.230957,4139.487305,4122.051270,4124.615234,4128.205078,4129.743652,4136.410156,4125.128418,4137.948730,4121.538574,4124.102539,0.000000,4.000000,,,,0.000000,4.000000,4.000000,4.000000,4.000000,4.000000,4.000000,4.000000,4.000000,4.000000,4.000000,4.000000,4.000000,4.000000,4.000000,100.000000
1602006759.254787,63.000000,0.000000,4124.615234,4122.563965,4133.846191,4132.307617,4130.769043,4121.538574,4116.410156,4123.589844,4120.512695,4134.871582,4125.128418,4137.436035,4122.051270,4124.102539,0.000000,4.000000,,,,0.000000,4.000000,4.000000,4.000000,4.000000,4.000000,4.000000,4.000000,4.000000,4.000000,4.000000,4.000000,4.000000,4.000000,4.000000,100.000000
1602006759.262668,64.000000,0.000000,4140.000000,4132.820313,4140.000000,4138.461426,4126.153809,4133.846191,4120.000000,4121.025879,4122.563965,4109.743652,4127.179688,4148.717773,4128.205078,4137.948730,788.000000,4.000000,,,,0.000000,4.000000,4.000000,4.000000,4.000000,4.000000,4.000000,4.000000,4.000000,4.000000,4.000000,4.000000,4.000000,4.000000,4.000000,100.000000
1602006759.270649,65.000000,0.000000,4151.794922,4140.000000,4140.512695,4142.563965,4123.077148,4133.333496,4124.615234,4120.512695,4130.769043,4103.589844,4128.205078,4155.384766,4128.717773,4154.871582,780.000000,4.000000,,,,0.000000,4.000000,4.000000,4.000000,4.000000,4.000000,4.000000,4.000000,4.000000,4.000000,4.000000,4.000000,4.000000,4.000000,4.000000,100.000000
1602006759.278629,66.000000,0.000000,4153.846191,4136.922852,4148.717773,4140.512695,4116.922852,4120.000000,4123.589844,4119.487305,4134.358887,4131.282227,4128.717773,4150.769043,4127.692383,4158.461426,852.000000,4.000000,,,,0.000000,4.000000,4.000000,4.000000,4.000000,4.000000,4.000000,4.000000,4.000000,4.000000,4.000000,4.000000,4.000000,4.000000,4.000000,100.000000
1602006759.286510,67.000000,0.000000,4163.077148,4136.410156,4158.461426,4136.922852,4114.871582,4119.487305,4130.256348,4127.692383,4138.461426,4151.794922,4137.436035,4160.000000,4141.025879,4158.461426,868.000000,4.000000,,,,0.000000,4.000000,4.000000,4.000000,4.000000,4.000000,4.000000,4.000000,4.000000,4.000000,4.000000,4.000000,4.000000,4.000000,4.000000,100.000000
1602006759.294491,68.000000,0.000000,4178.461426,4137.948730,4161.538574,4136.922852,4120.000000,4129.230957,4143.589844,4142.563965,4145.641113,4152.820313,4150.256348,4177.436035,4156.410156,4171.282227,814.000000,4.000000,,,,0.000000,4.000000,4.000000,4.000000,4.000000,4.000000,4.000000,4.000000,4.000000,4.000000,4.000000,4.000000,4.000000,4.000000,4.000000,100.000000
1602006759.302371,69.000000,0.000000,4171.794922,4128.717773,4156.922852,4134.358887,4120.000000,4129.230957,4145.641113,4140.512695,4143.077148,4147.179688,4145.128418,4167.179688,4149.230957,4171.794922,816.000000,4.000000,,,,0.000000,4.000000,4.000000,4.000000,4.000000,4.000000,4.000000,4.000000,4.000000,4.000000,4.000000,4.000000,4.000000,4.000000,4.000000,100.000000
1602006759.310352,70.000000,0.000000,4145.641113,4115.897461,4143.077148,4123.077148,4113.846191,4121.025879,4129.743652,4120.512695,4123.077148,4129.230957,4124.102539,4138.974121,4124.102539,4140.000000,771.000000,4.000000,,,,0.000000,4.000000,4.000000,4.000000,4.000000,4.000000,4.000000,4.000000,4.000000,4.000000,4.000000,4.000000,4.000000,4.000000,4.000000,100.000000
1602006759.318233,71.000000,0.000000,4137.436035,4116.922852,4134.358887,4118.461426,4117.436035,4115.897461,4114.358887,4108.205078,4106.666504,4102.051270,4116.410156,4133.333496,4110.256348,4121.538574,663.000000,4.000000,,,,0.000000,4.000000,4.000000,4.000000,4.000000,4.000000,4.000000,4.000000,4.000000,4.000000,4.000000,4.000000,4.000000,4.000000,4.000000,100.000000
1602006759.326213,72.000000,0.000000,4148.205078,4124.102539,4138.974121,4126.666504,4125.128418,4112.307617,4109.230957,4108.205078,4106.153809,4096.410156,4122.563965,4141.025879,4113.846191,4138.974121,779.000000,4.000000,,,,0.000000,4.000000,4.000000,4.000000,4.000000,4.000000,4.000000,4.000000,4.000000,4.000000,4.000000,4.000000,4.000000,4.000000,4.000000,100.000000
1602006759.334094,73.000000,0.000000,4146.666504,4123.589844,4140.000000,4130.769043,4127.179688,4112.820313,4106.153809,4106.153809,4107.179688,4115.384766,4119.487305,4133.333496,4116.410156,4137.436035,838.000000,4.000000,,,,0.000000,4.000000,4.000000,4.000000,4.000000,4.000000,4.000000,4.000000,4.000000,4.000000,4.000000,4.000000,4.000000,4.000000,4.000000,100.000000
1602006759.342075,74.000000,0.000000,4142.563965,4122.563965,4132.820313,4125.641113,4131.794922,4115.897461,4105.128418,4104.615234,4107.179688,4126.153809,4113.333496,4123.077148,4113.846191,4119.487305,873.000000,4.000000,,,,0.000000,4.000000,4.000000,4.000000,4.000000,4.000000,4.000000,4.000000,4.000000,4.000000,4.000000,4.000000,4.000000,4.000000,4.000000,100.000000
1602006759.349956,75.000000,0.000000,4152.820313,4133.333496,4130.256348,4126.666504,4138.974121,4122.563965,4114.871582,4113.846191,4115.897461,4126.666504,4119.487305,4130.256348,4117.436035,4135.384766,837.000000,4.000000,,,,0.000000,4.000000,4.000000,4.000000,4.000000,4.000000,4.000000,4.000000,4.000000,4.000000,4.000000,4.000000,4.000000,4.000000,4.000000,100.000000
1602006759.357837,76.000000,0.000000,4154.871582,4140.512695,4127.692383,4129.230957,4137.948730,4130.256348,4130.256348,4127.692383,4128.717773,4127.179688,4130.769043,4140.512695,4126.666504,4154.358887,767.000000,4.000000,,,,0.000000,4.000000,4.000000,4.000000,4.000000,4.000000,4.000000,4.000000,4.000000,4.000000,4.000000,4.000000,4.000000,4.000000,4.000000,100.000000
1602006759.365717,77.000000,0.000000,4140.000000,4130.769043,4119.487305,4124.615234,4129.230957,4129.743652,4137.436035,4130.256348,4135.897461,4113.333496,4136.410156,4137.436035,4130.256348,4144.615234,731.000000,4.000000,,,,0.000000,4.000000,4.000000,4.000000,4.000000,4.000000,4.000000,4.000000,4.000000,4.000000,4.000000,4.000000,4.000000,4.000000,4.000000,100.000000
1602006759.373598,78.000000,0.000000,4136.922852,4120.000000,4122.051270,4121.025879,4124.102539,4121.025879,4136.922852,4129.230957,4138.974121,4105.128418,4135.897461,4142.051270,4130.769043,4142.563965,873.000000,4.000000,,,,0.000000,4.000000,4.000000,4.000000,4.000000,4.000000,4.000000,4.000000,4.000000,4.000000,4.000000,4.000000,4.000000,4.000000,4.000000,100.000000
1602006759.381579,79.000000,0.000000,4142.563965,4120.512695,4135.384766,4122.051270,4123.077148,4120.512695,4132.820313,4133.333496,4141.538574,4128.205078,4135.897461,4151.794922,4137.436035,4156.410156,837.000000,4.000000,,,,0.000000,4.000000,4.000000,4.000000,4.000000,4.000000,4.000000,4.000000,4.000000,4.000000,4.000000,4.000000,4.000000,4.000000,4.000000,100.000000
1602006759.389460,80.000000,0.000000,4136.410156,4123.077148,4139.487305,4121.025879,4126.153809,4128.717773,4127.179688,4132.307617,4141.025879,4146.666504,4141.025879,4147.692383,4139.487305,4159.487305,767.000000,4.000000,,,,0.000000,4.000000,4.000000,4.000000,4.000000,4.000000,4.000000,4.000000,4.000000,4.000000,4.000000,4.000000,4.000000,4.000000,4.000000,100.000000
1602006759.397341,81.000000,0.000000,4125.128418,4121.538574,4133.846191,4120.000000,4133.846191,4129.743652,4124.615234,4126.666504,4132.307617,4133.846191,4139.487305,4135.897461,4130.769043,4149.743652,731.000000,4.000000,,,,0.000000,4.000000,4.000000,4.000000,4.000000,4.000000,4.000000,4.000000,4.000000,4.000000,4.000000,4.000000,4.000000,4.000000,4.000000,100.000000
1602006759.405222,82.000000,0.000000,4120.000000,4122.051270,4132.820313,4123.077148,4140.512695,4126.153809,4125.641113,4124.102539,4116.922852,4115.384766,4126.153809,4127.179688,4119.487305,4136.922852,873.000000,4.000000,,,,0.000000,4.000000,4.000000,4.000000,4.000000,4.000000,4.000000,4.000000,4.000000,4.000000,4.000000,4.000000,4.000000,4.000000,4.000000,100.000000
1602006759.413103,83.000000,0.000000,4121.025879,4124.102539,4135.897461,4123.077148,4138.461426,4124.615234,4125.128418,4115.384766,4105.128418,4107.179688,4119.487305,4121.538574,4111.282227,4122.051270,837.000000,4.000000,,,,0.000000,4.000000,4.000000,4.000000,4.000000,4.000000,4.000000,4.000000,4.000000,4.000000,4.000000,4.000000,4.000000,4.000000,4.000000,100.000000
1602006759.420984,84.000000,0.000000,4124.102539,4126.153809,4137.948730,4123.589844,4136.410156,4123.589844,4121.025879,4109.230957,4102.051270,4105.128418,4121.025879,4123.077148,4103.589844,4116.410156,767.000000,4.000000,,,,0.000000,4.000000,4.000000,4.000000,4.000000,4.000000,4.000000,4.000000,4.000000,4.000000,4.000000,4.000000,4.000000,4.000000,4.000000,100.000000
1602006759.428965,85.000000,0.000000,4123.077148,4130.769043,4137.436035,4125.128418,4140.000000,4126.666504,4120.512695,4117.948730,4102.563965,4108.717773,4122.051270,4130.769043,4104.102539,4125.128418,731.000000,4.000000,,,,0.000000,4.000000,4.000000,4.000000,4.000000,4.000000,4.000000,4.000000,4.000000,4.000000,4.000000,4.000000,4.000000,4.000000,4.000000,100.000000
1602006759.436846,86.000000,0.000000,4121.538574,4135.897461,4138.461426,4124.102539,4133.333496,4121.538574,4120.512695,4127.692383,4108.205078,4120.512695,4127.179688,4135.897461,4115.897461,4135.897461,873.000000,4.000000,,,,0.000000,4.000000,4.000000,4.000000,4.000000,4.000000,4.000000,4.000000,4.000000,4.000000,4.000000,4.000000,4.000000,4.000000,4.000000,100.000000
1602006759.444727,87.000000,0.000000,4129.743652,4135.897461,4143.077148,4125.128418,4122.051270,4109.230957,4119.487305,4127.179688,4119.487305,4137.948730,4135.384766,4146.153809,4124.615234,4143.589844,837.000000,4.000000,,,,0.000000,4.000000,4.000000,4.000000,4.000000,4.000000,4.000000,4.000000,4.000000,4.000000,4.000000,4.000000,4.000000,4.000000,4.000000,100.000000
1602006759.452607,88.000000,0.000000,4141.538574,4135.897461,4145.128418,4126.666504,4120.000000,4110.256348,4119.487305,4125.128418,4124.102539,4135.897461,4136.922852,4154.358887,4125.128418,4142.563965,767.000000,4.000000,,,,0.000000,4.000000,4.000000,4.000000,4.000000,4.000000,4.000000,4.000000,4.000000,4.000000,4.000000,4.000000,4.000000,4.000000,4.000000,100.000000
1602006759.460488,89.000000,0.000000,4140.000000,4133.333496,4143.589844,4125.641113,4114.871582,4120.512695,4120.000000,4123.077148,4119.487305,4119.487305,4134.358887,4148.717773,4123.077148,4139.487305,731.000000,4.000000,,,,0.000000,4.000000,4.000000,4.000000,4.000000,4.000000,4.000000,4.000000,4.000000,4.000000,4.000000,4.000000,4.000000,4.000000,4.000000,100.000000
1602006759.468369,90.000000,0.000000,4133.333496,4127.179688,4145.641113,4123.589844,4104.102539,4122.563965,4123.589844,4120.512695,4117.436035,4124.102539,4131.282227,4141.538574,4122.051270,4135.897461,873.000000,4.000000,,,,0.000000,4.000000,4.000000,4.000000,4.000000,4.000000,4.000000,4.000000,4.000000,4.000000,4.000000,4.000000,4.000000,4.000000,4.000000,100.000000
1602006759.476250,91.000000,0.000000,4136.410156,4125.641113,4146.666504,4124.615234,4107.179688,4120.512695,4128.205078,4122.563965,4122.563965,4141.538574,4128.205078,4141.025879,4124.615234,4135.897461,837.000000,4.000000,,,,0.000000,4.000000,4.000000,4.000000,4.000000,4.000000,4.000000,4.000000,4.000000,4.000000,4.000000,4.000000,4.000000,4.000000,4.000000,100.000000
1602006759.484031,92.000000,0.000000,4140.512695,4127.692383,4141.025879,4126.153809,4120.512695,4128.205078,4130.256348,4126.666504,4128.717773,4138.461426,4128.205078,4141.025879,4126.666504,4141.538574,767.000000,4.000000,,,,0.000000,4.000000,4.000000,4.000000,4.000000,4.000000,4.000000,4.000000,4.000000,4.000000,4.000000,4.000000,4.000000,4.000000,4.000000,100.000000
1602006759.491912,93.000000,0.000000,4131.282227,4123.077148,4135.897461,4125.128418,4124.102539,4137.436035,4128.717773,4126.153809,4128.717773,4118.461426,4129.230957,4133.333496,4116.410156,4134.358887,731.000000,4.000000,,,,0.000000,4.000000,4.000000,4.000000,4.000000,4.000000,4.000000,4.000000,4.000000,4.000000,4.000000,4.000000,4.000000,4.000000,4.000000,100.000000
1602006759.499793,94.000000,0.000000,4120.000000,4118.461426,4128.205078,4122.563965,4120.512695,4136.922852,4125.641113,4128.205078,4127.692383,4122.563965,4126.153809,4127.179688,4107.692383,4126.153809,873.000000,4.000000,,,,0.000000,4.000000,4.000000,4.000000,4.000000,4.000000,4.000000,4.000000,4.000000,4.000000,4.000000,4.000000,4.000000,4.000000,4.000000,100.000000
1602006759.507674,95.000000,0.000000,4121.538574,4122.563965,4123.589844,4122.563965,4123.589844,4130.256348,4123.077148,4137.436035,4137.948730,4139.487305,4128.205078,4130.769043,4115.897461,4133.333496,837.000000,4.000000,,,,0.000000,4.000000,4.000000,4.000000,4.000000,4.000000,4.000000,4.000000,4.000000,4.000000,4.000000,4.000000,4.000000,4.000000,4.000000,100.000000
1602006759.515555,96.000000,0.000000,4123.077148,4122.563965,4121.538574,4124.615234,4128.717773,4129.230957,4117.436035,4137.436035,4136.922852,4123.589844,4128.717773,4129.230957,4112.820313,4131.282227,767.000000,4.000000,,,,0.000000,4.000000,4.000000,4.000000,4.000000,4.000000,4.000000,4.000000,4.000000,4.000000,4.000000,4.000000,4.000000,4.000000,4.000000,100.000000
1602006759.523436,97.000000,0.000000,4106.666504,4110.769043,4109.743652,4119.487305,4124.102539,4126.153809,4108.717773,4119.487305,4106.666504,4091.281982,4115.384766,4109.230957,4091.281982,4105.128418,731.000000,4.000000,,,,0.000000,4.000000,4.000000,4.000000,4.000000,4.000000,4.000000,4.000000,4.000000,4.000000,4.000000,4.000000,4.000000,4.000000,4.000000,100.000000
1602006759.531317,98.000000,0.000000,4091.794922,4100.512695,4101.538574,4111.794922,4115.384766,4117.436035,4103.077148,4104.102539,4081.538574,4085.641113,4101.025879,4093.333252,4080.000000,4087.692383,873.000000,4.000000,,,,0.000000,4.000000,4.000000,4.000000,4.000000,4.000000,4.000000,4.000000,4.000000,4.000000,4.000000,4.000000,4.000000,4.000000,4.000000,100.000000
1602006759.539198,99.000000,0.000000,4104.615234,4110.256348,4113.846191,4115.897461,4115.897461,4116.410156,4107.692383,4102.051270,4088.718018,4097.948730,4101.538574,4104.615234,4089.230713,4095.897461,837.000000,4.000000,,,,0.000000,4.000000,4.000000,4.000000,4.000000,4.000000,4.000000,4.000000,4.000000,4.000000,4.000000,4.000000,4.000000,4.000000,4.000000,100.000000
1602006759.546979,100.000000,0.000000,4130.256348,4131.794922,4135.384766,4133.333496,4125.641113,4124.102539,4118.461426,4109.230957,4104.102539,4102.563965,4111.794922,4120.512695,4101.538574,4112.307617,767.000000,4.000000,,,,0.000000,4.000000,4.000000,4.000000,4.000000,4.000000,4.000000,4.000000,4.000000,4.000000,4.000000,4.000000,4.000000,4.000000,4.000000,100.000000
1602006759.554860,101.000000,0.000000,4141.025879,4140.000000,4148.717773,4142.051270,4125.641113,4124.615234,4124.102539,4117.436035,4109.230957,4110.256348,4121.025879,4125.641113,4108.717773,4128.205078,731.000000,4.000000,,,,0.000000,4.000000,4.000000,4.000000,4.000000,4.000000,4.000000,4.000000,4.000000,4.000000,4.000000,4.000000,4.000000,4.000000,4.000000,100.000000
1602006759.562741,102.000000,0.000000,4145.641113,4138.461426,4153.846191,4138.974121,4119.487305,4121.538574,4123.589844,4122.563965,4116.410156,4121.538574,4129.743652,4132.307617,4116.410156,4138.974121,873.000000,4.000000,,,,0.000000,4.000000,4.000000,4.000000,4.000000,4.000000,4.000000,4.000000,4.000000,4.000000,4.000000,4.000000,4.000000,4.000000,4.000000,100.000000
1602006759.570622,103.000000,0.000000,4155.897461,4139.487305,4164.615234,4147.179688,4129.230957,4125.128418,4124.615234,4131.282227,4127.179688,4127.692383,4137.436035,4144.615234,4125.641113,4144.102539,837.000000,4.000000,,,,0.000000,4.000000,4.000000,4.000000,4.000000,4.000000,4.000000,4.000000,4.000000,4.000000,4.000000,4.000000,4.000000,4.000000,4.000000,100.000000
1602006759.578502,104.000000,0.000000,4156.922852,4145.128418,4174.358887,4155.384766,4138.974121,4129.743652,4128.205078,4139.487305,4128.717773,4127.179688,4140.000000,4147.179688,4129.230957,4143.589844,767.000000,4.000000,,,,0.000000,4.000000,4.000000,4.000000,4.000000,4.000000,4.000000,4.000000,4.000000,4.000000,4.000000,4.000000,4.000000,4.000000,4.000000,100.000000
1602006759.586484,105.000000,0.000000,4145.641113,4142.563965,4160.000000,4141.538574,4128.717773,4129.743652,4126.666504,4141.025879,4122.563965,4119.487305,4133.846191,4141.538574,4124.615234,4136.410156,731.000000,4.000000,,,,0.000000,4.000000,4.000000,4.000000,4.000000,4.000000,4.000000,4.000000,4.000000,4.000000,4.000000,4.000000,4.000000,4.000000,4.000000,100.000000
1602006759.594365,106.000000,0.000000,4133.333496,4126.153809,4138.461426,4125.128418,4119.487305,4125.128418,4123.077148,4135.384766,4114.358887,4118.974121,4123.589844,4134.871582,4116.410156,4127.179688,873.000000,4.000000,,,,0.000000,4.000000,4.000000,4.000000,4.000000,4.000000,4.000000,4.000000,4.000000,4.000000,4.000000,4.000000,4.000000,4.000000,4.000000,100.000000
1602006759.602246,107.000000,0.000000,4125.128418,4111.794922,4138.974121,4121.025879,4121.538574,4120.512695,4122.051270,4127.692383,4109.743652,4120.512695,4120.000000,4124.615234,4108.205078,4120.512695,837.000000,4.000000,,,,0.000000,4.000000,4.000000,4.000000,4.000000,4.000000,4.000000,4.000000,4.000000,4.000000,4.000000,4.000000,4.000000,4.000000,4.000000,100.000000
1602006759.610127,108.000000,0.000000,4121.025879,4113.333496,4144.102539,4121.025879,4120.512695,4125.641113,4123.077148,4127.692383,4117.948730,4113.333496,4118.461426,4120.512695,4108.205078,4123.077148,767.000000,4.000000,,,,0.000000,4.000000,4.000000,4.000000,4.000000,4.000000,4.000000,4.000000,4.000000,4.000000,4.000000,4.000000,4.000000,4.000000,4.000000,100.000000
1602006759.618008,109.000000,0.000000,4123.077148,4121.538574,4140.512695,4129.743652,4118.974121,4137.436035,4128.717773,4136.410156,4128.717773,4113.333496,4116.410156,4124.102539,4111.282227,4123.589844,731.000000,4.000000,,,,0.000000,4.000000,4.000000,4.000000,4.000000,4.000000,4.000000,4.000000,4.000000,4.000000,4.000000,4.000000,4.000000,4.000000,4.000000,100.000000
1602006759.625889,110.000000,0.000000,4123.589844,4122.051270,4137.948730,4135.384766,4121.025879,4134.358887,4129.230957,4136.410156,4115.897461,4118.974121,4117.436035,4123.589844,4108.205078,4118.974121,873.000000,4.000000,,,,0.000000,4.000000,4.000000,4.000000,4.000000,4.000000,4.000000,4.000000,4.000000,4.000000,4.000000,4.000000,4.000000,4.000000,4.000000,100.000000
1602006759.633771,111.000000,0.000000,4123.077148,4121.538574,4137.948730,4125.641113,4120.000000,4121.025879,4124.615234,4130.256348,4104.615234,4120.512695,4122.051270,4127.692383,4112.820313,4126.153809,837.000000,4.000000,,,,0.000000,4.000000,4.000000,4.000000,4.000000,4.000000,4.000000,4.000000,4.000000,4.000000,4.000000,4.000000,4.000000,4.000000,4.000000,100.000000
1602006759.641652,112.000000,0.000000,4127.179688,4124.615234,4142.051270,4125.128418,4122.051270,4121.025879,4126.666504,4135.897461,4121.538574,4130.256348,4124.615234,4140.000000,4124.615234,4142.051270,767.000000,4.000000,,,,0.000000,4.000000,4.000000,4.000000,4.000000,4.000000,4.000000,4.000000,4.000000,4.000000,4.000000,4.000000,4.000000,4.000000,4.000000,100.000000
1602006759.649633,113.000000,0.000000,4131.282227,4124.102539,4146.666504,4131.794922,4123.077148,4124.615234,4127.179688,4140.000000,4131.794922,4133.333496,4126.153809,4143.589844,4128.205078,4147.179688,731.000000,4.000000,,,,0.000000,4.000000,4.000000,4.000000,4.000000,4.000000,4.000000,4.000000,4.000000,4.000000,4.000000,4.000000,4.000000,4.000000,4.000000,100.000000
1602006759.657513,114.000000,0.000000,4127.692383,4121.025879,4143.077148,4126.666504,4119.487305,4119.487305,4128.205078,4136.410156,4122.563965,4119.487305,4126.666504,4138.974121,4122.563965,4141.025879,873.000000,4.000000,,,,0.000000,4.000000,4.000000,4.000000,4.000000,4.000000,4.000000,4.000000,4.000000,4.000000,4.000000,4.000000,4.000000,4.000000,4.000000,100.000000
1602006759.665394,115.000000,0.000000,4123.077148,4123.589844,4141.025879,4125.641113,4122.051270,4121.538574,4133.333496,4137.436035,4119.487305,4120.512695,4125.641113,4137.436035,4121.538574,4138.974121,837.000000,4.000000,,,,0.000000,4.000000,4.000000,4.000000,4.000000,4.000000,4.000000,4.000000,4.000000,4.000000,4.000000,4.000000,4.000000,4.000000,4.000000,100.000000
1602006759.673275,116.000000,0.000000,4122.563965,4126.666504,4142.563965,4131.282227,4125.128418,4126.666504,4129.743652,4135.384766,4112.820313,4124.102539,4125.128418,4130.769043,4123.589844,4143.589844,767.000000,4.000000,,,,0.000000,4.000000,4.000000,4.000000,4.000000,4.000000,4.000000,4.000000,4.000000,4.000000,4.000000,4.000000,4.000000,4.000000,4.000000,100.000000
1602006759.681156,117.000000,0.000000,4123.589844,4121.538574,4137.436035,4126.666504,4118.974121,4121.538574,4118.461426,4123.589844,4095.897461,4104.615234,4121.025879,4122.563965,4116.410156,4140.512695,731.000000,4.000000,,,,0.000000,4.000000,4.000000,4.000000,4.000000,4.000000,4.000000,4.000000,4.000000,4.000000,4.000000,4.000000,4.000000,4.000000,4.000000,100.000000
1602006759.689137,118.000000,0.000000,4123.589844,4117.948730,4135.384766,4121.025879,4115.897461,4120.512695,4118.974121,4117.436035,4090.256348,4104.102539,4113.333496,4124.102539,4105.641113,4127.692383,873.000000,4.000000,,,,0.000000,4.000000,4.000000,4.000000,4.000000,4.000000,4.000000,4.000000,4.000000,4.000000,4.000000,4.000000,4.000000,4.000000,4.000000,100.000000
