Timestamp,EEG.Counter,EEG.Interpolated,EEG.AF3,EEG.F7,EEG.F3,EEG.FC5,EEG.T7,EEG.P7,EEG.O1,EEG.O2,EEG.P8,EEG.T8,EEG.FC6,EEG.F4,EEG.F8,EEG.AF4,EEG.RawCq,EEG.Battery,MarkerIndex,MarkerType,MarkerValueInt,EEG.MarkerHardware,CQ.AF3,CQ.F7,CQ.F3,CQ.FC5,CQ.T7,CQ.P7,CQ.O1,CQ.O2,CQ.P8,CQ.T8,CQ.FC6,CQ.F4,CQ.F8,CQ.AF4,CQ.Overall
1602006834.065562,8.000000,0.000000,4141.025879,4129.230957,4146.153809,4136.922852,4122.051270,4128.717773,4149.743652,4145.641113,4160.000000,4136.922852,4150.769043,4156.922852,4164.615234,4153.333496,779.000000,4.000000,,,,0.000000,4.000000,4.000000,4.000000,4.000000,4.000000,4.000000,4.000000,4.000000,4.000000,4.000000,4.000000,4.000000,4.000000,4.000000,100.000000
1602006834.073343,9.000000,0.000000,4135.384766,4125.641113,4148.205078,4132.820313,4124.102539,4140.000000,4154.871582,4153.846191,4174.871582,4147.179688,4155.384766,4161.538574,4171.794922,4156.410156,836.000000,4.000000,,,,0.000000,4.000000,4.000000,4.000000,4.000000,4.000000,4.000000,4.000000,4.000000,4.000000,4.000000,4.000000,4.000000,4.000000,4.000000,100.000000
1602006834.081224,10.000000,0.000000,4125.641113,4122.051270,4138.461426,4120.512695,4123.077148,4130.769043,4144.615234,4148.717773,4163.077148,4121.538574,4153.333496,4154.871582,4149.230957,4139.487305,874.000000,4.000000,,,,0.000000,4.000000,4.000000,4.000000,4.000000,4.000000,4.000000,4.000000,4.000000,4.000000,4.000000,4.000000,4.000000,4.000000,4.000000,100.000000
1602006834.089105,11.000000,0.000000,4121.538574,4120.000000,4134.871582,4120.512695,4123.589844,4125.128418,4137.436035,4135.384766,4143.077148,4088.718018,4140.512695,4140.000000,4132.307617,4122.051270,833.000000,4.000000,,,,0.000000,4.000000,4.000000,4.000000,4.000000,4.000000,4.000000,4.000000,4.000000,4.000000,4.000000,4.000000,4.000000,4.000000,4.000000,100.000000
1602006834.096987,12.000000,0.000000,4120.000000,4113.333496,4134.871582,4122.051270,4125.128418,4127.692383,4135.897461,4126.153809,4127.179688,4070.256348,4130.256348,4135.384766,4135.384766,4130.769043,765.000000,4.000000,,,,0.000000,4.000000,4.000000,4.000000,4.000000,4.000000,4.000000,4.000000,4.000000,4.000000,4.000000,4.000000,4.000000,4.000000,4.000000,100.000000
1602006834.104868,13.000000,0.000000,4119.487305,4113.333496,4131.282227,4118.461426,4123.077148,4125.128418,4127.692383,4116.410156,4108.205078,4066.153809,4135.384766,4139.487305,4137.436035,4147.692383,727.000000,4.000000,,,,0.000000,4.000000,4.000000,4.000000,4.000000,4.000000,4.000000,4.000000,4.000000,4.000000,4.000000,4.000000,4.000000,4.000000,4.000000,100.000000
1602006834.112749,14.000000,0.000000,4121.538574,4120.000000,4133.333496,4120.000000,4125.128418,4127.692383,4117.948730,4104.615234,4093.846191,4074.358887,4139.487305,4139.487305,4136.410156,4147.692383,874.000000,4.000000,,,,0.000000,4.000000,4.000000,4.000000,4.000000,4.000000,4.000000,4.000000,4.000000,4.000000,4.000000,4.000000,4.000000,4.000000,4.000000,100.000000
1602006834.120630,15.000000,0.000000,4127.179688,4125.128418,4137.436035,4127.179688,4135.384766,4138.974121,4118.974121,4097.948730,4090.769287,4087.692383,4135.384766,4136.922852,4136.922852,4141.025879,833.000000,4.000000,,,,0.000000,4.000000,4.000000,4.000000,4.000000,4.000000,4.000000,4.000000,4.000000,4.000000,4.000000,4.000000,4.000000,4.000000,4.000000,100.000000
1602006834.128511,16.000000,0.000000,4133.333496,4131.282227,4131.794922,4130.256348,4141.025879,4138.461426,4121.025879,4097.436035,4094.358887,4093.846191,4134.358887,4136.410156,4146.153809,4141.025879,0.000000,4.000000,,,,0.000000,4.000000,4.000000,4.000000,4.000000,4.000000,4.000000,4.000000,4.000000,4.000000,4.000000,4.000000,4.000000,4.000000,4.000000,100.000000
1602006834.136492,17.000000,0.000000,4134.358887,4132.307617,4127.179688,4127.692383,4135.384766,4120.000000,4117.948730,4103.077148,4103.077148,4097.948730,4142.051270,4136.410156,4151.794922,4144.102539,0.000000,4.000000,,,,0.000000,4.000000,4.000000,4.000000,4.000000,4.000000,4.000000,4.000000,4.000000,4.000000,4.000000,4.000000,4.000000,4.000000,4.000000,100.000000
1602006834.144373,18.000000,0.000000,4136.410156,4134.358887,4135.897461,4132.820313,4134.871582,4120.000000,4125.128418,4120.512695,4128.205078,4112.307617,4154.871582,4143.589844,4152.307617,4150.256348,0.000000,4.000000,,,,0.000000,4.000000,4.000000,4.000000,4.000000,4.000000,4.000000,4.000000,4.000000,4.000000,4.000000,4.000000,4.000000,4.000000,4.000000,100.000000
1602006834.152255,19.000000,0.000000,4142.051270,4143.077148,4142.051270,4140.512695,4141.025879,4134.358887,4139.487305,4137.948730,4158.461426,4121.538574,4159.487305,4154.358887,4164.615234,4156.922852,0.000000,4.000000,,,,0.000000,4.000000,4.000000,4.000000,4.000000,4.000000,4.000000,4.000000,4.000000,4.000000,4.000000,4.000000,4.000000,4.000000,4.000000,100.000000
1602006834.160136,20.000000,0.000000,4144.102539,4143.589844,4138.461426,4139.487305,4138.974121,4133.846191,4145.128418,4144.102539,4166.666504,4123.077148,4157.948730,4156.410156,4172.307617,4153.846191,0.000000,4.000000,,,,0.000000,4.000000,4.000000,4.000000,4.000000,4.000000,4.000000,4.000000,4.000000,4.000000,4.000000,4.000000,4.000000,4.000000,4.000000,100.000000
1602006834.168017,21.000000,0.000000,4142.051270,4136.410156,4144.615234,4136.922852,4135.384766,4130.769043,4143.077148,4144.102539,4154.358887,4122.563965,4153.846191,4152.820313,4162.051270,4150.769043,0.000000,4.000000,,,,0.000000,4.000000,4.000000,4.000000,4.000000,4.000000,4.000000,4.000000,4.000000,4.000000,4.000000,4.000000,4.000000,4.000000,4.000000,100.000000
1602006834.175898,22.000000,0.000000,4143.589844,4136.922852,4154.871582,4137.436035,4136.410156,4134.358887,4133.846191,4138.461426,4140.000000,4123.589844,4147.692383,4151.282227,4157.436035,4153.846191,0.000000,4.000000,,,,0.000000,4.000000,4.000000,4.000000,4.000000,4.000000,4.000000,4.000000,4.000000,4.000000,4.000000,4.000000,4.000000,4.000000,4.000000,100.000000
1602006834.183779,23.000000,0.000000,4142.563965,4138.974121,4153.846191,4134.871582,4134.871582,4131.794922,4122.051270,4128.205078,4137.948730,4137.948730,4148.205078,4152.820313,4163.077148,4155.384766,0.000000,4.000000,,,,0.000000,4.000000,4.000000,4.000000,4.000000,4.000000,4.000000,4.000000,4.000000,4.000000,4.000000,4.000000,4.000000,4.000000,4.000000,100.000000
1602006834.191660,24.000000,0.000000,4135.384766,4135.897461,4148.205078,4132.820313,4132.820313,4124.102539,4119.487305,4121.538574,4137.948730,4146.153809,4151.282227,4154.871582,4156.922852,4153.846191,0.000000,4.000000,,,,0.000000,4.000000,4.000000,4.000000,4.000000,4.000000,4.000000,4.000000,4.000000,4.000000,4.000000,4.000000,4.000000,4.000000,4.000000,100.000000
1602006834.199542,25.000000,0.000000,4137.436035,4138.461426,4146.666504,4137.948730,4134.871582,4128.205078,4126.153809,4121.025879,4125.641113,4122.051270,4155.384766,4156.922852,4154.358887,4156.410156,0.000000,4.000000,,,,0.000000,4.000000,4.000000,4.000000,4.000000,4.000000,4.000000,4.000000,4.000000,4.000000,4.000000,4.000000,4.000000,4.000000,4.000000,100.000000
1602006834.207423,26.000000,0.000000,4138.974121,4137.436035,4142.051270,4135.384766,4137.436035,4136.410156,4127.692383,4119.487305,4103.589844,4080.512939,4153.333496,4151.282227,4150.769043,4151.794922,0.000000,4.000000,,,,0.000000,4.000000,4.000000,4.000000,4.000000,4.000000,4.000000,4.000000,4.000000,4.000000,4.000000,4.000000,4.000000,4.000000,4.000000,100.000000
1602006834.215204,27.000000,0.000000,4125.641113,4124.615234,4128.717773,4122.563965,4136.922852,4139.487305,4126.153809,4116.922852,4096.922852,4064.615479,4131.282227,4133.333496,4126.666504,4132.307617,0.000000,4.000000,,,,0.000000,4.000000,4.000000,4.000000,4.000000,4.000000,4.000000,4.000000,4.000000,4.000000,4.000000,4.000000,4.000000,4.000000,4.000000,100.000000
1602006834.223084,28.000000,0.000000,4115.384766,4115.897461,4122.051270,4115.897461,4135.384766,4138.461426,4127.179688,4118.974121,4115.897461,4077.435791,4120.512695,4124.615234,4115.384766,4125.128418,0.000000,4.000000,,,,0.000000,4.000000,4.000000,4.000000,4.000000,4.000000,4.000000,4.000000,4.000000,4.000000,4.000000,4.000000,4.000000,4.000000,4.000000,100.000000
1602006834.231065,29.000000,0.000000,4127.179688,4122.051270,4130.256348,4120.512695,4133.333496,4127.692383,4124.102539,4129.743652,4138.974121,4098.974121,4143.077148,4139.487305,4136.410156,4141.538574,0.000000,4.000000,,,,0.000000,4.000000,4.000000,4.000000,4.000000,4.000000,4.000000,4.000000,4.000000,4.000000,4.000000,4.000000,4.000000,4.000000,4.000000,100.000000
1602006834.238946,30.000000,0.000000,4141.025879,4130.769043,4138.461426,4126.153809,4132.307617,4122.051270,4121.538574,4141.025879,4154.358887,4120.000000,4160.000000,4153.333496,4156.922852,4152.820313,0.000000,4.000000,,,,0.000000,4.000000,4.000000,4.000000,4.000000,4.000000,4.000000,4.000000,4.000000,4.000000,4.000000,4.000000,4.000000,4.000000,4.000000,100.000000
1602006834.246826,31.000000,0.000000,4140.512695,4135.384766,4142.051270,4130.769043,4134.358887,4127.179688,4129.230957,4142.051270,4157.436035,4133.333496,4153.333496,4152.307617,4160.000000,4156.410156,0.000000,4.000000,,,,0.000000,4.000000,4.000000,4.000000,4.000000,4.000000,4.000000,4.000000,4.000000,4.000000,4.000000,4.000000,4.000000,4.000000,4.000000,100.000000
1602006834.254607,32.000000,0.000000,4146.153809,4143.077148,4148.717773,4138.461426,4138.461426,4136.410156,4137.948730,4139.487305,4153.333496,4143.077148,4161.538574,4154.871582,4167.692383,4169.743652,0.000000,4.000000,,,,0.000000,4.000000,4.000000,4.000000,4.000000,4.000000,4.000000,4.000000,4.000000,4.000000,4.000000,4.000000,4.000000,4.000000,4.000000,100.000000
1602006834.262388,33.000000,0.000000,4158.974121,4145.128418,4153.333496,4140.512695,4140.512695,4140.512695,4135.897461,4140.000000,4143.589844,4143.077148,4171.282227,4158.461426,4172.820313,4171.794922,0.000000,4.000000,,,,0.000000,4.000000,4.000000,4.000000,4.000000,4.000000,4.000000,4.000000,4.000000,4.000000,4.000000,4.000000,4.000000,4.000000,4.000000,100.000000
1602006834.270269,34.000000,0.000000,4162.563965,4142.051270,4154.871582,4140.000000,4133.846191,4135.897461,4133.333496,4138.461426,4125.641113,4128.717773,4160.000000,4154.358887,4163.077148,4162.051270,0.000000,4.000000,,,,0.000000,4.000000,4.000000,4.000000,4.000000,4.000000,4.000000,4.000000,4.000000,4.000000,4.000000,4.000000,4.000000,4.000000,4.000000,100.000000
1602006834.278150,35.000000,0.000000,4152.820313,4139.487305,4156.410156,4138.461426,4122.563965,4126.153809,4137.436035,4135.897461,4120.512695,4118.974121,4152.820313,4151.794922,4151.282227,4159.487305,0.000000,4.000000,,,,0.000000,4.000000,4.000000,4.000000,4.000000,4.000000,4.000000,4.000000,4.000000,4.000000,4.000000,4.000000,4.000000,4.000000,4.000000,100.000000
1602006834.286031,36.000000,0.000000,4141.538574,4128.717773,4153.846191,4130.769043,4118.461426,4116.922852,4137.436035,4134.358887,4125.641113,4128.205078,4150.769043,4150.256348,4144.615234,4151.282227,0.000000,4.000000,,,,0.000000,4.000000,4.000000,4.000000,4.000000,4.000000,4.000000,4.000000,4.000000,4.000000,4.000000,4.000000,4.000000,4.000000,4.000000,100.000000
1602006834.293912,37.000000,0.000000,4138.461426,4121.025879,4151.282227,4128.205078,4121.538574,4121.025879,4133.846191,4133.333496,4115.897461,4130.769043,4142.051270,4151.282227,4143.077148,4144.615234,0.000000,4.000000,,,,0.000000,4.000000,4.000000,4.000000,4.000000,4.000000,4.000000,4.000000,4.000000,4.000000,4.000000,4.000000,4.000000,4.000000,4.000000,100.000000
1602006834.301693,38.000000,0.000000,4137.948730,4128.717773,4148.205078,4131.282227,4125.641113,4134.871582,4137.436035,4136.410156,4107.692383,4105.128418,4137.948730,4152.307617,4144.102539,4152.820313,0.000000,4.000000,,,,0.000000,4.000000,4.000000,4.000000,4.000000,4.000000,4.000000,4.000000,4.000000,4.000000,4.000000,4.000000,4.000000,4.000000,4.000000,100.000000
1602006834.309574,39.000000,0.000000,4137.948730,4133.333496,4141.538574,4127.692383,4133.333496,4140.000000,4142.563965,4135.384766,4117.948730,4082.051270,4143.077148,4145.641113,4138.461426,4157.948730,0.000000,4.000000,,,,0.000000,4.000000,4.000000,4.000000,4.000000,4.000000,4.000000,4.000000,4.000000,4.000000,4.000000,4.000000,4.000000,4.000000,4.000000,100.000000
1602006834.317455,40.000000,0.000000,4137.948730,4125.641113,4137.436035,4122.051270,4137.948730,4138.461426,4141.538574,4127.692383,4118.974121,4092.307617,4137.948730,4136.922852,4126.666504,4147.692383,0.000000,4.000000,,,,0.000000,4.000000,4.000000,4.000000,4.000000,4.000000,4.000000,4.000000,4.000000,4.000000,4.000000,4.000000,4.000000,4.000000,4.000000,100.000000
1602006834.325337,41.000000,0.000000,4128.205078,4116.410156,4136.410156,4122.563965,4133.846191,4133.846191,4136.410156,4121.025879,4107.179688,4100.512695,4127.692383,4127.179688,4118.974121,4138.461426,0.000000,4.000000,,,,0.000000,4.000000,4.000000,4.000000,4.000000,4.000000,4.000000,4.000000,4.000000,4.000000,4.000000,4.000000,4.000000,4.000000,4.000000,100.000000
1602006834.333218,42.000000,0.000000,4118.974121,4120.000000,4134.871582,4125.128418,4135.897461,4135.384766,4135.384766,4121.538574,4111.282227,4088.205078,4132.307617,4123.589844,4125.641113,4143.589844,0.000000,4.000000,,,,0.000000,4.000000,4.000000,4.000000,4.000000,4.000000,4.000000,4.000000,4.000000,4.000000,4.000000,4.000000,4.000000,4.000000,4.000000,100.000000
1602006834.341099,43.000000,0.000000,4128.205078,4130.256348,4140.512695,4129.743652,4141.025879,4147.179688,4140.000000,4128.205078,4125.641113,4096.922852,4141.538574,4133.333496,4140.000000,4154.871582,0.000000,4.000000,,,,0.000000,4.000000,4.000000,4.000000,4.000000,4.000000,4.000000,4.000000,4.000000,4.000000,4.000000,4.000000,4.000000,4.000000,4.000000,100.000000
1602006834.348980,44.000000,0.000000,4128.205078,4120.000000,4142.563965,4126.666504,4131.282227,4154.358887,4141.025879,4134.871582,4138.461426,4130.769043,4145.128418,4140.512695,4142.563965,4149.743652,0.000000,4.000000,,,,0.000000,4.000000,4.000000,4.000000,4.000000,4.000000,4.000000,4.000000,4.000000,4.000000,4.000000,4.000000,4.000000,4.000000,4.000000,100.000000
1602006834.356861,45.000000,0.000000,4113.333496,4105.641113,4134.871582,4116.922852,4125.128418,4142.051270,4138.461426,4138.974121,4154.871582,4145.641113,4146.666504,4133.846191,4137.436035,4138.461426,0.000000,4.000000,,,,0.000000,4.000000,4.000000,4.000000,4.000000,4.000000,4.000000,4.000000,4.000000,4.000000,4.000000,4.000000,4.000000,4.000000,4.000000,100.000000
1602006834.364742,46.000000,0.000000,4128.717773,4128.205078,4141.025879,4128.205078,4134.871582,4129.743652,4137.436035,4142.051270,4163.589844,4137.948730,4153.333496,4137.436035,4151.282227,4150.256348,0.000000,4.000000,,,,0.000000,4.000000,4.000000,4.000000,4.000000,4.000000,4.000000,4.000000,4.000000,4.000000,4.000000,4.000000,4.000000,4.000000,4.000000,100.000000
1602006834.372723,47.000000,0.000000,4166.153809,4165.128418,4153.333496,4147.692383,4135.897461,4126.153809,4132.820313,4144.102539,4161.025879,4138.974121,4162.051270,4151.282227,4162.563965,4164.615234,0.000000,4.000000,,,,0.000000,4.000000,4.000000,4.000000,4.000000,4.000000,4.000000,4.000000,4.000000,4.000000,4.000000,4.000000,4.000000,4.000000,4.000000,100.000000
1602006834.380605,48.000000,0.000000,4176.410156,4172.307617,4146.153809,4143.077148,4125.128418,4110.769043,4125.128418,4143.077148,4150.256348,4144.615234,4155.384766,4145.128418,4137.436035,4153.846191,0.000000,4.000000,,,,0.000000,4.000000,4.000000,4.000000,4.000000,4.000000,4.000000,4.000000,4.000000,4.000000,4.000000,4.000000,4.000000,4.000000,4.000000,100.000000
1602006834.388486,49.000000,0.000000,4168.205078,4167.179688,4133.846191,4135.897461,4123.589844,4102.563965,4123.589844,4137.948730,4128.205078,4115.384766,4127.179688,4122.563965,4100.512695,4133.333496,0.000000,4.000000,,,,0.000000,4.000000,4.000000,4.000000,4.000000,4.000000,4.000000,4.000000,4.000000,4.000000,4.000000,4.000000,4.000000,4.000000,4.000000,100.000000
1602006834.396367,50.000000,0.000000,4169.230957,4171.282227,4134.358887,4147.179688,4133.846191,4123.077148,4130.769043,4131.282227,4095.897461,4065.128174,4103.077148,4114.358887,4086.666748,4121.538574,0.000000,4.000000,,,,0.000000,4.000000,4.000000,4.000000,4.000000,4.000000,4.000000,4.000000,4.000000,4.000000,4.000000,4.000000,4.000000,4.000000,4.000000,100.000000
1602006834.404248,51.000000,0.000000,4174.358887,4175.897461,4137.948730,4152.820313,4135.897461,4143.589844,4138.974121,4126.153809,4082.051270,4061.538574,4104.615234,4117.948730,4087.179443,4122.563965,0.000000,4.000000,,,,0.000000,4.000000,4.000000,4.000000,4.000000,4.000000,4.000000,4.000000,4.000000,4.000000,4.000000,4.000000,4.000000,4.000000,4.000000,100.000000
1602006834.412129,52.000000,0.000000,4167.179688,4171.282227,4132.307617,4143.589844,4128.205078,4142.051270,4134.871582,4124.615234,4096.410156,4091.794922,4113.333496,4113.846191,4085.128174,4121.025879,0.000000,4.000000,,,,0.000000,4.000000,4.000000,4.000000,4.000000,4.000000,4.000000,4.000000,4.000000,4.000000,4.000000,4.000000,4.000000,4.000000,4.000000,100.000000
1602006834.420010,53.000000,0.000000,4154.358887,4160.000000,4124.102539,4139.487305,4131.282227,4137.948730,4123.077148,4122.051270,4110.769043,4090.769287,4112.307617,4111.282227,4084.615479,4106.153809,0.000000,4.000000,,,,0.000000,4.000000,4.000000,4.000000,4.000000,4.000000,4.000000,4.000000,4.000000,4.000000,4.000000,4.000000,4.000000,4.000000,4.000000,100.000000
1602006834.427892,54.000000,0.000000,4151.282227,4160.512695,4124.615234,4142.563965,4141.538574,4140.512695,4120.000000,4120.512695,4117.948730,4082.051270,4105.128418,4121.025879,4088.205078,4107.692383,0.000000,4.000000,,,,0.000000,4.000000,4.000000,4.000000,4.000000,4.000000,4.000000,4.000000,4.000000,4.000000,4.000000,4.000000,4.000000,4.000000,4.000000,100.000000
1602006834.435773,55.000000,0.000000,4157.436035,4165.641113,4135.384766,4142.051270,4134.871582,4133.333496,4124.615234,4123.589844,4130.769043,4093.333252,4109.230957,4127.179688,4091.281982,4126.666504,0.000000,4.000000,,,,0.000000,4.000000,4.000000,4.000000,4.000000,4.000000,4.000000,4.000000,4.000000,4.000000,4.000000,4.000000,4.000000,4.000000,4.000000,100.000000
1602006834.443554,56.000000,0.000000,4157.948730,4160.000000,4139.487305,4141.025879,4124.615234,4124.615234,4126.666504,4129.230957,4140.512695,4098.461426,4123.589844,4126.666504,4091.794922,4129.230957,0.000000,4.000000,,,,0.000000,4.000000,4.000000,4.000000,4.000000,4.000000,4.000000,4.000000,4.000000,4.000000,4.000000,4.000000,4.000000,4.000000,4.000000,100.000000
1602006834.451435,57.000000,0.000000,4153.846191,4153.333496,4138.461426,4140.512695,4127.692383,4123.589844,4129.743652,4134.871582,4135.897461,4109.230957,4127.179688,4130.256348,4091.281982,4120.512695,0.000000,4.000000,,,,0.000000,4.000000,4.000000,4.000000,4.000000,4.000000,4.000000,4.000000,4.000000,4.000000,4.000000,4.000000,4.000000,4.000000,4.000000,100.000000
1602006834.459316,58.000000,0.000000,4158.974121,4158.461426,4147.692383,4140.000000,4127.179688,4121.538574,4137.948730,4137.948730,4129.743652,4127.692383,4122.051270,4137.436035,4093.333252,4123.077148,0.000000,4.000000,,,,0.000000,4.000000,4.000000,4.000000,4.000000,4.000000,4.000000,4.000000,4.000000,4.000000,4.000000,4.000000,4.000000,4.000000,4.000000,100.000000
1602006834.467197,59.000000,0.000000,4161.538574,4162.051270,4153.846191,4143.077148,4124.102539,4118.974121,4142.051270,4136.410156,4129.230957,4123.077148,4126.153809,4141.538574,4097.436035,4126.153809,0.000000,4.000000,,,,0.000000,4.000000,4.000000,4.000000,4.000000,4.000000,4.000000,4.000000,4.000000,4.000000,4.000000,4.000000,4.000000,4.000000,4.000000,100.000000
1602006834.475077,60.000000,0.000000,4153.846191,4155.384766,4142.051270,4142.051270,4124.102539,4119.487305,4139.487305,4136.410156,4124.615234,4105.128418,4122.563965,4137.436035,4097.436035,4123.077148,0.000000,4.000000,,,,0.000000,4.000000,4.000000,4.000000,4.000000,4.000000,4.000000,4.000000,4.000000,4.000000,4.000000,4.000000,4.000000,4.000000,4.000000,100.000000
1602006834.483059,61.000000,0.000000,4150.769043,4151.282227,4135.897461,4136.410156,4119.487305,4120.000000,4137.948730,4135.384766,4120.000000,4096.922852,4110.256348,4131.282227,4088.718018,4121.025879,0.000000,4.000000,,,,0.000000,4.000000,4.000000,4.000000,4.000000,4.000000,4.000000,4.000000,4.000000,4.000000,4.000000,4.000000,4.000000,4.000000,4.000000,100.000000
1602006834.490940,62.000000,0.000000,4150.769043,4155.384766,4150.769043,4137.436035,4120.512695,4126.666504,4141.025879,4134.358887,4125.641113,4090.769287,4107.179688,4128.717773,4082.051270,4114.358887,0.000000,4.000000,,,,0.000000,4.000000,4.000000,4.000000,4.000000,4.000000,4.000000,4.000000,4.000000,4.000000,4.000000,4.000000,4.000000,4.000000,4.000000,100.000000
1602006834.498821,63.000000,0.000000,4144.102539,4159.487305,4156.410156,4142.051270,4130.769043,4137.948730,4143.589844,4137.948730,4134.358887,4091.281982,4109.230957,4128.717773,4088.205078,4107.179688,0.000000,4.000000,,,,0.000000,4.000000,4.000000,4.000000,4.000000,4.000000,4.000000,4.000000,4.000000,4.000000,4.000000,4.000000,4.000000,4.000000,4.000000,100.000000
1602006834.506702,64.000000,0.000000,4138.974121,4155.384766,4143.589844,4138.974121,4131.794922,4135.384766,4140.512695,4141.025879,4141.025879,4096.410156,4107.179688,4128.717773,4090.769287,4104.615234,794.000000,4.000000,,,,0.000000,4.000000,4.000000,4.000000,4.000000,4.000000,4.000000,4.000000,4.000000,4.000000,4.000000,4.000000,4.000000,4.000000,4.000000,100.000000
1602006834.514583,65.000000,0.000000,4140.512695,4149.230957,4134.358887,4134.358887,4121.538574,4122.563965,4135.897461,4137.948730,4140.512695,4092.307617,4103.077148,4123.077148,4078.974365,4101.538574,790.000000,4.000000,,,,0.000000,4.000000,4.000000,4.000000,4.000000,4.000000,4.000000,4.000000,4.000000,4.000000,4.000000,4.000000,4.000000,4.000000,4.000000,100.000000
1602006834.522464,66.000000,0.000000,4139.487305,4151.282227,4136.410156,4138.461426,4123.589844,4121.025879,4136.922852,4135.897461,4135.897461,4088.205078,4104.615234,4120.512695,4070.256348,4093.333252,846.000000,4.000000,,,,0.000000,4.000000,4.000000,4.000000,4.000000,4.000000,4.000000,4.000000,4.000000,4.000000,4.000000,4.000000,4.000000,4.000000,4.000000,100.000000
1602006834.530345,67.000000,0.000000,4137.948730,4154.358887,4137.436035,4141.025879,4136.922852,4131.794922,4139.487305,4141.538574,4145.128418,4094.871826,4110.769043,4128.717773,4079.487061,4088.205078,871.000000,4.000000,,,,0.000000,4.000000,4.000000,4.000000,4.000000,4.000000,4.000000,4.000000,4.000000,4.000000,4.000000,4.000000,4.000000,4.000000,4.000000,100.000000
1602006834.538227,68.000000,0.000000,4142.051270,4151.794922,4135.384766,4137.948730,4136.922852,4137.948730,4138.461426,4143.077148,4156.410156,4096.922852,4112.820313,4136.410156,4090.256348,4094.871826,809.000000,4.000000,,,,0.000000,4.000000,4.000000,4.000000,4.000000,4.000000,4.000000,4.000000,4.000000,4.000000,4.000000,4.000000,4.000000,4.000000,4.000000,100.000000
1602006834.546108,69.000000,0.000000,4148.205078,4151.282227,4134.871582,4137.948730,4126.666504,4134.358887,4136.922852,4136.922852,4153.333496,4089.230713,4115.384766,4136.410156,4090.256348,4106.153809,822.000000,4.000000,,,,0.000000,4.000000,4.000000,4.000000,4.000000,4.000000,4.000000,4.000000,4.000000,4.000000,4.000000,4.000000,4.000000,4.000000,4.000000,100.000000
1602006834.553889,70.000000,0.000000,4147.692383,4151.282227,4133.846191,4140.512695,4127.179688,4128.205078,4137.948730,4136.922852,4154.871582,4092.820557,4124.102539,4138.461426,4088.205078,4111.794922,765.000000,4.000000,,,,0.000000,4.000000,4.000000,4.000000,4.000000,4.000000,4.000000,4.000000,4.000000,4.000000,4.000000,4.000000,4.000000,4.000000,4.000000,100.000000
1602006834.561770,71.000000,0.000000,4137.948730,4143.077148,4129.230957,4136.922852,4136.410156,4125.128418,4134.871582,4141.025879,4168.717773,4113.846191,4125.128418,4139.487305,4089.230713,4105.641113,660.000000,4.000000,,,,0.000000,4.000000,4.000000,4.000000,4.000000,4.000000,4.000000,4.000000,4.000000,4.000000,4.000000,4.000000,4.000000,4.000000,4.000000,100.000000
1602006834.569651,72.000000,0.000000,4137.948730,4134.358887,4125.641113,4133.846191,4136.410156,4126.666504,4133.846191,4138.461426,4170.256348,4127.179688,4117.948730,4133.846191,4089.743652,4097.948730,779.000000,4.000000,,,,0.000000,4.000000,4.000000,4.000000,4.000000,4.000000,4.000000,4.000000,4.000000,4.000000,4.000000,4.000000,4.000000,4.000000,4.000000,100.000000
1602006834.577532,73.000000,0.000000,4150.769043,4143.589844,4132.307617,4136.410156,4135.384766,4134.871582,4144.102539,4141.025879,4168.205078,4122.563965,4119.487305,4140.512695,4093.846191,4103.077148,836.000000,4.000000,,,,0.000000,4.000000,4.000000,4.000000,4.000000,4.000000,4.000000,4.000000,4.000000,4.000000,4.000000,4.000000,4.000000,4.000000,4.000000,100.000000
1602006834.585413,74.000000,0.000000,4157.436035,4155.897461,4148.717773,4141.538574,4145.641113,4150.769043,4153.846191,4154.358887,4179.487305,4125.128418,4122.563965,4157.436035,4104.615234,4118.461426,874.000000,4.000000,,,,0.000000,4.000000,4.000000,4.000000,4.000000,4.000000,4.000000,4.000000,4.000000,4.000000,4.000000,4.000000,4.000000,4.000000,4.000000,100.000000
1602006834.593394,75.000000,0.000000,4154.871582,4156.922852,4154.358887,4144.615234,4149.230957,4157.948730,4154.358887,4156.922852,4177.948730,4130.256348,4123.077148,4160.000000,4111.282227,4127.179688,836.000000,4.000000,,,,0.000000,4.000000,4.000000,4.000000,4.000000,4.000000,4.000000,4.000000,4.000000,4.000000,4.000000,4.000000,4.000000,4.000000,4.000000,100.000000
1602006834.601275,76.000000,0.000000,4149.743652,4153.333496,4142.051270,4140.512695,4140.512695,4150.769043,4151.282227,4145.128418,4158.461426,4107.179688,4124.615234,4151.282227,4107.692383,4116.922852,765.000000,4.000000,,,,0.000000,4.000000,4.000000,4.000000,4.000000,4.000000,4.000000,4.000000,4.000000,4.000000,4.000000,4.000000,4.000000,4.000000,4.000000,100.000000
1602006834.609156,77.000000,0.000000,4145.128418,4152.820313,4133.846191,4136.922852,4136.922852,4140.000000,4144.615234,4138.461426,4148.717773,4087.179443,4121.025879,4151.794922,4101.025879,4105.128418,727.000000,4.000000,,,,0.000000,4.000000,4.000000,4.000000,4.000000,4.000000,4.000000,4.000000,4.000000,4.000000,4.000000,4.000000,4.000000,4.000000,4.000000,100.000000
1602006834.617037,78.000000,0.000000,4141.538574,4151.282227,4137.436035,4139.487305,4138.461426,4130.256348,4138.461426,4141.538574,4155.897461,4100.512695,4119.487305,4158.461426,4097.436035,4105.641113,874.000000,4.000000,,,,0.000000,4.000000,4.000000,4.000000,4.000000,4.000000,4.000000,4.000000,4.000000,4.000000,4.000000,4.000000,4.000000,4.000000,4.000000,100.000000
1602006834.624918,79.000000,0.000000,4138.461426,4142.563965,4138.974121,4138.974121,4135.897461,4125.128418,4138.461426,4138.461426,4152.820313,4113.846191,4122.563965,4152.820313,4096.410156,4109.230957,836.000000,4.000000,,,,0.000000,4.000000,4.000000,4.000000,4.000000,4.000000,4.000000,4.000000,4.000000,4.000000,4.000000,4.000000,4.000000,4.000000,4.000000,100.000000
1602006834.632799,80.000000,0.000000,4137.436035,4136.922852,4135.897461,4132.820313,4134.871582,4124.102539,4136.922852,4126.153809,4140.000000,4104.102539,4116.410156,4144.102539,4098.974121,4106.666504,765.000000,4.000000,,,,0.000000,4.000000,4.000000,4.000000,4.000000,4.000000,4.000000,4.000000,4.000000,4.000000,4.000000,4.000000,4.000000,4.000000,4.000000,100.000000
1602006834.640681,81.000000,0.000000,4141.538574,4145.128418,4137.948730,4135.384766,4137.436035,4123.077148,4131.794922,4123.077148,4142.051270,4108.717773,4113.333496,4148.717773,4104.615234,4107.692383,727.000000,4.000000,,,,0.000000,4.000000,4.000000,4.000000,4.000000,4.000000,4.000000,4.000000,4.000000,4.000000,4.000000,4.000000,4.000000,4.000000,4.000000,100.000000
1602006834.648562,82.000000,0.000000,4146.666504,4156.410156,4141.538574,4141.025879,4138.974121,4123.589844,4132.307617,4131.794922,4153.846191,4124.102539,4128.205078,4156.410156,4112.307617,4115.897461,874.000000,4.000000,,,,0.000000,4.000000,4.000000,4.000000,4.000000,4.000000,4.000000,4.000000,4.000000,4.000000,4.000000,4.000000,4.000000,4.000000,4.000000,100.000000
1602006834.656443,83.000000,0.000000,4152.307617,4154.871582,4144.102539,4141.025879,4137.948730,4132.307617,4136.410156,4137.436035,4161.025879,4114.358887,4141.538574,4156.922852,4121.538574,4121.025879,836.000000,4.000000,,,,0.000000,4.000000,4.000000,4.000000,4.000000,4.000000,4.000000,4.000000,4.000000,4.000000,4.000000,4.000000,4.000000,4.000000,4.000000,100.000000
1602006834.664224,84.000000,0.000000,4157.948730,4150.769043,4146.153809,4139.487305,4138.461426,4140.512695,4137.436035,4136.410156,4166.666504,4106.666504,4138.974121,4156.922852,4124.615234,4124.615234,765.000000,4.000000,,,,0.000000,4.000000,4.000000,4.000000,4.000000,4.000000,4.000000,4.000000,4.000000,4.000000,4.000000,4.000000,4.000000,4.000000,4.000000,100.000000
1602006834.672105,85.000000,0.000000,4150.769043,4151.282227,4140.000000,4138.974121,4142.563965,4140.000000,4134.358887,4130.769043,4171.282227,4120.000000,4126.666504,4155.384766,4114.871582,4123.077148,727.000000,4.000000,,,,0.000000,4.000000,4.000000,4.000000,4.000000,4.000000,4.000000,4.000000,4.000000,4.000000,4.000000,4.000000,4.000000,4.000000,4.000000,100.000000
1602006834.679987,86.000000,0.000000,4137.436035,4146.153809,4129.230957,4135.897461,4136.410156,4135.897461,4132.820313,4126.666504,4165.128418,4118.461426,4116.410156,4144.102539,4103.077148,4110.256348,874.000000,4.000000,,,,0.000000,4.000000,4.000000,4.000000,4.000000,4.000000,4.000000,4.000000,4.000000,4.000000,4.000000,4.000000,4.000000,4.000000,4.000000,100.000000
1602006834.687868,87.000000,0.000000,4140.000000,4138.974121,4129.743652,4135.384766,4124.615234,4132.307617,4135.897461,4132.820313,4155.384766,4109.230957,4125.641113,4137.948730,4109.743652,4105.128418,836.000000,4.000000,,,,0.000000,4.000000,4.000000,4.000000,4.000000,4.000000,4.000000,4.000000,4.000000,4.000000,4.000000,4.000000,4.000000,4.000000,4.000000,100.000000
1602006834.695749,88.000000,0.000000,4152.307617,4140.000000,4139.487305,4135.897461,4124.102539,4129.743652,4137.948730,4140.000000,4156.922852,4125.641113,4138.974121,4147.179688,4120.000000,4113.333496,765.000000,4.000000,,,,0.000000,4.000000,4.000000,4.000000,4.000000,4.000000,4.000000,4.000000,4.000000,4.000000,4.000000,4.000000,4.000000,4.000000,4.000000,100.000000
1602006834.703630,89.000000,0.000000,4154.871582,4142.051270,4140.512695,4133.846191,4126.666504,4124.615234,4136.922852,4132.307617,4153.846191,4132.820313,4131.282227,4151.794922,4113.846191,4115.897461,727.000000,4.000000,,,,0.000000,4.000000,4.000000,4.000000,4.000000,4.000000,4.000000,4.000000,4.000000,4.000000,4.000000,4.000000,4.000000,4.000000,4.000000,100.000000
1602006834.711511,90.000000,0.000000,4153.333496,4143.077148,4137.436035,4137.436035,4125.128418,4128.717773,4135.897461,4121.538574,4142.051270,4100.512695,4126.666504,4144.615234,4108.205078,4117.436035,874.000000,4.000000,,,,0.000000,4.000000,4.000000,4.000000,4.000000,4.000000,4.000000,4.000000,4.000000,4.000000,4.000000,4.000000,4.000000,4.000000,4.000000,100.000000
1602006834.719392,91.000000,0.000000,4152.820313,4144.102539,4140.000000,4139.487305,4126.666504,4136.922852,4135.897461,4123.589844,4142.563965,4084.615479,4140.000000,4141.538574,4118.974121,4119.487305,836.000000,4.000000,,,,0.000000,4.000000,4.000000,4.000000,4.000000,4.000000,4.000000,4.000000,4.000000,4.000000,4.000000,4.000000,4.000000,4.000000,4.000000,100.000000
1602006834.727373,92.000000,0.000000,4144.615234,4141.538574,4140.512695,4131.282227,4127.179688,4130.769043,4130.769043,4128.717773,4155.384766,4106.153809,4143.589844,4143.589844,4123.589844,4112.820313,765.000000,4.000000,,,,0.000000,4.000000,4.000000,4.000000,4.000000,4.000000,4.000000,4.000000,4.000000,4.000000,4.000000,4.000000,4.000000,4.000000,4.000000,100.000000
1602006834.735254,93.000000,0.000000,4138.461426,4136.922852,4136.922852,4129.230957,4125.128418,4127.692383,4123.589844,4125.641113,4156.922852,4116.922852,4136.922852,4143.589844,4113.333496,4108.205078,727.000000,4.000000,,,,0.000000,4.000000,4.000000,4.000000,4.000000,4.000000,4.000000,4.000000,4.000000,4.000000,4.000000,4.000000,4.000000,4.000000,4.000000,100.000000
1602006834.743135,94.000000,0.000000,4144.102539,4137.948730,4134.871582,4134.871582,4129.230957,4137.436035,4122.051270,4126.153809,4153.333496,4106.666504,4133.846191,4144.102539,4111.282227,4109.743652,874.000000,4.000000,,,,0.000000,4.000000,4.000000,4.000000,4.000000,4.000000,4.000000,4.000000,4.000000,4.000000,4.000000,4.000000,4.000000,4.000000,4.000000,100.000000
1602006834.751116,95.000000,0.000000,4141.025879,4136.922852,4133.333496,4127.692383,4127.692383,4131.794922,4123.589844,4133.333496,4156.922852,4109.743652,4123.077148,4142.051270,4109.230957,4104.615234,836.000000,4.000000,,,,0.000000,4.000000,4.000000,4.000000,4.000000,4.000000,4.000000,4.000000,4.000000,4.000000,4.000000,4.000000,4.000000,4.000000,4.000000,100.000000
1602006834.759097,96.000000,0.000000,4132.820313,4132.820313,4134.871582,4122.051270,4120.000000,4120.000000,4128.717773,4136.410156,4156.922852,4126.666504,4116.410156,4140.000000,4103.077148,4104.102539,765.000000,4.000000,,,,0.000000,4.000000,4.000000,4.000000,4.000000,4.000000,4.000000,4.000000,4.000000,4.000000,4.000000,4.000000,4.000000,4.000000,4.000000,100.000000
1602006834.766978,97.000000,0.000000,4145.128418,4137.436035,4142.051270,4134.871582,4127.692383,4132.307617,4137.436035,4135.897461,4155.384766,4127.179688,4131.282227,4146.666504,4112.307617,4115.384766,727.000000,4.000000,,,,0.000000,4.000000,4.000000,4.000000,4.000000,4.000000,4.000000,4.000000,4.000000,4.000000,4.000000,4.000000,4.000000,4.000000,4.000000,100.000000
1602006834.774859,98.000000,0.000000,4161.025879,4144.615234,4144.615234,4143.077148,4140.000000,4141.538574,4139.487305,4138.461426,4164.102539,4117.948730,4141.025879,4150.769043,4125.128418,4121.538574,874.000000,4.000000,,,,0.000000,4.000000,4.000000,4.000000,4.000000,4.000000,4.000000,4.000000,4.000000,4.000000,4.000000,4.000000,4.000000,4.000000,4.000000,100.000000
1602006834.782740,99.000000,0.000000,4157.436035,4145.641113,4141.025879,4141.025879,4137.436035,4134.358887,4130.769043,4140.000000,4178.974121,4129.743652,4138.461426,4148.205078,4127.179688,4123.077148,836.000000,4.000000,,,,0.000000,4.000000,4.000000,4.000000,4.000000,4.000000,4.000000,4.000000,4.000000,4.000000,4.000000,4.000000,4.000000,4.000000,4.000000,100.000000
1602006834.790621,100.000000,0.000000,4151.282227,4149.743652,4141.538574,4142.563965,4132.820313,4135.384766,4125.641113,4139.487305,4178.974121,4142.563965,4140.512695,4151.282227,4125.641113,4126.153809,765.000000,4.000000,,,,0.000000,4.000000,4.000000,4.000000,4.000000,4.000000,4.000000,4.000000,4.000000,4.000000,4.000000,4.000000,4.000000,4.000000,4.000000,100.000000
1602006834.798502,101.000000,0.000000,4156.410156,4155.897461,4144.102539,4142.051270,4137.948730,4144.615234,4130.769043,4140.512695,4159.487305,4126.153809,4136.410156,4156.410156,4125.128418,4127.692383,727.000000,4.000000,,,,0.000000,4.000000,4.000000,4.000000,4.000000,4.000000,4.000000,4.000000,4.000000,4.000000,4.000000,4.000000,4.000000,4.000000,4.000000,100.000000
1602006834.806384,102.000000,0.000000,4156.410156,4147.179688,4140.512695,4137.948730,4138.461426,4141.025879,4129.230957,4136.410156,4141.538574,4094.871826,4122.051270,4154.871582,4115.384766,4126.153809,874.000000,4.000000,,,,0.000000,4.000000,4.000000,4.000000,4.000000,4.000000,4.000000,4.000000,4.000000,4.000000,4.000000,4.000000,4.000000,4.000000,4.000000,100.000000
1602006834.814265,103.000000,0.000000,4145.128418,4136.410156,4137.948730,4137.436035,4135.384766,4130.256348,4126.666504,4125.641113,4136.410156,4083.589844,4118.461426,4152.820313,4105.641113,4121.025879,836.000000,4.000000,,,,0.000000,4.000000,4.000000,4.000000,4.000000,4.000000,4.000000,4.000000,4.000000,4.000000,4.000000,4.000000,4.000000,4.000000,4.000000,100.000000
1602006834.822146,104.000000,0.000000,4140.000000,4140.512695,4138.461426,4138.461426,4138.974121,4133.846191,4133.846191,4122.051270,4136.410156,4100.512695,4125.641113,4155.384766,4113.333496,4118.974121,765.000000,4.000000,,,,0.000000,4.000000,4.000000,4.000000,4.000000,4.000000,4.000000,4.000000,4.000000,4.000000,4.000000,4.000000,4.000000,4.000000,4.000000,100.000000
1602006834.829927,105.000000,0.000000,4145.128418,4144.615234,4135.897461,4137.436035,4138.461426,4139.487305,4138.974121,4129.743652,4137.436035,4107.692383,4123.077148,4153.333496,4121.025879,4122.051270,727.000000,4.000000,,,,0.000000,4.000000,4.000000,4.000000,4.000000,4.000000,4.000000,4.000000,4.000000,4.000000,4.000000,4.000000,4.000000,4.000000,4.000000,100.000000
1602006834.837808,106.000000,0.000000,4151.282227,4145.128418,4134.871582,4137.436035,4135.384766,4137.436035,4135.384766,4136.410156,4145.128418,4093.333252,4121.025879,4151.794922,4119.487305,4125.128418,874.000000,4.000000,,,,0.000000,4.000000,4.000000,4.000000,4.000000,4.000000,4.000000,4.000000,4.000000,4.000000,4.000000,4.000000,4.000000,4.000000,4.000000,100.000000
1602006834.845690,107.000000,0.000000,4157.436035,4153.846191,4138.461426,4137.948730,4138.974121,4136.410156,4132.820313,4136.922852,4154.358887,4098.461426,4129.743652,4152.307617,4121.538574,4124.102539,836.000000,4.000000,,,,0.000000,4.000000,4.000000,4.000000,4.000000,4.000000,4.000000,4.000000,4.000000,4.000000,4.000000,4.000000,4.000000,4.000000,4.000000,100.000000
1602006834.853571,108.000000,0.000000,4156.922852,4154.871582,4133.333496,4138.461426,4143.077148,4135.384766,4129.743652,4137.436035,4157.948730,4134.358887,4129.230957,4144.615234,4126.153809,4121.025879,765.000000,4.000000,,,,0.000000,4.000000,4.000000,4.000000,4.000000,4.000000,4.000000,4.000000,4.000000,4.000000,4.000000,4.000000,4.000000,4.000000,4.000000,100.000000
1602006834.861452,109.000000,0.000000,4144.102539,4140.512695,4122.051270,4137.948730,4137.948730,4131.282227,4122.563965,4137.436035,4163.589844,4148.205078,4121.025879,4133.846191,4122.051270,4119.487305,727.000000,4.000000,,,,0.000000,4.000000,4.000000,4.000000,4.000000,4.000000,4.000000,4.000000,4.000000,4.000000,4.000000,4.000000,4.000000,4.000000,4.000000,100.000000
1602006834.869333,110.000000,0.000000,4141.538574,4136.922852,4125.128418,4136.922852,4135.384766,4136.410156,4128.205078,4137.436035,4168.717773,4136.410156,4128.205078,4137.436035,4127.692383,4124.102539,874.000000,4.000000,,,,0.000000,4.000000,4.000000,4.000000,4.000000,4.000000,4.000000,4.000000,4.000000,4.000000,4.000000,4.000000,4.000000,4.000000,4.000000,100.000000
1602006834.877214,111.000000,0.000000,4152.307617,4146.153809,4139.487305,4138.974121,4141.538574,4146.153809,4137.436035,4137.436035,4165.641113,4140.000000,4140.512695,4148.205078,4139.487305,4131.282227,836.000000,4.000000,,,,0.000000,4.000000,4.000000,4.000000,4.000000,4.000000,4.000000,4.000000,4.000000,4.000000,4.000000,4.000000,4.000000,4.000000,4.000000,100.000000
1602006834.885095,112.000000,0.000000,4153.846191,4144.615234,4141.025879,4140.000000,4137.436035,4140.512695,4133.333496,4130.769043,4153.333496,4141.025879,4141.538574,4145.641113,4131.282227,4129.743652,765.000000,4.000000,,,,0.000000,4.000000,4.000000,4.000000,4.000000,4.000000,4.000000,4.000000,4.000000,4.000000,4.000000,4.000000,4.000000,4.000000,4.000000,100.000000
1602006834.892977,113.000000,0.000000,4148.205078,4137.436035,4130.256348,4134.871582,4123.589844,4129.743652,4125.641113,4123.077148,4134.871582,4108.717773,4132.307617,4137.948730,4119.487305,4121.538574,727.000000,4.000000,,,,0.000000,4.000000,4.000000,4.000000,4.000000,4.000000,4.000000,4.000000,4.000000,4.000000,4.000000,4.000000,4.000000,4.000000,4.000000,100.000000
1602006834.900957,114.000000,0.000000,4144.102539,4138.974121,4127.179688,4133.846191,4121.025879,4125.641113,4125.641113,4120.512695,4121.538574,4078.461426,4122.051270,4139.487305,4123.077148,4118.974121,874.000000,4.000000,,,,0.000000,4.000000,4.000000,4.000000,4.000000,4.000000,4.000000,4.000000,4.000000,4.000000,4.000000,4.000000,4.000000,4.000000,4.000000,100.000000
1602006834.908838,115.000000,0.000000,4138.974121,4148.205078,4135.384766,4138.461426,4132.307617,4124.102539,4128.205078,4121.538574,4127.179688,4087.692383,4126.153809,4148.205078,4125.128418,4126.666504,836.000000,4.000000,,,,0.000000,4.000000,4.000000,4.000000,4.000000,4.000000,4.000000,4.000000,4.000000,4.000000,4.000000,4.000000,4.000000,4.000000,4.000000,100.000000
1602006834.916719,116.000000,0.000000,4137.948730,4151.282227,4138.461426,4140.000000,4136.410156,4127.692383,4125.641113,4123.589844,4139.487305,4117.436035,4138.461426,4151.282227,4123.589844,4133.333496,765.000000,4.000000,,,,0.000000,4.000000,4.000000,4.000000,4.000000,4.000000,4.000000,4.000000,4.000000,4.000000,4.000000,4.000000,4.000000,4.000000,4.000000,100.000000
1602006834.924600,117.000000,0.000000,4142.563965,4145.128418,4132.820313,4140.512695,4126.666504,4128.717773,4126.153809,4125.641113,4143.077148,4127.179688,4132.820313,4146.153809,4125.128418,4127.692383,727.000000,4.000000,,,,0.000000,4.000000,4.000000,4.000000,4.000000,4.000000,4.000000,4.000000,4.000000,4.000000,4.000000,4.000000,4.000000,4.000000,4.000000,100.000000
1602006834.932481,118.000000,0.000000,4139.487305,4138.461426,4123.589844,4134.871582,4118.974121,4114.358887,4122.563965,4122.563965,4136.922852,4114.871582,4116.922852,4137.948730,4121.538574,4119.487305,874.000000,4.000000,,,,0.000000,4.000000,4.000000,4.000000,4.000000,4.000000,4.000000,4.000000,4.000000,4.000000,4.000000,4.000000,4.000000,4.000000,4.000000,100.000000
1602006834.940262,119.000000,0.000000,4132.820313,4136.922852,4121.025879,4126.153809,4117.436035,4104.102539,4109.743652,4118.974121,4125.128418,4109.230957,4121.025879,4136.922852,4121.025879,4120.512695,836.000000,4.000000,,,,0.000000,4.000000,4.000000,4.000000,4.000000,4.000000,4.000000,4.000000,4.000000,4.000000,4.000000,4.000000,4.000000,4.000000,4.000000,100.000000
1602006834.948144,120.000000,0.000000,4135.384766,4137.436035,4127.692383,4132.820313,4121.538574,4118.974121,4108.205078,4122.563965,4125.128418,4112.820313,4138.974121,4143.077148,4128.205078,4124.102539,765.000000,4.000000,,,,0.000000,4.000000,4.000000,4.000000,4.000000,4.000000,4.000000,4.000000,4.000000,4.000000,4.000000,4.000000,4.000000,4.000000,4.000000,100.000000
1602006834.956025,121.000000,0.000000,4140.000000,4137.948730,4129.743652,4136.922852,4127.692383,4132.820313,4118.974121,4121.025879,4135.384766,4110.256348,4141.538574,4141.025879,4127.179688,4123.077148,727.000000,4.000000,,,,0.000000,4.000000,4.000000,4.000000,4.000000,4.000000,4.000000,4.000000,4.000000,4.000000,4.000000,4.000000,4.000000,4.000000,4.000000,100.000000
1602006834.963906,122.000000,0.000000,4137.948730,4136.410156,4120.512695,4126.153809,4127.179688,4125.128418,4122.051270,4115.384766,4140.512695,4109.743652,4125.641113,4133.333496,4118.974121,4122.563965,874.000000,4.000000,,,,0.000000,4.000000,4.000000,4.000000,4.000000,4.000000,4.000000,4.000000,4.000000,4.000000,4.000000,4.000000,4.000000,4.000000,4.000000,100.000000
1602006834.971787,123.000000,0.000000,4133.846191,4135.384766,4118.461426,4127.692383,4122.563965,4119.487305,4118.461426,4125.128418,4151.282227,4127.179688,4118.461426,4133.846191,4120.000000,4123.589844,836.000000,4.000000,,,,0.000000,4.000000,4.000000,4.000000,4.000000,4.000000,4.000000,4.000000,4.000000,4.000000,4.000000,4.000000,4.000000,4.000000,4.000000,100.000000
1602006834.979668,124.000000,0.000000,4134.358887,4136.410156,4125.128418,4138.974121,4123.077148,4127.179688,4123.589844,4137.948730,4157.948730,4145.641113,4129.743652,4138.974121,4128.205078,4124.102539,765.000000,4.000000,,,,0.000000,4.000000,4.000000,4.000000,4.000000,4.000000,4.000000,4.000000,4.000000,4.000000,4.000000,4.000000,4.000000,4.000000,4.000000,100.000000
1602006834.987549,125.000000,0.000000,4136.410156,4135.384766,4124.615234,4131.282227,4125.128418,4131.282227,4128.205078,4129.743652,4136.410156,4134.358887,4130.256348,4138.974121,4122.563965,4122.563965,727.000000,4.000000,,,,0.000000,4.000000,4.000000,4.000000,4.000000,4.000000,4.000000,4.000000,4.000000,4.000000,4.000000,4.000000,4.000000,4.000000,4.000000,100.000000
1602006834.995431,126.000000,0.000000,4136.410156,4133.333496,4120.512695,4120.512695,4123.077148,4122.563965,4125.128418,4119.487305,4116.922852,4112.820313,4114.358887,4137.436035,4109.230957,4125.128418,874.000000,4.000000,,,,0.000000,4.000000,4.000000,4.000000,4.000000,4.000000,4.000000,4.000000,4.000000,4.000000,4.000000,4.000000,4.000000,4.000000,4.000000,100.000000
1602006835.003412,127.000000,0.000000,4138.461426,4134.871582,4124.102539,4129.230957,4122.563965,4114.358887,4123.077148,4121.025879,4118.974121,4108.717773,4108.205078,4137.436035,4111.794922,4133.846191,836.000000,4.000000,,,,0.000000,4.000000,4.000000,4.000000,4.000000,4.000000,4.000000,4.000000,4.000000,4.000000,4.000000,4.000000,4.000000,4.000000,4.000000,100.000000
1602006835.011293,128.000000,0.000000,4144.102539,4144.615234,4132.820313,4140.000000,4131.282227,4127.692383,4125.128418,4126.666504,4121.538574,4106.153809,4121.538574,4146.666504,4126.153809,4142.051270,765.000000,4.000000,,,,0.000000,4.000000,4.000000,4.000000,4.000000,4.000000,4.000000,4.000000,4.000000,4.000000,4.000000,4.000000,4.000000,4.000000,4.000000,100.000000
1602006835.019174,0.000000,0.000000,4145.128418,4153.333496,4135.897461,4141.025879,4140.512695,4142.563965,4128.205078,4133.333496,4124.102539,4101.025879,4133.846191,4156.922852,4131.794922,4142.563965,794.000000,4.000000,,,,0.000000,4.000000,4.000000,4.000000,4.000000,4.000000,4.000000,4.000000,4.000000,4.000000,4.000000,4.000000,4.000000,4.000000,4.000000,100.000000
1602006835.027055,1.000000,0.000000,4138.974121,4145.128418,4128.205078,4135.384766,4134.358887,4128.205078,4124.615234,4131.794922,4124.102539,4111.282227,4125.641113,4148.205078,4121.538574,4130.256348,790.000000,4.000000,,,,0.000000,4.000000,4.000000,4.000000,4.000000,4.000000,4.000000,4.000000,4.000000,4.000000,4.000000,4.000000,4.000000,4.000000,4.000000,100.000000
1602006835.034936,2.000000,0.000000,4135.384766,4134.358887,4122.051270,4136.922852,4120.000000,4118.461426,4121.025879,4123.077148,4116.410156,4125.128418,4113.333496,4135.897461,4111.794922,4120.000000,846.000000,4.000000,,,,0.000000,4.000000,4.000000,4.000000,4.000000,4.000000,4.000000,4.000000,4.000000,4.000000,4.000000,4.000000,4.000000,4.000000,4.000000,100.000000
1602006835.042817,3.000000,0.000000,4131.282227,4131.282227,4123.077148,4135.384766,4121.025879,4129.743652,4124.102539,4122.563965,4111.282227,4109.743652,4107.179688,4137.948730,4107.692383,4121.538574,871.000000,4.000000,,,,0.000000,4.000000,4.000000,4.000000,4.000000,4.000000,4.000000,4.000000,4.000000,4.000000,4.000000,4.000000,4.000000,4.000000,4.000000,100.000000
1602006835.050699,4.000000,0.000000,4124.615234,4124.615234,4121.538574,4123.589844,4127.179688,4129.743652,4125.128418,4123.589844,4108.205078,4091.281982,4104.615234,4138.461426,4106.666504,4118.461426,809.000000,4.000000,,,,0.000000,4.000000,4.000000,4.000000,4.000000,4.000000,4.000000,4.000000,4.000000,4.000000,4.000000,4.000000,4.000000,4.000000,4.000000,100.000000
1602006835.058580,5.000000,0.000000,4127.179688,4127.179688,4118.974121,4124.102539,4124.102539,4125.641113,4124.615234,4119.487305,4111.282227,4114.358887,4116.410156,4138.461426,4116.410156,4120.000000,822.000000,4.000000,,,,0.000000,4.000000,4.000000,4.000000,4.000000,4.000000,4.000000,4.000000,4.000000,4.000000,4.000000,4.000000,4.000000,4.000000,4.000000,100.000000
1602006835.066461,6.000000,0.000000,4138.974121,4141.538574,4124.615234,4135.384766,4127.692383,4136.922852,4126.666504,4118.461426,4125.128418,4136.922852,4125.128418,4143.077148,4124.615234,4136.410156,765.000000,4.000000,,,,0.000000,4.000000,4.000000,4.000000,4.000000,4.000000,4.000000,4.000000,4.000000,4.000000,4.000000,4.000000,4.000000,4.000000,4.000000,100.000000
1602006835.074242,7.000000,0.000000,4143.589844,4143.077148,4131.282227,4138.461426,4136.922852,4144.102539,4126.666504,4119.487305,4120.512695,4110.769043,4112.307617,4142.563965,4119.487305,4137.436035,660.000000,4.000000,,,,0.000000,4.000000,4.000000,4.000000,4.000000,4.000000,4.000000,4.000000,4.000000,4.000000,4.000000,4.000000,4.000000,4.000000,4.000000,100.000000
1602006835.082123,8.000000,0.000000,4141.025879,4137.436035,4127.692383,4136.410156,4132.307617,4132.820313,4123.077148,4119.487305,4104.102539,4090.769287,4108.717773,4138.461426,4115.897461,4121.538574,779.000000,4.000000,,,,0.000000,4.000000,4.000000,4.000000,4.000000,4.000000,4.000000,4.000000,4.000000,4.000000,4.000000,4.000000,4.000000,4.000000,4.000000,100.000000
1602006835.090004,9.000000,0.000000,4138.461426,4136.410156,4124.102539,4132.820313,4123.077148,4119.487305,4118.974121,4120.512695,4112.820313,4119.487305,4124.615234,4138.974121,4124.102539,4122.563965,836.000000,4.000000,,,,0.000000,4.000000,4.000000,4.000000,4.000000,4.000000,4.000000,4.000000,4.000000,4.000000,4.000000,4.000000,4.000000,4.000000,4.000000,100.000000
1602006835.097886,10.000000,0.000000,4140.512695,4136.410156,4133.846191,4129.230957,4125.128418,4118.974121,4117.948730,4124.102539,4125.641113,4139.487305,4131.794922,4137.948730,4126.153809,4127.692383,874.000000,4.000000,,,,0.000000,4.000000,4.000000,4.000000,4.000000,4.000000,4.000000,4.000000,4.000000,4.000000,4.000000,4.000000,4.000000,4.000000,4.000000,100.000000
1602006835.105767,11.000000,0.000000,4142.051270,4138.461426,4138.974121,4135.897461,4126.666504,4124.102539,4123.077148,4132.820313,4123.589844,4122.051270,4124.102539,4138.461426,4122.563965,4122.563965,836.000000,4.000000,,,,0.000000,4.000000,4.000000,4.000000,4.000000,4.000000,4.000000,4.000000,4.000000,4.000000,4.000000,4.000000,4.000000,4.000000,4.000000,100.000000
1602006835.113648,12.000000,0.000000,4133.333496,4135.384766,4126.666504,4137.436035,4121.538574,4123.589844,4126.153809,4135.897461,4121.538574,4103.589844,4115.897461,4141.538574,4124.102539,4124.615234,765.000000,4.000000,,,,0.000000,4.000000,4.000000,4.000000,4.000000,4.000000,4.000000,4.000000,4.000000,4.000000,4.000000,4.000000,4.000000,4.000000,4.000000,100.000000
1602006835.121529,13.000000,0.000000,4122.051270,4123.589844,4116.922852,4124.102539,4121.538574,4127.179688,4123.589844,4127.692383,4115.384766,4091.281982,4110.769043,4137.948730,4115.897461,4123.589844,727.000000,4.000000,,,,0.000000,4.000000,4.000000,4.000000,4.000000,4.000000,4.000000,4.000000,4.000000,4.000000,4.000000,4.000000,4.000000,4.000000,4.000000,100.000000
1602006835.129410,14.000000,0.000000,4122.051270,4122.563965,4120.000000,4119.487305,4126.666504,4140.000000,4124.102539,4124.615234,4099.487305,4090.769287,4107.179688,4131.282227,4105.128418,4113.333496,874.000000,4.000000,,,,0.000000,4.000000,4.000000,4.000000,4.000000,4.000000,4.000000,4.000000,4.000000,4.000000,4.000000,4.000000,4.000000,4.000000,4.000000,100.000000
1602006835.137192,15.000000,0.000000,4127.179688,4125.641113,4125.128418,4126.153809,4124.615234,4141.538574,4125.128418,4126.153809,4093.333252,4103.077148,4106.153809,4132.307617,4104.615234,4112.820313,836.000000,4.000000,,,,0.000000,4.000000,4.000000,4.000000,4.000000,4.000000,4.000000,4.000000,4.000000,4.000000,4.000000,4.000000,4.000000,4.000000,4.000000,100.000000
1602006835.145073,16.000000,0.000000,4123.589844,4113.333496,4124.102539,4124.615234,4120.000000,4137.948730,4126.666504,4122.563965,4106.153809,4108.717773,4111.282227,4135.897461,4099.487305,4112.820313,0.000000,4.000000,,,,0.000000,4.000000,4.000000,4.000000,4.000000,4.000000,4.000000,4.000000,4.000000,4.000000,4.000000,4.000000,4.000000,4.000000,4.000000,100.000000
1602006835.152954,17.000000,0.000000,4118.461426,4109.230957,4120.512695,4121.025879,4127.692383,4133.333496,4128.205078,4121.025879,4120.000000,4110.256348,4119.487305,4134.358887,4100.000000,4114.358887,0.000000,4.000000,,,,0.000000,4.000000,4.000000,4.000000,4.000000,4.000000,4.000000,4.000000,4.000000,4.000000,4.000000,4.000000,4.000000,4.000000,4.000000,100.000000
1602006835.160835,18.000000,0.000000,4123.589844,4123.077148,4125.641113,4127.179688,4137.436035,4126.153809,4128.717773,4126.153809,4121.538574,4123.077148,4128.205078,4136.410156,4125.128418,4137.948730,0.000000,4.000000,,,,0.000000,4.000000,4.000000,4.000000,4.000000,4.000000,4.000000,4.000000,4.000000,4.000000,4.000000,4.000000,4.000000,4.000000,4.000000,100.000000
1602006835.168716,19.000000,0.000000,4129.743652,4127.179688,4137.436035,4135.897461,4136.922852,4128.717773,4132.307617,4130.769043,4120.512695,4134.358887,4142.051270,4147.179688,4155.897461,4165.128418,0.000000,4.000000,,,,0.000000,4.000000,4.000000,4.000000,4.000000,4.000000,4.000000,4.000000,4.000000,4.000000,4.000000,4.000000,4.000000,4.000000,4.000000,100.000000
1602006835.176597,20.000000,0.000000,4129.230957,4121.025879,4146.153809,4140.512695,4132.820313,4137.436035,4138.974121,4136.922852,4126.153809,4128.717773,4154.871582,4155.897461,4172.820313,4167.179688,0.000000,4.000000,,,,0.000000,4.000000,4.000000,4.000000,4.000000,4.000000,4.000000,4.000000,4.000000,4.000000,4.000000,4.000000,4.000000,4.000000,4.000000,100.000000
1602006835.184479,21.000000,0.000000,4124.102539,4120.000000,4153.333496,4138.974121,4137.436035,4139.487305,4140.512695,4143.589844,4131.282227,4123.589844,4161.025879,4164.102539,4185.128418,4168.717773,0.000000,4.000000,,,,0.000000,4.000000,4.000000,4.000000,4.000000,4.000000,4.000000,4.000000,4.000000,4.000000,4.000000,4.000000,4.000000,4.000000,4.000000,100.000000
1602006835.192360,22.000000,0.000000,4118.974121,4113.846191,4152.820313,4134.871582,4142.051270,4140.512695,4136.922852,4145.128418,4127.179688,4129.230957,4165.128418,4170.256348,4192.820313,4176.922852,0.000000,4.000000,,,,0.000000,4.000000,4.000000,4.000000,4.000000,4.000000,4.000000,4.000000,4.000000,4.000000,4.000000,4.000000,4.000000,4.000000,4.000000,100.000000
1602006835.200341,23.000000,0.000000,4105.128418,4098.974121,4136.922852,4125.128418,4132.307617,4135.384766,4130.256348,4135.384766,4118.461426,4130.769043,4156.922852,4162.051270,4180.512695,4158.974121,0.000000,4.000000,,,,0.000000,4.000000,4.000000,4.000000,4.000000,4.000000,4.000000,4.000000,4.000000,4.000000,4.000000,4.000000,4.000000,4.000000,4.000000,100.000000
1602006835.208221,24.000000,0.000000,4089.230713,4088.205078,4120.512695,4109.743652,4121.538574,4123.077148,4120.000000,4120.512695,4110.769043,4124.615234,4136.922852,4143.077148,4157.436035,4134.871582,0.000000,4.000000,,,,0.000000,4.000000,4.000000,4.000000,4.000000,4.000000,4.000000,4.000000,4.000000,4.000000,4.000000,4.000000,4.000000,4.000000,4.000000,100.000000
1602006835.216102,25.000000,0.000000,4092.307617,4086.666748,4120.512695,4107.692383,4122.563965,4125.128418,4119.487305,4117.436035,4112.307617,4125.128418,4131.794922,4140.000000,4154.358887,4138.974121,0.000000,4.000000,,,,0.000000,4.000000,4.000000,4.000000,4.000000,4.000000,4.000000,4.000000,4.000000,4.000000,4.000000,4.000000,4.000000,4.000000,4.000000,100.000000
1602006835.223983,26.000000,0.000000,4107.179688,4096.922852,4131.282227,4120.512695,4128.717773,4140.000000,4133.846191,4130.769043,4129.230957,4129.230957,4147.179688,4153.333496,4168.717773,4155.897461,0.000000,4.000000,,,,0.000000,4.000000,4.000000,4.000000,4.000000,4.000000,4.000000,4.000000,4.000000,4.000000,4.000000,4.000000,4.000000,4.000000,4.000000,100.000000
1602006835.231764,27.000000,0.000000,4110.256348,4102.051270,4136.410156,4126.666504,4127.179688,4138.974121,4142.051270,4138.974121,4140.512695,4127.179688,4156.922852,4157.436035,4172.820313,4160.000000,0.000000,4.000000,,,,0.000000,4.000000,4.000000,4.000000,4.000000,4.000000,4.000000,4.000000,4.000000,4.000000,4.000000,4.000000,4.000000,4.000000,4.000000,100.000000
1602006835.239545,28.000000,0.000000,4106.153809,4096.410156,4134.871582,4115.897461,4123.589844,4132.307617,4140.000000,4138.974121,4142.563965,4136.410156,4154.871582,4158.974121,4172.820313,4166.153809,0.000000,4.000000,,,,0.000000,4.000000,4.000000,4.000000,4.000000,4.000000,4.000000,4.000000,4.000000,4.000000,4.000000,4.000000,4.000000,4.000000,4.000000,100.000000
1602006835.247526,29.000000,0.000000,4108.205078,4096.410156,4140.512695,4110.256348,4131.282227,4141.538574,4140.512695,4144.102539,4149.230957,4155.897461,4154.871582,4169.230957,4185.641113,4181.025879,0.000000,4.000000,,,,0.000000,4.000000,4.000000,4.000000,4.000000,4.000000,4.000000,4.000000,4.000000,4.000000,4.000000,4.000000,4.000000,4.000000,4.000000,100.000000
1602006835.255407,30.000000,0.000000,4112.307617,4097.948730,4143.589844,4112.820313,4138.461426,4151.794922,4142.563965,4147.179688,4152.307617,4161.538574,4151.794922,4171.282227,4187.692383,4182.051270,0.000000,4.000000,,,,0.000000,4.000000,4.000000,4.000000,4.000000,4.000000,4.000000,4.000000,4.000000,4.000000,4.000000,4.000000,4.000000,4.000000,4.000000,100.000000
1602006835.263288,31.000000,0.000000,4105.641113,4090.769287,4129.230957,4108.205078,4132.307617,4146.666504,4138.461426,4139.487305,4141.538574,4141.025879,4140.000000,4153.846191,4165.641113,4165.641113,0.000000,4.000000,,,,0.000000,4.000000,4.000000,4.000000,4.000000,4.000000,4.000000,4.000000,4.000000,4.000000,4.000000,4.000000,4.000000,4.000000,4.000000,100.000000
1602006835.271169,32.000000,0.000000,4091.794922,4086.153809,4117.436035,4104.102539,4125.641113,4133.846191,4135.384766,4137.436035,4130.769043,4125.128418,4135.384766,4135.897461,4149.743652,4147.179688,0.000000,4.000000,,,,0.000000,4.000000,4.000000,4.000000,4.000000,4.000000,4.000000,4.000000,4.000000,4.000000,4.000000,4.000000,4.000000,4.000000,4.000000,100.000000
1602006835.279051,33.000000,0.000000,4089.230713,4088.718018,4118.974121,4107.179688,4123.589844,4129.743652,4135.897461,4148.205078,4137.948730,4129.743652,4137.436035,4132.307617,4153.846191,4138.461426,0.000000,4.000000,,,,0.000000,4.000000,4.000000,4.000000,4.000000,4.000000,4.000000,4.000000,4.000000,4.000000,4.000000,4.000000,4.000000,4.000000,4.000000,100.000000
1602006835.286932,34.000000,0.000000,4105.128418,4094.871826,4121.538574,4113.846191,4124.102539,4136.922852,4135.897461,4156.410156,4160.000000,4143.589844,4145.128418,4137.436035,4165.128418,4147.179688,0.000000,4.000000,,,,0.000000,4.000000,4.000000,4.000000,4.000000,4.000000,4.000000,4.000000,4.000000,4.000000,4.000000,4.000000,4.000000,4.000000,4.000000,100.000000
1602006835.294813,35.000000,0.000000,4115.897461,4102.051270,4129.230957,4120.000000,4132.820313,4146.153809,4145.641113,4158.974121,4171.282227,4158.974121,4155.384766,4142.051270,4171.794922,4162.051270,0.000000,4.000000,,,,0.000000,4.000000,4.000000,4.000000,4.000000,4.000000,4.000000,4.000000,4.000000,4.000000,4.000000,4.000000,4.000000,4.000000,4.000000,100.000000
1602006835.302794,36.000000,0.000000,4109.743652,4101.025879,4134.358887,4123.589844,4135.897461,4146.666504,4151.282227,4158.974121,4152.307617,4156.922852,4149.230957,4141.538574,4171.794922,4159.487305,0.000000,4.000000,,,,0.000000,4.000000,4.000000,4.000000,4.000000,4.000000,4.000000,4.000000,4.000000,4.000000,4.000000,4.000000,4.000000,4.000000,4.000000,100.000000
1602006835.310675,37.000000,0.000000,4104.615234,4096.922852,4127.692383,4123.077148,4127.179688,4142.563965,4143.077148,4154.358887,4135.384766,4141.538574,4137.436035,4142.563965,4168.205078,4153.846191,0.000000,4.000000,,,,0.000000,4.000000,4.000000,4.000000,4.000000,4.000000,4.000000,4.000000,4.000000,4.000000,4.000000,4.000000,4.000000,4.000000,4.000000,100.000000
1602006835.318556,38.000000,0.000000,4104.615234,4097.436035,4122.563965,4119.487305,4122.051270,4135.897461,4136.410156,4145.128418,4137.948730,4136.410156,4134.871582,4142.563965,4157.948730,4152.307617,0.000000,4.000000,,,,0.000000,4.000000,4.000000,4.000000,4.000000,4.000000,4.000000,4.000000,4.000000,4.000000,4.000000,4.000000,4.000000,4.000000,4.000000,100.000000
1602006835.326438,39.000000,0.000000,4106.153809,4095.384521,4125.128418,4113.846191,4123.589844,4128.717773,4135.897461,4137.436035,4128.205078,4130.769043,4129.230957,4134.358887,4144.102539,4143.077148,0.000000,4.000000,,,,0.000000,4.000000,4.000000,4.000000,4.000000,4.000000,4.000000,4.000000,4.000000,4.000000,4.000000,4.000000,4.000000,4.000000,4.000000,100.000000
1602006835.334319,40.000000,0.000000,4106.666504,4097.436035,4125.641113,4114.358887,4125.641113,4131.282227,4135.897461,4135.384766,4114.871582,4111.794922,4119.487305,4130.769043,4138.461426,4143.077148,0.000000,4.000000,,,,0.000000,4.000000,4.000000,4.000000,4.000000,4.000000,4.000000,4.000000,4.000000,4.000000,4.000000,4.000000,4.000000,4.000000,4.000000,100.000000
1602006835.342200,41.000000,0.000000,4103.589844,4098.974121,4124.102539,4116.922852,4127.179688,4136.410156,4135.384766,4136.410156,4123.589844,4110.256348,4123.589844,4143.077148,4139.487305,4152.307617,0.000000,4.000000,,,,0.000000,4.000000,4.000000,4.000000,4.000000,4.000000,4.000000,4.000000,4.000000,4.000000,4.000000,4.000000,4.000000,4.000000,4.000000,100.000000
1602006835.350081,42.000000,0.000000,4105.641113,4091.281982,4124.615234,4110.256348,4127.179688,4136.410156,4135.384766,4138.461426,4138.461426,4133.846191,4133.846191,4153.333496,4137.948730,4149.230957,0.000000,4.000000,,,,0.000000,4.000000,4.000000,4.000000,4.000000,4.000000,4.000000,4.000000,4.000000,4.000000,4.000000,4.000000,4.000000,4.000000,4.000000,100.000000
1602006835.357962,43.000000,0.000000,4108.205078,4086.666748,4124.102539,4105.128418,4126.153809,4134.358887,4135.384766,4140.000000,4142.563965,4149.743652,4141.025879,4153.846191,4144.102539,4148.717773,0.000000,4.000000,,,,0.000000,4.000000,4.000000,4.000000,4.000000,4.000000,4.000000,4.000000,4.000000,4.000000,4.000000,4.000000,4.000000,4.000000,4.000000,100.000000
1602006835.365743,44.000000,0.000000,4103.077148,4091.794922,4118.974121,4110.256348,4126.153809,4137.436035,4138.461426,4141.538574,4144.102539,4145.128418,4140.512695,4154.871582,4156.410156,4154.358887,0.000000,4.000000,,,,0.000000,4.000000,4.000000,4.000000,4.000000,4.000000,4.000000,4.000000,4.000000,4.000000,4.000000,4.000000,4.000000,4.000000,4.000000,100.000000
1602006835.373624,45.000000,0.000000,4094.358887,4095.384521,4106.153809,4109.743652,4129.230957,4146.153809,4140.512695,4140.512695,4142.563965,4127.692383,4129.743652,4152.307617,4152.820313,4143.077148,0.000000,4.000000,,,,0.000000,4.000000,4.000000,4.000000,4.000000,4.000000,4.000000,4.000000,4.000000,4.000000,4.000000,4.000000,4.000000,4.000000,4.000000,100.000000
1602006835.381505,46.000000,0.000000,4092.307617,4097.948730,4098.974121,4104.102539,4135.897461,4149.230957,4139.487305,4135.897461,4137.436035,4118.461426,4129.743652,4145.128418,4138.461426,4134.871582,0.000000,4.000000,,,,0.000000,4.000000,4.000000,4.000000,4.000000,4.000000,4.000000,4.000000,4.000000,4.000000,4.000000,4.000000,4.000000,4.000000,4.000000,100.000000
1602006835.389386,47.000000,0.000000,4098.461426,4103.077148,4105.641113,4111.794922,4138.974121,4140.512695,4134.871582,4134.871582,4135.897461,4124.102539,4135.897461,4142.051270,4136.922852,4136.922852,0.000000,4.000000,,,,0.000000,4.000000,4.000000,4.000000,4.000000,4.000000,4.000000,4.000000,4.000000,4.000000,4.000000,4.000000,4.000000,4.000000,4.000000,100.000000
1602006835.397267,48.000000,0.000000,4107.692383,4105.641113,4110.769043,4123.077148,4135.897461,4133.846191,4125.128418,4137.436035,4134.358887,4124.615234,4126.153809,4140.000000,4142.563965,4126.666504,0.000000,4.000000,,,,0.000000,4.000000,4.000000,4.000000,4.000000,4.000000,4.000000,4.000000,4.000000,4.000000,4.000000,4.000000,4.000000,4.000000,4.000000,100.000000
1602006835.405148,49.000000,0.000000,4105.128418,4108.205078,4111.794922,4122.051270,4135.897461,4136.410156,4122.051270,4133.333496,4134.358887,4118.974121,4114.871582,4140.000000,4141.025879,4119.487305,0.000000,4.000000,,,,0.000000,4.000000,4.000000,4.000000,4.000000,4.000000,4.000000,4.000000,4.000000,4.000000,4.000000,4.000000,4.000000,4.000000,4.000000,100.000000
1602006835.412929,50.000000,0.000000,4093.846191,4106.153809,4107.179688,4113.333496,4136.922852,4134.871582,4122.563965,4124.615234,4133.333496,4120.512695,4122.051270,4136.922852,4136.922852,4124.615234,0.000000,4.000000,,,,0.000000,4.000000,4.000000,4.000000,4.000000,4.000000,4.000000,4.000000,4.000000,4.000000,4.000000,4.000000,4.000000,4.000000,4.000000,100.000000
1602006835.420810,51.000000,0.000000,4089.230713,4096.410156,4095.897461,4107.179688,4131.794922,4128.205078,4118.461426,4124.102539,4127.179688,4123.077148,4127.179688,4126.153809,4138.461426,4123.589844,0.000000,4.000000,,,,0.000000,4.000000,4.000000,4.000000,4.000000,4.000000,4.000000,4.000000,4.000000,4.000000,4.000000,4.000000,4.000000,4.000000,4.000000,100.000000
1602006835.428691,52.000000,0.000000,4089.230713,4088.205078,4095.384521,4105.641113,4125.128418,4121.025879,4117.436035,4128.205078,4129.230957,4124.102539,4121.538574,4125.641113,4140.512695,4118.461426,0.000000,4.000000,,,,0.000000,4.000000,4.000000,4.000000,4.000000,4.000000,4.000000,4.000000,4.000000,4.000000,4.000000,4.000000,4.000000,4.000000,4.000000,100.000000
1602006835.436572,53.000000,0.000000,4094.358887,4094.358887,4106.666504,4108.717773,4127.692383,4122.051270,4124.615234,4129.230957,4148.205078,4127.692383,4127.692383,4142.563965,4140.512695,4128.205078,0.000000,4.000000,,,,0.000000,4.000000,4.000000,4.000000,4.000000,4.000000,4.000000,4.000000,4.000000,4.000000,4.000000,4.000000,4.000000,4.000000,4.000000,100.000000
1602006835.444453,54.000000,0.000000,4106.153809,4107.179688,4113.846191,4114.358887,4133.846191,4134.871582,4129.743652,4130.256348,4152.820313,4125.641113,4139.487305,4155.384766,4146.666504,4141.538574,0.000000,4.000000,,,,0.000000,4.000000,4.000000,4.000000,4.000000,4.000000,4.000000,4.000000,4.000000,4.000000,4.000000,4.000000,4.000000,4.000000,4.000000,100.000000
1602006835.452333,55.000000,0.000000,4110.769043,4106.153809,4110.256348,4113.333496,4129.743652,4137.948730,4127.179688,4128.205078,4138.461426,4117.948730,4140.000000,4151.794922,4150.769043,4136.410156,0.000000,4.000000,,,,0.000000,4.000000,4.000000,4.000000,4.000000,4.000000,4.000000,4.000000,4.000000,4.000000,4.000000,4.000000,4.000000,4.000000,4.000000,100.000000
1602006835.460314,56.000000,0.000000,4103.077148,4093.333252,4107.179688,4105.641113,4122.563965,4125.128418,4123.589844,4124.102539,4141.538574,4124.102539,4131.282227,4143.589844,4142.051270,4126.153809,0.000000,4.000000,,,,0.000000,4.000000,4.000000,4.000000,4.000000,4.000000,4.000000,4.000000,4.000000,4.000000,4.000000,4.000000,4.000000,4.000000,4.000000,100.000000
1602006835.468195,57.000000,0.000000,4093.846191,4091.794922,4105.128418,4103.589844,4122.051270,4118.461426,4123.077148,4123.077148,4142.563965,4131.282227,4120.512695,4140.000000,4129.743652,4123.077148,0.000000,4.000000,,,,0.000000,4.000000,4.000000,4.000000,4.000000,4.000000,4.000000,4.000000,4.000000,4.000000,4.000000,4.000000,4.000000,4.000000,4.000000,100.000000
1602006835.476076,58.000000,0.000000,4092.820557,4101.538574,4104.615234,4114.358887,4123.077148,4123.077148,4122.563965,4122.051270,4122.051270,4114.871582,4118.461426,4136.922852,4130.256348,4121.025879,0.000000,4.000000,,,,0.000000,4.000000,4.000000,4.000000,4.000000,4.000000,4.000000,4.000000,4.000000,4.000000,4.000000,4.000000,4.000000,4.000000,4.000000,100.000000
1602006835.483957,59.000000,0.000000,4107.179688,4109.743652,4113.333496,4126.153809,4130.256348,4129.743652,4120.000000,4120.512695,4122.563965,4106.666504,4129.743652,4138.974121,4141.538574,4126.153809,0.000000,4.000000,,,,0.000000,4.000000,4.000000,4.000000,4.000000,4.000000,4.000000,4.000000,4.000000,4.000000,4.000000,4.000000,4.000000,4.000000,4.000000,100.000000
1602006835.491838,60.000000,0.000000,4123.077148,4117.948730,4125.128418,4128.717773,4145.128418,4140.512695,4122.051270,4127.179688,4143.077148,4125.641113,4143.077148,4149.743652,4151.794922,4141.538574,0.000000,4.000000,,,,0.000000,4.000000,4.000000,4.000000,4.000000,4.000000,4.000000,4.000000,4.000000,4.000000,4.000000,4.000000,4.000000,4.000000,4.000000,100.000000
1602006835.499719,61.000000,0.000000,4122.563965,4123.589844,4131.282227,4127.179688,4146.666504,4144.102539,4130.769043,4137.436035,4145.128418,4126.153809,4147.692383,4162.563965,4155.897461,4147.179688,0.000000,4.000000,,,,0.000000,4.000000,4.000000,4.000000,4.000000,4.000000,4.000000,4.000000,4.000000,4.000000,4.000000,4.000000,4.000000,4.000000,4.000000,100.000000
1602006835.507500,62.000000,0.000000,4120.000000,4117.436035,4127.179688,4127.179688,4134.358887,4132.307617,4136.410156,4139.487305,4144.615234,4111.794922,4146.666504,4166.666504,4154.871582,4140.000000,0.000000,4.000000,,,,0.000000,4.000000,4.000000,4.000000,4.000000,4.000000,4.000000,4.000000,4.000000,4.000000,4.000000,4.000000,4.000000,4.000000,4.000000,100.000000
1602006835.515381,63.000000,0.000000,4123.589844,4111.282227,4125.641113,4126.666504,4127.692383,4127.692383,4138.974121,4141.538574,4152.820313,4127.179688,4137.948730,4169.743652,4155.897461,4137.436035,0.000000,4.000000,,,,0.000000,4.000000,4.000000,4.000000,4.000000,4.000000,4.000000,4.000000,4.000000,4.000000,4.000000,4.000000,4.000000,4.000000,4.000000,100.000000
1602006835.523262,64.000000,0.000000,4121.538574,4109.743652,4126.153809,4123.077148,4126.666504,4126.666504,4140.000000,4144.615234,4146.666504,4145.128418,4126.153809,4172.307617,4151.282227,4138.461426,794.000000,4.000000,,,,0.000000,4.000000,4.000000,4.000000,4.000000,4.000000,4.000000,4.000000,4.000000,4.000000,4.000000,4.000000,4.000000,4.000000,4.000000,100.000000
1602006835.531143,65.000000,0.000000,4111.794922,4105.128418,4123.077148,4119.487305,4121.538574,4112.820313,4137.436035,4141.025879,4134.871582,4130.256348,4126.153809,4169.230957,4138.461426,4137.436035,790.000000,4.000000,,,,0.000000,4.000000,4.000000,4.000000,4.000000,4.000000,4.000000,4.000000,4.000000,4.000000,4.000000,4.000000,4.000000,4.000000,4.000000,100.000000
1602006835.539024,66.000000,0.000000,4115.384766,4102.563965,4127.692383,4121.025879,4120.512695,4109.743652,4135.897461,4137.948730,4136.922852,4123.077148,4142.563965,4168.717773,4137.436035,4140.000000,847.000000,4.000000,,,,0.000000,4.000000,4.000000,4.000000,4.000000,4.000000,4.000000,4.000000,4.000000,4.000000,4.000000,4.000000,4.000000,4.000000,4.000000,100.000000
1602006835.547005,67.000000,0.000000,4128.205078,4110.256348,4138.461426,4126.666504,4126.153809,4124.102539,4136.410156,4142.051270,4137.436035,4134.871582,4156.410156,4173.846191,4149.743652,4148.205078,871.000000,4.000000,,,,0.000000,4.000000,4.000000,4.000000,4.000000,4.000000,4.000000,4.000000,4.000000,4.000000,4.000000,4.000000,4.000000,4.000000,4.000000,100.000000
1602006835.554886,68.000000,0.000000,4127.179688,4114.358887,4140.000000,4127.179688,4127.692383,4124.102539,4135.897461,4140.000000,4130.769043,4133.846191,4149.743652,4173.846191,4155.384766,4154.871582,809.000000,4.000000,,,,0.000000,4.000000,4.000000,4.000000,4.000000,4.000000,4.000000,4.000000,4.000000,4.000000,4.000000,4.000000,4.000000,4.000000,4.000000,100.000000
1602006835.562767,69.000000,0.000000,4119.487305,4111.282227,4131.794922,4125.128418,4125.641113,4120.512695,4136.410156,4134.871582,4129.743652,4119.487305,4138.974121,4169.743652,4149.230957,4152.307617,822.000000,4.000000,,,,0.000000,4.000000,4.000000,4.000000,4.000000,4.000000,4.000000,4.000000,4.000000,4.000000,4.000000,4.000000,4.000000,4.000000,4.000000,100.000000
1602006835.570648,70.000000,0.000000,4121.538574,4111.282227,4127.692383,4124.615234,4132.307617,4135.897461,4140.000000,4134.871582,4136.922852,4114.871582,4139.487305,4169.743652,4144.615234,4145.128418,765.000000,4.000000,,,,0.000000,4.000000,4.000000,4.000000,4.000000,4.000000,4.000000,4.000000,4.000000,4.000000,4.000000,4.000000,4.000000,4.000000,4.000000,100.000000
1602006835.578529,71.000000,0.000000,4124.615234,4111.282227,4125.641113,4122.563965,4133.846191,4137.948730,4140.000000,4133.333496,4142.563965,4130.256348,4134.871582,4168.717773,4141.538574,4136.922852,660.000000,4.000000,,,,0.000000,4.000000,4.000000,4.000000,4.000000,4.000000,4.000000,4.000000,4.000000,4.000000,4.000000,4.000000,4.000000,4.000000,4.000000,100.000000
1602006835.586411,72.000000,0.000000,4117.436035,4107.692383,4120.000000,4119.487305,4127.692383,4125.128418,4140.000000,4132.820313,4140.512695,4141.538574,4126.153809,4164.102539,4138.461426,4131.282227,779.000000,4.000000,,,,0.000000,4.000000,4.000000,4.000000,4.000000,4.000000,4.000000,4.000000,4.000000,4.000000,4.000000,4.000000,4.000000,4.000000,4.000000,100.000000
1602006835.594292,73.000000,0.000000,4118.461426,4113.846191,4123.589844,4121.025879,4131.794922,4131.794922,4143.589844,4135.897461,4137.948730,4126.666504,4138.974121,4166.666504,4146.666504,4135.897461,836.000000,4.000000,,,,0.000000,4.000000,4.000000,4.000000,4.000000,4.000000,4.000000,4.000000,4.000000,4.000000,4.000000,4.000000,4.000000,4.000000,4.000000,100.000000
1602006835.602173,74.000000,0.000000,4133.846191,4125.128418,4134.358887,4126.153809,4141.538574,4147.692383,4142.051270,4139.487305,4140.512695,4117.436035,4154.871582,4173.846191,4157.436035,4147.179688,869.000000,4.000000,,,,0.000000,4.000000,4.000000,4.000000,4.000000,4.000000,4.000000,4.000000,4.000000,4.000000,4.000000,4.000000,4.000000,4.000000,4.000000,100.000000
1602006835.609954,75.000000,0.000000,4138.974121,4125.128418,4141.538574,4129.230957,4138.974121,4149.230957,4140.000000,4142.051270,4144.102539,4132.820313,4145.641113,4174.871582,4153.846191,4147.692383,819.000000,4.000000,,,,0.000000,4.000000,4.000000,4.000000,4.000000,4.000000,4.000000,4.000000,4.000000,4.000000,4.000000,4.000000,4.000000,4.000000,4.000000,100.000000
1602006835.617835,76.000000,0.000000,4124.102539,4110.256348,4136.922852,4124.102539,4130.769043,4137.948730,4137.436035,4136.922852,4135.897461,4124.615234,4129.743652,4166.666504,4138.461426,4135.384766,765.000000,4.000000,,,,0.000000,4.000000,4.000000,4.000000,4.000000,4.000000,4.000000,4.000000,4.000000,4.000000,4.000000,4.000000,4.000000,4.000000,4.000000,100.000000
1602006835.625716,77.000000,0.000000,4107.692383,4098.461426,4127.179688,4114.358887,4122.563965,4123.589844,4126.666504,4124.102539,4115.897461,4100.512695,4125.128418,4156.410156,4125.128418,4123.589844,727.000000,4.000000,,,,0.000000,4.000000,4.000000,4.000000,4.000000,4.000000,4.000000,4.000000,4.000000,4.000000,4.000000,4.000000,4.000000,4.000000,4.000000,100.000000
1602006835.633598,78.000000,0.000000,4104.102539,4098.974121,4119.487305,4113.333496,4117.948730,4117.948730,4117.436035,4117.948730,4104.102539,4111.282227,4121.025879,4152.820313,4122.563965,4121.025879,869.000000,4.000000,,,,0.000000,4.000000,4.000000,4.000000,4.000000,4.000000,4.000000,4.000000,4.000000,4.000000,4.000000,4.000000,4.000000,4.000000,4.000000,100.000000
1602006835.641479,79.000000,0.000000,4106.666504,4105.128418,4121.025879,4122.051270,4128.205078,4123.589844,4117.948730,4115.897461,4109.230957,4127.692383,4121.025879,4154.358887,4130.256348,4131.282227,819.000000,4.000000,,,,0.000000,4.000000,4.000000,4.000000,4.000000,4.000000,4.000000,4.000000,4.000000,4.000000,4.000000,4.000000,4.000000,4.000000,4.000000,100.000000
1602006835.649360,80.000000,0.000000,4109.743652,4109.743652,4127.179688,4125.641113,4135.897461,4128.205078,4122.051270,4112.307617,4122.563965,4116.922852,4135.384766,4154.871582,4139.487305,4139.487305,765.000000,4.000000,,,,0.000000,4.000000,4.000000,4.000000,4.000000,4.000000,4.000000,4.000000,4.000000,4.000000,4.000000,4.000000,4.000000,4.000000,4.000000,100.000000
1602006835.657241,81.000000,0.000000,4107.179688,4106.153809,4125.128418,4117.436035,4127.179688,4125.641113,4125.641113,4115.897461,4125.128418,4096.922852,4143.077148,4153.846191,4134.871582,4128.717773,727.000000,4.000000,,,,0.000000,4.000000,4.000000,4.000000,4.000000,4.000000,4.000000,4.000000,4.000000,4.000000,4.000000,4.000000,4.000000,4.000000,4.000000,100.000000
1602006835.665122,82.000000,0.000000,4104.102539,4103.077148,4117.436035,4112.307617,4122.051270,4125.641113,4132.307617,4122.563965,4120.512695,4103.589844,4135.897461,4152.307617,4126.153809,4122.051270,869.000000,4.000000,,,,0.000000,4.000000,4.000000,4.000000,4.000000,4.000000,4.000000,4.000000,4.000000,4.000000,4.000000,4.000000,4.000000,4.000000,4.000000,100.000000
1602006835.673103,83.000000,0.000000,4115.897461,4110.769043,4118.974121,4120.000000,4132.307617,4132.820313,4138.461426,4124.615234,4128.717773,4128.205078,4137.436035,4152.307617,4134.871582,4133.333496,819.000000,4.000000,,,,0.000000,4.000000,4.000000,4.000000,4.000000,4.000000,4.000000,4.000000,4.000000,4.000000,4.000000,4.000000,4.000000,4.000000,4.000000,100.000000
1602006835.680985,84.000000,0.000000,4124.102539,4121.538574,4123.077148,4128.717773,4137.948730,4138.974121,4139.487305,4131.282227,4138.461426,4137.436035,4143.077148,4151.794922,4144.102539,4136.410156,765.000000,4.000000,,,,0.000000,4.000000,4.000000,4.000000,4.000000,4.000000,4.000000,4.000000,4.000000,4.000000,4.000000,4.000000,4.000000,4.000000,4.000000,100.000000
1602006835.688866,85.000000,0.000000,4120.512695,4122.563965,4121.538574,4128.717773,4134.871582,4134.358887,4131.794922,4136.922852,4134.871582,4142.051270,4135.897461,4151.794922,4137.948730,4128.717773,727.000000,4.000000,,,,0.000000,4.000000,4.000000,4.000000,4.000000,4.000000,4.000000,4.000000,4.000000,4.000000,4.000000,4.000000,4.000000,4.000000,4.000000,100.000000
1602006835.696747,86.000000,0.000000,4129.743652,4124.615234,4129.230957,4130.769043,4136.922852,4122.051270,4121.025879,4131.794922,4135.897461,4152.307617,4139.487305,4156.922852,4143.589844,4136.410156,869.000000,4.000000,,,,0.000000,4.000000,4.000000,4.000000,4.000000,4.000000,4.000000,4.000000,4.000000,4.000000,4.000000,4.000000,4.000000,4.000000,4.000000,100.000000
1602006835.704628,87.000000,0.000000,4145.641113,4129.743652,4144.102539,4138.974121,4136.410156,4121.538574,4118.461426,4125.641113,4142.563965,4144.615234,4154.871582,4161.025879,4156.922852,4148.717773,819.000000,4.000000,,,,0.000000,4.000000,4.000000,4.000000,4.000000,4.000000,4.000000,4.000000,4.000000,4.000000,4.000000,4.000000,4.000000,4.000000,4.000000,100.000000
1602006835.712509,88.000000,0.000000,4138.461426,4125.128418,4142.051270,4140.512695,4125.641113,4132.820313,4119.487305,4123.589844,4134.871582,4127.692383,4150.769043,4156.410156,4147.692383,4144.615234,765.000000,4.000000,,,,0.000000,4.000000,4.000000,4.000000,4.000000,4.000000,4.000000,4.000000,4.000000,4.000000,4.000000,4.000000,4.000000,4.000000,4.000000,100.000000
1602006835.720390,89.000000,0.000000,4122.563965,4122.563965,4128.717773,4133.846191,4125.641113,4138.974121,4118.974121,4121.538574,4122.051270,4123.077148,4141.025879,4152.820313,4134.358887,4136.410156,727.000000,4.000000,,,,0.000000,4.000000,4.000000,4.000000,4.000000,4.000000,4.000000,4.000000,4.000000,4.000000,4.000000,4.000000,4.000000,4.000000,4.000000,100.000000
1602006835.728272,90.000000,0.000000,4121.025879,4121.538574,4124.102539,4126.666504,4135.897461,4138.461426,4127.179688,4120.512695,4117.436035,4109.743652,4141.538574,4150.256348,4136.922852,4138.461426,869.000000,4.000000,,,,0.000000,4.000000,4.000000,4.000000,4.000000,4.000000,4.000000,4.000000,4.000000,4.000000,4.000000,4.000000,4.000000,4.000000,4.000000,100.000000
1602006835.736153,91.000000,0.000000,4119.487305,4111.794922,4124.102539,4123.589844,4130.769043,4136.410156,4134.358887,4118.974121,4109.743652,4101.538574,4130.769043,4140.000000,4132.820313,4137.948730,819.000000,4.000000,,,,0.000000,4.000000,4.000000,4.000000,4.000000,4.000000,4.000000,4.000000,4.000000,4.000000,4.000000,4.000000,4.000000,4.000000,4.000000,100.000000
1602006835.744034,92.000000,0.000000,4117.436035,4104.102539,4123.077148,4122.051270,4121.025879,4136.922852,4129.743652,4118.974121,4110.256348,4116.922852,4117.948730,4134.871582,4120.512695,4127.179688,765.000000,4.000000,,,,0.000000,4.000000,4.000000,4.000000,4.000000,4.000000,4.000000,4.000000,4.000000,4.000000,4.000000,4.000000,4.000000,4.000000,4.000000,100.000000
1602006835.751815,93.000000,0.000000,4122.051270,4107.692383,4125.128418,4123.077148,4125.641113,4134.871582,4126.666504,4123.589844,4121.025879,4121.538574,4131.282227,4142.563965,4119.487305,4124.102539,727.000000,4.000000,,,,0.000000,4.000000,4.000000,4.000000,4.000000,4.000000,4.000000,4.000000,4.000000,4.000000,4.000000,4.000000,4.000000,4.000000,4.000000,100.000000
1602006835.759696,94.000000,0.000000,4119.487305,4115.384766,4125.641113,4122.563965,4129.743652,4129.230957,4127.692383,4124.615234,4125.641113,4115.897461,4142.563965,4144.615234,4129.230957,4130.256348,869.000000,4.000000,,,,0.000000,4.000000,4.000000,4.000000,4.000000,4.000000,4.000000,4.000000,4.000000,4.000000,4.000000,4.000000,4.000000,4.000000,4.000000,100.000000
1602006835.767577,95.000000,0.000000,4114.871582,4120.512695,4123.077148,4122.051270,4129.230957,4130.256348,4128.205078,4125.641113,4126.666504,4130.769043,4134.358887,4142.051270,4138.461426,4124.615234,819.000000,4.000000,,,,0.000000,4.000000,4.000000,4.000000,4.000000,4.000000,4.000000,4.000000,4.000000,4.000000,4.000000,4.000000,4.000000,4.000000,4.000000,100.000000
1602006835.775459,96.000000,0.000000,4125.128418,4123.077148,4125.641113,4128.717773,4134.358887,4141.538574,4132.820313,4132.820313,4138.461426,4144.102539,4134.871582,4147.179688,4141.538574,4120.512695,765.000000,4.000000,,,,0.000000,4.000000,4.000000,4.000000,4.000000,4.000000,4.000000,4.000000,4.000000,4.000000,4.000000,4.000000,4.000000,4.000000,4.000000,100.000000
1602006835.783340,97.000000,0.000000,4140.000000,4130.769043,4136.410156,4138.461426,4142.051270,4153.846191,4139.487305,4138.461426,4151.282227,4138.974121,4151.794922,4152.307617,4147.692383,4142.563965,727.000000,4.000000,,,,0.000000,4.000000,4.000000,4.000000,4.000000,4.000000,4.000000,4.000000,4.000000,4.000000,4.000000,4.000000,4.000000,4.000000,4.000000,100.000000
1602006835.791221,98.000000,0.000000,4142.563965,4140.512695,4142.051270,4142.563965,4146.153809,4156.410156,4137.948730,4138.974121,4146.666504,4140.512695,4161.025879,4154.358887,4157.948730,4159.487305,869.000000,4.000000,,,,0.000000,4.000000,4.000000,4.000000,4.000000,4.000000,4.000000,4.000000,4.000000,4.000000,4.000000,4.000000,4.000000,4.000000,4.000000,100.000000
1602006835.799102,99.000000,0.000000,4131.794922,4134.871582,4137.436035,4134.871582,4137.436035,4145.128418,4135.384766,4136.922852,4132.307617,4144.102539,4149.743652,4153.846191,4151.794922,4142.563965,819.000000,4.000000,,,,0.000000,4.000000,4.000000,4.000000,4.000000,4.000000,4.000000,4.000000,4.000000,4.000000,4.000000,4.000000,4.000000,4.000000,4.000000,100.000000
1602006835.806983,100.000000,0.000000,4124.102539,4122.563965,4134.871582,4126.666504,4126.153809,4127.692383,4136.922852,4130.769043,4125.128418,4131.794922,4137.948730,4148.717773,4138.974121,4131.794922,765.000000,4.000000,,,,0.000000,4.000000,4.000000,4.000000,4.000000,4.000000,4.000000,4.000000,4.000000,4.000000,4.000000,4.000000,4.000000,4.000000,4.000000,100.000000
1602006835.814964,101.000000,0.000000,4125.641113,4121.025879,4138.974121,4127.692383,4125.128418,4127.179688,4137.948730,4126.666504,4124.102539,4124.102539,4138.461426,4143.077148,4138.461426,4142.051270,727.000000,4.000000,,,,0.000000,4.000000,4.000000,4.000000,4.000000,4.000000,4.000000,4.000000,4.000000,4.000000,4.000000,4.000000,4.000000,4.000000,4.000000,100.000000
1602006835.822846,102.000000,0.000000,4120.000000,4121.025879,4134.871582,4128.205078,4125.128418,4135.384766,4132.820313,4130.769043,4123.589844,4136.410156,4138.974121,4142.051270,4134.358887,4137.436035,869.000000,4.000000,,,,0.000000,4.000000,4.000000,4.000000,4.000000,4.000000,4.000000,4.000000,4.000000,4.000000,4.000000,4.000000,4.000000,4.000000,4.000000,100.000000
1602006835.830727,103.000000,0.000000,4112.307617,4116.410156,4125.641113,4121.025879,4121.025879,4133.333496,4121.538574,4137.436035,4130.256348,4145.641113,4134.358887,4139.487305,4127.692383,4117.436035,819.000000,4.000000,,,,0.000000,4.000000,4.000000,4.000000,4.000000,4.000000,4.000000,4.000000,4.000000,4.000000,4.000000,4.000000,4.000000,4.000000,4.000000,100.000000
1602006835.838608,104.000000,0.000000,4117.948730,4119.487305,4126.153809,4118.974121,4124.615234,4136.922852,4125.641113,4140.512695,4139.487305,4142.051270,4136.922852,4136.410156,4131.794922,4118.461426,765.000000,4.000000,,,,0.000000,4.000000,4.000000,4.000000,4.000000,4.000000,4.000000,4.000000,4.000000,4.000000,4.000000,4.000000,4.000000,4.000000,4.000000,100.000000
1602006835.846489,105.000000,0.000000,4122.051270,4124.102539,4131.282227,4126.153809,4129.230957,4144.615234,4137.948730,4139.487305,4135.384766,4133.333496,4141.025879,4143.589844,4128.205078,4127.179688,727.000000,4.000000,,,,0.000000,4.000000,4.000000,4.000000,4.000000,4.000000,4.000000,4.000000,4.000000,4.000000,4.000000,4.000000,4.000000,4.000000,4.000000,100.000000
1602006835.854370,106.000000,0.000000,4114.871582,4116.410156,4124.102539,4124.615234,4123.589844,4133.846191,4133.333496,4136.410156,4124.102539,4122.051270,4136.410156,4148.205078,4117.436035,4123.589844,869.000000,4.000000,,,,0.000000,4.000000,4.000000,4.000000,4.000000,4.000000,4.000000,4.000000,4.000000,4.000000,4.000000,4.000000,4.000000,4.000000,4.000000,100.000000
1602006835.862251,107.000000,0.000000,4119.487305,4113.333496,4122.563965,4122.051270,4122.051270,4121.025879,4122.051270,4134.871582,4120.000000,4122.051270,4137.436035,4147.179688,4127.692383,4126.153809,819.000000,4.000000,,,,0.000000,4.000000,4.000000,4.000000,4.000000,4.000000,4.000000,4.000000,4.000000,4.000000,4.000000,4.000000,4.000000,4.000000,4.000000,100.000000
1602006835.870132,108.000000,0.000000,4129.743652,4125.128418,4134.358887,4131.794922,4129.230957,4122.563965,4120.512695,4135.384766,4119.487305,4128.205078,4143.589844,4149.743652,4141.538574,4134.871582,765.000000,4.000000,,,,0.000000,4.000000,4.000000,4.000000,4.000000,4.000000,4.000000,4.000000,4.000000,4.000000,4.000000,4.000000,4.000000,4.000000,4.000000,100.000000
1602006835.878014,109.000000,0.000000,4129.230957,4138.974121,4138.461426,4140.512695,4135.897461,4124.615234,4121.025879,4138.461426,4121.025879,4131.282227,4147.179688,4153.846191,4143.077148,4143.077148,727.000000,4.000000,,,,0.000000,4.000000,4.000000,4.000000,4.000000,4.000000,4.000000,4.000000,4.000000,4.000000,4.000000,4.000000,4.000000,4.000000,4.000000,100.000000
1602006835.885895,110.000000,0.000000,4126.666504,4141.538574,4138.461426,4142.563965,4140.512695,4126.666504,4125.128418,4140.512695,4131.282227,4146.153809,4149.230957,4154.871582,4151.794922,4152.307617,869.000000,4.000000,,,,0.000000,4.000000,4.000000,4.000000,4.000000,4.000000,4.000000,4.000000,4.000000,4.000000,4.000000,4.000000,4.000000,4.000000,4.000000,100.000000
1602006835.893676,111.000000,0.000000,4126.666504,4136.922852,4141.538574,4139.487305,4137.436035,4125.641113,4134.871582,4141.025879,4131.794922,4164.102539,4147.692383,4151.794922,4158.461426,4149.743652,819.000000,4.000000,,,,0.000000,4.000000,4.000000,4.000000,4.000000,4.000000,4.000000,4.000000,4.000000,4.000000,4.000000,4.000000,4.000000,4.000000,4.000000,100.000000
1602006835.901557,112.000000,0.000000,4124.615234,4130.256348,4136.922852,4134.358887,4127.179688,4122.051270,4137.436035,4140.000000,4117.436035,4157.436035,4140.000000,4143.589844,4145.128418,4136.410156,765.000000,4.000000,,,,0.000000,4.000000,4.000000,4.000000,4.000000,4.000000,4.000000,4.000000,4.000000,4.000000,4.000000,4.000000,4.000000,4.000000,4.000000,100.000000
1602006835.909438,113.000000,0.000000,4123.077148,4126.153809,4125.641113,4133.846191,4127.692383,4129.230957,4133.333496,4137.948730,4117.436035,4142.563965,4135.897461,4136.410156,4134.871582,4130.769043,727.000000,4.000000,,,,0.000000,4.000000,4.000000,4.000000,4.000000,4.000000,4.000000,4.000000,4.000000,4.000000,4.000000,4.000000,4.000000,4.000000,4.000000,100.000000
1602006835.917320,114.000000,0.000000,4124.102539,4129.743652,4124.102539,4139.487305,4135.384766,4143.077148,4132.307617,4139.487305,4126.153809,4131.794922,4141.025879,4139.487305,4137.948730,4132.820313,869.000000,4.000000,,,,0.000000,4.000000,4.000000,4.000000,4.000000,4.000000,4.000000,4.000000,4.000000,4.000000,4.000000,4.000000,4.000000,4.000000,4.000000,100.000000
1602006835.925201,115.000000,0.000000,4118.974121,4124.102539,4123.077148,4136.922852,4128.205078,4144.102539,4129.743652,4140.000000,4114.358887,4113.333496,4136.410156,4137.436035,4131.282227,4124.102539,819.000000,4.000000,,,,0.000000,4.000000,4.000000,4.000000,4.000000,4.000000,4.000000,4.000000,4.000000,4.000000,4.000000,4.000000,4.000000,4.000000,4.000000,100.000000
1602006835.933082,116.000000,0.000000,4107.179688,4111.794922,4110.256348,4123.077148,4121.538574,4132.820313,4124.615234,4136.410156,4099.487305,4106.153809,4123.077148,4124.102539,4118.974121,4111.282227,765.000000,4.000000,,,,0.000000,4.000000,4.000000,4.000000,4.000000,4.000000,4.000000,4.000000,4.000000,4.000000,4.000000,4.000000,4.000000,4.000000,4.000000,100.000000
1602006835.940963,117.000000,0.000000,4104.102539,4113.846191,4107.692383,4120.000000,4127.179688,4125.128418,4122.563965,4132.820313,4103.077148,4127.692383,4122.051270,4123.077148,4117.948730,4109.743652,727.000000,4.000000,,,,0.000000,4.000000,4.000000,4.000000,4.000000,4.000000,4.000000,4.000000,4.000000,4.000000,4.000000,4.000000,4.000000,4.000000,4.000000,100.000000
1602006835.948844,118.000000,0.000000,4106.153809,4121.538574,4117.436035,4128.205078,4125.128418,4122.051270,4123.077148,4134.871582,4112.307617,4145.128418,4128.717773,4132.820313,4125.128418,4116.922852,869.000000,4.000000,,,,0.000000,4.000000,4.000000,4.000000,4.000000,4.000000,4.000000,4.000000,4.000000,4.000000,4.000000,4.000000,4.000000,4.000000,4.000000,100.000000
1602006835.956625,119.000000,0.000000,4113.846191,4122.563965,4124.615234,4137.436035,4122.051270,4120.000000,4130.256348,4138.974121,4119.487305,4134.358887,4136.410156,4138.974121,4132.820313,4128.717773,819.000000,4.000000,,,,0.000000,4.000000,4.000000,4.000000,4.000000,4.000000,4.000000,4.000000,4.000000,4.000000,4.000000,4.000000,4.000000,4.000000,4.000000,100.000000
1602006835.964506,120.000000,0.000000,4129.743652,4128.717773,4126.666504,4143.589844,4133.846191,4121.025879,4137.948730,4140.512695,4125.128418,4126.666504,4143.077148,4141.025879,4140.000000,4138.974121,765.000000,4.000000,,,,0.000000,4.000000,4.000000,4.000000,4.000000,4.000000,4.000000,4.000000,4.000000,4.000000,4.000000,4.000000,4.000000,4.000000,4.000000,100.000000
1602006835.972387,121.000000,0.000000,4136.410156,4137.436035,4126.153809,4142.051270,4140.000000,4124.102539,4133.333496,4139.487305,4125.641113,4145.128418,4141.025879,4141.538574,4137.948730,4140.000000,727.000000,4.000000,,,,0.000000,4.000000,4.000000,4.000000,4.000000,4.000000,4.000000,4.000000,4.000000,4.000000,4.000000,4.000000,4.000000,4.000000,4.000000,100.000000
1602006835.980268,122.000000,0.000000,4133.846191,4136.922852,4130.256348,4137.436035,4136.410156,4126.153809,4122.563965,4139.487305,4127.179688,4156.922852,4144.102539,4144.615234,4135.384766,4137.948730,869.000000,4.000000,,,,0.000000,4.000000,4.000000,4.000000,4.000000,4.000000,4.000000,4.000000,4.000000,4.000000,4.000000,4.000000,4.000000,4.000000,4.000000,100.000000
1602006835.988149,123.000000,0.000000,4140.000000,4137.948730,4141.538574,4145.128418,4140.512695,4133.846191,4120.000000,4141.025879,4134.871582,4144.102539,4157.948730,4155.384766,4146.153809,4141.538574,819.000000,4.000000,,,,0.000000,4.000000,4.000000,4.000000,4.000000,4.000000,4.000000,4.000000,4.000000,4.000000,4.000000,4.000000,4.000000,4.000000,4.000000,100.000000
1602006835.996130,124.000000,0.000000,4146.153809,4144.102539,4147.692383,4152.307617,4143.589844,4150.256348,4126.153809,4141.025879,4129.230957,4133.846191,4154.358887,4161.538574,4152.307617,4143.589844,765.000000,4.000000,,,,0.000000,4.000000,4.000000,4.000000,4.000000,4.000000,4.000000,4.000000,4.000000,4.000000,4.000000,4.000000,4.000000,4.000000,4.000000,100.000000
1602006836.004011,125.000000,0.000000,4138.974121,4136.922852,4141.025879,4142.563965,4136.922852,4154.871582,4133.846191,4138.461426,4110.256348,4138.974121,4137.948730,4153.333496,4145.641113,4137.436035,727.000000,4.000000,,,,0.000000,4.000000,4.000000,4.000000,4.000000,4.000000,4.000000,4.000000,4.000000,4.000000,4.000000,4.000000,4.000000,4.000000,4.000000,100.000000
1602006836.011892,126.000000,0.000000,4128.717773,4124.615234,4135.897461,4134.871582,4134.871582,4143.589844,4141.025879,4138.461426,4103.077148,4137.948730,4136.410156,4143.077148,4133.846191,4135.897461,869.000000,4.000000,,,,0.000000,4.000000,4.000000,4.000000,4.000000,4.000000,4.000000,4.000000,4.000000,4.000000,4.000000,4.000000,4.000000,4.000000,4.000000,100.000000
1602006836.019774,127.000000,0.000000,4123.589844,4126.153809,4134.871582,4139.487305,4137.948730,4137.436035,4144.102539,4139.487305,4103.589844,4128.205078,4139.487305,4140.000000,4125.641113,4137.436035,819.000000,4.000000,,,,0.000000,4.000000,4.000000,4.000000,4.000000,4.000000,4.000000,4.000000,4.000000,4.000000,4.000000,4.000000,4.000000,4.000000,4.000000,100.000000
1602006836.027655,128.000000,0.000000,4124.615234,4129.743652,4129.743652,4141.025879,4132.307617,4136.410156,4143.077148,4136.410156,4095.384521,4108.717773,4135.384766,4140.512695,4122.051270,4135.897461,765.000000,4.000000,,,,0.000000,4.000000,4.000000,4.000000,4.000000,4.000000,4.000000,4.000000,4.000000,4.000000,4.000000,4.000000,4.000000,4.000000,4.000000,100.000000
1602006836.035536,0.000000,0.000000,4123.077148,4123.589844,4123.077148,4136.922852,4120.512695,4128.717773,4137.948730,4133.333496,4088.205078,4091.794922,4131.794922,4138.974121,4120.512695,4133.846191,794.000000,4.000000,,,,0.000000,4.000000,4.000000,4.000000,4.000000,4.000000,4.000000,4.000000,4.000000,4.000000,4.000000,4.000000,4.000000,4.000000,4.000000,100.000000
1602006836.043417,1.000000,0.000000,4123.589844,4121.538574,4125.641113,4135.384766,4116.410156,4122.051270,4131.794922,4134.871582,4098.461426,4103.589844,4134.358887,4136.410156,4127.179688,4134.358887,790.000000,4.000000,,,,0.000000,4.000000,4.000000,4.000000,4.000000,4.000000,4.000000,4.000000,4.000000,4.000000,4.000000,4.000000,4.000000,4.000000,4.000000,100.000000
1602006836.051298,2.000000,0.000000,4133.846191,4134.358887,4136.410156,4138.461426,4127.692383,4124.615234,4128.205078,4137.948730,4113.333496,4133.333496,4147.179688,4143.077148,4142.563965,4142.051270,847.000000,4.000000,,,,0.000000,4.000000,4.000000,4.000000,4.000000,4.000000,4.000000,4.000000,4.000000,4.000000,4.000000,4.000000,4.000000,4.000000,4.000000,100.000000
1602006836.059179,3.000000,0.000000,4140.512695,4143.589844,4141.538574,4147.692383,4140.000000,4128.717773,4126.666504,4138.461426,4120.000000,4151.794922,4157.948730,4152.820313,4154.871582,4146.153809,871.000000,4.000000,,,,0.000000,4.000000,4.000000,4.000000,4.000000,4.000000,4.000000,4.000000,4.000000,4.000000,4.000000,4.000000,4.000000,4.000000,4.000000,100.000000
1602006836.066961,4.000000,0.000000,4136.922852,4142.563965,4140.512695,4149.230957,4140.512695,4125.641113,4121.538574,4137.436035,4128.205078,4155.897461,4154.358887,4153.846191,4152.820313,4141.025879,809.000000,4.000000,,,,0.000000,4.000000,4.000000,4.000000,4.000000,4.000000,4.000000,4.000000,4.000000,4.000000,4.000000,4.000000,4.000000,4.000000,4.000000,100.000000
1602006836.074842,5.000000,0.000000,4135.384766,4140.000000,4140.000000,4143.589844,4137.436035,4120.000000,4117.436035,4135.897461,4138.461426,4153.333496,4152.820313,4152.307617,4152.820313,4145.128418,822.000000,4.000000,,,,0.000000,4.000000,4.000000,4.000000,4.000000,4.000000,4.000000,4.000000,4.000000,4.000000,4.000000,4.000000,4.000000,4.000000,4.000000,100.000000
1602006836.082723,6.000000,0.000000,4138.461426,4141.025879,4141.538574,4147.692383,4140.000000,4127.179688,4125.641113,4142.563965,4136.410156,4148.717773,4161.025879,4156.410156,4160.512695,4153.333496,765.000000,4.000000,,,,0.000000,4.000000,4.000000,4.000000,4.000000,4.000000,4.000000,4.000000,4.000000,4.000000,4.000000,4.000000,4.000000,4.000000,4.000000,100.000000
1602006836.090604,7.000000,0.000000,4139.487305,4145.641113,4143.589844,4154.871582,4144.102539,4145.128418,4140.000000,4150.769043,4124.615234,4155.384766,4155.384766,4156.410156,4159.487305,4149.230957,633.000000,4.000000,,,,0.000000,4.000000,4.000000,4.000000,4.000000,4.000000,4.000000,4.000000,4.000000,4.000000,4.000000,4.000000,4.000000,4.000000,4.000000,100.000000
1602006836.098485,8.000000,0.000000,4134.871582,4138.974121,4138.461426,4145.128418,4136.922852,4147.179688,4144.102539,4146.666504,4117.436035,4157.436035,4138.461426,4144.102539,4142.563965,4133.333496,779.000000,4.000000,,,,0.000000,4.000000,4.000000,4.000000,4.000000,4.000000,4.000000,4.000000,4.000000,4.000000,4.000000,4.000000,4.000000,4.000000,4.000000,100.000000
1602006836.106366,9.000000,0.000000,4124.102539,4121.538574,4128.717773,4126.153809,4118.974121,4129.230957,4137.948730,4135.384766,4111.282227,4135.897461,4130.256348,4132.307617,4122.563965,4127.179688,836.000000,4.000000,,,,0.000000,4.000000,4.000000,4.000000,4.000000,4.000000,4.000000,4.000000,4.000000,4.000000,4.000000,4.000000,4.000000,4.000000,4.000000,100.000000
1602006836.114248,10.000000,0.000000,4121.025879,4117.436035,4131.282227,4124.102539,4111.282227,4121.538574,4135.897461,4131.794922,4101.538574,4128.717773,4135.384766,4134.358887,4125.641113,4133.333496,855.000000,4.000000,,,,0.000000,4.000000,4.000000,4.000000,4.000000,4.000000,4.000000,4.000000,4.000000,4.000000,4.000000,4.000000,4.000000,4.000000,4.000000,100.000000
1602006836.122129,11.000000,0.000000,4130.769043,4124.615234,4142.051270,4134.871582,4122.563965,4134.358887,4146.153809,4141.538574,4106.153809,4145.641113,4146.666504,4140.512695,4141.538574,4136.410156,808.000000,4.000000,,,,0.000000,4.000000,4.000000,4.000000,4.000000,4.000000,4.000000,4.000000,4.000000,4.000000,4.000000,4.000000,4.000000,4.000000,4.000000,100.000000
1602006836.130010,12.000000,0.000000,4136.410156,4129.230957,4142.051270,4137.436035,4134.871582,4144.102539,4149.743652,4153.333496,4122.051270,4146.666504,4156.410156,4139.487305,4143.077148,4136.410156,765.000000,4.000000,,,,0.000000,4.000000,4.000000,4.000000,4.000000,4.000000,4.000000,4.000000,4.000000,4.000000,4.000000,4.000000,4.000000,4.000000,4.000000,100.000000
1602006836.137991,13.000000,0.000000,4135.897461,4130.769043,4138.974121,4134.871582,4135.897461,4138.974121,4141.538574,4152.307617,4124.615234,4139.487305,4155.384766,4143.589844,4139.487305,4138.974121,727.000000,4.000000,,,,0.000000,4.000000,4.000000,4.000000,4.000000,4.000000,4.000000,4.000000,4.000000,4.000000,4.000000,4.000000,4.000000,4.000000,4.000000,100.000000
1602006836.145872,14.000000,0.000000,4137.948730,4130.769043,4140.000000,4135.897461,4134.871582,4133.333496,4136.922852,4142.051270,4111.282227,4149.230957,4151.282227,4151.794922,4138.461426,4139.487305,855.000000,4.000000,,,,0.000000,4.000000,4.000000,4.000000,4.000000,4.000000,4.000000,4.000000,4.000000,4.000000,4.000000,4.000000,4.000000,4.000000,4.000000,100.000000
1602006836.153753,15.000000,0.000000,4141.538574,4133.333496,4142.563965,4138.974121,4137.436035,4142.563965,4138.461426,4141.025879,4112.820313,4157.948730,4157.436035,4147.692383,4138.974121,4138.461426,808.000000,4.000000,,,,0.000000,4.000000,4.000000,4.000000,4.000000,4.000000,4.000000,4.000000,4.000000,4.000000,4.000000,4.000000,4.000000,4.000000,4.000000,100.000000
1602006836.161634,16.000000,0.000000,4140.512695,4137.948730,4142.051270,4138.461426,4135.897461,4154.358887,4132.820313,4145.641113,4127.692383,4158.974121,4155.897461,4139.487305,4141.538574,4138.974121,0.000000,4.000000,,,,0.000000,4.000000,4.000000,4.000000,4.000000,4.000000,4.000000,4.000000,4.000000,4.000000,4.000000,4.000000,4.000000,4.000000,4.000000,100.000000
1602006836.169516,17.000000,0.000000,4131.794922,4131.794922,4134.358887,4132.820313,4128.717773,4148.717773,4122.563965,4142.051270,4121.538574,4148.205078,4138.974121,4136.922852,4135.897461,4134.871582,0.000000,4.000000,,,,0.000000,4.000000,4.000000,4.000000,4.000000,4.000000,4.000000,4.000000,4.000000,4.000000,4.000000,4.000000,4.000000,4.000000,4.000000,100.000000
1602006836.177397,18.000000,0.000000,4121.538574,4116.410156,4121.538574,4124.615234,4124.615234,4137.436035,4121.538574,4133.846191,4108.205078,4123.077148,4130.256348,4131.282227,4122.563965,4127.179688,0.000000,4.000000,,,,0.000000,4.000000,4.000000,4.000000,4.000000,4.000000,4.000000,4.000000,4.000000,4.000000,4.000000,4.000000,4.000000,4.000000,4.000000,100.000000
1602006836.185278,19.000000,0.000000,4118.461426,4108.205078,4112.307617,4117.948730,4123.077148,4137.436035,4122.563965,4127.692383,4107.692383,4120.000000,4130.769043,4123.589844,4119.487305,4118.974121,0.000000,4.000000,,,,0.000000,4.000000,4.000000,4.000000,4.000000,4.000000,4.000000,4.000000,4.000000,4.000000,4.000000,4.000000,4.000000,4.000000,4.000000,100.000000
1602006836.193159,20.000000,0.000000,4115.897461,4106.153809,4110.256348,4115.897461,4118.974121,4136.922852,4122.051270,4125.128418,4100.000000,4140.000000,4125.128418,4121.025879,4121.538574,4110.256348,0.000000,4.000000,,,,0.000000,4.000000,4.000000,4.000000,4.000000,4.000000,4.000000,4.000000,4.000000,4.000000,4.000000,4.000000,4.000000,4.000000,4.000000,100.000000
1602006836.201040,21.000000,0.000000,4107.179688,4107.179688,4110.256348,4116.410156,4120.512695,4123.589844,4126.153809,4125.128418,4086.666748,4135.384766,4114.871582,4120.000000,4117.948730,4112.307617,0.000000,4.000000,,,,0.000000,4.000000,4.000000,4.000000,4.000000,4.000000,4.000000,4.000000,4.000000,4.000000,4.000000,4.000000,4.000000,4.000000,4.000000,100.000000
1602006836.208821,22.000000,0.000000,4108.205078,4115.384766,4113.846191,4120.000000,4125.641113,4118.461426,4135.897461,4128.717773,4091.281982,4123.077148,4121.538574,4127.692383,4123.077148,4120.512695,0.000000,4.000000,,,,0.000000,4.000000,4.000000,4.000000,4.000000,4.000000,4.000000,4.000000,4.000000,4.000000,4.000000,4.000000,4.000000,4.000000,4.000000,100.000000
1602006836.216702,23.000000,0.000000,4124.102539,4122.051270,4124.102539,4124.615234,4128.205078,4133.333496,4140.512695,4137.436035,4109.230957,4145.128418,4147.692383,4139.487305,4136.410156,4126.666504,0.000000,4.000000,,,,0.000000,4.000000,4.000000,4.000000,4.000000,4.000000,4.000000,4.000000,4.000000,4.000000,4.000000,4.000000,4.000000,4.000000,4.000000,100.000000
1602006836.224483,24.000000,0.000000,4137.948730,4125.128418,4134.358887,4130.769043,4127.692383,4141.025879,4138.974121,4149.743652,4126.153809,4163.077148,4166.666504,4145.128418,4142.051270,4135.897461,0.000000,4.000000,,,,0.000000,4.000000,4.000000,4.000000,4.000000,4.000000,4.000000,4.000000,4.000000,4.000000,4.000000,4.000000,4.000000,4.000000,4.000000,100.000000
1602006836.232363,25.000000,0.000000,4142.563965,4130.769043,4147.179688,4136.410156,4130.256348,4132.307617,4137.436035,4151.794922,4132.820313,4149.743652,4158.974121,4151.794922,4141.538574,4146.666504,0.000000,4.000000,,,,0.000000,4.000000,4.000000,4.000000,4.000000,4.000000,4.000000,4.000000,4.000000,4.000000,4.000000,4.000000,4.000000,4.000000,4.000000,100.000000
1602006836.240145,26.000000,0.000000,4142.563965,4138.461426,4154.358887,4137.948730,4134.871582,4129.230957,4132.307617,4143.077148,4128.205078,4145.128418,4146.153809,4158.974121,4140.512695,4142.051270,0.000000,4.000000,,,,0.000000,4.000000,4.000000,4.000000,4.000000,4.000000,4.000000,4.000000,4.000000,4.000000,4.000000,4.000000,4.000000,4.000000,4.000000,100.000000
1602006836.248026,27.000000,0.000000,4140.512695,4138.461426,4145.128418,4138.461426,4138.461426,4141.025879,4124.102539,4138.974121,4122.051270,4155.384766,4142.563965,4150.769043,4141.025879,4127.179688,0.000000,4.000000,,,,0.000000,4.000000,4.000000,4.000000,4.000000,4.000000,4.000000,4.000000,4.000000,4.000000,4.000000,4.000000,4.000000,4.000000,4.000000,100.000000
1602006836.255907,28.000000,0.000000,4136.922852,4129.230957,4127.692383,4135.384766,4137.948730,4143.077148,4121.025879,4135.897461,4124.102539,4151.282227,4130.256348,4137.436035,4135.897461,4121.538574,0.000000,4.000000,,,,0.000000,4.000000,4.000000,4.000000,4.000000,4.000000,4.000000,4.000000,4.000000,4.000000,4.000000,4.000000,4.000000,4.000000,4.000000,100.000000
1602006836.263788,29.000000,0.000000,4134.358887,4120.512695,4122.563965,4126.153809,4135.897461,4129.743652,4118.974121,4130.769043,4133.846191,4153.333496,4118.461426,4135.897461,4127.179688,4123.589844,0.000000,4.000000,,,,0.000000,4.000000,4.000000,4.000000,4.000000,4.000000,4.000000,4.000000,4.000000,4.000000,4.000000,4.000000,4.000000,4.000000,4.000000,100.000000
1602006836.271669,30.000000,0.000000,4134.358887,4120.512695,4121.538574,4124.615234,4133.846191,4127.179688,4117.436035,4130.256348,4143.589844,4172.307617,4123.589844,4137.436035,4129.743652,4122.563965,0.000000,4.000000,,,,0.000000,4.000000,4.000000,4.000000,4.000000,4.000000,4.000000,4.000000,4.000000,4.000000,4.000000,4.000000,4.000000,4.000000,4.000000,100.000000
1602006836.279550,31.000000,0.000000,4136.922852,4125.641113,4121.538574,4134.358887,4135.384766,4136.922852,4121.025879,4129.230957,4144.615234,4165.641113,4127.179688,4140.000000,4136.922852,4120.000000,0.000000,4.000000,,,,0.000000,4.000000,4.000000,4.000000,4.000000,4.000000,4.000000,4.000000,4.000000,4.000000,4.000000,4.000000,4.000000,4.000000,4.000000,100.000000
1602006836.287432,32.000000,0.000000,4137.948730,4127.179688,4130.256348,4139.487305,4141.538574,4140.000000,4124.615234,4125.128418,4136.922852,4136.410156,4122.051270,4147.179688,4129.743652,4121.025879,0.000000,4.000000,,,,0.000000,4.000000,4.000000,4.000000,4.000000,4.000000,4.000000,4.000000,4.000000,4.000000,4.000000,4.000000,4.000000,4.000000,4.000000,100.000000
1602006836.295213,33.000000,0.000000,4133.333496,4125.641113,4137.436035,4136.922852,4140.000000,4134.358887,4125.128418,4127.179688,4132.307617,4135.384766,4125.128418,4152.820313,4120.512695,4123.077148,0.000000,4.000000,,,,0.000000,4.000000,4.000000,4.000000,4.000000,4.000000,4.000000,4.000000,4.000000,4.000000,4.000000,4.000000,4.000000,4.000000,4.000000,100.000000
1602006836.303094,34.000000,0.000000,4136.922852,4127.692383,4137.436035,4136.922852,4134.871582,4128.717773,4126.153809,4135.897461,4140.512695,4165.128418,4136.922852,4156.922852,4129.743652,4126.153809,0.000000,4.000000,,,,0.000000,4.000000,4.000000,4.000000,4.000000,4.000000,4.000000,4.000000,4.000000,4.000000,4.000000,4.000000,4.000000,4.000000,4.000000,100.000000
1602006836.310975,35.000000,0.000000,4143.077148,4127.692383,4140.000000,4137.948730,4136.410156,4125.641113,4127.692383,4141.538574,4146.666504,4176.410156,4143.589844,4160.000000,4137.948730,4128.205078,0.000000,4.000000,,,,0.000000,4.000000,4.000000,4.000000,4.000000,4.000000,4.000000,4.000000,4.000000,4.000000,4.000000,4.000000,4.000000,4.000000,4.000000,100.000000
1602006836.318856,36.000000,0.000000,4132.820313,4124.615234,4140.000000,4135.384766,4131.282227,4127.179688,4130.769043,4141.538574,4140.000000,4155.384766,4134.871582,4156.922852,4127.692383,4123.589844,0.000000,4.000000,,,,0.000000,4.000000,4.000000,4.000000,4.000000,4.000000,4.000000,4.000000,4.000000,4.000000,4.000000,4.000000,4.000000,4.000000,4.000000,100.000000
1602006836.326737,37.000000,0.000000,4118.974121,4123.589844,4131.794922,4130.769043,4124.615234,4135.897461,4134.871582,4138.461426,4134.871582,4147.692383,4123.589844,4152.307617,4117.436035,4122.563965,0.000000,4.000000,,,,0.000000,4.000000,4.000000,4.000000,4.000000,4.000000,4.000000,4.000000,4.000000,4.000000,4.000000,4.000000,4.000000,4.000000,4.000000,100.000000
1602006836.334619,38.000000,0.000000,4122.563965,4123.077148,4121.538574,4126.153809,4133.333496,4146.666504,4136.922852,4138.461426,4139.487305,4156.410156,4128.205078,4151.282227,4125.128418,4122.051270,0.000000,4.000000,,,,0.000000,4.000000,4.000000,4.000000,4.000000,4.000000,4.000000,4.000000,4.000000,4.000000,4.000000,4.000000,4.000000,4.000000,4.000000,100.000000
1602006836.342500,39.000000,0.000000,4125.641113,4119.487305,4119.487305,4123.077148,4138.974121,4151.282227,4136.922852,4137.436035,4141.538574,4147.179688,4138.461426,4151.282227,4137.436035,4115.897461,0.000000,4.000000,,,,0.000000,4.000000,4.000000,4.000000,4.000000,4.000000,4.000000,4.000000,4.000000,4.000000,4.000000,4.000000,4.000000,4.000000,4.000000,100.000000
1602006836.350381,40.000000,0.000000,4120.512695,4118.461426,4127.692383,4124.102539,4128.717773,4147.179688,4132.820313,4136.410156,4138.461426,4140.000000,4140.000000,4150.256348,4139.487305,4116.922852,0.000000,4.000000,,,,0.000000,4.000000,4.000000,4.000000,4.000000,4.000000,4.000000,4.000000,4.000000,4.000000,4.000000,4.000000,4.000000,4.000000,4.000000,100.000000
1602006836.358362,41.000000,0.000000,4128.205078,4123.077148,4137.436035,4129.743652,4128.205078,4142.051270,4124.102539,4138.461426,4139.487305,4153.333496,4137.436035,4152.307617,4138.974121,4127.692383,0.000000,4.000000,,,,0.000000,4.000000,4.000000,4.000000,4.000000,4.000000,4.000000,4.000000,4.000000,4.000000,4.000000,4.000000,4.000000,4.000000,4.000000,100.000000
1602006836.366243,42.000000,0.000000,4142.051270,4125.641113,4139.487305,4137.436035,4135.897461,4134.358887,4119.487305,4134.358887,4144.102539,4161.538574,4136.922852,4151.794922,4140.000000,4129.743652,0.000000,4.000000,,,,0.000000,4.000000,4.000000,4.000000,4.000000,4.000000,4.000000,4.000000,4.000000,4.000000,4.000000,4.000000,4.000000,4.000000,4.000000,100.000000
1602006836.374124,43.000000,0.000000,4144.102539,4127.692383,4139.487305,4141.025879,4136.410156,4123.589844,4120.512695,4132.307617,4152.307617,4162.051270,4139.487305,4150.256348,4140.512695,4129.230957,0.000000,4.000000,,,,0.000000,4.000000,4.000000,4.000000,4.000000,4.000000,4.000000,4.000000,4.000000,4.000000,4.000000,4.000000,4.000000,4.000000,4.000000,100.000000
1602006836.382005,44.000000,0.000000,4140.512695,4129.230957,4141.025879,4138.974121,4135.897461,4120.000000,4119.487305,4137.436035,4156.922852,4160.000000,4141.025879,4153.333496,4138.461426,4137.948730,0.000000,4.000000,,,,0.000000,4.000000,4.000000,4.000000,4.000000,4.000000,4.000000,4.000000,4.000000,4.000000,4.000000,4.000000,4.000000,4.000000,4.000000,100.000000
1602006836.389885,45.000000,0.000000,4138.974121,4126.153809,4141.538574,4137.436035,4137.436035,4126.153809,4117.436035,4133.846191,4149.230957,4153.333496,4130.256348,4152.820313,4134.871582,4138.461426,0.000000,4.000000,,,,0.000000,4.000000,4.000000,4.000000,4.000000,4.000000,4.000000,4.000000,4.000000,4.000000,4.000000,4.000000,4.000000,4.000000,4.000000,100.000000
1602006836.397866,46.000000,0.000000,4137.948730,4124.102539,4135.384766,4136.410156,4136.922852,4133.333496,4120.000000,4127.692383,4141.538574,4163.077148,4125.128418,4143.077148,4134.358887,4124.615234,0.000000,4.000000,,,,0.000000,4.000000,4.000000,4.000000,4.000000,4.000000,4.000000,4.000000,4.000000,4.000000,4.000000,4.000000,4.000000,4.000000,4.000000,100.000000
1602006836.405747,47.000000,0.000000,4136.410156,4126.666504,4126.666504,4131.282227,4135.897461,4137.436035,4129.230957,4133.333496,4140.512695,4169.743652,4136.922852,4137.436035,4136.922852,4119.487305,0.000000,4.000000,,,,0.000000,4.000000,4.000000,4.000000,4.000000,4.000000,4.000000,4.000000,4.000000,4.000000,4.000000,4.000000,4.000000,4.000000,4.000000,100.000000
1602006836.413628,48.000000,0.000000,4137.436035,4127.692383,4123.077148,4131.282227,4135.897461,4133.333496,4138.974121,4137.948730,4138.974121,4148.205078,4135.897461,4140.512695,4137.948730,4126.666504,0.000000,4.000000,,,,0.000000,4.000000,4.000000,4.000000,4.000000,4.000000,4.000000,4.000000,4.000000,4.000000,4.000000,4.000000,4.000000,4.000000,4.000000,100.000000
1602006836.421509,49.000000,0.000000,4137.948730,4124.615234,4125.641113,4135.897461,4133.846191,4122.563965,4140.512695,4135.384766,4137.436035,4143.077148,4126.153809,4142.051270,4134.871582,4126.666504,0.000000,4.000000,,,,0.000000,4.000000,4.000000,4.000000,4.000000,4.000000,4.000000,4.000000,4.000000,4.000000,4.000000,4.000000,4.000000,4.000000,4.000000,100.000000
1602006836.429390,50.000000,0.000000,4137.948730,4129.743652,4132.307617,4138.461426,4136.410156,4121.538574,4140.000000,4136.922852,4140.000000,4162.051270,4136.410156,4147.179688,4136.410156,4122.563965,0.000000,4.000000,,,,0.000000,4.000000,4.000000,4.000000,4.000000,4.000000,4.000000,4.000000,4.000000,4.000000,4.000000,4.000000,4.000000,4.000000,4.000000,100.000000
1602006836.437271,51.000000,0.000000,4140.000000,4142.563965,4138.974121,4140.512695,4138.461426,4133.333496,4135.897461,4138.974121,4144.102539,4156.922852,4145.641113,4151.282227,4137.948730,4125.641113,0.000000,4.000000,,,,0.000000,4.000000,4.000000,4.000000,4.000000,4.000000,4.000000,4.000000,4.000000,4.000000,4.000000,4.000000,4.000000,4.000000,4.000000,100.000000
1602006836.445052,52.000000,0.000000,4137.948730,4138.974121,4133.846191,4141.025879,4130.769043,4133.333496,4125.128418,4135.897461,4146.666504,4143.589844,4131.282227,4140.000000,4130.256348,4126.666504,0.000000,4.000000,,,,0.000000,4.000000,4.000000,4.000000,4.000000,4.000000,4.000000,4.000000,4.000000,4.000000,4.000000,4.000000,4.000000,4.000000,4.000000,100.000000
1602006836.452933,53.000000,0.000000,4134.358887,4126.153809,4126.666504,4135.897461,4127.179688,4123.077148,4118.974121,4133.846191,4150.769043,4158.461426,4126.666504,4136.410156,4129.230957,4121.538574,0.000000,4.000000,,,,0.000000,4.000000,4.000000,4.000000,4.000000,4.000000,4.000000,4.000000,4.000000,4.000000,4.000000,4.000000,4.000000,4.000000,4.000000,100.000000
1602006836.460814,54.000000,0.000000,4138.974121,4127.692383,4136.922852,4138.461426,4136.922852,4131.794922,4122.563965,4137.436035,4156.922852,4167.179688,4140.512695,4148.205078,4137.436035,4122.051270,0.000000,4.000000,,,,0.000000,4.000000,4.000000,4.000000,4.000000,4.000000,4.000000,4.000000,4.000000,4.000000,4.000000,4.000000,4.000000,4.000000,4.000000,100.000000
1602006836.468695,55.000000,0.000000,4143.077148,4131.282227,4138.461426,4141.538574,4141.538574,4145.128418,4126.153809,4142.051270,4156.410156,4153.333496,4141.538574,4146.666504,4130.769043,4126.666504,0.000000,4.000000,,,,0.000000,4.000000,4.000000,4.000000,4.000000,4.000000,4.000000,4.000000,4.000000,4.000000,4.000000,4.000000,4.000000,4.000000,4.000000,100.000000
1602006836.476576,56.000000,0.000000,4134.358887,4121.538574,4124.615234,4131.282227,4132.307617,4135.384766,4128.717773,4137.948730,4144.102539,4146.666504,4130.256348,4138.974121,4118.974121,4122.563965,0.000000,4.000000,,,,0.000000,4.000000,4.000000,4.000000,4.000000,4.000000,4.000000,4.000000,4.000000,4.000000,4.000000,4.000000,4.000000,4.000000,4.000000,100.000000
1602006836.484457,57.000000,0.000000,4133.333496,4117.948730,4129.230957,4130.256348,4129.743652,4127.179688,4135.384766,4133.333496,4135.384766,4157.436035,4133.846191,4149.743652,4129.743652,4118.974121,0.000000,4.000000,,,,0.000000,4.000000,4.000000,4.000000,4.000000,4.000000,4.000000,4.000000,4.000000,4.000000,4.000000,4.000000,4.000000,4.000000,4.000000,100.000000
1602006836.492438,58.000000,0.000000,4148.205078,4131.282227,4144.102539,4141.025879,4139.487305,4136.922852,4139.487305,4131.282227,4141.538574,4167.179688,4145.641113,4156.922852,4142.051270,4126.153809,0.000000,4.000000,,,,0.000000,4.000000,4.000000,4.000000,4.000000,4.000000,4.000000,4.000000,4.000000,4.000000,4.000000,4.000000,4.000000,4.000000,4.000000,100.000000
1602006836.500319,59.000000,0.000000,4153.333496,4137.436035,4142.563965,4142.051270,4140.512695,4137.436035,4134.358887,4123.589844,4140.512695,4162.563965,4137.436035,4151.794922,4138.974121,4128.205078,0.000000,4.000000,,,,0.000000,4.000000,4.000000,4.000000,4.000000,4.000000,4.000000,4.000000,4.000000,4.000000,4.000000,4.000000,4.000000,4.000000,4.000000,100.000000
1602006836.508200,60.000000,0.000000,4144.102539,4128.717773,4136.410156,4136.410156,4134.358887,4130.256348,4125.641113,4116.922852,4130.256348,4163.589844,4128.205078,4149.230957,4136.410156,4123.077148,0.000000,4.000000,,,,0.000000,4.000000,4.000000,4.000000,4.000000,4.000000,4.000000,4.000000,4.000000,4.000000,4.000000,4.000000,4.000000,4.000000,4.000000,100.000000
1602006836.516081,61.000000,0.000000,4141.025879,4125.641113,4137.948730,4139.487305,4136.410156,4128.205078,4124.615234,4128.717773,4140.000000,4173.846191,4144.102539,4152.307617,4137.948730,4128.717773,0.000000,4.000000,,,,0.000000,4.000000,4.000000,4.000000,4.000000,4.000000,4.000000,4.000000,4.000000,4.000000,4.000000,4.000000,4.000000,4.000000,4.000000,100.000000
1602006836.523962,62.000000,0.000000,4144.102539,4129.743652,4135.384766,4141.025879,4135.384766,4126.153809,4129.743652,4141.538574,4157.436035,4170.256348,4157.436035,4155.384766,4138.974121,4135.384766,0.000000,4.000000,,,,0.000000,4.000000,4.000000,4.000000,4.000000,4.000000,4.000000,4.000000,4.000000,4.000000,4.000000,4.000000,4.000000,4.000000,4.000000,100.000000
1602006836.531843,63.000000,0.000000,4141.025879,4127.179688,4126.153809,4136.922852,4124.102539,4123.589844,4126.153809,4138.461426,4149.230957,4157.948730,4148.717773,4151.282227,4138.974121,4125.641113,0.000000,4.000000,,,,0.000000,4.000000,4.000000,4.000000,4.000000,4.000000,4.000000,4.000000,4.000000,4.000000,4.000000,4.000000,4.000000,4.000000,4.000000,100.000000
1602006836.539725,64.000000,0.000000,4134.358887,4124.102539,4121.538574,4135.897461,4128.205078,4126.666504,4121.538574,4134.871582,4136.410156,4160.000000,4138.461426,4140.512695,4133.333496,4118.974121,794.000000,4.000000,,,,0.000000,4.000000,4.000000,4.000000,4.000000,4.000000,4.000000,4.000000,4.000000,4.000000,4.000000,4.000000,4.000000,4.000000,4.000000,100.000000
1602006836.547606,65.000000,0.000000,4130.256348,4129.230957,4123.589844,4138.461426,4138.461426,4128.717773,4123.077148,4139.487305,4143.077148,4169.743652,4131.794922,4137.436035,4127.179688,4121.538574,790.000000,4.000000,,,,0.000000,4.000000,4.000000,4.000000,4.000000,4.000000,4.000000,4.000000,4.000000,4.000000,4.000000,4.000000,4.000000,4.000000,4.000000,100.000000
1602006836.555387,66.000000,0.000000,4131.794922,4127.179688,4122.051270,4133.846191,4129.743652,4121.538574,4118.974121,4138.461426,4145.641113,4175.384766,4123.077148,4137.948730,4124.615234,4115.384766,847.000000,4.000000,,,,0.000000,4.000000,4.000000,4.000000,4.000000,4.000000,4.000000,4.000000,4.000000,4.000000,4.000000,4.000000,4.000000,4.000000,4.000000,100.000000
1602006836.563268,67.000000,0.000000,4136.922852,4122.051270,4122.563965,4129.743652,4121.025879,4113.846191,4115.384766,4130.256348,4136.410156,4168.717773,4120.512695,4134.871582,4122.563965,4111.282227,871.000000,4.000000,,,,0.000000,4.000000,4.000000,4.000000,4.000000,4.000000,4.000000,4.000000,4.000000,4.000000,4.000000,4.000000,4.000000,4.000000,4.000000,100.000000
1602006836.571149,68.000000,0.000000,4140.512695,4125.128418,4134.358887,4135.897461,4125.641113,4120.512695,4120.512695,4125.641113,4133.846191,4149.743652,4125.641113,4138.461426,4121.538574,4126.153809,809.000000,4.000000,,,,0.000000,4.000000,4.000000,4.000000,4.000000,4.000000,4.000000,4.000000,4.000000,4.000000,4.000000,4.000000,4.000000,4.000000,4.000000,100.000000
1602006836.579031,69.000000,0.000000,4140.512695,4127.179688,4141.538574,4136.410156,4128.205078,4134.358887,4122.563965,4125.641113,4136.410156,4153.846191,4132.307617,4151.282227,4124.102539,4138.461426,822.000000,4.000000,,,,0.000000,4.000000,4.000000,4.000000,4.000000,4.000000,4.000000,4.000000,4.000000,4.000000,4.000000,4.000000,4.000000,4.000000,4.000000,100.000000
