Timestamp,EEG.Counter,EEG.Interpolated,EEG.AF3,EEG.F7,EEG.F3,EEG.FC5,EEG.T7,EEG.P7,EEG.O1,EEG.O2,EEG.P8,EEG.T8,EEG.FC6,EEG.F4,EEG.F8,EEG.AF4,EEG.RawCq,EEG.Battery,MarkerIndex,MarkerType,MarkerValueInt,EEG.MarkerHardware,CQ.AF3,CQ.F7,CQ.F3,CQ.FC5,CQ.T7,CQ.P7,CQ.O1,CQ.O2,CQ.P8,CQ.T8,CQ.FC6,CQ.F4,CQ.F8,CQ.AF4,CQ.Overall
1602006843.670893,66.000000,0.000000,4176.410156,4156.922852,4140.512695,4143.077148,4123.077148,4127.692383,4121.025879,4121.025879,4124.102539,4118.974121,4113.846191,4134.871582,4092.820557,4113.333496,847.000000,4.000000,,,,0.000000,4.000000,4.000000,4.000000,4.000000,4.000000,4.000000,4.000000,4.000000,4.000000,4.000000,4.000000,4.000000,4.000000,4.000000,100.000000
1602006843.678874,67.000000,0.000000,4182.563965,4164.102539,4137.436035,4147.179688,4121.025879,4137.948730,4130.256348,4126.666504,4127.179688,4128.717773,4103.589844,4134.358887,4087.179443,4110.769043,867.000000,4.000000,,,,0.000000,4.000000,4.000000,4.000000,4.000000,4.000000,4.000000,4.000000,4.000000,4.000000,4.000000,4.000000,4.000000,4.000000,4.000000,100.000000
1602006843.686755,68.000000,0.000000,4179.487305,4167.179688,4142.051270,4155.897461,4123.077148,4140.512695,4136.410156,4132.307617,4124.615234,4135.384766,4116.410156,4135.384766,4095.897461,4119.487305,810.000000,4.000000,,,,0.000000,4.000000,4.000000,4.000000,4.000000,4.000000,4.000000,4.000000,4.000000,4.000000,4.000000,4.000000,4.000000,4.000000,4.000000,100.000000
1602006843.694636,69.000000,0.000000,4164.615234,4157.436035,4140.000000,4144.615234,4123.589844,4136.922852,4135.897461,4128.717773,4124.102539,4130.769043,4128.205078,4136.410156,4104.615234,4121.025879,824.000000,4.000000,,,,0.000000,4.000000,4.000000,4.000000,4.000000,4.000000,4.000000,4.000000,4.000000,4.000000,4.000000,4.000000,4.000000,4.000000,4.000000,100.000000
1602006843.702518,70.000000,0.000000,4154.871582,4149.743652,4135.384766,4132.820313,4114.871582,4137.948730,4135.897461,4125.128418,4122.051270,4122.051270,4117.436035,4136.922852,4096.922852,4111.282227,761.000000,4.000000,,,,0.000000,4.000000,4.000000,4.000000,4.000000,4.000000,4.000000,4.000000,4.000000,4.000000,4.000000,4.000000,4.000000,4.000000,4.000000,100.000000
1602006843.710399,71.000000,0.000000,4151.794922,4145.641113,4135.897461,4136.410156,4105.641113,4132.820313,4139.487305,4127.179688,4110.769043,4107.692383,4106.666504,4134.871582,4088.205078,4103.589844,694.000000,4.000000,,,,0.000000,4.000000,4.000000,4.000000,4.000000,4.000000,4.000000,4.000000,4.000000,4.000000,4.000000,4.000000,4.000000,4.000000,4.000000,100.000000
1602006843.718280,72.000000,0.000000,4148.717773,4135.897461,4133.846191,4133.333496,4104.102539,4113.846191,4137.436035,4125.641113,4101.025879,4096.922852,4110.256348,4130.769043,4085.641113,4104.615234,801.000000,4.000000,,,,0.000000,4.000000,4.000000,4.000000,4.000000,4.000000,4.000000,4.000000,4.000000,4.000000,4.000000,4.000000,4.000000,4.000000,4.000000,100.000000
1602006843.726161,73.000000,0.000000,4155.384766,4143.589844,4135.897461,4131.282227,4113.333496,4115.897461,4136.922852,4129.743652,4108.717773,4112.820313,4121.538574,4134.871582,4090.256348,4117.436035,836.000000,4.000000,,,,0.000000,4.000000,4.000000,4.000000,4.000000,4.000000,4.000000,4.000000,4.000000,4.000000,4.000000,4.000000,4.000000,4.000000,4.000000,100.000000
1602006843.734042,74.000000,0.000000,4169.230957,4165.641113,4148.717773,4146.153809,4126.666504,4140.000000,4146.666504,4146.153809,4127.179688,4145.128418,4134.871582,4148.205078,4109.743652,4136.922852,874.000000,4.000000,,,,0.000000,4.000000,4.000000,4.000000,4.000000,4.000000,4.000000,4.000000,4.000000,4.000000,4.000000,4.000000,4.000000,4.000000,4.000000,100.000000
1602006843.741923,75.000000,0.000000,4174.871582,4172.307617,4156.922852,4157.436035,4128.717773,4147.692383,4150.256348,4156.922852,4138.974121,4153.333496,4142.051270,4155.384766,4125.641113,4140.512695,837.000000,4.000000,,,,0.000000,4.000000,4.000000,4.000000,4.000000,4.000000,4.000000,4.000000,4.000000,4.000000,4.000000,4.000000,4.000000,4.000000,4.000000,100.000000
1602006843.749904,76.000000,0.000000,4169.230957,4166.666504,4152.307617,4153.846191,4122.051270,4135.897461,4146.153809,4154.358887,4138.461426,4142.563965,4136.922852,4152.820313,4115.384766,4122.563965,767.000000,4.000000,,,,0.000000,4.000000,4.000000,4.000000,4.000000,4.000000,4.000000,4.000000,4.000000,4.000000,4.000000,4.000000,4.000000,4.000000,4.000000,100.000000
1602006843.757786,77.000000,0.000000,4167.692383,4168.205078,4152.820313,4151.794922,4123.077148,4135.384766,4146.666504,4154.871582,4136.410156,4138.461426,4128.205078,4153.846191,4106.666504,4112.307617,748.000000,4.000000,,,,0.000000,4.000000,4.000000,4.000000,4.000000,4.000000,4.000000,4.000000,4.000000,4.000000,4.000000,4.000000,4.000000,4.000000,4.000000,100.000000
1602006843.765667,78.000000,0.000000,4168.205078,4170.256348,4158.974121,4156.922852,4126.666504,4146.153809,4148.205078,4159.487305,4140.512695,4131.794922,4124.615234,4151.794922,4113.333496,4120.512695,874.000000,4.000000,,,,0.000000,4.000000,4.000000,4.000000,4.000000,4.000000,4.000000,4.000000,4.000000,4.000000,4.000000,4.000000,4.000000,4.000000,4.000000,100.000000
1602006843.773548,79.000000,0.000000,4158.974121,4157.948730,4148.717773,4151.794922,4118.974121,4144.615234,4140.000000,4154.358887,4134.871582,4126.153809,4122.051270,4138.974121,4111.282227,4124.102539,837.000000,4.000000,,,,0.000000,4.000000,4.000000,4.000000,4.000000,4.000000,4.000000,4.000000,4.000000,4.000000,4.000000,4.000000,4.000000,4.000000,4.000000,100.000000
1602006843.781429,80.000000,0.000000,4153.846191,4147.179688,4135.897461,4139.487305,4115.384766,4135.897461,4133.333496,4142.563965,4128.717773,4141.538574,4126.153809,4133.846191,4105.641113,4121.025879,767.000000,4.000000,,,,0.000000,4.000000,4.000000,4.000000,4.000000,4.000000,4.000000,4.000000,4.000000,4.000000,4.000000,4.000000,4.000000,4.000000,4.000000,100.000000
1602006843.789310,81.000000,0.000000,4156.922852,4152.307617,4137.436035,4135.897461,4119.487305,4133.333496,4134.871582,4138.461426,4135.384766,4163.077148,4136.410156,4137.948730,4106.666504,4121.538574,748.000000,4.000000,,,,0.000000,4.000000,4.000000,4.000000,4.000000,4.000000,4.000000,4.000000,4.000000,4.000000,4.000000,4.000000,4.000000,4.000000,4.000000,100.000000
1602006843.797191,82.000000,0.000000,4153.333496,4147.692383,4141.025879,4136.922852,4121.025879,4135.897461,4136.410156,4145.128418,4140.512695,4152.820313,4136.410156,4139.487305,4109.230957,4120.512695,874.000000,4.000000,,,,0.000000,4.000000,4.000000,4.000000,4.000000,4.000000,4.000000,4.000000,4.000000,4.000000,4.000000,4.000000,4.000000,4.000000,4.000000,100.000000
1602006843.805073,83.000000,0.000000,4158.461426,4142.051270,4145.128418,4136.922852,4120.000000,4134.358887,4138.974121,4152.820313,4140.512695,4140.000000,4138.974121,4143.077148,4118.974121,4127.179688,837.000000,4.000000,,,,0.000000,4.000000,4.000000,4.000000,4.000000,4.000000,4.000000,4.000000,4.000000,4.000000,4.000000,4.000000,4.000000,4.000000,4.000000,100.000000
1602006843.812954,84.000000,0.000000,4178.461426,4159.487305,4152.307617,4140.000000,4122.051270,4133.333496,4138.974121,4150.769043,4139.487305,4149.230957,4145.641113,4145.128418,4130.256348,4141.538574,767.000000,4.000000,,,,0.000000,4.000000,4.000000,4.000000,4.000000,4.000000,4.000000,4.000000,4.000000,4.000000,4.000000,4.000000,4.000000,4.000000,4.000000,100.000000
1602006843.820935,85.000000,0.000000,4180.000000,4169.230957,4151.794922,4144.615234,4122.563965,4136.922852,4136.922852,4144.102539,4128.717773,4138.461426,4134.871582,4138.461426,4123.589844,4137.436035,748.000000,4.000000,,,,0.000000,4.000000,4.000000,4.000000,4.000000,4.000000,4.000000,4.000000,4.000000,4.000000,4.000000,4.000000,4.000000,4.000000,4.000000,100.000000
1602006843.828816,86.000000,0.000000,4163.077148,4161.025879,4145.641113,4143.077148,4121.538574,4131.794922,4130.769043,4142.051270,4116.410156,4110.769043,4124.102539,4136.410156,4112.307617,4121.025879,874.000000,4.000000,,,,0.000000,4.000000,4.000000,4.000000,4.000000,4.000000,4.000000,4.000000,4.000000,4.000000,4.000000,4.000000,4.000000,4.000000,4.000000,100.000000
1602006843.836697,87.000000,0.000000,4165.641113,4165.128418,4146.666504,4142.563965,4124.615234,4127.692383,4126.666504,4141.025879,4120.000000,4113.846191,4128.717773,4148.717773,4115.897461,4122.563965,837.000000,4.000000,,,,0.000000,4.000000,4.000000,4.000000,4.000000,4.000000,4.000000,4.000000,4.000000,4.000000,4.000000,4.000000,4.000000,4.000000,4.000000,100.000000
1602006843.844578,88.000000,0.000000,4172.307617,4173.333496,4144.615234,4146.153809,4124.102539,4132.820313,4127.692383,4136.410156,4125.128418,4131.794922,4126.153809,4153.333496,4116.410156,4128.717773,767.000000,4.000000,,,,0.000000,4.000000,4.000000,4.000000,4.000000,4.000000,4.000000,4.000000,4.000000,4.000000,4.000000,4.000000,4.000000,4.000000,4.000000,100.000000
1602006843.852459,89.000000,0.000000,4161.025879,4169.743652,4138.974121,4151.282227,4120.512695,4132.820313,4130.256348,4134.358887,4121.538574,4124.615234,4119.487305,4141.025879,4107.179688,4122.563965,748.000000,4.000000,,,,0.000000,4.000000,4.000000,4.000000,4.000000,4.000000,4.000000,4.000000,4.000000,4.000000,4.000000,4.000000,4.000000,4.000000,4.000000,100.000000
1602006843.860341,90.000000,0.000000,4157.948730,4169.743652,4140.512695,4154.358887,4127.692383,4127.692383,4135.897461,4137.436035,4120.512695,4123.589844,4132.307617,4131.794922,4105.128418,4118.974121,874.000000,4.000000,,,,0.000000,4.000000,4.000000,4.000000,4.000000,4.000000,4.000000,4.000000,4.000000,4.000000,4.000000,4.000000,4.000000,4.000000,4.000000,100.000000
1602006843.868222,91.000000,0.000000,4169.743652,4172.820313,4142.051270,4154.358887,4140.000000,4129.230957,4136.922852,4135.384766,4124.615234,4132.820313,4136.410156,4133.846191,4114.871582,4121.538574,837.000000,4.000000,,,,0.000000,4.000000,4.000000,4.000000,4.000000,4.000000,4.000000,4.000000,4.000000,4.000000,4.000000,4.000000,4.000000,4.000000,4.000000,100.000000
1602006843.876103,92.000000,0.000000,4170.769043,4169.230957,4138.974121,4154.871582,4135.384766,4126.666504,4127.179688,4125.641113,4122.051270,4121.025879,4125.128418,4135.897461,4121.025879,4122.563965,767.000000,4.000000,,,,0.000000,4.000000,4.000000,4.000000,4.000000,4.000000,4.000000,4.000000,4.000000,4.000000,4.000000,4.000000,4.000000,4.000000,4.000000,100.000000
1602006843.883984,93.000000,0.000000,4163.077148,4167.179688,4145.128418,4155.897461,4120.512695,4116.922852,4118.461426,4127.179688,4117.436035,4118.461426,4129.230957,4133.846191,4122.563965,4123.589844,748.000000,4.000000,,,,0.000000,4.000000,4.000000,4.000000,4.000000,4.000000,4.000000,4.000000,4.000000,4.000000,4.000000,4.000000,4.000000,4.000000,4.000000,100.000000
1602006843.891865,94.000000,0.000000,4165.641113,4166.153809,4152.307617,4153.333496,4121.538574,4119.487305,4122.563965,4137.436035,4130.256348,4144.615234,4135.384766,4139.487305,4124.102539,4127.692383,874.000000,4.000000,,,,0.000000,4.000000,4.000000,4.000000,4.000000,4.000000,4.000000,4.000000,4.000000,4.000000,4.000000,4.000000,4.000000,4.000000,4.000000,100.000000
1602006843.899646,95.000000,0.000000,4165.128418,4158.461426,4145.128418,4144.615234,4128.205078,4122.051270,4127.692383,4130.769043,4136.922852,4151.794922,4121.025879,4140.512695,4117.436035,4124.615234,837.000000,4.000000,,,,0.000000,4.000000,4.000000,4.000000,4.000000,4.000000,4.000000,4.000000,4.000000,4.000000,4.000000,4.000000,4.000000,4.000000,4.000000,100.000000
1602006843.907527,96.000000,0.000000,4150.256348,4144.615234,4135.897461,4138.461426,4121.538574,4114.871582,4123.589844,4117.436035,4123.589844,4124.102539,4114.871582,4131.794922,4107.179688,4111.794922,767.000000,4.000000,,,,0.000000,4.000000,4.000000,4.000000,4.000000,4.000000,4.000000,4.000000,4.000000,4.000000,4.000000,4.000000,4.000000,4.000000,4.000000,100.000000
1602006843.915408,97.000000,0.000000,4136.922852,4135.897461,4131.794922,4132.307617,4113.846191,4121.538574,4120.000000,4125.641113,4125.641113,4115.384766,4125.641113,4124.615234,4105.128418,4105.128418,748.000000,4.000000,,,,0.000000,4.000000,4.000000,4.000000,4.000000,4.000000,4.000000,4.000000,4.000000,4.000000,4.000000,4.000000,4.000000,4.000000,4.000000,100.000000
1602006843.923289,98.000000,0.000000,4131.282227,4135.897461,4123.589844,4123.589844,4119.487305,4141.538574,4126.666504,4140.000000,4144.102539,4130.769043,4128.205078,4124.102539,4105.128418,4104.102539,874.000000,4.000000,,,,0.000000,4.000000,4.000000,4.000000,4.000000,4.000000,4.000000,4.000000,4.000000,4.000000,4.000000,4.000000,4.000000,4.000000,4.000000,100.000000
1602006843.931270,99.000000,0.000000,4122.563965,4136.410156,4117.436035,4122.563965,4125.641113,4144.615234,4131.282227,4138.974121,4144.615234,4121.538574,4118.461426,4123.077148,4095.384521,4092.820557,837.000000,4.000000,,,,0.000000,4.000000,4.000000,4.000000,4.000000,4.000000,4.000000,4.000000,4.000000,4.000000,4.000000,4.000000,4.000000,4.000000,4.000000,100.000000
1602006843.939151,100.000000,0.000000,4118.974121,4133.333496,4120.000000,4126.153809,4122.051270,4127.179688,4125.641113,4131.794922,4138.974121,4101.538574,4113.333496,4121.538574,4090.256348,4085.128174,767.000000,4.000000,,,,0.000000,4.000000,4.000000,4.000000,4.000000,4.000000,4.000000,4.000000,4.000000,4.000000,4.000000,4.000000,4.000000,4.000000,4.000000,100.000000
1602006843.947032,101.000000,0.000000,4124.615234,4133.333496,4120.512695,4122.563965,4111.794922,4119.487305,4122.563965,4128.205078,4138.461426,4103.589844,4110.256348,4122.563965,4091.281982,4092.307617,748.000000,4.000000,,,,0.000000,4.000000,4.000000,4.000000,4.000000,4.000000,4.000000,4.000000,4.000000,4.000000,4.000000,4.000000,4.000000,4.000000,4.000000,100.000000
1602006843.954913,102.000000,0.000000,4123.589844,4134.358887,4117.948730,4124.102539,4104.615234,4121.538574,4125.641113,4124.615234,4127.692383,4117.948730,4103.589844,4121.025879,4089.230713,4090.256348,874.000000,4.000000,,,,0.000000,4.000000,4.000000,4.000000,4.000000,4.000000,4.000000,4.000000,4.000000,4.000000,4.000000,4.000000,4.000000,4.000000,4.000000,100.000000
1602006843.962794,103.000000,0.000000,4127.179688,4137.948730,4120.000000,4137.436035,4112.307617,4120.512695,4130.256348,4127.179688,4125.128418,4119.487305,4106.153809,4121.025879,4095.384521,4088.205078,837.000000,4.000000,,,,0.000000,4.000000,4.000000,4.000000,4.000000,4.000000,4.000000,4.000000,4.000000,4.000000,4.000000,4.000000,4.000000,4.000000,4.000000,100.000000
1602006843.970575,104.000000,0.000000,4145.641113,4146.666504,4120.512695,4141.025879,4122.051270,4121.538574,4130.256348,4132.307617,4136.410156,4117.948730,4117.948730,4125.128418,4105.641113,4098.974121,767.000000,4.000000,,,,0.000000,4.000000,4.000000,4.000000,4.000000,4.000000,4.000000,4.000000,4.000000,4.000000,4.000000,4.000000,4.000000,4.000000,4.000000,100.000000
1602006843.978456,105.000000,0.000000,4156.410156,4152.820313,4121.025879,4137.948730,4121.025879,4126.153809,4126.153809,4128.205078,4141.538574,4127.179688,4127.692383,4129.743652,4109.743652,4107.692383,748.000000,4.000000,,,,0.000000,4.000000,4.000000,4.000000,4.000000,4.000000,4.000000,4.000000,4.000000,4.000000,4.000000,4.000000,4.000000,4.000000,4.000000,100.000000
1602006843.986337,106.000000,0.000000,4154.358887,4152.820313,4131.794922,4146.153809,4120.000000,4121.025879,4120.000000,4123.077148,4137.436035,4126.666504,4135.384766,4143.077148,4115.384766,4115.384766,874.000000,4.000000,,,,0.000000,4.000000,4.000000,4.000000,4.000000,4.000000,4.000000,4.000000,4.000000,4.000000,4.000000,4.000000,4.000000,4.000000,4.000000,100.000000
1602006843.994218,107.000000,0.000000,4160.512695,4155.384766,4151.282227,4153.846191,4123.077148,4104.615234,4116.410156,4124.615234,4126.666504,4123.589844,4140.000000,4164.102539,4128.205078,4128.205078,837.000000,4.000000,,,,0.000000,4.000000,4.000000,4.000000,4.000000,4.000000,4.000000,4.000000,4.000000,4.000000,4.000000,4.000000,4.000000,4.000000,4.000000,100.000000
1602006844.002100,108.000000,0.000000,4171.282227,4164.615234,4168.717773,4156.922852,4123.077148,4106.153809,4114.358887,4126.666504,4121.025879,4132.307617,4136.922852,4176.922852,4138.974121,4136.410156,767.000000,4.000000,,,,0.000000,4.000000,4.000000,4.000000,4.000000,4.000000,4.000000,4.000000,4.000000,4.000000,4.000000,4.000000,4.000000,4.000000,4.000000,100.000000
1602006844.009981,109.000000,0.000000,4175.384766,4168.717773,4171.794922,4159.487305,4125.128418,4120.512695,4119.487305,4129.743652,4127.692383,4138.974121,4135.897461,4173.846191,4138.974121,4141.025879,748.000000,4.000000,,,,0.000000,4.000000,4.000000,4.000000,4.000000,4.000000,4.000000,4.000000,4.000000,4.000000,4.000000,4.000000,4.000000,4.000000,4.000000,100.000000
1602006844.017862,110.000000,0.000000,4174.358887,4163.077148,4161.025879,4153.333496,4128.717773,4127.692383,4131.794922,4137.948730,4130.769043,4140.000000,4145.128418,4160.000000,4132.307617,4140.512695,874.000000,4.000000,,,,0.000000,4.000000,4.000000,4.000000,4.000000,4.000000,4.000000,4.000000,4.000000,4.000000,4.000000,4.000000,4.000000,4.000000,4.000000,100.000000
1602006844.025743,111.000000,0.000000,4157.948730,4146.666504,4140.512695,4138.974121,4125.641113,4132.307617,4140.000000,4138.461426,4124.102539,4133.846191,4135.384766,4141.025879,4118.974121,4118.461426,837.000000,4.000000,,,,0.000000,4.000000,4.000000,4.000000,4.000000,4.000000,4.000000,4.000000,4.000000,4.000000,4.000000,4.000000,4.000000,4.000000,4.000000,100.000000
1602006844.033524,112.000000,0.000000,4129.230957,4128.205078,4119.487305,4126.153809,4124.102539,4141.538574,4146.153809,4134.871582,4121.025879,4115.384766,4111.794922,4126.666504,4103.077148,4094.358887,767.000000,4.000000,,,,0.000000,4.000000,4.000000,4.000000,4.000000,4.000000,4.000000,4.000000,4.000000,4.000000,4.000000,4.000000,4.000000,4.000000,4.000000,100.000000
1602006844.041405,113.000000,0.000000,4109.743652,4114.871582,4104.102539,4113.333496,4125.128418,4142.563965,4145.641113,4137.436035,4122.563965,4097.948730,4111.794922,4118.974121,4090.256348,4082.564209,748.000000,4.000000,,,,0.000000,4.000000,4.000000,4.000000,4.000000,4.000000,4.000000,4.000000,4.000000,4.000000,4.000000,4.000000,4.000000,4.000000,4.000000,100.000000
1602006844.049286,114.000000,0.000000,4105.128418,4107.692383,4100.512695,4105.128418,4123.077148,4136.410156,4139.487305,4138.461426,4129.230957,4100.000000,4118.461426,4118.461426,4084.615479,4073.333252,874.000000,4.000000,,,,0.000000,4.000000,4.000000,4.000000,4.000000,4.000000,4.000000,4.000000,4.000000,4.000000,4.000000,4.000000,4.000000,4.000000,4.000000,100.000000
1602006844.057167,115.000000,0.000000,4107.179688,4111.282227,4113.333496,4113.333496,4122.051270,4138.461426,4137.948730,4135.384766,4141.538574,4115.897461,4108.205078,4121.025879,4085.641113,4076.923096,837.000000,4.000000,,,,0.000000,4.000000,4.000000,4.000000,4.000000,4.000000,4.000000,4.000000,4.000000,4.000000,4.000000,4.000000,4.000000,4.000000,4.000000,100.000000
1602006844.065147,116.000000,0.000000,4113.846191,4119.487305,4121.538574,4121.538574,4117.436035,4135.897461,4133.846191,4133.846191,4140.000000,4125.128418,4106.153809,4121.538574,4086.666748,4090.769287,767.000000,4.000000,,,,0.000000,4.000000,4.000000,4.000000,4.000000,4.000000,4.000000,4.000000,4.000000,4.000000,4.000000,4.000000,4.000000,4.000000,4.000000,100.000000
1602006844.073028,117.000000,0.000000,4122.563965,4126.153809,4119.487305,4125.641113,4111.794922,4130.256348,4124.615234,4135.384766,4128.205078,4122.563965,4120.512695,4125.128418,4095.897461,4096.922852,748.000000,4.000000,,,,0.000000,4.000000,4.000000,4.000000,4.000000,4.000000,4.000000,4.000000,4.000000,4.000000,4.000000,4.000000,4.000000,4.000000,4.000000,100.000000
1602006844.081009,118.000000,0.000000,4133.846191,4133.333496,4126.666504,4135.897461,4116.410156,4133.333496,4121.025879,4136.410156,4130.256348,4126.153809,4128.717773,4137.436035,4116.922852,4107.179688,874.000000,4.000000,,,,0.000000,4.000000,4.000000,4.000000,4.000000,4.000000,4.000000,4.000000,4.000000,4.000000,4.000000,4.000000,4.000000,4.000000,4.000000,100.000000
1602006844.088890,119.000000,0.000000,4149.230957,4147.179688,4136.410156,4143.077148,4125.641113,4137.436035,4123.589844,4133.846191,4143.589844,4138.461426,4140.000000,4150.769043,4130.256348,4126.666504,837.000000,4.000000,,,,0.000000,4.000000,4.000000,4.000000,4.000000,4.000000,4.000000,4.000000,4.000000,4.000000,4.000000,4.000000,4.000000,4.000000,4.000000,100.000000
1602006844.096772,120.000000,0.000000,4155.384766,4155.897461,4127.692383,4141.025879,4125.641113,4139.487305,4121.538574,4124.615234,4147.179688,4131.794922,4156.410156,4154.871582,4128.717773,4129.230957,767.000000,4.000000,,,,0.000000,4.000000,4.000000,4.000000,4.000000,4.000000,4.000000,4.000000,4.000000,4.000000,4.000000,4.000000,4.000000,4.000000,4.000000,100.000000
1602006844.104653,121.000000,0.000000,4153.333496,4150.256348,4117.436035,4138.974121,4125.128418,4131.794922,4117.948730,4116.410156,4141.025879,4120.512695,4153.846191,4152.820313,4131.282227,4126.153809,748.000000,4.000000,,,,0.000000,4.000000,4.000000,4.000000,4.000000,4.000000,4.000000,4.000000,4.000000,4.000000,4.000000,4.000000,4.000000,4.000000,4.000000,100.000000
1602006844.112534,122.000000,0.000000,4154.358887,4144.615234,4130.256348,4141.025879,4128.205078,4123.077148,4121.025879,4124.102539,4149.230957,4134.871582,4143.589844,4155.384766,4138.461426,4133.333496,874.000000,4.000000,,,,0.000000,4.000000,4.000000,4.000000,4.000000,4.000000,4.000000,4.000000,4.000000,4.000000,4.000000,4.000000,4.000000,4.000000,4.000000,100.000000
1602006844.120415,123.000000,0.000000,4151.794922,4140.512695,4145.128418,4139.487305,4123.077148,4127.179688,4132.820313,4138.461426,4162.563965,4148.205078,4142.563965,4155.897461,4132.820313,4126.666504,837.000000,4.000000,,,,0.000000,4.000000,4.000000,4.000000,4.000000,4.000000,4.000000,4.000000,4.000000,4.000000,4.000000,4.000000,4.000000,4.000000,4.000000,100.000000
1602006844.128296,124.000000,0.000000,4142.563965,4129.230957,4144.615234,4130.769043,4112.307617,4131.282227,4141.538574,4142.563965,4151.282227,4138.974121,4134.358887,4147.179688,4116.410156,4106.153809,767.000000,4.000000,,,,0.000000,4.000000,4.000000,4.000000,4.000000,4.000000,4.000000,4.000000,4.000000,4.000000,4.000000,4.000000,4.000000,4.000000,4.000000,100.000000
1602006844.136177,125.000000,0.000000,4130.769043,4116.410156,4136.410156,4121.025879,4108.717773,4129.230957,4140.000000,4139.487305,4137.436035,4128.205078,4120.512695,4134.871582,4105.641113,4099.487305,748.000000,4.000000,,,,0.000000,4.000000,4.000000,4.000000,4.000000,4.000000,4.000000,4.000000,4.000000,4.000000,4.000000,4.000000,4.000000,4.000000,4.000000,100.000000
1602006844.143959,126.000000,0.000000,4125.128418,4116.922852,4124.102539,4114.358887,4106.666504,4133.333496,4136.922852,4136.922852,4141.025879,4125.641113,4128.205078,4127.179688,4103.077148,4103.589844,874.000000,4.000000,,,,0.000000,4.000000,4.000000,4.000000,4.000000,4.000000,4.000000,4.000000,4.000000,4.000000,4.000000,4.000000,4.000000,4.000000,4.000000,100.000000
1602006844.151840,127.000000,0.000000,4130.256348,4119.487305,4114.871582,4114.358887,4104.102539,4139.487305,4138.974121,4136.410156,4144.102539,4123.589844,4143.077148,4120.512695,4105.641113,4104.102539,837.000000,4.000000,,,,0.000000,4.000000,4.000000,4.000000,4.000000,4.000000,4.000000,4.000000,4.000000,4.000000,4.000000,4.000000,4.000000,4.000000,4.000000,100.000000
1602006844.159721,128.000000,0.000000,4139.487305,4121.025879,4116.410156,4119.487305,4111.794922,4133.846191,4138.974121,4133.333496,4134.358887,4128.205078,4134.871582,4118.461426,4111.282227,4103.589844,767.000000,4.000000,,,,0.000000,4.000000,4.000000,4.000000,4.000000,4.000000,4.000000,4.000000,4.000000,4.000000,4.000000,4.000000,4.000000,4.000000,4.000000,100.000000
1602006844.167602,0.000000,0.000000,4140.512695,4129.230957,4120.512695,4122.563965,4119.487305,4126.666504,4131.282227,4123.589844,4122.563965,4130.256348,4120.512695,4127.179688,4111.282227,4108.205078,794.000000,4.000000,,,,0.000000,4.000000,4.000000,4.000000,4.000000,4.000000,4.000000,4.000000,4.000000,4.000000,4.000000,4.000000,4.000000,4.000000,4.000000,100.000000
1602006844.175483,1.000000,0.000000,4134.358887,4135.897461,4117.948730,4125.128418,4117.948730,4124.615234,4120.000000,4118.974121,4123.077148,4125.641113,4124.615234,4136.922852,4110.256348,4109.230957,788.000000,4.000000,,,,0.000000,4.000000,4.000000,4.000000,4.000000,4.000000,4.000000,4.000000,4.000000,4.000000,4.000000,4.000000,4.000000,4.000000,4.000000,100.000000
1602006844.183364,2.000000,0.000000,4133.846191,4144.102539,4119.487305,4136.410156,4122.051270,4130.769043,4116.922852,4121.538574,4131.794922,4129.743652,4131.282227,4138.461426,4113.846191,4104.615234,847.000000,4.000000,,,,0.000000,4.000000,4.000000,4.000000,4.000000,4.000000,4.000000,4.000000,4.000000,4.000000,4.000000,4.000000,4.000000,4.000000,4.000000,100.000000
1602006844.191246,3.000000,0.000000,4141.538574,4160.000000,4131.282227,4152.307617,4135.897461,4141.025879,4121.538574,4123.077148,4136.410156,4138.461426,4132.820313,4140.512695,4124.102539,4110.769043,867.000000,4.000000,,,,0.000000,4.000000,4.000000,4.000000,4.000000,4.000000,4.000000,4.000000,4.000000,4.000000,4.000000,4.000000,4.000000,4.000000,4.000000,100.000000
1602006844.199127,4.000000,0.000000,4151.794922,4171.282227,4148.717773,4158.974121,4143.589844,4141.538574,4122.051270,4126.666504,4141.025879,4137.948730,4141.538574,4152.307617,4135.897461,4131.794922,810.000000,4.000000,,,,0.000000,4.000000,4.000000,4.000000,4.000000,4.000000,4.000000,4.000000,4.000000,4.000000,4.000000,4.000000,4.000000,4.000000,4.000000,100.000000
1602006844.207107,5.000000,0.000000,4155.897461,4173.846191,4159.487305,4156.922852,4135.897461,4138.461426,4127.179688,4140.000000,4158.974121,4137.948730,4153.333496,4167.179688,4142.051270,4143.589844,822.000000,4.000000,,,,0.000000,4.000000,4.000000,4.000000,4.000000,4.000000,4.000000,4.000000,4.000000,4.000000,4.000000,4.000000,4.000000,4.000000,4.000000,100.000000
1602006844.214988,6.000000,0.000000,4156.410156,4168.717773,4160.000000,4155.384766,4122.051270,4134.358887,4143.589844,4152.307617,4172.820313,4153.333496,4155.897461,4169.230957,4149.230957,4141.538574,761.000000,4.000000,,,,0.000000,4.000000,4.000000,4.000000,4.000000,4.000000,4.000000,4.000000,4.000000,4.000000,4.000000,4.000000,4.000000,4.000000,4.000000,100.000000
1602006844.222969,7.000000,0.000000,4157.948730,4157.948730,4158.461426,4151.794922,4116.922852,4136.922852,4161.538574,4157.948730,4170.769043,4173.846191,4155.897461,4163.077148,4153.846191,4141.538574,663.000000,4.000000,,,,0.000000,4.000000,4.000000,4.000000,4.000000,4.000000,4.000000,4.000000,4.000000,4.000000,4.000000,4.000000,4.000000,4.000000,4.000000,100.000000
1602006844.230849,8.000000,0.000000,4149.743652,4142.051270,4149.743652,4140.000000,4121.538574,4149.230957,4168.717773,4161.025879,4168.205078,4173.333496,4160.000000,4159.487305,4149.743652,4144.102539,788.000000,4.000000,,,,0.000000,4.000000,4.000000,4.000000,4.000000,4.000000,4.000000,4.000000,4.000000,4.000000,4.000000,4.000000,4.000000,4.000000,4.000000,100.000000
1602006844.238630,9.000000,0.000000,4133.333496,4128.205078,4128.205078,4124.102539,4116.410156,4148.205078,4162.051270,4151.794922,4158.974121,4141.025879,4146.666504,4152.820313,4136.410156,4136.922852,836.000000,4.000000,,,,0.000000,4.000000,4.000000,4.000000,4.000000,4.000000,4.000000,4.000000,4.000000,4.000000,4.000000,4.000000,4.000000,4.000000,4.000000,100.000000
1602006844.246511,10.000000,0.000000,4122.563965,4119.487305,4115.897461,4117.948730,4104.102539,4130.769043,4144.102539,4133.846191,4136.410156,4123.077148,4126.153809,4141.025879,4121.538574,4117.948730,874.000000,4.000000,,,,0.000000,4.000000,4.000000,4.000000,4.000000,4.000000,4.000000,4.000000,4.000000,4.000000,4.000000,4.000000,4.000000,4.000000,4.000000,100.000000
1602006844.254392,11.000000,0.000000,4114.358887,4117.948730,4120.512695,4121.025879,4108.717773,4124.102539,4130.256348,4124.102539,4116.410156,4127.692383,4120.000000,4129.230957,4109.230957,4094.871826,837.000000,4.000000,,,,0.000000,4.000000,4.000000,4.000000,4.000000,4.000000,4.000000,4.000000,4.000000,4.000000,4.000000,4.000000,4.000000,4.000000,4.000000,100.000000
1602006844.262273,12.000000,0.000000,4106.153809,4120.512695,4122.051270,4123.077148,4122.051270,4126.666504,4121.538574,4118.461426,4116.410156,4110.769043,4115.384766,4121.538574,4098.974121,4089.743652,767.000000,4.000000,,,,0.000000,4.000000,4.000000,4.000000,4.000000,4.000000,4.000000,4.000000,4.000000,4.000000,4.000000,4.000000,4.000000,4.000000,4.000000,100.000000
1602006844.270054,13.000000,0.000000,4101.538574,4120.000000,4114.358887,4123.589844,4124.102539,4123.077148,4109.230957,4110.769043,4123.589844,4101.025879,4112.307617,4117.948730,4097.948730,4101.025879,733.000000,4.000000,,,,0.000000,4.000000,4.000000,4.000000,4.000000,4.000000,4.000000,4.000000,4.000000,4.000000,4.000000,4.000000,4.000000,4.000000,4.000000,100.000000
1602006844.277935,14.000000,0.000000,4104.102539,4120.000000,4114.358887,4128.205078,4123.589844,4116.410156,4107.692383,4111.794922,4120.512695,4120.512695,4118.974121,4119.487305,4102.051270,4105.641113,874.000000,4.000000,,,,0.000000,4.000000,4.000000,4.000000,4.000000,4.000000,4.000000,4.000000,4.000000,4.000000,4.000000,4.000000,4.000000,4.000000,4.000000,100.000000
1602006844.285816,15.000000,0.000000,4114.358887,4128.205078,4123.589844,4135.897461,4129.230957,4116.922852,4121.538574,4120.000000,4118.974121,4130.256348,4123.077148,4125.128418,4105.641113,4102.563965,837.000000,4.000000,,,,0.000000,4.000000,4.000000,4.000000,4.000000,4.000000,4.000000,4.000000,4.000000,4.000000,4.000000,4.000000,4.000000,4.000000,4.000000,100.000000
1602006844.293697,16.000000,0.000000,4123.589844,4138.974121,4128.205078,4139.487305,4129.230957,4119.487305,4126.666504,4116.410156,4120.000000,4123.589844,4118.461426,4131.282227,4105.641113,4103.589844,0.000000,4.000000,,,,0.000000,4.000000,4.000000,4.000000,4.000000,4.000000,4.000000,4.000000,4.000000,4.000000,4.000000,4.000000,4.000000,4.000000,4.000000,100.000000
1602006844.301478,17.000000,0.000000,4127.692383,4137.948730,4127.692383,4136.410156,4123.077148,4118.974121,4121.025879,4109.743652,4112.820313,4113.846191,4119.487305,4136.410156,4104.102539,4111.794922,0.000000,4.000000,,,,0.000000,4.000000,4.000000,4.000000,4.000000,4.000000,4.000000,4.000000,4.000000,4.000000,4.000000,4.000000,4.000000,4.000000,4.000000,100.000000
1602006844.309359,18.000000,0.000000,4139.487305,4134.871582,4135.384766,4137.436035,4123.077148,4120.512695,4130.256348,4115.384766,4108.205078,4108.205078,4129.230957,4140.512695,4111.282227,4121.538574,0.000000,4.000000,,,,0.000000,4.000000,4.000000,4.000000,4.000000,4.000000,4.000000,4.000000,4.000000,4.000000,4.000000,4.000000,4.000000,4.000000,4.000000,100.000000
1602006844.317240,19.000000,0.000000,4156.410156,4144.102539,4144.102539,4141.538574,4121.538574,4122.563965,4138.974121,4120.512695,4111.282227,4114.358887,4134.871582,4143.589844,4120.000000,4128.205078,0.000000,4.000000,,,,0.000000,4.000000,4.000000,4.000000,4.000000,4.000000,4.000000,4.000000,4.000000,4.000000,4.000000,4.000000,4.000000,4.000000,4.000000,100.000000
1602006844.325121,20.000000,0.000000,4155.897461,4152.820313,4140.000000,4142.051270,4120.000000,4123.077148,4131.794922,4120.512695,4110.769043,4122.051270,4135.897461,4142.563965,4125.128418,4132.307617,0.000000,4.000000,,,,0.000000,4.000000,4.000000,4.000000,4.000000,4.000000,4.000000,4.000000,4.000000,4.000000,4.000000,4.000000,4.000000,4.000000,4.000000,100.000000
1602006844.332902,21.000000,0.000000,4149.743652,4154.358887,4136.922852,4142.051270,4125.128418,4132.307617,4132.820313,4128.205078,4116.922852,4126.153809,4145.128418,4141.538574,4134.358887,4138.461426,0.000000,4.000000,,,,0.000000,4.000000,4.000000,4.000000,4.000000,4.000000,4.000000,4.000000,4.000000,4.000000,4.000000,4.000000,4.000000,4.000000,4.000000,100.000000
1602006844.340783,22.000000,0.000000,4154.358887,4152.820313,4139.487305,4143.589844,4122.051270,4141.025879,4141.538574,4138.974121,4134.358887,4141.025879,4160.000000,4142.563965,4145.128418,4145.641113,0.000000,4.000000,,,,0.000000,4.000000,4.000000,4.000000,4.000000,4.000000,4.000000,4.000000,4.000000,4.000000,4.000000,4.000000,4.000000,4.000000,4.000000,100.000000
1602006844.348664,23.000000,0.000000,4151.794922,4145.128418,4135.897461,4135.897461,4108.205078,4134.871582,4141.538574,4147.179688,4148.205078,4156.410156,4155.897461,4139.487305,4144.102539,4140.000000,0.000000,4.000000,,,,0.000000,4.000000,4.000000,4.000000,4.000000,4.000000,4.000000,4.000000,4.000000,4.000000,4.000000,4.000000,4.000000,4.000000,4.000000,100.000000
1602006844.356545,24.000000,0.000000,4141.025879,4134.358887,4134.358887,4124.102539,4102.051270,4127.179688,4142.563965,4151.794922,4158.461426,4152.820313,4143.077148,4138.974121,4140.512695,4126.153809,0.000000,4.000000,,,,0.000000,4.000000,4.000000,4.000000,4.000000,4.000000,4.000000,4.000000,4.000000,4.000000,4.000000,4.000000,4.000000,4.000000,4.000000,100.000000
1602006844.364427,25.000000,0.000000,4132.820313,4125.641113,4135.897461,4121.538574,4097.436035,4126.153809,4142.051270,4144.615234,4154.358887,4145.641113,4134.358887,4142.051270,4135.897461,4124.615234,0.000000,4.000000,,,,0.000000,4.000000,4.000000,4.000000,4.000000,4.000000,4.000000,4.000000,4.000000,4.000000,4.000000,4.000000,4.000000,4.000000,4.000000,100.000000
1602006844.372308,26.000000,0.000000,4124.102539,4117.436035,4129.743652,4120.512695,4091.794922,4123.589844,4127.692383,4126.153809,4129.743652,4126.666504,4121.025879,4141.025879,4117.436035,4129.230957,0.000000,4.000000,,,,0.000000,4.000000,4.000000,4.000000,4.000000,4.000000,4.000000,4.000000,4.000000,4.000000,4.000000,4.000000,4.000000,4.000000,4.000000,100.000000
1602006844.380189,27.000000,0.000000,4123.077148,4116.410156,4125.641113,4117.436035,4106.153809,4126.153809,4121.025879,4113.333496,4112.307617,4103.077148,4124.615234,4138.461426,4108.717773,4119.487305,0.000000,4.000000,,,,0.000000,4.000000,4.000000,4.000000,4.000000,4.000000,4.000000,4.000000,4.000000,4.000000,4.000000,4.000000,4.000000,4.000000,4.000000,100.000000
1602006844.388070,28.000000,0.000000,4122.563965,4121.538574,4127.692383,4120.000000,4124.615234,4125.128418,4122.563965,4106.666504,4103.077148,4110.256348,4136.410156,4131.282227,4117.948730,4107.692383,0.000000,4.000000,,,,0.000000,4.000000,4.000000,4.000000,4.000000,4.000000,4.000000,4.000000,4.000000,4.000000,4.000000,4.000000,4.000000,4.000000,4.000000,100.000000
1602006844.396051,29.000000,0.000000,4114.358887,4122.563965,4118.974121,4123.589844,4124.615234,4113.846191,4110.769043,4100.000000,4087.179443,4120.000000,4128.205078,4123.589844,4116.410156,4113.846191,0.000000,4.000000,,,,0.000000,4.000000,4.000000,4.000000,4.000000,4.000000,4.000000,4.000000,4.000000,4.000000,4.000000,4.000000,4.000000,4.000000,4.000000,100.000000
1602006844.403932,30.000000,0.000000,4113.333496,4127.692383,4106.666504,4125.128418,4125.641113,4112.307617,4101.025879,4101.025879,4086.666748,4110.769043,4124.102539,4119.487305,4108.717773,4121.025879,0.000000,4.000000,,,,0.000000,4.000000,4.000000,4.000000,4.000000,4.000000,4.000000,4.000000,4.000000,4.000000,4.000000,4.000000,4.000000,4.000000,4.000000,100.000000
1602006844.411813,31.000000,0.000000,4114.871582,4130.256348,4096.922852,4125.641113,4129.743652,4106.153809,4103.589844,4107.179688,4102.563965,4109.230957,4119.487305,4107.692383,4100.000000,4098.461426,0.000000,4.000000,,,,0.000000,4.000000,4.000000,4.000000,4.000000,4.000000,4.000000,4.000000,4.000000,4.000000,4.000000,4.000000,4.000000,4.000000,4.000000,100.000000
1602006844.419694,32.000000,0.000000,4112.307617,4126.666504,4090.769287,4122.563965,4124.102539,4096.410156,4105.128418,4115.897461,4110.769043,4120.000000,4103.589844,4095.384521,4093.333252,4073.333252,0.000000,4.000000,,,,0.000000,4.000000,4.000000,4.000000,4.000000,4.000000,4.000000,4.000000,4.000000,4.000000,4.000000,4.000000,4.000000,4.000000,4.000000,100.000000
1602006844.427575,33.000000,0.000000,4121.025879,4130.256348,4095.384521,4122.563965,4126.666504,4108.205078,4108.717773,4129.230957,4120.000000,4123.077148,4117.436035,4103.589844,4112.307617,4096.922852,0.000000,4.000000,,,,0.000000,4.000000,4.000000,4.000000,4.000000,4.000000,4.000000,4.000000,4.000000,4.000000,4.000000,4.000000,4.000000,4.000000,4.000000,100.000000
1602006844.435356,34.000000,0.000000,4130.769043,4136.410156,4107.179688,4129.743652,4137.436035,4127.179688,4121.538574,4141.538574,4143.589844,4129.743652,4154.358887,4122.051270,4147.179688,4144.615234,0.000000,4.000000,,,,0.000000,4.000000,4.000000,4.000000,4.000000,4.000000,4.000000,4.000000,4.000000,4.000000,4.000000,4.000000,4.000000,4.000000,4.000000,100.000000
1602006844.443237,35.000000,0.000000,4124.102539,4125.641113,4117.436035,4128.717773,4137.948730,4133.846191,4135.384766,4145.641113,4158.461426,4147.179688,4160.512695,4133.846191,4162.051270,4161.538574,0.000000,4.000000,,,,0.000000,4.000000,4.000000,4.000000,4.000000,4.000000,4.000000,4.000000,4.000000,4.000000,4.000000,4.000000,4.000000,4.000000,4.000000,100.000000
1602006844.451118,36.000000,0.000000,4107.179688,4103.589844,4121.538574,4114.358887,4134.871582,4135.384766,4141.538574,4144.615234,4151.282227,4152.307617,4152.307617,4141.025879,4165.128418,4152.820313,0.000000,4.000000,,,,0.000000,4.000000,4.000000,4.000000,4.000000,4.000000,4.000000,4.000000,4.000000,4.000000,4.000000,4.000000,4.000000,4.000000,4.000000,100.000000
1602006844.459098,37.000000,0.000000,4095.384521,4085.641113,4121.025879,4104.102539,4132.307617,4131.794922,4140.512695,4142.563965,4145.128418,4156.410156,4154.871582,4142.563965,4171.794922,4145.641113,0.000000,4.000000,,,,0.000000,4.000000,4.000000,4.000000,4.000000,4.000000,4.000000,4.000000,4.000000,4.000000,4.000000,4.000000,4.000000,4.000000,4.000000,100.000000
1602006844.466879,38.000000,0.000000,4087.179443,4078.974365,4120.512695,4105.128418,4124.615234,4121.538574,4136.922852,4141.025879,4145.641113,4171.282227,4156.410156,4141.025879,4172.307617,4141.025879,0.000000,4.000000,,,,0.000000,4.000000,4.000000,4.000000,4.000000,4.000000,4.000000,4.000000,4.000000,4.000000,4.000000,4.000000,4.000000,4.000000,4.000000,100.000000
1602006844.474760,39.000000,0.000000,4084.102539,4081.025635,4118.461426,4105.128418,4120.000000,4119.487305,4132.307617,4134.358887,4137.948730,4178.461426,4154.358887,4138.974121,4172.820313,4137.948730,0.000000,4.000000,,,,0.000000,4.000000,4.000000,4.000000,4.000000,4.000000,4.000000,4.000000,4.000000,4.000000,4.000000,4.000000,4.000000,4.000000,4.000000,100.000000
1602006844.482740,40.000000,0.000000,4082.051270,4083.076904,4112.820313,4102.051270,4120.512695,4123.077148,4123.589844,4123.589844,4123.077148,4157.436035,4144.615234,4127.692383,4166.153809,4136.410156,0.000000,4.000000,,,,0.000000,4.000000,4.000000,4.000000,4.000000,4.000000,4.000000,4.000000,4.000000,4.000000,4.000000,4.000000,4.000000,4.000000,4.000000,100.000000
1602006844.490621,41.000000,0.000000,4083.076904,4086.666748,4115.897461,4109.743652,4118.461426,4114.871582,4119.487305,4120.512695,4116.410156,4122.051270,4134.358887,4120.512695,4153.846191,4135.384766,0.000000,4.000000,,,,0.000000,4.000000,4.000000,4.000000,4.000000,4.000000,4.000000,4.000000,4.000000,4.000000,4.000000,4.000000,4.000000,4.000000,4.000000,100.000000
1602006844.498502,42.000000,0.000000,4088.718018,4100.000000,4124.615234,4121.538574,4128.205078,4107.179688,4122.051270,4123.589844,4110.256348,4107.179688,4139.487305,4131.282227,4151.282227,4136.922852,0.000000,4.000000,,,,0.000000,4.000000,4.000000,4.000000,4.000000,4.000000,4.000000,4.000000,4.000000,4.000000,4.000000,4.000000,4.000000,4.000000,4.000000,100.000000
1602006844.506383,43.000000,0.000000,4096.410156,4108.717773,4122.051270,4122.051270,4135.384766,4113.333496,4121.025879,4119.487305,4096.922852,4109.743652,4142.051270,4138.461426,4151.282227,4136.922852,0.000000,4.000000,,,,0.000000,4.000000,4.000000,4.000000,4.000000,4.000000,4.000000,4.000000,4.000000,4.000000,4.000000,4.000000,4.000000,4.000000,4.000000,100.000000
1602006844.514364,44.000000,0.000000,4105.641113,4106.666504,4126.153809,4121.025879,4125.128418,4123.589844,4126.666504,4125.128418,4106.666504,4120.000000,4144.102539,4141.025879,4156.410156,4143.077148,0.000000,4.000000,,,,0.000000,4.000000,4.000000,4.000000,4.000000,4.000000,4.000000,4.000000,4.000000,4.000000,4.000000,4.000000,4.000000,4.000000,4.000000,100.000000
1602006844.522245,45.000000,0.000000,4111.794922,4107.692383,4140.512695,4126.153809,4124.102539,4131.282227,4143.589844,4149.230957,4136.410156,4145.128418,4158.974121,4151.794922,4169.743652,4157.948730,0.000000,4.000000,,,,0.000000,4.000000,4.000000,4.000000,4.000000,4.000000,4.000000,4.000000,4.000000,4.000000,4.000000,4.000000,4.000000,4.000000,4.000000,100.000000
1602006844.530127,46.000000,0.000000,4110.256348,4112.820313,4137.436035,4127.692383,4135.384766,4140.000000,4154.358887,4160.512695,4145.128418,4163.589844,4158.974121,4154.871582,4170.769043,4158.974121,0.000000,4.000000,,,,0.000000,4.000000,4.000000,4.000000,4.000000,4.000000,4.000000,4.000000,4.000000,4.000000,4.000000,4.000000,4.000000,4.000000,4.000000,100.000000
1602006844.538008,47.000000,0.000000,4098.974121,4103.589844,4120.000000,4116.922852,4132.820313,4142.051270,4153.333496,4153.333496,4136.410156,4140.512695,4136.410156,4140.000000,4154.358887,4142.563965,0.000000,4.000000,,,,0.000000,4.000000,4.000000,4.000000,4.000000,4.000000,4.000000,4.000000,4.000000,4.000000,4.000000,4.000000,4.000000,4.000000,4.000000,100.000000
1602006844.545889,48.000000,0.000000,4090.256348,4092.820557,4115.384766,4105.128418,4123.077148,4136.922852,4148.717773,4152.820313,4137.436035,4117.948730,4130.769043,4133.846191,4146.153809,4140.512695,0.000000,4.000000,,,,0.000000,4.000000,4.000000,4.000000,4.000000,4.000000,4.000000,4.000000,4.000000,4.000000,4.000000,4.000000,4.000000,4.000000,4.000000,100.000000
1602006844.553770,49.000000,0.000000,4099.487305,4101.538574,4125.641113,4111.282227,4128.205078,4137.948730,4146.153809,4161.025879,4144.615234,4146.666504,4148.205078,4148.717773,4154.871582,4155.384766,0.000000,4.000000,,,,0.000000,4.000000,4.000000,4.000000,4.000000,4.000000,4.000000,4.000000,4.000000,4.000000,4.000000,4.000000,4.000000,4.000000,4.000000,100.000000
1602006844.561651,50.000000,0.000000,4107.692383,4109.230957,4129.743652,4119.487305,4130.256348,4133.846191,4137.948730,4151.282227,4138.974121,4160.512695,4156.410156,4155.897461,4156.922852,4159.487305,0.000000,4.000000,,,,0.000000,4.000000,4.000000,4.000000,4.000000,4.000000,4.000000,4.000000,4.000000,4.000000,4.000000,4.000000,4.000000,4.000000,4.000000,100.000000
1602006844.569532,51.000000,0.000000,4103.589844,4103.589844,4128.205078,4115.897461,4123.077148,4118.461426,4123.589844,4130.769043,4127.179688,4135.384766,4149.230957,4148.717773,4152.307617,4147.692383,0.000000,4.000000,,,,0.000000,4.000000,4.000000,4.000000,4.000000,4.000000,4.000000,4.000000,4.000000,4.000000,4.000000,4.000000,4.000000,4.000000,4.000000,100.000000
1602006844.577314,52.000000,0.000000,4112.307617,4107.179688,4137.436035,4119.487305,4124.615234,4120.000000,4120.512695,4129.743652,4127.692383,4147.692383,4151.282227,4147.692383,4161.538574,4152.307617,0.000000,4.000000,,,,0.000000,4.000000,4.000000,4.000000,4.000000,4.000000,4.000000,4.000000,4.000000,4.000000,4.000000,4.000000,4.000000,4.000000,4.000000,100.000000
1602006844.585195,53.000000,0.000000,4124.615234,4115.897461,4143.589844,4130.256348,4130.256348,4135.897461,4126.153809,4134.871582,4128.205078,4174.871582,4161.025879,4150.256348,4174.871582,4168.205078,0.000000,4.000000,,,,0.000000,4.000000,4.000000,4.000000,4.000000,4.000000,4.000000,4.000000,4.000000,4.000000,4.000000,4.000000,4.000000,4.000000,4.000000,100.000000
1602006844.593076,54.000000,0.000000,4113.846191,4111.794922,4127.179688,4127.692383,4126.666504,4134.358887,4124.102539,4125.128418,4115.384766,4152.307617,4158.974121,4144.615234,4173.333496,4163.589844,0.000000,4.000000,,,,0.000000,4.000000,4.000000,4.000000,4.000000,4.000000,4.000000,4.000000,4.000000,4.000000,4.000000,4.000000,4.000000,4.000000,4.000000,100.000000
1602006844.600957,55.000000,0.000000,4109.230957,4111.794922,4113.846191,4121.025879,4120.512695,4120.512695,4122.051270,4116.922852,4110.769043,4134.871582,4152.820313,4143.589844,4169.230957,4152.820313,0.000000,4.000000,,,,0.000000,4.000000,4.000000,4.000000,4.000000,4.000000,4.000000,4.000000,4.000000,4.000000,4.000000,4.000000,4.000000,4.000000,4.000000,100.000000
1602006844.608838,56.000000,0.000000,4127.692383,4122.563965,4125.128418,4123.077148,4125.641113,4127.692383,4129.743652,4125.641113,4129.743652,4165.641113,4157.436035,4152.307617,4172.307617,4157.436035,0.000000,4.000000,,,,0.000000,4.000000,4.000000,4.000000,4.000000,4.000000,4.000000,4.000000,4.000000,4.000000,4.000000,4.000000,4.000000,4.000000,4.000000,100.000000
1602006844.616720,57.000000,0.000000,4131.282227,4122.051270,4137.948730,4122.563965,4130.256348,4137.436035,4130.256348,4135.384766,4149.743652,4174.871582,4158.974121,4151.794922,4171.794922,4158.974121,0.000000,4.000000,,,,0.000000,4.000000,4.000000,4.000000,4.000000,4.000000,4.000000,4.000000,4.000000,4.000000,4.000000,4.000000,4.000000,4.000000,4.000000,100.000000
1602006844.624601,58.000000,0.000000,4123.077148,4109.743652,4139.487305,4118.974121,4125.128418,4128.717773,4122.563965,4138.974121,4153.333496,4149.230957,4151.794922,4152.307617,4168.717773,4156.922852,0.000000,4.000000,,,,0.000000,4.000000,4.000000,4.000000,4.000000,4.000000,4.000000,4.000000,4.000000,4.000000,4.000000,4.000000,4.000000,4.000000,4.000000,100.000000
1602006844.632482,59.000000,0.000000,4122.051270,4105.641113,4137.948730,4116.922852,4121.025879,4123.589844,4126.153809,4140.512695,4141.538574,4142.051270,4146.153809,4156.410156,4158.974121,4156.922852,0.000000,4.000000,,,,0.000000,4.000000,4.000000,4.000000,4.000000,4.000000,4.000000,4.000000,4.000000,4.000000,4.000000,4.000000,4.000000,4.000000,4.000000,100.000000
1602006844.640363,60.000000,0.000000,4115.384766,4106.666504,4133.846191,4112.820313,4120.512695,4127.692383,4129.743652,4133.846191,4116.410156,4134.871582,4139.487305,4144.615234,4138.974121,4141.538574,0.000000,4.000000,,,,0.000000,4.000000,4.000000,4.000000,4.000000,4.000000,4.000000,4.000000,4.000000,4.000000,4.000000,4.000000,4.000000,4.000000,4.000000,100.000000
1602006844.648344,61.000000,0.000000,4108.205078,4105.641113,4133.846191,4110.769043,4121.025879,4123.077148,4124.615234,4122.563965,4102.051270,4118.461426,4133.846191,4137.948730,4134.871582,4137.436035,0.000000,4.000000,,,,0.000000,4.000000,4.000000,4.000000,4.000000,4.000000,4.000000,4.000000,4.000000,4.000000,4.000000,4.000000,4.000000,4.000000,4.000000,100.000000
1602006844.656225,62.000000,0.000000,4112.307617,4106.666504,4137.436035,4113.333496,4120.512695,4123.077148,4129.230957,4123.077148,4106.153809,4130.256348,4132.820313,4148.205078,4145.128418,4153.846191,0.000000,4.000000,,,,0.000000,4.000000,4.000000,4.000000,4.000000,4.000000,4.000000,4.000000,4.000000,4.000000,4.000000,4.000000,4.000000,4.000000,4.000000,100.000000
1602006844.664106,63.000000,0.000000,4109.743652,4105.641113,4127.179688,4110.769043,4113.846191,4126.153809,4136.922852,4130.769043,4104.102539,4144.102539,4124.615234,4147.179688,4140.512695,4145.641113,0.000000,4.000000,,,,0.000000,4.000000,4.000000,4.000000,4.000000,4.000000,4.000000,4.000000,4.000000,4.000000,4.000000,4.000000,4.000000,4.000000,4.000000,100.000000
1602006844.671988,64.000000,0.000000,4102.051270,4102.051270,4117.436035,4103.589844,4105.641113,4115.897461,4129.743652,4128.717773,4097.948730,4123.077148,4118.974121,4139.487305,4133.333496,4127.179688,794.000000,4.000000,,,,0.000000,4.000000,4.000000,4.000000,4.000000,4.000000,4.000000,4.000000,4.000000,4.000000,4.000000,4.000000,4.000000,4.000000,4.000000,100.000000
1602006844.679869,65.000000,0.000000,4108.205078,4106.153809,4129.743652,4109.743652,4114.358887,4112.307617,4119.487305,4128.205078,4108.205078,4118.974121,4130.769043,4143.589844,4145.128418,4143.077148,788.000000,4.000000,,,,0.000000,4.000000,4.000000,4.000000,4.000000,4.000000,4.000000,4.000000,4.000000,4.000000,4.000000,4.000000,4.000000,4.000000,4.000000,100.000000
1602006844.687750,66.000000,0.000000,4115.897461,4109.230957,4140.000000,4121.025879,4125.128418,4117.436035,4119.487305,4136.922852,4121.025879,4149.743652,4142.051270,4146.666504,4154.871582,4153.333496,847.000000,4.000000,,,,0.000000,4.000000,4.000000,4.000000,4.000000,4.000000,4.000000,4.000000,4.000000,4.000000,4.000000,4.000000,4.000000,4.000000,4.000000,100.000000
1602006844.695631,67.000000,0.000000,4118.974121,4108.717773,4137.948730,4122.563965,4124.102539,4120.512695,4123.589844,4138.974121,4128.717773,4155.384766,4137.436035,4147.692383,4149.743652,4141.538574,867.000000,4.000000,,,,0.000000,4.000000,4.000000,4.000000,4.000000,4.000000,4.000000,4.000000,4.000000,4.000000,4.000000,4.000000,4.000000,4.000000,4.000000,100.000000
1602006844.703512,68.000000,0.000000,4125.128418,4108.205078,4139.487305,4120.512695,4124.102539,4130.769043,4126.153809,4141.025879,4140.000000,4154.871582,4140.512695,4153.333496,4155.897461,4149.743652,810.000000,4.000000,,,,0.000000,4.000000,4.000000,4.000000,4.000000,4.000000,4.000000,4.000000,4.000000,4.000000,4.000000,4.000000,4.000000,4.000000,4.000000,100.000000
1602006844.711294,69.000000,0.000000,4112.307617,4097.436035,4128.205078,4112.820313,4124.102539,4131.794922,4125.128418,4143.589844,4137.948730,4160.000000,4143.077148,4144.615234,4154.358887,4151.794922,822.000000,4.000000,,,,0.000000,4.000000,4.000000,4.000000,4.000000,4.000000,4.000000,4.000000,4.000000,4.000000,4.000000,4.000000,4.000000,4.000000,4.000000,100.000000
1602006844.719175,70.000000,0.000000,4083.076904,4080.000000,4100.512695,4095.897461,4117.948730,4116.410156,4120.512695,4132.820313,4112.820313,4137.436035,4125.128418,4124.102539,4126.666504,4119.487305,761.000000,4.000000,,,,0.000000,4.000000,4.000000,4.000000,4.000000,4.000000,4.000000,4.000000,4.000000,4.000000,4.000000,4.000000,4.000000,4.000000,4.000000,100.000000
1602006844.727056,71.000000,0.000000,4078.974365,4083.076904,4093.846191,4094.871826,4119.487305,4115.897461,4124.102539,4127.692383,4100.512695,4122.563965,4114.871582,4117.436035,4116.922852,4107.179688,663.000000,4.000000,,,,0.000000,4.000000,4.000000,4.000000,4.000000,4.000000,4.000000,4.000000,4.000000,4.000000,4.000000,4.000000,4.000000,4.000000,4.000000,100.000000
1602006844.734937,72.000000,0.000000,4102.051270,4102.563965,4107.179688,4112.307617,4129.230957,4132.307617,4130.769043,4138.461426,4117.436035,4137.948730,4133.333496,4126.153809,4138.461426,4136.410156,786.000000,4.000000,,,,0.000000,4.000000,4.000000,4.000000,4.000000,4.000000,4.000000,4.000000,4.000000,4.000000,4.000000,4.000000,4.000000,4.000000,4.000000,100.000000
1602006844.742818,73.000000,0.000000,4106.666504,4107.179688,4109.743652,4116.410156,4128.717773,4130.769043,4128.205078,4140.512695,4123.589844,4139.487305,4141.025879,4128.717773,4145.641113,4140.512695,836.000000,4.000000,,,,0.000000,4.000000,4.000000,4.000000,4.000000,4.000000,4.000000,4.000000,4.000000,4.000000,4.000000,4.000000,4.000000,4.000000,4.000000,100.000000
1602006844.750699,74.000000,0.000000,4093.333252,4097.436035,4104.615234,4107.179688,4126.153809,4120.512695,4124.615234,4132.820313,4105.641113,4127.692383,4121.538574,4122.051270,4134.871582,4122.051270,874.000000,4.000000,,,,0.000000,4.000000,4.000000,4.000000,4.000000,4.000000,4.000000,4.000000,4.000000,4.000000,4.000000,4.000000,4.000000,4.000000,4.000000,100.000000
1602006844.758580,75.000000,0.000000,4087.179443,4093.846191,4105.641113,4107.692383,4127.692383,4125.128418,4128.205078,4132.307617,4101.538574,4133.846191,4112.307617,4118.974121,4132.307617,4121.025879,837.000000,4.000000,,,,0.000000,4.000000,4.000000,4.000000,4.000000,4.000000,4.000000,4.000000,4.000000,4.000000,4.000000,4.000000,4.000000,4.000000,4.000000,100.000000
1602006844.766462,76.000000,0.000000,4084.615479,4091.794922,4105.641113,4108.205078,4124.102539,4122.051270,4127.179688,4135.384766,4121.538574,4143.077148,4121.025879,4114.871582,4127.179688,4116.922852,766.000000,4.000000,,,,0.000000,4.000000,4.000000,4.000000,4.000000,4.000000,4.000000,4.000000,4.000000,4.000000,4.000000,4.000000,4.000000,4.000000,4.000000,100.000000
1602006844.774443,77.000000,0.000000,4084.615479,4088.718018,4105.128418,4104.615234,4121.025879,4111.282227,4122.563965,4137.948730,4130.256348,4146.666504,4122.563965,4112.307617,4122.051270,4109.230957,732.000000,4.000000,,,,0.000000,4.000000,4.000000,4.000000,4.000000,4.000000,4.000000,4.000000,4.000000,4.000000,4.000000,4.000000,4.000000,4.000000,4.000000,100.000000
1602006844.782324,78.000000,0.000000,4097.436035,4096.410156,4112.820313,4112.820313,4127.179688,4118.461426,4127.179688,4143.589844,4122.563965,4155.384766,4121.025879,4120.000000,4132.820313,4121.538574,874.000000,4.000000,,,,0.000000,4.000000,4.000000,4.000000,4.000000,4.000000,4.000000,4.000000,4.000000,4.000000,4.000000,4.000000,4.000000,4.000000,4.000000,100.000000
1602006844.790205,79.000000,0.000000,4110.256348,4107.179688,4124.615234,4123.077148,4127.179688,4124.102539,4129.230957,4143.589844,4126.666504,4157.948730,4124.615234,4130.769043,4141.025879,4128.205078,837.000000,4.000000,,,,0.000000,4.000000,4.000000,4.000000,4.000000,4.000000,4.000000,4.000000,4.000000,4.000000,4.000000,4.000000,4.000000,4.000000,4.000000,100.000000
1602006844.798086,80.000000,0.000000,4112.820313,4105.641113,4135.384766,4122.051270,4117.948730,4110.769043,4125.641113,4140.000000,4139.487305,4152.820313,4127.692383,4138.974121,4140.000000,4120.512695,766.000000,4.000000,,,,0.000000,4.000000,4.000000,4.000000,4.000000,4.000000,4.000000,4.000000,4.000000,4.000000,4.000000,4.000000,4.000000,4.000000,4.000000,100.000000
1602006844.805967,81.000000,0.000000,4120.000000,4105.128418,4142.563965,4122.563965,4120.000000,4110.769043,4133.333496,4141.538574,4136.410156,4141.538574,4132.307617,4150.256348,4138.974121,4129.230957,732.000000,4.000000,,,,0.000000,4.000000,4.000000,4.000000,4.000000,4.000000,4.000000,4.000000,4.000000,4.000000,4.000000,4.000000,4.000000,4.000000,4.000000,100.000000
1602006844.813849,82.000000,0.000000,4126.666504,4108.717773,4144.102539,4124.102539,4122.563965,4125.641113,4142.051270,4142.051270,4114.358887,4125.128418,4133.333496,4156.922852,4132.307617,4134.358887,874.000000,4.000000,,,,0.000000,4.000000,4.000000,4.000000,4.000000,4.000000,4.000000,4.000000,4.000000,4.000000,4.000000,4.000000,4.000000,4.000000,4.000000,100.000000
1602006844.821730,83.000000,0.000000,4115.897461,4105.641113,4138.461426,4114.358887,4116.922852,4125.641113,4136.410156,4133.846191,4101.025879,4119.487305,4125.641113,4149.230957,4125.641113,4121.538574,837.000000,4.000000,,,,0.000000,4.000000,4.000000,4.000000,4.000000,4.000000,4.000000,4.000000,4.000000,4.000000,4.000000,4.000000,4.000000,4.000000,4.000000,100.000000
1602006844.829611,84.000000,0.000000,4105.641113,4101.025879,4130.256348,4107.179688,4116.922852,4118.461426,4128.205078,4127.692383,4106.153809,4129.743652,4123.077148,4143.077148,4131.282227,4121.538574,766.000000,4.000000,,,,0.000000,4.000000,4.000000,4.000000,4.000000,4.000000,4.000000,4.000000,4.000000,4.000000,4.000000,4.000000,4.000000,4.000000,4.000000,100.000000
1602006844.837492,85.000000,0.000000,4106.666504,4105.128418,4124.102539,4110.256348,4124.102539,4122.051270,4131.282227,4133.846191,4110.769043,4138.461426,4126.666504,4147.692383,4137.948730,4128.205078,732.000000,4.000000,,,,0.000000,4.000000,4.000000,4.000000,4.000000,4.000000,4.000000,4.000000,4.000000,4.000000,4.000000,4.000000,4.000000,4.000000,4.000000,100.000000
1602006844.845373,86.000000,0.000000,4111.794922,4109.743652,4117.948730,4112.820313,4127.692383,4131.794922,4136.410156,4138.461426,4111.794922,4140.512695,4131.282227,4155.384766,4143.077148,4126.666504,874.000000,4.000000,,,,0.000000,4.000000,4.000000,4.000000,4.000000,4.000000,4.000000,4.000000,4.000000,4.000000,4.000000,4.000000,4.000000,4.000000,4.000000,100.000000
1602006844.853154,87.000000,0.000000,4111.794922,4106.153809,4112.307617,4113.846191,4129.230957,4139.487305,4136.410156,4135.384766,4120.000000,4140.000000,4138.461426,4154.871582,4150.769043,4130.769043,837.000000,4.000000,,,,0.000000,4.000000,4.000000,4.000000,4.000000,4.000000,4.000000,4.000000,4.000000,4.000000,4.000000,4.000000,4.000000,4.000000,4.000000,100.000000
1602006844.861036,88.000000,0.000000,4109.230957,4107.692383,4113.846191,4117.436035,4133.333496,4136.922852,4130.256348,4133.333496,4131.794922,4129.743652,4139.487305,4153.846191,4152.307617,4137.436035,766.000000,4.000000,,,,0.000000,4.000000,4.000000,4.000000,4.000000,4.000000,4.000000,4.000000,4.000000,4.000000,4.000000,4.000000,4.000000,4.000000,4.000000,100.000000
1602006844.868917,89.000000,0.000000,4113.846191,4118.461426,4127.692383,4123.589844,4134.871582,4131.282227,4126.153809,4136.922852,4135.897461,4126.153809,4141.025879,4155.897461,4152.307617,4136.922852,732.000000,4.000000,,,,0.000000,4.000000,4.000000,4.000000,4.000000,4.000000,4.000000,4.000000,4.000000,4.000000,4.000000,4.000000,4.000000,4.000000,4.000000,100.000000
1602006844.876798,90.000000,0.000000,4120.512695,4124.102539,4138.461426,4127.692383,4135.897461,4122.051270,4127.179688,4140.512695,4136.410156,4147.179688,4153.846191,4155.897461,4156.410156,4136.922852,874.000000,4.000000,,,,0.000000,4.000000,4.000000,4.000000,4.000000,4.000000,4.000000,4.000000,4.000000,4.000000,4.000000,4.000000,4.000000,4.000000,4.000000,100.000000
1602006844.884679,91.000000,0.000000,4123.077148,4124.102539,4135.897461,4129.230957,4137.436035,4112.307617,4127.692383,4141.025879,4138.461426,4161.538574,4157.948730,4156.410156,4155.384766,4140.512695,837.000000,4.000000,,,,0.000000,4.000000,4.000000,4.000000,4.000000,4.000000,4.000000,4.000000,4.000000,4.000000,4.000000,4.000000,4.000000,4.000000,4.000000,100.000000
1602006844.892560,92.000000,0.000000,4124.615234,4126.153809,4127.692383,4129.743652,4138.974121,4123.077148,4123.077148,4138.974121,4133.846191,4155.384766,4148.717773,4155.897461,4153.333496,4142.051270,766.000000,4.000000,,,,0.000000,4.000000,4.000000,4.000000,4.000000,4.000000,4.000000,4.000000,4.000000,4.000000,4.000000,4.000000,4.000000,4.000000,4.000000,100.000000
1602006844.900441,93.000000,0.000000,4124.102539,4124.615234,4121.538574,4125.128418,4140.000000,4138.461426,4120.000000,4134.358887,4125.128418,4152.307617,4150.256348,4154.358887,4153.846191,4140.000000,732.000000,4.000000,,,,0.000000,4.000000,4.000000,4.000000,4.000000,4.000000,4.000000,4.000000,4.000000,4.000000,4.000000,4.000000,4.000000,4.000000,4.000000,100.000000
1602006844.908323,94.000000,0.000000,4122.563965,4124.102539,4128.717773,4126.666504,4142.051270,4140.000000,4130.769043,4135.897461,4125.641113,4157.948730,4155.897461,4158.974121,4154.358887,4139.487305,874.000000,4.000000,,,,0.000000,4.000000,4.000000,4.000000,4.000000,4.000000,4.000000,4.000000,4.000000,4.000000,4.000000,4.000000,4.000000,4.000000,4.000000,100.000000
1602006844.916104,95.000000,0.000000,4126.153809,4129.230957,4141.025879,4136.410156,4144.615234,4144.102539,4135.384766,4134.871582,4128.205078,4147.179688,4143.077148,4162.051270,4153.333496,4138.461426,837.000000,4.000000,,,,0.000000,4.000000,4.000000,4.000000,4.000000,4.000000,4.000000,4.000000,4.000000,4.000000,4.000000,4.000000,4.000000,4.000000,4.000000,100.000000
1602006844.923985,96.000000,0.000000,4126.153809,4126.153809,4141.025879,4134.871582,4140.512695,4141.538574,4124.615234,4129.230957,4124.615234,4133.333496,4127.692383,4153.333496,4143.589844,4136.922852,766.000000,4.000000,,,,0.000000,4.000000,4.000000,4.000000,4.000000,4.000000,4.000000,4.000000,4.000000,4.000000,4.000000,4.000000,4.000000,4.000000,4.000000,100.000000
1602006844.931866,97.000000,0.000000,4121.538574,4118.461426,4135.897461,4124.102539,4130.769043,4126.153809,4120.512695,4132.307617,4124.102539,4141.538574,4131.794922,4149.230957,4133.846191,4133.846191,732.000000,4.000000,,,,0.000000,4.000000,4.000000,4.000000,4.000000,4.000000,4.000000,4.000000,4.000000,4.000000,4.000000,4.000000,4.000000,4.000000,4.000000,100.000000
1602006844.939746,98.000000,0.000000,4119.487305,4119.487305,4137.948730,4123.589844,4129.230957,4118.974121,4123.589844,4140.000000,4126.666504,4147.692383,4141.538574,4153.333496,4135.384766,4130.256348,874.000000,4.000000,,,,0.000000,4.000000,4.000000,4.000000,4.000000,4.000000,4.000000,4.000000,4.000000,4.000000,4.000000,4.000000,4.000000,4.000000,4.000000,100.000000
1602006844.947627,99.000000,0.000000,4121.025879,4122.563965,4141.025879,4131.282227,4136.410156,4123.077148,4126.153809,4141.025879,4130.769043,4135.897461,4136.922852,4154.358887,4140.000000,4124.102539,837.000000,4.000000,,,,0.000000,4.000000,4.000000,4.000000,4.000000,4.000000,4.000000,4.000000,4.000000,4.000000,4.000000,4.000000,4.000000,4.000000,4.000000,100.000000
1602006844.955508,100.000000,0.000000,4130.256348,4123.077148,4139.487305,4133.846191,4140.512695,4124.102539,4133.846191,4140.512695,4140.000000,4141.538574,4134.358887,4153.333496,4141.538574,4124.615234,766.000000,4.000000,,,,0.000000,4.000000,4.000000,4.000000,4.000000,4.000000,4.000000,4.000000,4.000000,4.000000,4.000000,4.000000,4.000000,4.000000,4.000000,100.000000
1602006844.963290,101.000000,0.000000,4139.487305,4126.666504,4139.487305,4130.769043,4139.487305,4122.051270,4135.897461,4138.461426,4140.512695,4160.512695,4140.512695,4154.871582,4143.077148,4131.794922,732.000000,4.000000,,,,0.000000,4.000000,4.000000,4.000000,4.000000,4.000000,4.000000,4.000000,4.000000,4.000000,4.000000,4.000000,4.000000,4.000000,4.000000,100.000000
1602006844.971171,102.000000,0.000000,4135.897461,4126.666504,4138.461426,4127.179688,4137.948730,4120.000000,4126.153809,4135.384766,4134.871582,4144.102539,4142.563965,4159.487305,4146.153809,4136.922852,874.000000,4.000000,,,,0.000000,4.000000,4.000000,4.000000,4.000000,4.000000,4.000000,4.000000,4.000000,4.000000,4.000000,4.000000,4.000000,4.000000,4.000000,100.000000
1602006844.979052,103.000000,0.000000,4134.358887,4125.128418,4139.487305,4131.794922,4140.000000,4129.743652,4127.692383,4134.871582,4140.512695,4125.128418,4143.589844,4171.282227,4154.358887,4144.615234,837.000000,4.000000,,,,0.000000,4.000000,4.000000,4.000000,4.000000,4.000000,4.000000,4.000000,4.000000,4.000000,4.000000,4.000000,4.000000,4.000000,4.000000,100.000000
1602006844.986933,104.000000,0.000000,4141.538574,4126.666504,4141.538574,4138.974121,4143.077148,4140.512695,4133.846191,4130.256348,4143.589844,4140.000000,4143.589844,4172.307617,4154.871582,4148.205078,766.000000,4.000000,,,,0.000000,4.000000,4.000000,4.000000,4.000000,4.000000,4.000000,4.000000,4.000000,4.000000,4.000000,4.000000,4.000000,4.000000,4.000000,100.000000
1602006844.994814,105.000000,0.000000,4135.384766,4121.025879,4134.871582,4131.794922,4141.538574,4128.205078,4123.589844,4120.000000,4136.410156,4146.666504,4136.410156,4160.000000,4141.025879,4139.487305,732.000000,4.000000,,,,0.000000,4.000000,4.000000,4.000000,4.000000,4.000000,4.000000,4.000000,4.000000,4.000000,4.000000,4.000000,4.000000,4.000000,4.000000,100.000000
1602006845.002695,106.000000,0.000000,4120.512695,4111.282227,4125.641113,4123.077148,4136.410156,4120.000000,4120.000000,4119.487305,4133.846191,4133.846191,4133.333496,4161.538574,4134.871582,4136.922852,874.000000,4.000000,,,,0.000000,4.000000,4.000000,4.000000,4.000000,4.000000,4.000000,4.000000,4.000000,4.000000,4.000000,4.000000,4.000000,4.000000,4.000000,100.000000
1602006845.010577,107.000000,0.000000,4122.051270,4116.410156,4127.692383,4130.256348,4138.974121,4136.410156,4136.922852,4132.820313,4140.512695,4135.384766,4138.974121,4169.743652,4142.051270,4143.589844,837.000000,4.000000,,,,0.000000,4.000000,4.000000,4.000000,4.000000,4.000000,4.000000,4.000000,4.000000,4.000000,4.000000,4.000000,4.000000,4.000000,4.000000,100.000000
1602006845.018458,108.000000,0.000000,4126.666504,4124.615234,4128.717773,4137.948730,4145.128418,4147.179688,4145.128418,4141.538574,4138.461426,4139.487305,4133.333496,4160.000000,4146.153809,4143.077148,766.000000,4.000000,,,,0.000000,4.000000,4.000000,4.000000,4.000000,4.000000,4.000000,4.000000,4.000000,4.000000,4.000000,4.000000,4.000000,4.000000,4.000000,100.000000
1602006845.026439,109.000000,0.000000,4123.077148,4123.589844,4121.538574,4134.871582,4142.051270,4134.358887,4131.794922,4130.769043,4120.512695,4120.000000,4125.641113,4149.230957,4142.051270,4136.922852,732.000000,4.000000,,,,0.000000,4.000000,4.000000,4.000000,4.000000,4.000000,4.000000,4.000000,4.000000,4.000000,4.000000,4.000000,4.000000,4.000000,4.000000,100.000000
1602006845.034320,110.000000,0.000000,4126.153809,4128.717773,4126.153809,4135.384766,4138.461426,4124.102539,4119.487305,4120.000000,4110.769043,4109.230957,4134.871582,4152.820313,4144.102539,4137.948730,874.000000,4.000000,,,,0.000000,4.000000,4.000000,4.000000,4.000000,4.000000,4.000000,4.000000,4.000000,4.000000,4.000000,4.000000,4.000000,4.000000,4.000000,100.000000
1602006845.042201,111.000000,0.000000,4138.461426,4141.025879,4137.948730,4141.025879,4141.025879,4131.282227,4120.000000,4122.051270,4119.487305,4129.743652,4142.051270,4156.410156,4153.333496,4142.051270,837.000000,4.000000,,,,0.000000,4.000000,4.000000,4.000000,4.000000,4.000000,4.000000,4.000000,4.000000,4.000000,4.000000,4.000000,4.000000,4.000000,4.000000,100.000000
1602006845.050082,112.000000,0.000000,4142.051270,4143.077148,4137.436035,4141.538574,4140.512695,4138.461426,4122.051270,4127.179688,4129.230957,4155.384766,4139.487305,4153.846191,4156.410156,4142.051270,766.000000,4.000000,,,,0.000000,4.000000,4.000000,4.000000,4.000000,4.000000,4.000000,4.000000,4.000000,4.000000,4.000000,4.000000,4.000000,4.000000,4.000000,100.000000
1602006845.057963,113.000000,0.000000,4138.461426,4140.512695,4135.384766,4142.563965,4141.025879,4136.922852,4121.538574,4130.256348,4133.333496,4154.358887,4141.538574,4155.897461,4153.846191,4138.461426,732.000000,4.000000,,,,0.000000,4.000000,4.000000,4.000000,4.000000,4.000000,4.000000,4.000000,4.000000,4.000000,4.000000,4.000000,4.000000,4.000000,4.000000,100.000000
1602006845.065845,114.000000,0.000000,4139.487305,4140.000000,4138.461426,4143.077148,4145.128418,4135.897461,4123.077148,4135.897461,4138.461426,4138.461426,4145.641113,4157.436035,4153.846191,4140.512695,874.000000,4.000000,,,,0.000000,4.000000,4.000000,4.000000,4.000000,4.000000,4.000000,4.000000,4.000000,4.000000,4.000000,4.000000,4.000000,4.000000,4.000000,100.000000
1602006845.073726,115.000000,0.000000,4135.384766,4139.487305,4131.794922,4140.512695,4145.641113,4138.461426,4126.153809,4136.410156,4135.897461,4138.974121,4138.461426,4150.769043,4149.230957,4136.410156,837.000000,4.000000,,,,0.000000,4.000000,4.000000,4.000000,4.000000,4.000000,4.000000,4.000000,4.000000,4.000000,4.000000,4.000000,4.000000,4.000000,4.000000,100.000000
1602006845.081607,116.000000,0.000000,4130.769043,4135.897461,4122.051270,4138.974121,4144.102539,4140.000000,4128.717773,4129.743652,4126.666504,4136.410156,4130.769043,4136.410156,4137.436035,4124.615234,766.000000,4.000000,,,,0.000000,4.000000,4.000000,4.000000,4.000000,4.000000,4.000000,4.000000,4.000000,4.000000,4.000000,4.000000,4.000000,4.000000,4.000000,100.000000
1602006845.089488,117.000000,0.000000,4123.589844,4125.641113,4114.358887,4128.717773,4138.974121,4133.333496,4127.179688,4120.512695,4117.948730,4111.282227,4123.077148,4123.077148,4127.692383,4120.000000,732.000000,4.000000,,,,0.000000,4.000000,4.000000,4.000000,4.000000,4.000000,4.000000,4.000000,4.000000,4.000000,4.000000,4.000000,4.000000,4.000000,4.000000,100.000000
1602006845.097269,118.000000,0.000000,4107.692383,4115.384766,4103.589844,4115.897461,4128.717773,4120.000000,4121.538574,4116.410156,4113.333496,4098.974121,4114.358887,4117.948730,4119.487305,4118.974121,874.000000,4.000000,,,,0.000000,4.000000,4.000000,4.000000,4.000000,4.000000,4.000000,4.000000,4.000000,4.000000,4.000000,4.000000,4.000000,4.000000,4.000000,100.000000
1602006845.105151,119.000000,0.000000,4112.307617,4120.000000,4108.205078,4123.077148,4130.256348,4124.615234,4124.615234,4126.666504,4127.179688,4129.743652,4120.512695,4130.256348,4128.205078,4127.179688,837.000000,4.000000,,,,0.000000,4.000000,4.000000,4.000000,4.000000,4.000000,4.000000,4.000000,4.000000,4.000000,4.000000,4.000000,4.000000,4.000000,4.000000,100.000000
1602006845.113032,120.000000,0.000000,4139.487305,4133.846191,4128.717773,4137.948730,4141.025879,4134.358887,4135.897461,4139.487305,4148.717773,4163.077148,4136.410156,4150.256348,4152.820313,4148.205078,766.000000,4.000000,,,,0.000000,4.000000,4.000000,4.000000,4.000000,4.000000,4.000000,4.000000,4.000000,4.000000,4.000000,4.000000,4.000000,4.000000,4.000000,100.000000
1602006845.120913,121.000000,0.000000,4146.666504,4139.487305,4138.461426,4137.948730,4138.974121,4126.666504,4135.897461,4141.025879,4148.717773,4165.128418,4145.128418,4160.000000,4162.051270,4157.948730,732.000000,4.000000,,,,0.000000,4.000000,4.000000,4.000000,4.000000,4.000000,4.000000,4.000000,4.000000,4.000000,4.000000,4.000000,4.000000,4.000000,4.000000,100.000000
1602006845.128794,122.000000,0.000000,4129.743652,4136.410156,4136.922852,4134.358887,4133.333496,4122.051270,4125.128418,4139.487305,4131.282227,4152.820313,4144.102539,4158.974121,4153.846191,4154.871582,874.000000,4.000000,,,,0.000000,4.000000,4.000000,4.000000,4.000000,4.000000,4.000000,4.000000,4.000000,4.000000,4.000000,4.000000,4.000000,4.000000,4.000000,100.000000
1602006845.136675,123.000000,0.000000,4124.615234,4136.922852,4137.948730,4137.436035,4135.897461,4121.538574,4120.000000,4136.410156,4128.717773,4137.948730,4140.000000,4157.948730,4153.333496,4153.333496,837.000000,4.000000,,,,0.000000,4.000000,4.000000,4.000000,4.000000,4.000000,4.000000,4.000000,4.000000,4.000000,4.000000,4.000000,4.000000,4.000000,4.000000,100.000000
1602006845.144556,124.000000,0.000000,4136.410156,4137.436035,4139.487305,4136.922852,4136.410156,4114.358887,4123.589844,4127.179688,4138.974121,4127.692383,4138.974121,4156.410156,4154.871582,4143.589844,766.000000,4.000000,,,,0.000000,4.000000,4.000000,4.000000,4.000000,4.000000,4.000000,4.000000,4.000000,4.000000,4.000000,4.000000,4.000000,4.000000,4.000000,100.000000
1602006845.152437,125.000000,0.000000,4141.025879,4131.794922,4138.461426,4137.948730,4134.358887,4116.922852,4125.128418,4121.538574,4133.846191,4132.307617,4143.589844,4154.871582,4146.153809,4136.922852,732.000000,4.000000,,,,0.000000,4.000000,4.000000,4.000000,4.000000,4.000000,4.000000,4.000000,4.000000,4.000000,4.000000,4.000000,4.000000,4.000000,4.000000,100.000000
1602006845.160319,126.000000,0.000000,4131.794922,4126.666504,4139.487305,4141.538574,4136.410156,4126.153809,4122.563965,4122.563965,4118.974121,4143.589844,4145.641113,4155.897461,4140.000000,4147.692383,874.000000,4.000000,,,,0.000000,4.000000,4.000000,4.000000,4.000000,4.000000,4.000000,4.000000,4.000000,4.000000,4.000000,4.000000,4.000000,4.000000,4.000000,100.000000
1602006845.168299,127.000000,0.000000,4123.589844,4127.179688,4141.538574,4135.384766,4134.871582,4123.589844,4118.974121,4120.512695,4123.077148,4142.051270,4137.948730,4152.820313,4142.051270,4149.743652,837.000000,4.000000,,,,0.000000,4.000000,4.000000,4.000000,4.000000,4.000000,4.000000,4.000000,4.000000,4.000000,4.000000,4.000000,4.000000,4.000000,4.000000,100.000000
1602006845.176180,128.000000,0.000000,4125.128418,4124.615234,4135.897461,4124.615234,4127.692383,4124.615234,4118.974121,4122.051270,4137.436035,4136.410156,4129.743652,4150.256348,4142.563965,4137.948730,766.000000,4.000000,,,,0.000000,4.000000,4.000000,4.000000,4.000000,4.000000,4.000000,4.000000,4.000000,4.000000,4.000000,4.000000,4.000000,4.000000,4.000000,100.000000
1602006845.184061,0.000000,0.000000,4122.051270,4119.487305,4126.153809,4123.589844,4123.589844,4127.692383,4123.077148,4129.743652,4138.461426,4138.974121,4131.794922,4152.307617,4140.000000,4137.948730,794.000000,4.000000,,,,0.000000,4.000000,4.000000,4.000000,4.000000,4.000000,4.000000,4.000000,4.000000,4.000000,4.000000,4.000000,4.000000,4.000000,4.000000,100.000000
1602006845.191942,1.000000,0.000000,4113.333496,4118.974121,4124.102539,4125.128418,4124.102539,4120.512695,4123.589844,4129.230957,4127.692383,4128.205078,4132.820313,4147.179688,4136.410156,4137.948730,788.000000,4.000000,,,,0.000000,4.000000,4.000000,4.000000,4.000000,4.000000,4.000000,4.000000,4.000000,4.000000,4.000000,4.000000,4.000000,4.000000,4.000000,100.000000
1602006845.199923,2.000000,0.000000,4112.307617,4121.025879,4127.179688,4123.589844,4123.589844,4116.922852,4123.077148,4123.589844,4115.897461,4106.153809,4125.641113,4138.974121,4131.794922,4124.615234,847.000000,4.000000,,,,0.000000,4.000000,4.000000,4.000000,4.000000,4.000000,4.000000,4.000000,4.000000,4.000000,4.000000,4.000000,4.000000,4.000000,4.000000,100.000000
1602006845.207804,3.000000,0.000000,4115.897461,4121.538574,4125.128418,4131.794922,4125.128418,4122.563965,4130.769043,4125.641113,4110.769043,4102.563965,4121.538574,4132.307617,4126.666504,4114.871582,867.000000,4.000000,,,,0.000000,4.000000,4.000000,4.000000,4.000000,4.000000,4.000000,4.000000,4.000000,4.000000,4.000000,4.000000,4.000000,4.000000,4.000000,100.000000
1602006845.215685,4.000000,0.000000,4120.512695,4123.077148,4121.538574,4135.384766,4133.333496,4125.128418,4137.436035,4127.692383,4112.307617,4117.436035,4122.051270,4128.717773,4126.153809,4119.487305,810.000000,4.000000,,,,0.000000,4.000000,4.000000,4.000000,4.000000,4.000000,4.000000,4.000000,4.000000,4.000000,4.000000,4.000000,4.000000,4.000000,4.000000,100.000000
1602006845.223666,5.000000,0.000000,4130.769043,4125.128418,4125.641113,4125.641113,4138.461426,4121.538574,4133.333496,4125.128418,4121.025879,4131.794922,4126.666504,4132.307617,4131.794922,4131.282227,822.000000,4.000000,,,,0.000000,4.000000,4.000000,4.000000,4.000000,4.000000,4.000000,4.000000,4.000000,4.000000,4.000000,4.000000,4.000000,4.000000,4.000000,100.000000
1602006845.231646,6.000000,0.000000,4137.948730,4124.615234,4133.846191,4126.153809,4135.384766,4122.051270,4119.487305,4123.589844,4131.794922,4140.512695,4138.974121,4142.051270,4141.025879,4141.538574,761.000000,4.000000,,,,0.000000,4.000000,4.000000,4.000000,4.000000,4.000000,4.000000,4.000000,4.000000,4.000000,4.000000,4.000000,4.000000,4.000000,4.000000,100.000000
1602006845.239527,7.000000,0.000000,4138.461426,4124.102539,4139.487305,4133.333496,4128.717773,4124.615234,4107.692383,4118.974121,4129.743652,4140.512695,4145.641113,4145.128418,4143.077148,4143.589844,662.000000,4.000000,,,,0.000000,4.000000,4.000000,4.000000,4.000000,4.000000,4.000000,4.000000,4.000000,4.000000,4.000000,4.000000,4.000000,4.000000,4.000000,100.000000
1602006845.247507,8.000000,0.000000,4135.897461,4123.589844,4136.410156,4126.153809,4120.512695,4124.615234,4104.615234,4108.717773,4114.358887,4123.077148,4128.205078,4136.410156,4131.794922,4138.974121,786.000000,4.000000,,,,0.000000,4.000000,4.000000,4.000000,4.000000,4.000000,4.000000,4.000000,4.000000,4.000000,4.000000,4.000000,4.000000,4.000000,4.000000,100.000000
1602006845.255388,9.000000,0.000000,4130.769043,4114.871582,4126.153809,4118.974121,4118.461426,4122.051270,4101.538574,4102.051270,4102.051270,4107.692383,4111.282227,4126.153809,4121.025879,4129.743652,836.000000,4.000000,,,,0.000000,4.000000,4.000000,4.000000,4.000000,4.000000,4.000000,4.000000,4.000000,4.000000,4.000000,4.000000,4.000000,4.000000,4.000000,100.000000
1602006845.263369,10.000000,0.000000,4115.384766,4105.128418,4118.974121,4121.538574,4124.102539,4120.512695,4100.512695,4105.128418,4104.102539,4110.769043,4117.948730,4119.487305,4119.487305,4121.025879,874.000000,4.000000,,,,0.000000,4.000000,4.000000,4.000000,4.000000,4.000000,4.000000,4.000000,4.000000,4.000000,4.000000,4.000000,4.000000,4.000000,4.000000,100.000000
1602006845.271249,11.000000,0.000000,4109.230957,4109.743652,4121.025879,4121.025879,4125.641113,4122.563965,4111.794922,4118.461426,4120.000000,4119.487305,4132.307617,4124.615234,4125.641113,4128.717773,837.000000,4.000000,,,,0.000000,4.000000,4.000000,4.000000,4.000000,4.000000,4.000000,4.000000,4.000000,4.000000,4.000000,4.000000,4.000000,4.000000,4.000000,100.000000
1602006845.279030,12.000000,0.000000,4117.948730,4121.538574,4125.641113,4121.538574,4122.563965,4126.666504,4130.769043,4136.922852,4138.461426,4128.717773,4138.461426,4135.897461,4130.769043,4143.077148,766.000000,4.000000,,,,0.000000,4.000000,4.000000,4.000000,4.000000,4.000000,4.000000,4.000000,4.000000,4.000000,4.000000,4.000000,4.000000,4.000000,4.000000,100.000000
1602006845.286911,13.000000,0.000000,4116.410156,4119.487305,4123.077148,4120.512695,4122.051270,4128.205078,4140.000000,4146.153809,4144.615234,4138.974121,4133.333496,4140.512695,4128.717773,4140.512695,731.000000,4.000000,,,,0.000000,4.000000,4.000000,4.000000,4.000000,4.000000,4.000000,4.000000,4.000000,4.000000,4.000000,4.000000,4.000000,4.000000,4.000000,100.000000
1602006845.294792,14.000000,0.000000,4106.666504,4108.717773,4119.487305,4114.358887,4123.589844,4127.692383,4141.025879,4145.128418,4144.615234,4142.051270,4128.717773,4139.487305,4124.615234,4134.358887,874.000000,4.000000,,,,0.000000,4.000000,4.000000,4.000000,4.000000,4.000000,4.000000,4.000000,4.000000,4.000000,4.000000,4.000000,4.000000,4.000000,4.000000,100.000000
1602006845.302673,15.000000,0.000000,4104.102539,4105.641113,4122.051270,4110.256348,4123.589844,4128.205078,4137.948730,4136.922852,4143.589844,4130.256348,4127.179688,4133.846191,4118.461426,4128.205078,837.000000,4.000000,,,,0.000000,4.000000,4.000000,4.000000,4.000000,4.000000,4.000000,4.000000,4.000000,4.000000,4.000000,4.000000,4.000000,4.000000,4.000000,100.000000
1602006845.310554,16.000000,0.000000,4102.051270,4106.666504,4120.000000,4112.820313,4120.000000,4124.615234,4125.128418,4124.102539,4132.820313,4111.282227,4114.358887,4124.102539,4109.230957,4109.743652,0.000000,4.000000,,,,0.000000,4.000000,4.000000,4.000000,4.000000,4.000000,4.000000,4.000000,4.000000,4.000000,4.000000,4.000000,4.000000,4.000000,4.000000,100.000000
1602006845.318335,17.000000,0.000000,4106.153809,4112.307617,4114.871582,4118.974121,4120.000000,4114.871582,4109.743652,4118.461426,4130.769043,4113.333496,4107.692383,4116.922852,4109.743652,4104.615234,0.000000,4.000000,,,,0.000000,4.000000,4.000000,4.000000,4.000000,4.000000,4.000000,4.000000,4.000000,4.000000,4.000000,4.000000,4.000000,4.000000,4.000000,100.000000
1602006845.326216,18.000000,0.000000,4121.538574,4123.589844,4118.974121,4124.102539,4123.077148,4108.717773,4100.000000,4116.410156,4136.410156,4140.000000,4122.051270,4120.512695,4125.128418,4124.615234,0.000000,4.000000,,,,0.000000,4.000000,4.000000,4.000000,4.000000,4.000000,4.000000,4.000000,4.000000,4.000000,4.000000,4.000000,4.000000,4.000000,4.000000,100.000000
1602006845.334097,19.000000,0.000000,4129.230957,4124.102539,4126.153809,4122.563965,4116.922852,4102.051270,4091.794922,4105.128418,4123.077148,4144.615234,4122.051270,4125.128418,4125.128418,4129.230957,0.000000,4.000000,,,,0.000000,4.000000,4.000000,4.000000,4.000000,4.000000,4.000000,4.000000,4.000000,4.000000,4.000000,4.000000,4.000000,4.000000,4.000000,100.000000
1602006845.341978,20.000000,0.000000,4123.077148,4112.307617,4127.179688,4117.948730,4107.179688,4098.974121,4085.128174,4097.436035,4103.077148,4111.794922,4103.589844,4120.000000,4104.102539,4115.384766,0.000000,4.000000,,,,0.000000,4.000000,4.000000,4.000000,4.000000,4.000000,4.000000,4.000000,4.000000,4.000000,4.000000,4.000000,4.000000,4.000000,4.000000,100.000000
1602006845.349859,21.000000,0.000000,4125.128418,4113.846191,4127.179688,4121.025879,4110.769043,4110.769043,4094.358887,4109.230957,4103.589844,4094.871826,4108.717773,4117.436035,4100.000000,4120.512695,0.000000,4.000000,,,,0.000000,4.000000,4.000000,4.000000,4.000000,4.000000,4.000000,4.000000,4.000000,4.000000,4.000000,4.000000,4.000000,4.000000,4.000000,100.000000
1602006845.357840,22.000000,0.000000,4129.743652,4125.641113,4128.717773,4124.102539,4121.025879,4126.666504,4115.897461,4127.692383,4118.974121,4114.358887,4127.692383,4129.230957,4117.948730,4134.358887,0.000000,4.000000,,,,0.000000,4.000000,4.000000,4.000000,4.000000,4.000000,4.000000,4.000000,4.000000,4.000000,4.000000,4.000000,4.000000,4.000000,4.000000,100.000000
1602006845.365721,23.000000,0.000000,4120.512695,4121.538574,4124.615234,4121.025879,4123.589844,4131.794922,4125.641113,4133.333496,4126.153809,4123.077148,4126.666504,4137.948730,4126.666504,4132.307617,0.000000,4.000000,,,,0.000000,4.000000,4.000000,4.000000,4.000000,4.000000,4.000000,4.000000,4.000000,4.000000,4.000000,4.000000,4.000000,4.000000,4.000000,100.000000
1602006845.373602,24.000000,0.000000,4108.205078,4110.769043,4117.436035,4117.948730,4123.589844,4135.384766,4125.641113,4127.692383,4125.128418,4113.846191,4121.025879,4128.717773,4121.025879,4124.102539,0.000000,4.000000,,,,0.000000,4.000000,4.000000,4.000000,4.000000,4.000000,4.000000,4.000000,4.000000,4.000000,4.000000,4.000000,4.000000,4.000000,4.000000,100.000000
1602006845.381483,25.000000,0.000000,4109.743652,4116.410156,4111.794922,4118.974121,4124.615234,4141.538574,4128.717773,4123.589844,4122.563965,4117.948730,4124.615234,4120.512695,4122.563965,4124.615234,0.000000,4.000000,,,,0.000000,4.000000,4.000000,4.000000,4.000000,4.000000,4.000000,4.000000,4.000000,4.000000,4.000000,4.000000,4.000000,4.000000,4.000000,100.000000
1602006845.389365,26.000000,0.000000,4107.692383,4122.563965,4108.717773,4120.000000,4122.563965,4131.282227,4129.230957,4124.102539,4122.563965,4123.077148,4123.077148,4120.512695,4124.615234,4123.077148,0.000000,4.000000,,,,0.000000,4.000000,4.000000,4.000000,4.000000,4.000000,4.000000,4.000000,4.000000,4.000000,4.000000,4.000000,4.000000,4.000000,4.000000,100.000000
1602006845.397246,27.000000,0.000000,4100.000000,4118.461426,4113.846191,4121.025879,4117.436035,4110.769043,4122.563965,4123.589844,4124.615234,4115.384766,4120.000000,4121.025879,4119.487305,4118.461426,0.000000,4.000000,,,,0.000000,4.000000,4.000000,4.000000,4.000000,4.000000,4.000000,4.000000,4.000000,4.000000,4.000000,4.000000,4.000000,4.000000,4.000000,100.000000
1602006845.405127,28.000000,0.000000,4114.871582,4125.128418,4130.256348,4128.205078,4117.436035,4104.615234,4114.871582,4124.615234,4131.282227,4124.615234,4128.717773,4130.256348,4125.641113,4134.871582,0.000000,4.000000,,,,0.000000,4.000000,4.000000,4.000000,4.000000,4.000000,4.000000,4.000000,4.000000,4.000000,4.000000,4.000000,4.000000,4.000000,4.000000,100.000000
1602006845.413008,29.000000,0.000000,4141.025879,4140.512695,4144.102539,4137.436035,4122.051270,4114.871582,4106.153809,4126.666504,4137.948730,4148.205078,4137.948730,4145.128418,4142.051270,4158.974121,0.000000,4.000000,,,,0.000000,4.000000,4.000000,4.000000,4.000000,4.000000,4.000000,4.000000,4.000000,4.000000,4.000000,4.000000,4.000000,4.000000,4.000000,100.000000
1602006845.420989,30.000000,0.000000,4145.128418,4143.589844,4145.128418,4141.538574,4126.153809,4122.563965,4108.717773,4129.743652,4137.948730,4148.205078,4138.461426,4146.153809,4145.128418,4162.563965,0.000000,4.000000,,,,0.000000,4.000000,4.000000,4.000000,4.000000,4.000000,4.000000,4.000000,4.000000,4.000000,4.000000,4.000000,4.000000,4.000000,4.000000,100.000000
1602006845.428870,31.000000,0.000000,4137.948730,4133.333496,4141.538574,4134.358887,4125.128418,4121.025879,4118.974121,4133.846191,4138.974121,4136.922852,4140.000000,4141.025879,4140.000000,4153.333496,0.000000,4.000000,,,,0.000000,4.000000,4.000000,4.000000,4.000000,4.000000,4.000000,4.000000,4.000000,4.000000,4.000000,4.000000,4.000000,4.000000,4.000000,100.000000
1602006845.436751,32.000000,0.000000,4138.974121,4124.102539,4137.948730,4122.051270,4121.538574,4127.179688,4118.974121,4135.897461,4140.512695,4138.461426,4142.051270,4137.948730,4138.461426,4145.128418,0.000000,4.000000,,,,0.000000,4.000000,4.000000,4.000000,4.000000,4.000000,4.000000,4.000000,4.000000,4.000000,4.000000,4.000000,4.000000,4.000000,4.000000,100.000000
1602006845.444633,33.000000,0.000000,4137.948730,4120.512695,4135.384766,4120.512695,4121.538574,4140.512695,4124.615234,4136.410156,4141.025879,4144.615234,4141.025879,4137.436035,4136.922852,4139.487305,0.000000,4.000000,,,,0.000000,4.000000,4.000000,4.000000,4.000000,4.000000,4.000000,4.000000,4.000000,4.000000,4.000000,4.000000,4.000000,4.000000,4.000000,100.000000
1602006845.452514,34.000000,0.000000,4131.282227,4114.358887,4137.948730,4123.077148,4118.461426,4145.128418,4138.974121,4139.487305,4142.563965,4137.436035,4139.487305,4137.948730,4129.743652,4138.461426,0.000000,4.000000,,,,0.000000,4.000000,4.000000,4.000000,4.000000,4.000000,4.000000,4.000000,4.000000,4.000000,4.000000,4.000000,4.000000,4.000000,4.000000,100.000000
1602006845.460395,35.000000,0.000000,4124.615234,4104.615234,4132.820313,4111.794922,4109.743652,4130.769043,4142.051270,4141.025879,4133.846191,4122.563965,4129.743652,4127.179688,4118.974121,4137.436035,0.000000,4.000000,,,,0.000000,4.000000,4.000000,4.000000,4.000000,4.000000,4.000000,4.000000,4.000000,4.000000,4.000000,4.000000,4.000000,4.000000,4.000000,100.000000
1602006845.468276,36.000000,0.000000,4119.487305,4108.205078,4120.512695,4106.666504,4112.307617,4125.128418,4139.487305,4138.974121,4124.102539,4120.512695,4121.538574,4114.358887,4114.358887,4130.769043,0.000000,4.000000,,,,0.000000,4.000000,4.000000,4.000000,4.000000,4.000000,4.000000,4.000000,4.000000,4.000000,4.000000,4.000000,4.000000,4.000000,4.000000,100.000000
1602006845.476157,37.000000,0.000000,4123.077148,4121.538574,4119.487305,4120.000000,4124.102539,4130.769043,4136.922852,4139.487305,4130.256348,4123.077148,4131.794922,4123.077148,4121.025879,4126.153809,0.000000,4.000000,,,,0.000000,4.000000,4.000000,4.000000,4.000000,4.000000,4.000000,4.000000,4.000000,4.000000,4.000000,4.000000,4.000000,4.000000,4.000000,100.000000
1602006845.483939,38.000000,0.000000,4134.358887,4131.282227,4124.102539,4127.692383,4128.205078,4128.717773,4127.179688,4140.000000,4140.512695,4130.769043,4143.589844,4138.974121,4134.358887,4136.410156,0.000000,4.000000,,,,0.000000,4.000000,4.000000,4.000000,4.000000,4.000000,4.000000,4.000000,4.000000,4.000000,4.000000,4.000000,4.000000,4.000000,4.000000,100.000000
1602006845.491820,39.000000,0.000000,4143.589844,4137.436035,4122.563965,4126.153809,4124.615234,4122.051270,4120.512695,4135.897461,4134.358887,4148.717773,4143.077148,4136.410156,4141.538574,4153.846191,0.000000,4.000000,,,,0.000000,4.000000,4.000000,4.000000,4.000000,4.000000,4.000000,4.000000,4.000000,4.000000,4.000000,4.000000,4.000000,4.000000,4.000000,100.000000
1602006845.499701,40.000000,0.000000,4141.025879,4131.794922,4121.538574,4125.641113,4121.025879,4112.820313,4123.589844,4126.666504,4121.025879,4149.743652,4133.333496,4126.153809,4131.282227,4144.615234,0.000000,4.000000,,,,0.000000,4.000000,4.000000,4.000000,4.000000,4.000000,4.000000,4.000000,4.000000,4.000000,4.000000,4.000000,4.000000,4.000000,4.000000,100.000000
1602006845.507582,41.000000,0.000000,4135.384766,4120.512695,4124.615234,4122.563965,4121.025879,4110.769043,4124.102539,4122.051270,4115.384766,4125.128418,4123.077148,4121.538574,4117.948730,4125.128418,0.000000,4.000000,,,,0.000000,4.000000,4.000000,4.000000,4.000000,4.000000,4.000000,4.000000,4.000000,4.000000,4.000000,4.000000,4.000000,4.000000,4.000000,100.000000
1602006845.515463,42.000000,0.000000,4129.743652,4118.461426,4123.077148,4121.025879,4122.563965,4127.179688,4129.230957,4123.077148,4114.871582,4116.922852,4119.487305,4122.563965,4120.000000,4129.743652,0.000000,4.000000,,,,0.000000,4.000000,4.000000,4.000000,4.000000,4.000000,4.000000,4.000000,4.000000,4.000000,4.000000,4.000000,4.000000,4.000000,4.000000,100.000000
1602006845.523344,43.000000,0.000000,4124.102539,4121.025879,4124.102539,4123.589844,4117.948730,4138.974121,4133.846191,4123.589844,4116.410156,4126.153809,4125.128418,4128.717773,4122.563965,4143.589844,0.000000,4.000000,,,,0.000000,4.000000,4.000000,4.000000,4.000000,4.000000,4.000000,4.000000,4.000000,4.000000,4.000000,4.000000,4.000000,4.000000,4.000000,100.000000
1602006845.531225,44.000000,0.000000,4131.282227,4120.512695,4133.846191,4122.563965,4115.384766,4134.358887,4131.282227,4129.230957,4121.538574,4120.000000,4134.358887,4136.410156,4122.563965,4147.179688,0.000000,4.000000,,,,0.000000,4.000000,4.000000,4.000000,4.000000,4.000000,4.000000,4.000000,4.000000,4.000000,4.000000,4.000000,4.000000,4.000000,4.000000,100.000000
1602006845.539107,45.000000,0.000000,4139.487305,4123.077148,4144.102539,4123.589844,4121.538574,4135.384766,4136.410156,4140.000000,4135.897461,4119.487305,4145.128418,4140.000000,4135.384766,4149.230957,0.000000,4.000000,,,,0.000000,4.000000,4.000000,4.000000,4.000000,4.000000,4.000000,4.000000,4.000000,4.000000,4.000000,4.000000,4.000000,4.000000,4.000000,100.000000
1602006845.546888,46.000000,0.000000,4128.717773,4124.102539,4140.512695,4126.666504,4125.128418,4140.512695,4149.743652,4143.077148,4147.179688,4140.000000,4142.051270,4132.307617,4142.563965,4147.692383,0.000000,4.000000,,,,0.000000,4.000000,4.000000,4.000000,4.000000,4.000000,4.000000,4.000000,4.000000,4.000000,4.000000,4.000000,4.000000,4.000000,4.000000,100.000000
1602006845.554769,47.000000,0.000000,4116.922852,4120.512695,4122.051270,4118.974121,4121.538574,4135.384766,4149.743652,4140.512695,4142.563965,4153.333496,4125.128418,4121.025879,4128.205078,4131.282227,0.000000,4.000000,,,,0.000000,4.000000,4.000000,4.000000,4.000000,4.000000,4.000000,4.000000,4.000000,4.000000,4.000000,4.000000,4.000000,4.000000,4.000000,100.000000
1602006845.562650,48.000000,0.000000,4118.461426,4117.948730,4110.769043,4110.256348,4121.538574,4130.256348,4141.025879,4140.000000,4126.666504,4143.589844,4127.692383,4120.512695,4118.461426,4123.589844,0.000000,4.000000,,,,0.000000,4.000000,4.000000,4.000000,4.000000,4.000000,4.000000,4.000000,4.000000,4.000000,4.000000,4.000000,4.000000,4.000000,4.000000,100.000000
1602006845.570530,49.000000,0.000000,4122.563965,4121.025879,4118.461426,4116.410156,4129.743652,4124.615234,4138.974121,4130.769043,4109.743652,4133.846191,4137.948730,4127.692383,4122.563965,4135.897461,0.000000,4.000000,,,,0.000000,4.000000,4.000000,4.000000,4.000000,4.000000,4.000000,4.000000,4.000000,4.000000,4.000000,4.000000,4.000000,4.000000,4.000000,100.000000
1602006845.578411,50.000000,0.000000,4122.051270,4125.128418,4120.512695,4125.128418,4137.436035,4120.000000,4131.794922,4122.051270,4105.641113,4137.436035,4130.769043,4127.692383,4126.666504,4143.077148,0.000000,4.000000,,,,0.000000,4.000000,4.000000,4.000000,4.000000,4.000000,4.000000,4.000000,4.000000,4.000000,4.000000,4.000000,4.000000,4.000000,4.000000,100.000000
1602006845.586292,51.000000,0.000000,4121.538574,4124.102539,4108.717773,4122.563965,4140.000000,4121.538574,4121.538574,4121.538574,4107.692383,4127.692383,4118.461426,4114.358887,4121.025879,4127.692383,0.000000,4.000000,,,,0.000000,4.000000,4.000000,4.000000,4.000000,4.000000,4.000000,4.000000,4.000000,4.000000,4.000000,4.000000,4.000000,4.000000,4.000000,100.000000
1602006845.594273,52.000000,0.000000,4122.563965,4129.743652,4109.230957,4123.077148,4134.871582,4129.743652,4126.153809,4119.487305,4104.102539,4112.307617,4118.461426,4102.563965,4113.333496,4120.000000,0.000000,4.000000,,,,0.000000,4.000000,4.000000,4.000000,4.000000,4.000000,4.000000,4.000000,4.000000,4.000000,4.000000,4.000000,4.000000,4.000000,4.000000,100.000000
1602006845.602155,53.000000,0.000000,4131.282227,4141.025879,4128.717773,4135.897461,4130.769043,4137.948730,4138.461426,4123.589844,4104.615234,4123.589844,4127.179688,4111.282227,4123.077148,4135.897461,0.000000,4.000000,,,,0.000000,4.000000,4.000000,4.000000,4.000000,4.000000,4.000000,4.000000,4.000000,4.000000,4.000000,4.000000,4.000000,4.000000,4.000000,100.000000
1602006845.610036,54.000000,0.000000,4146.666504,4146.666504,4141.025879,4142.563965,4131.282227,4141.025879,4139.487305,4137.948730,4118.974121,4146.153809,4136.922852,4129.230957,4138.461426,4144.102539,0.000000,4.000000,,,,0.000000,4.000000,4.000000,4.000000,4.000000,4.000000,4.000000,4.000000,4.000000,4.000000,4.000000,4.000000,4.000000,4.000000,4.000000,100.000000
1602006845.617917,55.000000,0.000000,4154.358887,4141.538574,4140.000000,4132.820313,4126.153809,4138.461426,4137.436035,4146.666504,4128.717773,4153.333496,4141.538574,4131.282227,4137.948730,4141.025879,0.000000,4.000000,,,,0.000000,4.000000,4.000000,4.000000,4.000000,4.000000,4.000000,4.000000,4.000000,4.000000,4.000000,4.000000,4.000000,4.000000,4.000000,100.000000
1602006845.625798,56.000000,0.000000,4140.000000,4129.230957,4135.897461,4122.051270,4112.307617,4127.179688,4137.948730,4141.538574,4124.102539,4154.871582,4138.974121,4129.743652,4133.846191,4139.487305,0.000000,4.000000,,,,0.000000,4.000000,4.000000,4.000000,4.000000,4.000000,4.000000,4.000000,4.000000,4.000000,4.000000,4.000000,4.000000,4.000000,4.000000,100.000000
1602006845.633679,57.000000,0.000000,4123.589844,4118.974121,4137.948730,4120.000000,4107.179688,4112.307617,4134.871582,4135.897461,4124.615234,4153.333496,4135.384766,4135.897461,4137.436035,4135.384766,0.000000,4.000000,,,,0.000000,4.000000,4.000000,4.000000,4.000000,4.000000,4.000000,4.000000,4.000000,4.000000,4.000000,4.000000,4.000000,4.000000,4.000000,100.000000
1602006845.641560,58.000000,0.000000,4129.743652,4120.000000,4141.538574,4123.589844,4119.487305,4108.205078,4133.846191,4136.922852,4129.230957,4141.025879,4136.922852,4139.487305,4141.538574,4133.846191,0.000000,4.000000,,,,0.000000,4.000000,4.000000,4.000000,4.000000,4.000000,4.000000,4.000000,4.000000,4.000000,4.000000,4.000000,4.000000,4.000000,4.000000,100.000000
1602006845.649442,59.000000,0.000000,4136.410156,4131.282227,4132.820313,4125.641113,4128.205078,4113.333496,4135.384766,4139.487305,4123.077148,4134.358887,4143.077148,4133.846191,4142.051270,4140.000000,0.000000,4.000000,,,,0.000000,4.000000,4.000000,4.000000,4.000000,4.000000,4.000000,4.000000,4.000000,4.000000,4.000000,4.000000,4.000000,4.000000,4.000000,100.000000
1602006845.657323,60.000000,0.000000,4124.102539,4134.358887,4119.487305,4124.615234,4127.179688,4112.820313,4134.358887,4132.820313,4113.846191,4134.358887,4134.358887,4120.512695,4132.307617,4130.256348,0.000000,4.000000,,,,0.000000,4.000000,4.000000,4.000000,4.000000,4.000000,4.000000,4.000000,4.000000,4.000000,4.000000,4.000000,4.000000,4.000000,4.000000,100.000000
1602006845.665104,61.000000,0.000000,4113.846191,4128.717773,4116.410156,4124.615234,4130.769043,4114.358887,4135.384766,4121.538574,4114.358887,4124.615234,4111.794922,4105.641113,4114.358887,4113.846191,0.000000,4.000000,,,,0.000000,4.000000,4.000000,4.000000,4.000000,4.000000,4.000000,4.000000,4.000000,4.000000,4.000000,4.000000,4.000000,4.000000,4.000000,100.000000
1602006845.672985,62.000000,0.000000,4117.948730,4131.282227,4119.487305,4127.179688,4138.461426,4129.743652,4137.948730,4122.563965,4119.487305,4117.948730,4102.051270,4102.051270,4103.589844,4111.282227,0.000000,4.000000,,,,0.000000,4.000000,4.000000,4.000000,4.000000,4.000000,4.000000,4.000000,4.000000,4.000000,4.000000,4.000000,4.000000,4.000000,4.000000,100.000000
1602006845.680866,63.000000,0.000000,4119.487305,4139.487305,4120.512695,4128.205078,4140.512695,4145.641113,4136.410156,4124.102539,4122.563965,4121.025879,4104.102539,4103.589844,4102.563965,4109.743652,0.000000,4.000000,,,,0.000000,4.000000,4.000000,4.000000,4.000000,4.000000,4.000000,4.000000,4.000000,4.000000,4.000000,4.000000,4.000000,4.000000,4.000000,100.000000
1602006845.688747,64.000000,0.000000,4122.563965,4137.948730,4122.563965,4131.282227,4137.948730,4146.153809,4134.358887,4127.692383,4132.820313,4122.051270,4110.769043,4109.743652,4108.717773,4109.230957,794.000000,4.000000,,,,0.000000,4.000000,4.000000,4.000000,4.000000,4.000000,4.000000,4.000000,4.000000,4.000000,4.000000,4.000000,4.000000,4.000000,4.000000,100.000000
1602006845.696629,65.000000,0.000000,4143.077148,4139.487305,4131.794922,4136.410156,4136.410156,4142.051270,4136.410156,4137.948730,4146.666504,4131.282227,4128.717773,4135.384766,4124.615234,4121.538574,749.000000,4.000000,,,,0.000000,4.000000,4.000000,4.000000,4.000000,4.000000,4.000000,4.000000,4.000000,4.000000,4.000000,4.000000,4.000000,4.000000,4.000000,100.000000
1602006845.704510,66.000000,0.000000,4158.974121,4148.717773,4149.230957,4138.461426,4135.897461,4143.077148,4139.487305,4142.563965,4153.846191,4148.717773,4149.743652,4167.179688,4138.974121,4137.436035,847.000000,4.000000,,,,0.000000,4.000000,4.000000,4.000000,4.000000,4.000000,4.000000,4.000000,4.000000,4.000000,4.000000,4.000000,4.000000,4.000000,4.000000,100.000000
1602006845.712391,67.000000,0.000000,4155.897461,4147.179688,4169.230957,4142.563965,4134.871582,4137.948730,4142.051270,4145.128418,4158.974121,4149.230957,4157.436035,4176.922852,4143.589844,4151.282227,867.000000,4.000000,,,,0.000000,4.000000,4.000000,4.000000,4.000000,4.000000,4.000000,4.000000,4.000000,4.000000,4.000000,4.000000,4.000000,4.000000,4.000000,100.000000
1602006845.720272,68.000000,0.000000,4152.820313,4147.179688,4171.794922,4146.153809,4137.436035,4124.102539,4140.000000,4150.769043,4161.538574,4138.974121,4152.307617,4168.717773,4145.641113,4154.871582,810.000000,4.000000,,,,0.000000,4.000000,4.000000,4.000000,4.000000,4.000000,4.000000,4.000000,4.000000,4.000000,4.000000,4.000000,4.000000,4.000000,4.000000,100.000000
1602006845.728153,69.000000,0.000000,4156.410156,4151.282227,4160.000000,4141.538574,4138.461426,4117.436035,4136.410156,4148.205078,4152.820313,4140.512695,4145.641113,4159.487305,4141.025879,4139.487305,822.000000,4.000000,,,,0.000000,4.000000,4.000000,4.000000,4.000000,4.000000,4.000000,4.000000,4.000000,4.000000,4.000000,4.000000,4.000000,4.000000,4.000000,100.000000
1602006845.735935,70.000000,0.000000,4145.641113,4146.666504,4153.846191,4140.000000,4134.358887,4120.512695,4139.487305,4141.025879,4144.102539,4140.000000,4137.948730,4148.205078,4129.743652,4128.717773,761.000000,4.000000,,,,0.000000,4.000000,4.000000,4.000000,4.000000,4.000000,4.000000,4.000000,4.000000,4.000000,4.000000,4.000000,4.000000,4.000000,4.000000,100.000000
1602006845.743816,71.000000,0.000000,4127.692383,4137.436035,4145.641113,4136.922852,4133.333496,4119.487305,4141.025879,4135.897461,4140.000000,4122.051270,4124.615234,4136.922852,4117.948730,4129.230957,662.000000,4.000000,,,,0.000000,4.000000,4.000000,4.000000,4.000000,4.000000,4.000000,4.000000,4.000000,4.000000,4.000000,4.000000,4.000000,4.000000,4.000000,100.000000
1602006845.751697,72.000000,0.000000,4120.000000,4130.256348,4128.205078,4126.666504,4131.282227,4118.461426,4136.922852,4126.666504,4129.230957,4112.820313,4117.436035,4132.307617,4110.256348,4121.538574,786.000000,4.000000,,,,0.000000,4.000000,4.000000,4.000000,4.000000,4.000000,4.000000,4.000000,4.000000,4.000000,4.000000,4.000000,4.000000,4.000000,4.000000,100.000000
1602006845.759578,73.000000,0.000000,4120.000000,4129.230957,4117.948730,4120.512695,4128.717773,4126.666504,4135.897461,4124.102539,4118.461426,4132.307617,4123.589844,4133.333496,4113.846191,4119.487305,836.000000,4.000000,,,,0.000000,4.000000,4.000000,4.000000,4.000000,4.000000,4.000000,4.000000,4.000000,4.000000,4.000000,4.000000,4.000000,4.000000,4.000000,100.000000
1602006845.767459,74.000000,0.000000,4128.205078,4135.384766,4120.000000,4121.538574,4135.897461,4137.948730,4137.436035,4134.358887,4126.153809,4142.563965,4130.769043,4137.436035,4128.717773,4130.256348,874.000000,4.000000,,,,0.000000,4.000000,4.000000,4.000000,4.000000,4.000000,4.000000,4.000000,4.000000,4.000000,4.000000,4.000000,4.000000,4.000000,4.000000,100.000000
1602006845.775340,75.000000,0.000000,4134.871582,4142.563965,4120.512695,4128.717773,4142.563965,4142.563965,4136.922852,4138.974121,4140.512695,4126.666504,4133.846191,4137.948730,4136.922852,4132.820313,837.000000,4.000000,,,,0.000000,4.000000,4.000000,4.000000,4.000000,4.000000,4.000000,4.000000,4.000000,4.000000,4.000000,4.000000,4.000000,4.000000,4.000000,100.000000
1602006845.783222,76.000000,0.000000,4129.743652,4141.538574,4121.025879,4132.307617,4137.436035,4135.384766,4131.794922,4134.871582,4136.410156,4121.538574,4136.922852,4133.333496,4134.358887,4132.307617,766.000000,4.000000,,,,0.000000,4.000000,4.000000,4.000000,4.000000,4.000000,4.000000,4.000000,4.000000,4.000000,4.000000,4.000000,4.000000,4.000000,4.000000,100.000000
1602006845.791103,77.000000,0.000000,4125.128418,4138.974121,4121.538574,4126.666504,4134.358887,4123.589844,4124.102539,4131.282227,4123.077148,4130.256348,4136.410156,4132.307617,4133.846191,4137.948730,728.000000,4.000000,,,,0.000000,4.000000,4.000000,4.000000,4.000000,4.000000,4.000000,4.000000,4.000000,4.000000,4.000000,4.000000,4.000000,4.000000,4.000000,100.000000
1602006845.798984,78.000000,0.000000,4137.436035,4138.461426,4130.256348,4126.153809,4139.487305,4126.153809,4121.025879,4128.717773,4127.692383,4118.974121,4134.871582,4136.410156,4136.922852,4137.948730,874.000000,4.000000,,,,0.000000,4.000000,4.000000,4.000000,4.000000,4.000000,4.000000,4.000000,4.000000,4.000000,4.000000,4.000000,4.000000,4.000000,4.000000,100.000000
1602006845.806965,79.000000,0.000000,4153.333496,4137.948730,4150.256348,4136.922852,4136.410156,4136.410156,4126.666504,4124.102539,4135.897461,4111.794922,4137.436035,4145.641113,4137.436035,4133.333496,837.000000,4.000000,,,,0.000000,4.000000,4.000000,4.000000,4.000000,4.000000,4.000000,4.000000,4.000000,4.000000,4.000000,4.000000,4.000000,4.000000,4.000000,100.000000
1602006845.814846,80.000000,0.000000,4155.897461,4134.871582,4161.538574,4139.487305,4128.717773,4133.846191,4132.820313,4119.487305,4128.205078,4131.794922,4143.589844,4152.820313,4135.384766,4140.000000,766.000000,4.000000,,,,0.000000,4.000000,4.000000,4.000000,4.000000,4.000000,4.000000,4.000000,4.000000,4.000000,4.000000,4.000000,4.000000,4.000000,4.000000,100.000000
1602006845.822727,81.000000,0.000000,4153.846191,4132.820313,4156.922852,4132.307617,4123.589844,4121.538574,4135.384766,4116.922852,4118.461426,4136.410156,4151.794922,4155.897461,4137.948730,4161.538574,728.000000,4.000000,,,,0.000000,4.000000,4.000000,4.000000,4.000000,4.000000,4.000000,4.000000,4.000000,4.000000,4.000000,4.000000,4.000000,4.000000,4.000000,100.000000
1602006845.830608,82.000000,0.000000,4153.846191,4136.922852,4156.410156,4128.717773,4118.461426,4118.461426,4137.436035,4123.589844,4121.025879,4126.666504,4156.922852,4165.128418,4149.743652,4176.922852,874.000000,4.000000,,,,0.000000,4.000000,4.000000,4.000000,4.000000,4.000000,4.000000,4.000000,4.000000,4.000000,4.000000,4.000000,4.000000,4.000000,4.000000,100.000000
1602006845.838490,83.000000,0.000000,4150.769043,4134.358887,4154.871582,4123.589844,4115.384766,4124.102539,4139.487305,4135.384766,4127.179688,4136.410156,4154.871582,4170.769043,4155.384766,4165.128418,837.000000,4.000000,,,,0.000000,4.000000,4.000000,4.000000,4.000000,4.000000,4.000000,4.000000,4.000000,4.000000,4.000000,4.000000,4.000000,4.000000,4.000000,100.000000
1602006845.846371,84.000000,0.000000,4136.410156,4123.589844,4138.974121,4120.000000,4117.948730,4128.717773,4136.922852,4138.461426,4137.948730,4145.641113,4145.641113,4157.436035,4145.128418,4144.615234,766.000000,4.000000,,,,0.000000,4.000000,4.000000,4.000000,4.000000,4.000000,4.000000,4.000000,4.000000,4.000000,4.000000,4.000000,4.000000,4.000000,4.000000,100.000000
1602006845.854252,85.000000,0.000000,4120.512695,4120.512695,4124.615234,4120.000000,4121.538574,4125.128418,4128.717773,4135.897461,4152.307617,4135.897461,4130.769043,4137.436035,4136.410156,4133.846191,728.000000,4.000000,,,,0.000000,4.000000,4.000000,4.000000,4.000000,4.000000,4.000000,4.000000,4.000000,4.000000,4.000000,4.000000,4.000000,4.000000,4.000000,100.000000
1602006845.862233,86.000000,0.000000,4117.948730,4122.051270,4119.487305,4113.333496,4121.538574,4120.000000,4123.077148,4136.410156,4158.461426,4135.897461,4119.487305,4127.692383,4131.282227,4121.025879,874.000000,4.000000,,,,0.000000,4.000000,4.000000,4.000000,4.000000,4.000000,4.000000,4.000000,4.000000,4.000000,4.000000,4.000000,4.000000,4.000000,4.000000,100.000000
1602006845.870114,87.000000,0.000000,4117.948730,4117.948730,4112.307617,4109.230957,4122.051270,4125.641113,4123.589844,4137.948730,4155.897461,4147.179688,4119.487305,4120.512695,4121.538574,4104.102539,837.000000,4.000000,,,,0.000000,4.000000,4.000000,4.000000,4.000000,4.000000,4.000000,4.000000,4.000000,4.000000,4.000000,4.000000,4.000000,4.000000,4.000000,100.000000
1602006845.877995,88.000000,0.000000,4112.820313,4121.538574,4105.128418,4116.410156,4126.666504,4137.436035,4123.077148,4137.948730,4150.256348,4143.589844,4123.589844,4110.256348,4117.436035,4101.025879,766.000000,4.000000,,,,0.000000,4.000000,4.000000,4.000000,4.000000,4.000000,4.000000,4.000000,4.000000,4.000000,4.000000,4.000000,4.000000,4.000000,4.000000,100.000000
1602006845.885876,89.000000,0.000000,4110.769043,4134.871582,4103.077148,4126.666504,4135.384766,4138.974121,4122.563965,4133.846191,4144.615234,4129.743652,4122.563965,4102.563965,4116.410156,4106.153809,728.000000,4.000000,,,,0.000000,4.000000,4.000000,4.000000,4.000000,4.000000,4.000000,4.000000,4.000000,4.000000,4.000000,4.000000,4.000000,4.000000,4.000000,100.000000
1602006845.893758,90.000000,0.000000,4121.538574,4140.512695,4105.641113,4131.794922,4140.512695,4128.717773,4125.128418,4126.153809,4132.820313,4117.436035,4118.461426,4108.205078,4109.743652,4110.769043,874.000000,4.000000,,,,0.000000,4.000000,4.000000,4.000000,4.000000,4.000000,4.000000,4.000000,4.000000,4.000000,4.000000,4.000000,4.000000,4.000000,4.000000,100.000000
1602006845.901639,91.000000,0.000000,4130.769043,4137.436035,4110.769043,4132.820313,4138.461426,4125.641113,4124.102539,4121.025879,4120.000000,4103.589844,4117.948730,4121.025879,4110.769043,4120.512695,837.000000,4.000000,,,,0.000000,4.000000,4.000000,4.000000,4.000000,4.000000,4.000000,4.000000,4.000000,4.000000,4.000000,4.000000,4.000000,4.000000,4.000000,100.000000
1602006845.909520,92.000000,0.000000,4133.333496,4141.538574,4118.461426,4135.384766,4138.461426,4135.384766,4121.538574,4116.922852,4121.538574,4105.128418,4121.538574,4126.153809,4118.461426,4134.358887,766.000000,4.000000,,,,0.000000,4.000000,4.000000,4.000000,4.000000,4.000000,4.000000,4.000000,4.000000,4.000000,4.000000,4.000000,4.000000,4.000000,4.000000,100.000000
1602006845.917401,93.000000,0.000000,4145.641113,4155.384766,4132.307617,4142.051270,4144.615234,4140.000000,4126.153809,4113.846191,4135.897461,4135.384766,4130.769043,4134.871582,4131.794922,4144.102539,728.000000,4.000000,,,,0.000000,4.000000,4.000000,4.000000,4.000000,4.000000,4.000000,4.000000,4.000000,4.000000,4.000000,4.000000,4.000000,4.000000,4.000000,100.000000
1602006845.925282,94.000000,0.000000,4153.333496,4156.922852,4140.512695,4144.615234,4143.077148,4123.077148,4122.563965,4112.820313,4137.436035,4146.153809,4138.461426,4138.974121,4139.487305,4145.128418,874.000000,4.000000,,,,0.000000,4.000000,4.000000,4.000000,4.000000,4.000000,4.000000,4.000000,4.000000,4.000000,4.000000,4.000000,4.000000,4.000000,4.000000,100.000000
1602006845.933263,95.000000,0.000000,4143.589844,4142.051270,4135.897461,4136.922852,4130.769043,4100.512695,4106.153809,4111.282227,4126.666504,4124.615234,4136.922852,4125.128418,4128.205078,4137.436035,837.000000,4.000000,,,,0.000000,4.000000,4.000000,4.000000,4.000000,4.000000,4.000000,4.000000,4.000000,4.000000,4.000000,4.000000,4.000000,4.000000,4.000000,100.000000
1602006845.941144,96.000000,0.000000,4136.410156,4135.897461,4135.897461,4135.384766,4124.102539,4104.615234,4104.615234,4116.410156,4131.794922,4125.641113,4136.922852,4118.461426,4123.589844,4135.897461,766.000000,4.000000,,,,0.000000,4.000000,4.000000,4.000000,4.000000,4.000000,4.000000,4.000000,4.000000,4.000000,4.000000,4.000000,4.000000,4.000000,4.000000,100.000000
1602006845.949025,97.000000,0.000000,4141.025879,4145.128418,4137.436035,4142.051270,4127.692383,4124.615234,4119.487305,4130.256348,4147.692383,4144.102539,4143.077148,4134.358887,4139.487305,4143.589844,728.000000,4.000000,,,,0.000000,4.000000,4.000000,4.000000,4.000000,4.000000,4.000000,4.000000,4.000000,4.000000,4.000000,4.000000,4.000000,4.000000,4.000000,100.000000
1602006845.956806,98.000000,0.000000,4140.512695,4145.128418,4127.179688,4137.436035,4129.743652,4128.205078,4125.641113,4138.974121,4153.333496,4138.461426,4146.153809,4142.051270,4146.153809,4144.615234,874.000000,4.000000,,,,0.000000,4.000000,4.000000,4.000000,4.000000,4.000000,4.000000,4.000000,4.000000,4.000000,4.000000,4.000000,4.000000,4.000000,4.000000,100.000000
1602006845.964787,99.000000,0.000000,4129.743652,4129.743652,4118.461426,4125.128418,4123.589844,4124.615234,4124.615234,4140.000000,4153.333496,4131.794922,4140.512695,4131.794922,4133.846191,4138.974121,837.000000,4.000000,,,,0.000000,4.000000,4.000000,4.000000,4.000000,4.000000,4.000000,4.000000,4.000000,4.000000,4.000000,4.000000,4.000000,4.000000,4.000000,100.000000
1602006845.972668,100.000000,0.000000,4124.102539,4122.563965,4121.025879,4121.025879,4121.025879,4133.846191,4130.256348,4137.436035,4152.820313,4142.051270,4130.256348,4126.666504,4124.102539,4133.333496,766.000000,4.000000,,,,0.000000,4.000000,4.000000,4.000000,4.000000,4.000000,4.000000,4.000000,4.000000,4.000000,4.000000,4.000000,4.000000,4.000000,4.000000,100.000000
1602006845.980549,101.000000,0.000000,4122.563965,4121.538574,4121.538574,4123.077148,4125.128418,4135.384766,4130.256348,4128.717773,4146.153809,4138.974121,4123.077148,4127.692383,4113.846191,4125.641113,728.000000,4.000000,,,,0.000000,4.000000,4.000000,4.000000,4.000000,4.000000,4.000000,4.000000,4.000000,4.000000,4.000000,4.000000,4.000000,4.000000,4.000000,100.000000
1602006845.988430,102.000000,0.000000,4120.512695,4116.410156,4120.512695,4121.538574,4126.153809,4125.128418,4122.051270,4123.077148,4133.846191,4120.000000,4123.589844,4124.102539,4105.128418,4120.000000,874.000000,4.000000,,,,0.000000,4.000000,4.000000,4.000000,4.000000,4.000000,4.000000,4.000000,4.000000,4.000000,4.000000,4.000000,4.000000,4.000000,4.000000,100.000000
1602006845.996311,103.000000,0.000000,4117.948730,4116.410156,4122.563965,4120.000000,4123.077148,4123.589844,4128.717773,4124.102539,4124.102539,4112.307617,4127.179688,4123.589844,4105.128418,4123.077148,837.000000,4.000000,,,,0.000000,4.000000,4.000000,4.000000,4.000000,4.000000,4.000000,4.000000,4.000000,4.000000,4.000000,4.000000,4.000000,4.000000,4.000000,100.000000
1602006846.004193,104.000000,0.000000,4111.794922,4115.897461,4120.512695,4120.000000,4121.025879,4120.512695,4138.461426,4123.077148,4118.974121,4116.410156,4125.128418,4125.128418,4105.641113,4125.641113,766.000000,4.000000,,,,0.000000,4.000000,4.000000,4.000000,4.000000,4.000000,4.000000,4.000000,4.000000,4.000000,4.000000,4.000000,4.000000,4.000000,4.000000,100.000000
1602006846.012074,105.000000,0.000000,4107.692383,4112.820313,4119.487305,4119.487305,4123.077148,4116.922852,4133.846191,4123.589844,4124.102539,4118.461426,4125.128418,4122.563965,4112.307617,4125.641113,728.000000,4.000000,,,,0.000000,4.000000,4.000000,4.000000,4.000000,4.000000,4.000000,4.000000,4.000000,4.000000,4.000000,4.000000,4.000000,4.000000,4.000000,100.000000
1602006846.019955,106.000000,0.000000,4114.358887,4118.974121,4120.512695,4122.563965,4125.128418,4128.205078,4129.743652,4128.717773,4138.461426,4123.589844,4134.871582,4121.025879,4128.717773,4133.846191,874.000000,4.000000,,,,0.000000,4.000000,4.000000,4.000000,4.000000,4.000000,4.000000,4.000000,4.000000,4.000000,4.000000,4.000000,4.000000,4.000000,4.000000,100.000000
1602006846.027836,107.000000,0.000000,4125.641113,4126.666504,4122.563965,4124.102539,4124.615234,4137.436035,4136.410156,4125.641113,4145.641113,4133.333496,4144.615234,4128.205078,4138.461426,4141.025879,837.000000,4.000000,,,,0.000000,4.000000,4.000000,4.000000,4.000000,4.000000,4.000000,4.000000,4.000000,4.000000,4.000000,4.000000,4.000000,4.000000,4.000000,100.000000
1602006846.035817,108.000000,0.000000,4129.230957,4126.153809,4130.769043,4126.153809,4123.589844,4130.256348,4140.000000,4121.538574,4144.615234,4141.538574,4148.717773,4137.436035,4138.461426,4140.512695,766.000000,4.000000,,,,0.000000,4.000000,4.000000,4.000000,4.000000,4.000000,4.000000,4.000000,4.000000,4.000000,4.000000,4.000000,4.000000,4.000000,4.000000,100.000000
1602006846.043698,109.000000,0.000000,4126.153809,4125.641113,4139.487305,4131.282227,4122.563965,4121.025879,4132.307617,4124.615234,4143.077148,4145.128418,4146.153809,4140.512695,4139.487305,4140.512695,728.000000,4.000000,,,,0.000000,4.000000,4.000000,4.000000,4.000000,4.000000,4.000000,4.000000,4.000000,4.000000,4.000000,4.000000,4.000000,4.000000,4.000000,100.000000
1602006846.051579,110.000000,0.000000,4124.102539,4129.230957,4140.512695,4130.256348,4122.563965,4113.333496,4116.922852,4122.051270,4138.974121,4136.410156,4133.846191,4140.512695,4134.871582,4141.025879,874.000000,4.000000,,,,0.000000,4.000000,4.000000,4.000000,4.000000,4.000000,4.000000,4.000000,4.000000,4.000000,4.000000,4.000000,4.000000,4.000000,4.000000,100.000000
1602006846.059460,111.000000,0.000000,4123.589844,4127.692383,4135.384766,4127.692383,4120.512695,4102.563965,4103.589844,4115.384766,4135.384766,4125.128418,4125.128418,4141.025879,4123.077148,4135.384766,837.000000,4.000000,,,,0.000000,4.000000,4.000000,4.000000,4.000000,4.000000,4.000000,4.000000,4.000000,4.000000,4.000000,4.000000,4.000000,4.000000,4.000000,100.000000
1602006846.067341,112.000000,0.000000,4124.615234,4127.179688,4131.282227,4131.794922,4123.077148,4106.153809,4107.179688,4121.025879,4139.487305,4126.153809,4134.871582,4144.615234,4124.102539,4135.897461,766.000000,4.000000,,,,0.000000,4.000000,4.000000,4.000000,4.000000,4.000000,4.000000,4.000000,4.000000,4.000000,4.000000,4.000000,4.000000,4.000000,4.000000,100.000000
1602006846.075222,113.000000,0.000000,4117.948730,4125.128418,4122.563965,4130.256348,4133.846191,4120.512695,4118.974121,4129.743652,4140.512695,4131.282227,4142.051270,4145.128418,4129.230957,4143.077148,728.000000,4.000000,,,,0.000000,4.000000,4.000000,4.000000,4.000000,4.000000,4.000000,4.000000,4.000000,4.000000,4.000000,4.000000,4.000000,4.000000,4.000000,100.000000
1602006846.083203,114.000000,0.000000,4101.538574,4117.948730,4109.743652,4116.922852,4135.897461,4125.128418,4123.589844,4125.641113,4133.333496,4123.589844,4129.743652,4134.358887,4117.436035,4131.794922,874.000000,4.000000,,,,0.000000,4.000000,4.000000,4.000000,4.000000,4.000000,4.000000,4.000000,4.000000,4.000000,4.000000,4.000000,4.000000,4.000000,4.000000,100.000000
1602006846.091084,115.000000,0.000000,4089.743652,4110.256348,4103.589844,4107.692383,4123.077148,4126.666504,4123.077148,4120.000000,4135.897461,4122.051270,4117.948730,4116.922852,4102.051270,4107.179688,837.000000,4.000000,,,,0.000000,4.000000,4.000000,4.000000,4.000000,4.000000,4.000000,4.000000,4.000000,4.000000,4.000000,4.000000,4.000000,4.000000,4.000000,100.000000
1602006846.098965,116.000000,0.000000,4093.846191,4112.307617,4105.641113,4113.846191,4122.051270,4134.358887,4124.615234,4125.128418,4140.512695,4131.282227,4118.974121,4106.153809,4102.563965,4099.487305,766.000000,4.000000,,,,0.000000,4.000000,4.000000,4.000000,4.000000,4.000000,4.000000,4.000000,4.000000,4.000000,4.000000,4.000000,4.000000,4.000000,4.000000,100.000000
1602006846.106846,117.000000,0.000000,4102.051270,4129.230957,4109.230957,4124.615234,4136.410156,4140.512695,4128.717773,4133.846191,4133.333496,4125.641113,4124.615234,4109.230957,4110.256348,4109.743652,728.000000,4.000000,,,,0.000000,4.000000,4.000000,4.000000,4.000000,4.000000,4.000000,4.000000,4.000000,4.000000,4.000000,4.000000,4.000000,4.000000,4.000000,100.000000
1602006846.114727,118.000000,0.000000,4104.615234,4136.410156,4109.230957,4125.128418,4137.948730,4135.897461,4128.717773,4133.846191,4129.743652,4109.230957,4123.077148,4114.871582,4110.256348,4107.179688,874.000000,4.000000,,,,0.000000,4.000000,4.000000,4.000000,4.000000,4.000000,4.000000,4.000000,4.000000,4.000000,4.000000,4.000000,4.000000,4.000000,4.000000,100.000000
1602006846.122608,119.000000,0.000000,4112.307617,4130.256348,4114.358887,4123.077148,4131.282227,4130.769043,4123.589844,4129.230957,4137.436035,4114.358887,4119.487305,4122.563965,4112.820313,4100.000000,837.000000,4.000000,,,,0.000000,4.000000,4.000000,4.000000,4.000000,4.000000,4.000000,4.000000,4.000000,4.000000,4.000000,4.000000,4.000000,4.000000,4.000000,100.000000
1602006846.130490,120.000000,0.000000,4127.179688,4133.846191,4129.743652,4136.410156,4132.820313,4135.384766,4125.641113,4128.717773,4134.871582,4127.179688,4127.692383,4139.487305,4123.589844,4116.410156,766.000000,4.000000,,,,0.000000,4.000000,4.000000,4.000000,4.000000,4.000000,4.000000,4.000000,4.000000,4.000000,4.000000,4.000000,4.000000,4.000000,4.000000,100.000000
1602006846.138371,121.000000,0.000000,4128.205078,4141.538574,4139.487305,4141.025879,4129.743652,4137.948730,4133.846191,4133.333496,4118.461426,4111.794922,4141.538574,4151.282227,4128.717773,4136.922852,728.000000,4.000000,,,,0.000000,4.000000,4.000000,4.000000,4.000000,4.000000,4.000000,4.000000,4.000000,4.000000,4.000000,4.000000,4.000000,4.000000,4.000000,100.000000
1602006846.146252,122.000000,0.000000,4121.025879,4132.820313,4142.563965,4132.307617,4119.487305,4136.410156,4137.436035,4135.897461,4115.384766,4109.230957,4145.128418,4155.384766,4125.128418,4136.410156,874.000000,4.000000,,,,0.000000,4.000000,4.000000,4.000000,4.000000,4.000000,4.000000,4.000000,4.000000,4.000000,4.000000,4.000000,4.000000,4.000000,4.000000,100.000000
1602006846.154033,123.000000,0.000000,4125.128418,4122.051270,4150.769043,4134.358887,4117.436035,4142.563965,4138.461426,4137.436035,4128.717773,4141.025879,4141.025879,4166.666504,4122.563965,4140.000000,837.000000,4.000000,,,,0.000000,4.000000,4.000000,4.000000,4.000000,4.000000,4.000000,4.000000,4.000000,4.000000,4.000000,4.000000,4.000000,4.000000,4.000000,100.000000
1602006846.161914,124.000000,0.000000,4130.256348,4126.666504,4156.410156,4135.897461,4123.589844,4151.282227,4144.102539,4138.974121,4145.641113,4160.000000,4145.128418,4173.846191,4127.692383,4155.384766,766.000000,4.000000,,,,0.000000,4.000000,4.000000,4.000000,4.000000,4.000000,4.000000,4.000000,4.000000,4.000000,4.000000,4.000000,4.000000,4.000000,4.000000,100.000000
1602006846.169796,125.000000,0.000000,4123.589844,4130.256348,4145.128418,4125.641113,4126.153809,4144.615234,4144.102539,4140.000000,4164.102539,4161.025879,4149.230957,4161.538574,4133.846191,4150.769043,728.000000,4.000000,,,,0.000000,4.000000,4.000000,4.000000,4.000000,4.000000,4.000000,4.000000,4.000000,4.000000,4.000000,4.000000,4.000000,4.000000,4.000000,100.000000
1602006846.177677,126.000000,0.000000,4114.358887,4120.512695,4128.205078,4116.922852,4117.436035,4126.153809,4132.307617,4145.128418,4170.256348,4168.205078,4143.077148,4145.641113,4136.410156,4134.871582,874.000000,4.000000,,,,0.000000,4.000000,4.000000,4.000000,4.000000,4.000000,4.000000,4.000000,4.000000,4.000000,4.000000,4.000000,4.000000,4.000000,4.000000,100.000000
1602006846.185558,127.000000,0.000000,4109.743652,4109.230957,4114.871582,4112.307617,4109.230957,4115.897461,4123.077148,4153.846191,4164.102539,4161.025879,4139.487305,4138.974121,4137.436035,4136.410156,837.000000,4.000000,,,,0.000000,4.000000,4.000000,4.000000,4.000000,4.000000,4.000000,4.000000,4.000000,4.000000,4.000000,4.000000,4.000000,4.000000,4.000000,100.000000
