Timestamp,EEG.Counter,EEG.Interpolated,EEG.AF3,EEG.F7,EEG.F3,EEG.FC5,EEG.T7,EEG.P7,EEG.O1,EEG.O2,EEG.P8,EEG.T8,EEG.FC6,EEG.F4,EEG.F8,EEG.AF4,EEG.RawCq,EEG.Battery,MarkerIndex,MarkerType,MarkerValueInt,EEG.MarkerHardware,CQ.AF3,CQ.F7,CQ.F3,CQ.FC5,CQ.T7,CQ.P7,CQ.O1,CQ.O2,CQ.P8,CQ.T8,CQ.FC6,CQ.F4,CQ.F8,CQ.AF4,CQ.Overall
1602006853.647930,42.000000,0.000000,4117.948730,4118.461426,4120.512695,4121.025879,4123.077148,4125.128418,4130.769043,4136.410156,4127.179688,4122.563965,4130.769043,4139.487305,4124.615234,4131.282227,0.000000,4.000000,,,,0.000000,4.000000,4.000000,4.000000,4.000000,4.000000,4.000000,4.000000,4.000000,4.000000,4.000000,4.000000,4.000000,4.000000,4.000000,100.000000
1602006853.655711,43.000000,0.000000,4118.974121,4124.102539,4125.128418,4123.077148,4122.051270,4118.974121,4129.230957,4133.846191,4122.563965,4143.589844,4125.641113,4138.974121,4123.077148,4139.487305,0.000000,4.000000,,,,0.000000,4.000000,4.000000,4.000000,4.000000,4.000000,4.000000,4.000000,4.000000,4.000000,4.000000,4.000000,4.000000,4.000000,4.000000,100.000000
1602006853.663592,44.000000,0.000000,4130.769043,4126.153809,4133.333496,4123.589844,4124.102539,4123.589844,4134.358887,4137.436035,4131.282227,4163.589844,4134.358887,4143.589844,4134.358887,4136.410156,0.000000,4.000000,,,,0.000000,4.000000,4.000000,4.000000,4.000000,4.000000,4.000000,4.000000,4.000000,4.000000,4.000000,4.000000,4.000000,4.000000,4.000000,100.000000
1602006853.671474,45.000000,0.000000,4136.410156,4124.102539,4136.922852,4123.589844,4125.641113,4117.436035,4128.205078,4133.333496,4120.512695,4144.102539,4137.948730,4151.794922,4137.436035,4136.922852,0.000000,4.000000,,,,0.000000,4.000000,4.000000,4.000000,4.000000,4.000000,4.000000,4.000000,4.000000,4.000000,4.000000,4.000000,4.000000,4.000000,4.000000,100.000000
1602006853.679355,46.000000,0.000000,4135.897461,4130.256348,4138.461426,4130.256348,4128.205078,4113.333496,4119.487305,4126.153809,4112.307617,4129.230957,4136.410156,4156.410156,4135.384766,4149.230957,0.000000,4.000000,,,,0.000000,4.000000,4.000000,4.000000,4.000000,4.000000,4.000000,4.000000,4.000000,4.000000,4.000000,4.000000,4.000000,4.000000,4.000000,100.000000
1602006853.687236,47.000000,0.000000,4137.436035,4141.025879,4137.436035,4138.461426,4135.897461,4123.589844,4118.461426,4130.256348,4128.717773,4137.436035,4141.538574,4155.897461,4143.589844,4153.846191,0.000000,4.000000,,,,0.000000,4.000000,4.000000,4.000000,4.000000,4.000000,4.000000,4.000000,4.000000,4.000000,4.000000,4.000000,4.000000,4.000000,4.000000,100.000000
1602006853.695117,48.000000,0.000000,4143.589844,4146.153809,4140.000000,4143.077148,4138.461426,4136.410156,4127.179688,4138.974121,4142.563965,4139.487305,4145.128418,4155.384766,4155.384766,4152.820313,0.000000,4.000000,,,,0.000000,4.000000,4.000000,4.000000,4.000000,4.000000,4.000000,4.000000,4.000000,4.000000,4.000000,4.000000,4.000000,4.000000,4.000000,100.000000
1602006853.702998,49.000000,0.000000,4146.153809,4145.128418,4140.000000,4141.025879,4131.794922,4140.000000,4135.384766,4141.538574,4139.487305,4138.461426,4142.051270,4154.358887,4151.794922,4153.333496,0.000000,4.000000,,,,0.000000,4.000000,4.000000,4.000000,4.000000,4.000000,4.000000,4.000000,4.000000,4.000000,4.000000,4.000000,4.000000,4.000000,4.000000,100.000000
1602006853.710879,50.000000,0.000000,4134.871582,4137.436035,4127.692383,4131.794922,4125.128418,4128.717773,4130.769043,4137.436035,4132.307617,4143.589844,4136.410156,4146.153809,4139.487305,4145.128418,0.000000,4.000000,,,,0.000000,4.000000,4.000000,4.000000,4.000000,4.000000,4.000000,4.000000,4.000000,4.000000,4.000000,4.000000,4.000000,4.000000,4.000000,100.000000
1602006853.718761,51.000000,0.000000,4126.666504,4132.307617,4118.461426,4124.102539,4123.077148,4115.897461,4126.666504,4132.820313,4122.051270,4145.641113,4132.307617,4137.948730,4135.384766,4124.615234,0.000000,4.000000,,,,0.000000,4.000000,4.000000,4.000000,4.000000,4.000000,4.000000,4.000000,4.000000,4.000000,4.000000,4.000000,4.000000,4.000000,4.000000,100.000000
1602006853.726542,52.000000,0.000000,4126.666504,4136.410156,4120.512695,4124.102539,4129.230957,4129.230957,4136.922852,4134.358887,4126.153809,4143.589844,4133.846191,4138.461426,4138.461426,4116.922852,0.000000,4.000000,,,,0.000000,4.000000,4.000000,4.000000,4.000000,4.000000,4.000000,4.000000,4.000000,4.000000,4.000000,4.000000,4.000000,4.000000,4.000000,100.000000
1602006853.734423,53.000000,0.000000,4123.589844,4133.333496,4116.922852,4123.589844,4135.384766,4145.128418,4143.077148,4140.000000,4141.538574,4141.025879,4136.922852,4140.512695,4133.846191,4122.051270,0.000000,4.000000,,,,0.000000,4.000000,4.000000,4.000000,4.000000,4.000000,4.000000,4.000000,4.000000,4.000000,4.000000,4.000000,4.000000,4.000000,4.000000,100.000000
1602006853.742304,54.000000,0.000000,4119.487305,4124.615234,4108.205078,4121.025879,4131.794922,4133.846191,4140.000000,4138.974121,4140.512695,4138.461426,4138.461426,4138.974121,4124.102539,4113.846191,0.000000,4.000000,,,,0.000000,4.000000,4.000000,4.000000,4.000000,4.000000,4.000000,4.000000,4.000000,4.000000,4.000000,4.000000,4.000000,4.000000,4.000000,100.000000
1602006853.750185,55.000000,0.000000,4118.974121,4123.589844,4108.717773,4122.051270,4123.589844,4128.717773,4139.487305,4133.846191,4118.974121,4120.512695,4133.333496,4136.410156,4118.974121,4105.641113,0.000000,4.000000,,,,0.000000,4.000000,4.000000,4.000000,4.000000,4.000000,4.000000,4.000000,4.000000,4.000000,4.000000,4.000000,4.000000,4.000000,4.000000,100.000000
1602006853.758066,56.000000,0.000000,4111.282227,4120.512695,4113.846191,4120.512695,4122.051270,4134.358887,4137.948730,4133.333496,4103.589844,4099.487305,4128.205078,4141.025879,4117.948730,4114.358887,0.000000,4.000000,,,,0.000000,4.000000,4.000000,4.000000,4.000000,4.000000,4.000000,4.000000,4.000000,4.000000,4.000000,4.000000,4.000000,4.000000,4.000000,100.000000
1602006853.765948,57.000000,0.000000,4109.743652,4115.897461,4118.974121,4120.512695,4124.615234,4129.743652,4131.794922,4136.410156,4110.256348,4109.743652,4132.307617,4151.282227,4123.077148,4123.589844,0.000000,4.000000,,,,0.000000,4.000000,4.000000,4.000000,4.000000,4.000000,4.000000,4.000000,4.000000,4.000000,4.000000,4.000000,4.000000,4.000000,4.000000,100.000000
1602006853.773829,58.000000,0.000000,4129.230957,4130.256348,4130.256348,4132.307617,4124.615234,4128.205078,4125.641113,4133.333496,4123.589844,4130.256348,4136.410156,4157.948730,4135.897461,4127.179688,0.000000,4.000000,,,,0.000000,4.000000,4.000000,4.000000,4.000000,4.000000,4.000000,4.000000,4.000000,4.000000,4.000000,4.000000,4.000000,4.000000,4.000000,100.000000
1602006853.781810,59.000000,0.000000,4138.974121,4143.077148,4136.410156,4138.974121,4130.256348,4136.922852,4121.538574,4127.179688,4125.641113,4132.307617,4139.487305,4164.102539,4142.051270,4136.410156,0.000000,4.000000,,,,0.000000,4.000000,4.000000,4.000000,4.000000,4.000000,4.000000,4.000000,4.000000,4.000000,4.000000,4.000000,4.000000,4.000000,4.000000,100.000000
1602006853.789691,60.000000,0.000000,4128.205078,4131.282227,4130.256348,4129.743652,4135.897461,4134.358887,4121.025879,4125.641113,4122.563965,4129.230957,4144.102539,4166.153809,4137.436035,4131.794922,0.000000,4.000000,,,,0.000000,4.000000,4.000000,4.000000,4.000000,4.000000,4.000000,4.000000,4.000000,4.000000,4.000000,4.000000,4.000000,4.000000,4.000000,100.000000
1602006853.797571,61.000000,0.000000,4127.179688,4121.538574,4122.563965,4121.538574,4131.282227,4125.641113,4123.589844,4124.615234,4128.717773,4136.922852,4144.102539,4159.487305,4136.410156,4123.589844,0.000000,4.000000,,,,0.000000,4.000000,4.000000,4.000000,4.000000,4.000000,4.000000,4.000000,4.000000,4.000000,4.000000,4.000000,4.000000,4.000000,4.000000,100.000000
1602006853.805452,62.000000,0.000000,4133.333496,4130.256348,4125.128418,4124.102539,4125.128418,4125.128418,4132.307617,4128.205078,4137.436035,4149.230957,4147.179688,4154.358887,4143.589844,4137.948730,0.000000,4.000000,,,,0.000000,4.000000,4.000000,4.000000,4.000000,4.000000,4.000000,4.000000,4.000000,4.000000,4.000000,4.000000,4.000000,4.000000,4.000000,100.000000
1602006853.813433,63.000000,0.000000,4129.743652,4132.820313,4127.179688,4124.615234,4126.666504,4125.128418,4140.512695,4137.436035,4142.563965,4142.563965,4153.846191,4155.897461,4144.615234,4144.102539,0.000000,4.000000,,,,0.000000,4.000000,4.000000,4.000000,4.000000,4.000000,4.000000,4.000000,4.000000,4.000000,4.000000,4.000000,4.000000,4.000000,4.000000,100.000000
1602006853.821315,64.000000,0.000000,4122.051270,4122.563965,4122.051270,4120.512695,4126.153809,4130.256348,4142.563965,4142.563965,4149.743652,4123.077148,4145.128418,4153.846191,4135.384766,4124.615234,794.000000,4.000000,,,,0.000000,4.000000,4.000000,4.000000,4.000000,4.000000,4.000000,4.000000,4.000000,4.000000,4.000000,4.000000,4.000000,4.000000,4.000000,100.000000
1602006853.829196,65.000000,0.000000,4122.051270,4121.025879,4123.589844,4121.538574,4122.051270,4138.461426,4146.153809,4146.666504,4163.077148,4135.384766,4137.436035,4155.897461,4134.871582,4118.974121,800.000000,4.000000,,,,0.000000,4.000000,4.000000,4.000000,4.000000,4.000000,4.000000,4.000000,4.000000,4.000000,4.000000,4.000000,4.000000,4.000000,4.000000,100.000000
1602006853.837077,66.000000,0.000000,4126.666504,4126.666504,4129.743652,4124.615234,4124.102539,4135.384766,4147.179688,4149.230957,4170.256348,4162.051270,4143.077148,4161.025879,4143.077148,4128.717773,849.000000,4.000000,,,,0.000000,4.000000,4.000000,4.000000,4.000000,4.000000,4.000000,4.000000,4.000000,4.000000,4.000000,4.000000,4.000000,4.000000,4.000000,100.000000
1602006853.844958,67.000000,0.000000,4125.128418,4124.102539,4124.102539,4123.077148,4122.563965,4124.102539,4137.948730,4141.538574,4161.025879,4151.282227,4130.769043,4148.205078,4134.871582,4121.025879,867.000000,4.000000,,,,0.000000,4.000000,4.000000,4.000000,4.000000,4.000000,4.000000,4.000000,4.000000,4.000000,4.000000,4.000000,4.000000,4.000000,4.000000,100.000000
1602006853.852839,68.000000,0.000000,4120.512695,4121.538574,4121.538574,4122.051270,4122.051270,4119.487305,4128.717773,4135.384766,4149.743652,4136.922852,4118.461426,4141.025879,4121.025879,4108.717773,810.000000,4.000000,,,,0.000000,4.000000,4.000000,4.000000,4.000000,4.000000,4.000000,4.000000,4.000000,4.000000,4.000000,4.000000,4.000000,4.000000,4.000000,100.000000
1602006853.860720,69.000000,0.000000,4124.615234,4131.282227,4133.333496,4125.641113,4133.846191,4130.256348,4126.666504,4135.384766,4144.102539,4144.615234,4133.333496,4151.794922,4127.179688,4116.410156,824.000000,4.000000,,,,0.000000,4.000000,4.000000,4.000000,4.000000,4.000000,4.000000,4.000000,4.000000,4.000000,4.000000,4.000000,4.000000,4.000000,4.000000,100.000000
1602006853.868602,70.000000,0.000000,4130.256348,4137.436035,4137.436035,4127.692383,4138.461426,4140.512695,4124.102539,4125.641113,4135.384766,4137.948730,4147.692383,4152.820313,4139.487305,4126.153809,750.000000,4.000000,,,,0.000000,4.000000,4.000000,4.000000,4.000000,4.000000,4.000000,4.000000,4.000000,4.000000,4.000000,4.000000,4.000000,4.000000,4.000000,100.000000
1602006853.876483,71.000000,0.000000,4124.615234,4128.717773,4126.153809,4124.615234,4129.230957,4136.922852,4121.538574,4116.922852,4119.487305,4124.102539,4143.589844,4146.153809,4134.358887,4124.615234,659.000000,4.000000,,,,0.000000,4.000000,4.000000,4.000000,4.000000,4.000000,4.000000,4.000000,4.000000,4.000000,4.000000,4.000000,4.000000,4.000000,4.000000,100.000000
1602006853.884264,72.000000,0.000000,4121.538574,4120.512695,4120.000000,4123.077148,4123.589844,4132.820313,4123.589844,4117.948730,4103.077148,4112.307617,4128.717773,4149.743652,4116.922852,4121.025879,774.000000,4.000000,,,,0.000000,4.000000,4.000000,4.000000,4.000000,4.000000,4.000000,4.000000,4.000000,4.000000,4.000000,4.000000,4.000000,4.000000,4.000000,100.000000
1602006853.892145,73.000000,0.000000,4125.641113,4123.077148,4123.589844,4121.025879,4124.615234,4133.333496,4130.256348,4118.974121,4098.974121,4091.281982,4116.922852,4150.769043,4107.692383,4122.563965,836.000000,4.000000,,,,0.000000,4.000000,4.000000,4.000000,4.000000,4.000000,4.000000,4.000000,4.000000,4.000000,4.000000,4.000000,4.000000,4.000000,4.000000,100.000000
1602006853.900026,74.000000,0.000000,4124.615234,4124.102539,4123.077148,4119.487305,4122.051270,4132.307617,4136.922852,4121.538574,4112.307617,4092.820557,4122.051270,4141.538574,4114.871582,4122.051270,870.000000,4.000000,,,,0.000000,4.000000,4.000000,4.000000,4.000000,4.000000,4.000000,4.000000,4.000000,4.000000,4.000000,4.000000,4.000000,4.000000,4.000000,100.000000
1602006853.907907,75.000000,0.000000,4123.589844,4118.974121,4121.538574,4121.538574,4118.974121,4124.102539,4137.436035,4127.692383,4123.589844,4115.897461,4129.743652,4138.974121,4118.974121,4120.512695,838.000000,4.000000,,,,0.000000,4.000000,4.000000,4.000000,4.000000,4.000000,4.000000,4.000000,4.000000,4.000000,4.000000,4.000000,4.000000,4.000000,4.000000,100.000000
1602006853.915788,76.000000,0.000000,4133.333496,4122.051270,4127.179688,4122.051270,4120.000000,4115.897461,4134.871582,4134.358887,4128.717773,4130.769043,4124.102539,4143.077148,4120.512695,4124.615234,760.000000,4.000000,,,,0.000000,4.000000,4.000000,4.000000,4.000000,4.000000,4.000000,4.000000,4.000000,4.000000,4.000000,4.000000,4.000000,4.000000,4.000000,100.000000
1602006853.923668,77.000000,0.000000,4144.615234,4133.846191,4136.922852,4125.128418,4121.538574,4125.128418,4136.410156,4141.538574,4139.487305,4135.384766,4127.692383,4151.282227,4142.563965,4128.205078,727.000000,4.000000,,,,0.000000,4.000000,4.000000,4.000000,4.000000,4.000000,4.000000,4.000000,4.000000,4.000000,4.000000,4.000000,4.000000,4.000000,4.000000,100.000000
1602006853.931450,78.000000,0.000000,4145.128418,4140.000000,4143.589844,4134.358887,4123.589844,4140.000000,4135.897461,4144.102539,4150.769043,4137.436035,4151.282227,4158.461426,4157.948730,4129.743652,870.000000,4.000000,,,,0.000000,4.000000,4.000000,4.000000,4.000000,4.000000,4.000000,4.000000,4.000000,4.000000,4.000000,4.000000,4.000000,4.000000,4.000000,100.000000
1602006853.939331,79.000000,0.000000,4140.000000,4137.948730,4139.487305,4138.974121,4124.615234,4132.820313,4125.641113,4138.461426,4158.461426,4147.692383,4160.000000,4150.256348,4143.077148,4133.846191,838.000000,4.000000,,,,0.000000,4.000000,4.000000,4.000000,4.000000,4.000000,4.000000,4.000000,4.000000,4.000000,4.000000,4.000000,4.000000,4.000000,4.000000,100.000000
1602006853.947212,80.000000,0.000000,4136.922852,4136.922852,4134.871582,4132.820313,4124.615234,4121.025879,4117.436035,4130.769043,4155.384766,4159.487305,4147.179688,4138.974121,4134.871582,4141.025879,760.000000,4.000000,,,,0.000000,4.000000,4.000000,4.000000,4.000000,4.000000,4.000000,4.000000,4.000000,4.000000,4.000000,4.000000,4.000000,4.000000,4.000000,100.000000
1602006853.955093,81.000000,0.000000,4129.743652,4125.641113,4137.948730,4124.102539,4126.666504,4138.461426,4127.179688,4128.717773,4141.025879,4147.179688,4140.512695,4141.538574,4144.102539,4137.948730,727.000000,4.000000,,,,0.000000,4.000000,4.000000,4.000000,4.000000,4.000000,4.000000,4.000000,4.000000,4.000000,4.000000,4.000000,4.000000,4.000000,4.000000,100.000000
1602006853.962974,82.000000,0.000000,4118.974121,4111.282227,4134.358887,4118.974121,4127.179688,4159.487305,4141.538574,4133.846191,4131.282227,4122.051270,4141.025879,4143.589844,4136.410156,4121.538574,870.000000,4.000000,,,,0.000000,4.000000,4.000000,4.000000,4.000000,4.000000,4.000000,4.000000,4.000000,4.000000,4.000000,4.000000,4.000000,4.000000,4.000000,100.000000
1602006853.970856,83.000000,0.000000,4123.077148,4122.563965,4124.615234,4121.538574,4124.102539,4151.282227,4146.153809,4136.410156,4125.641113,4116.410156,4135.897461,4136.922852,4119.487305,4112.307617,838.000000,4.000000,,,,0.000000,4.000000,4.000000,4.000000,4.000000,4.000000,4.000000,4.000000,4.000000,4.000000,4.000000,4.000000,4.000000,4.000000,4.000000,100.000000
1602006853.978737,84.000000,0.000000,4144.102539,4150.769043,4130.256348,4136.410156,4123.589844,4141.538574,4149.743652,4134.871582,4116.922852,4118.974121,4133.846191,4135.897461,4121.025879,4121.025879,760.000000,4.000000,,,,0.000000,4.000000,4.000000,4.000000,4.000000,4.000000,4.000000,4.000000,4.000000,4.000000,4.000000,4.000000,4.000000,4.000000,4.000000,100.000000
1602006853.986618,85.000000,0.000000,4163.077148,4165.128418,4141.538574,4146.666504,4126.666504,4144.102539,4154.871582,4137.436035,4124.102539,4118.974121,4134.358887,4141.538574,4125.128418,4123.077148,727.000000,4.000000,,,,0.000000,4.000000,4.000000,4.000000,4.000000,4.000000,4.000000,4.000000,4.000000,4.000000,4.000000,4.000000,4.000000,4.000000,4.000000,100.000000
1602006853.994499,86.000000,0.000000,4175.384766,4167.692383,4138.461426,4145.128418,4124.615234,4132.820313,4149.230957,4140.512695,4137.948730,4128.205078,4121.025879,4144.102539,4112.820313,4110.256348,870.000000,4.000000,,,,0.000000,4.000000,4.000000,4.000000,4.000000,4.000000,4.000000,4.000000,4.000000,4.000000,4.000000,4.000000,4.000000,4.000000,4.000000,100.000000
1602006854.002480,87.000000,0.000000,4185.641113,4176.410156,4141.025879,4146.666504,4122.051270,4113.333496,4133.333496,4137.436035,4138.461426,4136.922852,4115.897461,4147.692383,4102.051270,4111.794922,838.000000,4.000000,,,,0.000000,4.000000,4.000000,4.000000,4.000000,4.000000,4.000000,4.000000,4.000000,4.000000,4.000000,4.000000,4.000000,4.000000,4.000000,100.000000
1602006854.010361,88.000000,0.000000,4189.743652,4184.615234,4155.384766,4153.333496,4124.102539,4117.948730,4124.102539,4139.487305,4146.153809,4140.512695,4126.153809,4155.897461,4107.692383,4125.128418,760.000000,4.000000,,,,0.000000,4.000000,4.000000,4.000000,4.000000,4.000000,4.000000,4.000000,4.000000,4.000000,4.000000,4.000000,4.000000,4.000000,4.000000,100.000000
1602006854.018242,89.000000,0.000000,4189.743652,4182.563965,4156.410156,4155.897461,4125.128418,4126.153809,4122.563965,4143.589844,4152.820313,4143.589844,4123.589844,4153.846191,4108.205078,4122.051270,727.000000,4.000000,,,,0.000000,4.000000,4.000000,4.000000,4.000000,4.000000,4.000000,4.000000,4.000000,4.000000,4.000000,4.000000,4.000000,4.000000,4.000000,100.000000
1602006854.026123,90.000000,0.000000,4182.563965,4173.333496,4145.128418,4149.230957,4121.538574,4114.358887,4120.512695,4134.871582,4135.897461,4134.871582,4113.333496,4141.025879,4098.974121,4110.256348,870.000000,4.000000,,,,0.000000,4.000000,4.000000,4.000000,4.000000,4.000000,4.000000,4.000000,4.000000,4.000000,4.000000,4.000000,4.000000,4.000000,4.000000,100.000000
1602006854.034004,91.000000,0.000000,4176.410156,4172.820313,4143.077148,4144.615234,4122.051270,4110.769043,4117.436035,4126.666504,4119.487305,4122.563965,4119.487305,4142.051270,4101.025879,4108.205078,838.000000,4.000000,,,,0.000000,4.000000,4.000000,4.000000,4.000000,4.000000,4.000000,4.000000,4.000000,4.000000,4.000000,4.000000,4.000000,4.000000,4.000000,100.000000
1602006854.041884,92.000000,0.000000,4182.051270,4178.461426,4144.615234,4150.256348,4131.282227,4125.641113,4121.025879,4126.666504,4118.461426,4119.487305,4124.615234,4150.769043,4109.230957,4108.205078,760.000000,4.000000,,,,0.000000,4.000000,4.000000,4.000000,4.000000,4.000000,4.000000,4.000000,4.000000,4.000000,4.000000,4.000000,4.000000,4.000000,4.000000,100.000000
1602006854.049665,93.000000,0.000000,4181.025879,4175.384766,4141.538574,4152.820313,4140.000000,4137.436035,4127.179688,4126.153809,4119.487305,4113.333496,4112.307617,4144.615234,4103.077148,4107.179688,727.000000,4.000000,,,,0.000000,4.000000,4.000000,4.000000,4.000000,4.000000,4.000000,4.000000,4.000000,4.000000,4.000000,4.000000,4.000000,4.000000,4.000000,100.000000
1602006854.057546,94.000000,0.000000,4169.230957,4168.717773,4139.487305,4145.128418,4140.000000,4139.487305,4129.230957,4119.487305,4116.922852,4106.153809,4104.615234,4134.871582,4087.692383,4108.717773,870.000000,4.000000,,,,0.000000,4.000000,4.000000,4.000000,4.000000,4.000000,4.000000,4.000000,4.000000,4.000000,4.000000,4.000000,4.000000,4.000000,4.000000,100.000000
1602006854.065427,95.000000,0.000000,4165.128418,4165.128418,4131.794922,4136.922852,4135.897461,4137.436035,4134.358887,4114.871582,4109.230957,4107.692383,4107.692383,4131.282227,4074.358887,4100.000000,838.000000,4.000000,,,,0.000000,4.000000,4.000000,4.000000,4.000000,4.000000,4.000000,4.000000,4.000000,4.000000,4.000000,4.000000,4.000000,4.000000,4.000000,100.000000
1602006854.073308,96.000000,0.000000,4165.641113,4165.128418,4122.051270,4137.436035,4131.794922,4135.897461,4139.487305,4117.436035,4102.051270,4105.641113,4100.000000,4125.641113,4070.256348,4086.153809,760.000000,4.000000,,,,0.000000,4.000000,4.000000,4.000000,4.000000,4.000000,4.000000,4.000000,4.000000,4.000000,4.000000,4.000000,4.000000,4.000000,4.000000,100.000000
1602006854.081189,97.000000,0.000000,4164.102539,4168.717773,4127.179688,4145.128418,4127.692383,4136.410156,4140.512695,4123.077148,4107.692383,4109.230957,4095.897461,4127.692383,4080.512939,4095.897461,727.000000,4.000000,,,,0.000000,4.000000,4.000000,4.000000,4.000000,4.000000,4.000000,4.000000,4.000000,4.000000,4.000000,4.000000,4.000000,4.000000,4.000000,100.000000
1602006854.089070,98.000000,0.000000,4170.256348,4172.307617,4140.512695,4153.333496,4123.589844,4135.384766,4141.025879,4125.641113,4112.820313,4122.563965,4107.179688,4138.974121,4091.281982,4114.871582,870.000000,4.000000,,,,0.000000,4.000000,4.000000,4.000000,4.000000,4.000000,4.000000,4.000000,4.000000,4.000000,4.000000,4.000000,4.000000,4.000000,4.000000,100.000000
1602006854.097051,99.000000,0.000000,4172.820313,4168.717773,4138.974121,4152.820313,4121.025879,4125.128418,4134.871582,4123.077148,4112.307617,4115.384766,4112.820313,4138.974121,4090.256348,4111.794922,838.000000,4.000000,,,,0.000000,4.000000,4.000000,4.000000,4.000000,4.000000,4.000000,4.000000,4.000000,4.000000,4.000000,4.000000,4.000000,4.000000,4.000000,100.000000
1602006854.104932,100.000000,0.000000,4171.794922,4170.769043,4134.871582,4149.230957,4127.179688,4118.974121,4123.077148,4126.666504,4118.974121,4098.974121,4111.282227,4135.384766,4089.230713,4107.179688,760.000000,4.000000,,,,0.000000,4.000000,4.000000,4.000000,4.000000,4.000000,4.000000,4.000000,4.000000,4.000000,4.000000,4.000000,4.000000,4.000000,4.000000,100.000000
1602006854.112814,101.000000,0.000000,4184.102539,4185.641113,4142.563965,4153.846191,4136.410156,4131.794922,4122.051270,4137.436035,4132.307617,4110.769043,4121.025879,4141.025879,4093.846191,4120.000000,727.000000,4.000000,,,,0.000000,4.000000,4.000000,4.000000,4.000000,4.000000,4.000000,4.000000,4.000000,4.000000,4.000000,4.000000,4.000000,4.000000,4.000000,100.000000
1602006854.120695,102.000000,0.000000,4187.179688,4185.641113,4146.153809,4155.897461,4131.794922,4141.025879,4124.615234,4140.512695,4137.948730,4125.641113,4127.179688,4142.051270,4093.333252,4124.615234,870.000000,4.000000,,,,0.000000,4.000000,4.000000,4.000000,4.000000,4.000000,4.000000,4.000000,4.000000,4.000000,4.000000,4.000000,4.000000,4.000000,4.000000,100.000000
1602006854.128576,103.000000,0.000000,4172.307617,4171.794922,4143.077148,4148.717773,4123.589844,4125.128418,4120.512695,4132.307617,4126.153809,4118.461426,4119.487305,4136.410156,4089.230713,4118.461426,838.000000,4.000000,,,,0.000000,4.000000,4.000000,4.000000,4.000000,4.000000,4.000000,4.000000,4.000000,4.000000,4.000000,4.000000,4.000000,4.000000,4.000000,100.000000
1602006854.136457,104.000000,0.000000,4175.384766,4168.717773,4147.179688,4148.717773,4124.615234,4112.307617,4117.948730,4123.077148,4112.820313,4116.922852,4121.538574,4136.922852,4092.307617,4117.948730,760.000000,4.000000,,,,0.000000,4.000000,4.000000,4.000000,4.000000,4.000000,4.000000,4.000000,4.000000,4.000000,4.000000,4.000000,4.000000,4.000000,4.000000,100.000000
1602006854.144338,105.000000,0.000000,4185.641113,4173.333496,4151.794922,4155.384766,4125.128418,4120.000000,4122.563965,4123.077148,4115.897461,4131.282227,4128.717773,4143.589844,4093.333252,4116.922852,727.000000,4.000000,,,,0.000000,4.000000,4.000000,4.000000,4.000000,4.000000,4.000000,4.000000,4.000000,4.000000,4.000000,4.000000,4.000000,4.000000,4.000000,100.000000
1602006854.152219,106.000000,0.000000,4175.897461,4170.769043,4150.769043,4147.692383,4121.025879,4124.102539,4130.769043,4128.205078,4123.077148,4140.000000,4124.102539,4144.102539,4091.281982,4114.358887,870.000000,4.000000,,,,0.000000,4.000000,4.000000,4.000000,4.000000,4.000000,4.000000,4.000000,4.000000,4.000000,4.000000,4.000000,4.000000,4.000000,4.000000,100.000000
1602006854.160101,107.000000,0.000000,4169.743652,4166.666504,4152.820313,4140.512695,4122.051270,4121.025879,4137.436035,4133.846191,4123.589844,4137.436035,4120.000000,4141.025879,4094.871826,4121.025879,838.000000,4.000000,,,,0.000000,4.000000,4.000000,4.000000,4.000000,4.000000,4.000000,4.000000,4.000000,4.000000,4.000000,4.000000,4.000000,4.000000,4.000000,100.000000
1602006854.168082,108.000000,0.000000,4174.358887,4168.717773,4152.820313,4148.717773,4125.128418,4129.743652,4138.974121,4136.410156,4124.615234,4129.230957,4126.666504,4142.563965,4101.025879,4127.692383,760.000000,4.000000,,,,0.000000,4.000000,4.000000,4.000000,4.000000,4.000000,4.000000,4.000000,4.000000,4.000000,4.000000,4.000000,4.000000,4.000000,4.000000,100.000000
1602006854.175963,109.000000,0.000000,4171.794922,4168.205078,4144.102539,4150.256348,4123.077148,4142.051270,4137.948730,4137.948730,4123.589844,4123.589844,4133.333496,4144.102539,4100.000000,4123.589844,727.000000,4.000000,,,,0.000000,4.000000,4.000000,4.000000,4.000000,4.000000,4.000000,4.000000,4.000000,4.000000,4.000000,4.000000,4.000000,4.000000,4.000000,100.000000
1602006854.183844,110.000000,0.000000,4165.128418,4160.512695,4137.948730,4137.948730,4121.538574,4142.051270,4137.436035,4139.487305,4121.025879,4127.692383,4139.487305,4142.563965,4093.846191,4116.922852,870.000000,4.000000,,,,0.000000,4.000000,4.000000,4.000000,4.000000,4.000000,4.000000,4.000000,4.000000,4.000000,4.000000,4.000000,4.000000,4.000000,4.000000,100.000000
1602006854.191725,111.000000,0.000000,4161.025879,4154.358887,4137.948730,4135.897461,4127.179688,4138.461426,4137.436035,4137.436035,4118.461426,4125.641113,4141.538574,4140.512695,4091.794922,4122.051270,838.000000,4.000000,,,,0.000000,4.000000,4.000000,4.000000,4.000000,4.000000,4.000000,4.000000,4.000000,4.000000,4.000000,4.000000,4.000000,4.000000,4.000000,100.000000
1602006854.199606,112.000000,0.000000,4154.871582,4155.384766,4135.897461,4140.000000,4130.256348,4138.461426,4137.436035,4134.871582,4116.410156,4108.205078,4130.769043,4136.922852,4089.743652,4123.077148,760.000000,4.000000,,,,0.000000,4.000000,4.000000,4.000000,4.000000,4.000000,4.000000,4.000000,4.000000,4.000000,4.000000,4.000000,4.000000,4.000000,4.000000,100.000000
1602006854.207487,113.000000,0.000000,4151.282227,4153.846191,4133.846191,4135.897461,4125.128418,4134.358887,4136.410156,4135.384766,4108.205078,4102.051270,4121.025879,4133.333496,4088.718018,4107.692383,727.000000,4.000000,,,,0.000000,4.000000,4.000000,4.000000,4.000000,4.000000,4.000000,4.000000,4.000000,4.000000,4.000000,4.000000,4.000000,4.000000,4.000000,100.000000
1602006854.215369,114.000000,0.000000,4153.333496,4150.256348,4137.436035,4135.384766,4121.538574,4126.153809,4135.897461,4134.358887,4101.538574,4118.461426,4123.077148,4135.897461,4090.769287,4109.230957,870.000000,4.000000,,,,0.000000,4.000000,4.000000,4.000000,4.000000,4.000000,4.000000,4.000000,4.000000,4.000000,4.000000,4.000000,4.000000,4.000000,4.000000,100.000000
1602006854.223250,115.000000,0.000000,4155.897461,4152.820313,4135.897461,4138.974121,4122.563965,4119.487305,4136.410156,4127.179688,4103.589844,4118.974121,4122.563965,4136.922852,4091.794922,4127.179688,838.000000,4.000000,,,,0.000000,4.000000,4.000000,4.000000,4.000000,4.000000,4.000000,4.000000,4.000000,4.000000,4.000000,4.000000,4.000000,4.000000,4.000000,100.000000
1602006854.231131,116.000000,0.000000,4155.384766,4154.358887,4128.717773,4136.922852,4121.025879,4113.333496,4132.307617,4123.589844,4108.205078,4105.128418,4121.025879,4135.384766,4091.794922,4122.051270,760.000000,4.000000,,,,0.000000,4.000000,4.000000,4.000000,4.000000,4.000000,4.000000,4.000000,4.000000,4.000000,4.000000,4.000000,4.000000,4.000000,4.000000,100.000000
1602006854.239111,117.000000,0.000000,4149.743652,4152.820313,4122.051270,4134.358887,4119.487305,4111.794922,4128.205078,4129.743652,4116.410156,4119.487305,4125.128418,4135.384766,4094.871826,4109.230957,727.000000,4.000000,,,,0.000000,4.000000,4.000000,4.000000,4.000000,4.000000,4.000000,4.000000,4.000000,4.000000,4.000000,4.000000,4.000000,4.000000,4.000000,100.000000
1602006854.246992,118.000000,0.000000,4148.205078,4153.846191,4122.051270,4137.948730,4119.487305,4120.512695,4129.230957,4135.897461,4127.692383,4144.102539,4124.615234,4136.922852,4096.410156,4120.512695,870.000000,4.000000,,,,0.000000,4.000000,4.000000,4.000000,4.000000,4.000000,4.000000,4.000000,4.000000,4.000000,4.000000,4.000000,4.000000,4.000000,4.000000,100.000000
1602006854.254973,119.000000,0.000000,4153.846191,4155.897461,4127.179688,4140.512695,4120.512695,4135.384766,4130.769043,4137.948730,4129.230957,4146.153809,4122.051270,4136.922852,4092.820557,4127.692383,838.000000,4.000000,,,,0.000000,4.000000,4.000000,4.000000,4.000000,4.000000,4.000000,4.000000,4.000000,4.000000,4.000000,4.000000,4.000000,4.000000,4.000000,100.000000
1602006854.262854,120.000000,0.000000,4151.794922,4156.922852,4128.717773,4138.974121,4127.179688,4140.000000,4128.717773,4135.384766,4122.051270,4135.384766,4124.615234,4131.794922,4091.281982,4112.307617,760.000000,4.000000,,,,0.000000,4.000000,4.000000,4.000000,4.000000,4.000000,4.000000,4.000000,4.000000,4.000000,4.000000,4.000000,4.000000,4.000000,4.000000,100.000000
1602006854.270736,121.000000,0.000000,4142.563965,4157.436035,4127.692383,4140.000000,4129.743652,4130.769043,4125.128418,4126.666504,4115.897461,4128.205078,4121.025879,4124.615234,4084.102539,4104.102539,727.000000,4.000000,,,,0.000000,4.000000,4.000000,4.000000,4.000000,4.000000,4.000000,4.000000,4.000000,4.000000,4.000000,4.000000,4.000000,4.000000,4.000000,100.000000
1602006854.278617,122.000000,0.000000,4134.871582,4148.717773,4125.128418,4134.358887,4122.563965,4123.077148,4122.051270,4115.384766,4102.563965,4110.256348,4109.743652,4120.512695,4067.692383,4105.641113,870.000000,4.000000,,,,0.000000,4.000000,4.000000,4.000000,4.000000,4.000000,4.000000,4.000000,4.000000,4.000000,4.000000,4.000000,4.000000,4.000000,4.000000,100.000000
1602006854.286498,123.000000,0.000000,4134.358887,4140.000000,4123.077148,4127.692383,4118.974121,4123.589844,4124.102539,4110.256348,4085.641113,4078.974365,4102.563965,4119.487305,4062.564209,4104.615234,838.000000,4.000000,,,,0.000000,4.000000,4.000000,4.000000,4.000000,4.000000,4.000000,4.000000,4.000000,4.000000,4.000000,4.000000,4.000000,4.000000,4.000000,100.000000
1602006854.294379,124.000000,0.000000,4137.948730,4144.102539,4130.256348,4133.333496,4121.025879,4122.563965,4128.717773,4115.897461,4084.102539,4071.281982,4106.153809,4123.589844,4066.666748,4106.153809,760.000000,4.000000,,,,0.000000,4.000000,4.000000,4.000000,4.000000,4.000000,4.000000,4.000000,4.000000,4.000000,4.000000,4.000000,4.000000,4.000000,4.000000,100.000000
1602006854.302260,125.000000,0.000000,4138.974121,4144.102539,4137.436035,4137.948730,4111.794922,4117.948730,4129.230957,4121.538574,4087.692383,4092.307617,4107.179688,4131.282227,4061.025635,4113.846191,727.000000,4.000000,,,,0.000000,4.000000,4.000000,4.000000,4.000000,4.000000,4.000000,4.000000,4.000000,4.000000,4.000000,4.000000,4.000000,4.000000,4.000000,100.000000
1602006854.310141,126.000000,0.000000,4142.563965,4140.000000,4136.922852,4133.846191,4108.717773,4118.461426,4127.179688,4125.641113,4097.436035,4108.205078,4102.563965,4137.948730,4061.025635,4121.025879,870.000000,4.000000,,,,0.000000,4.000000,4.000000,4.000000,4.000000,4.000000,4.000000,4.000000,4.000000,4.000000,4.000000,4.000000,4.000000,4.000000,4.000000,100.000000
1602006854.317922,127.000000,0.000000,4153.333496,4150.256348,4140.512695,4137.948730,4121.538574,4122.051270,4124.615234,4134.358887,4121.538574,4110.769043,4114.871582,4143.077148,4075.897461,4127.179688,838.000000,4.000000,,,,0.000000,4.000000,4.000000,4.000000,4.000000,4.000000,4.000000,4.000000,4.000000,4.000000,4.000000,4.000000,4.000000,4.000000,4.000000,100.000000
1602006854.325803,128.000000,0.000000,4155.384766,4155.384766,4140.512695,4142.051270,4118.461426,4122.563965,4122.051270,4142.051270,4130.256348,4114.871582,4126.666504,4143.077148,4080.000000,4128.717773,760.000000,4.000000,,,,0.000000,4.000000,4.000000,4.000000,4.000000,4.000000,4.000000,4.000000,4.000000,4.000000,4.000000,4.000000,4.000000,4.000000,4.000000,100.000000
1602006854.333684,0.000000,0.000000,4139.487305,4137.948730,4125.641113,4126.153809,4107.179688,4117.948730,4122.051270,4135.897461,4116.922852,4117.436035,4106.666504,4130.256348,4067.179443,4116.410156,794.000000,4.000000,,,,0.000000,4.000000,4.000000,4.000000,4.000000,4.000000,4.000000,4.000000,4.000000,4.000000,4.000000,4.000000,4.000000,4.000000,4.000000,100.000000
1602006854.341565,1.000000,0.000000,4132.307617,4133.333496,4115.897461,4121.538574,4117.436035,4122.051270,4124.102539,4125.128418,4115.384766,4106.666504,4094.358887,4119.487305,4066.153809,4108.205078,795.000000,4.000000,,,,0.000000,4.000000,4.000000,4.000000,4.000000,4.000000,4.000000,4.000000,4.000000,4.000000,4.000000,4.000000,4.000000,4.000000,4.000000,100.000000
1602006854.349446,2.000000,0.000000,4139.487305,4149.743652,4121.025879,4136.922852,4129.743652,4137.436035,4124.102539,4123.589844,4121.025879,4104.615234,4114.871582,4121.538574,4076.923096,4112.307617,849.000000,4.000000,,,,0.000000,4.000000,4.000000,4.000000,4.000000,4.000000,4.000000,4.000000,4.000000,4.000000,4.000000,4.000000,4.000000,4.000000,4.000000,100.000000
1602006854.357427,3.000000,0.000000,4138.974121,4152.820313,4121.538574,4134.871582,4125.641113,4137.436035,4122.563965,4124.102539,4116.922852,4124.102539,4127.179688,4123.077148,4077.435791,4109.230957,867.000000,4.000000,,,,0.000000,4.000000,4.000000,4.000000,4.000000,4.000000,4.000000,4.000000,4.000000,4.000000,4.000000,4.000000,4.000000,4.000000,4.000000,100.000000
1602006854.365308,4.000000,0.000000,4137.436035,4147.179688,4118.461426,4124.615234,4123.589844,4127.179688,4122.563965,4121.025879,4119.487305,4143.077148,4122.563965,4118.461426,4074.871826,4109.743652,810.000000,4.000000,,,,0.000000,4.000000,4.000000,4.000000,4.000000,4.000000,4.000000,4.000000,4.000000,4.000000,4.000000,4.000000,4.000000,4.000000,4.000000,100.000000
1602006854.373189,5.000000,0.000000,4144.102539,4149.743652,4123.077148,4130.256348,4126.666504,4128.205078,4122.563965,4120.512695,4125.128418,4139.487305,4117.436035,4118.461426,4075.384521,4121.025879,824.000000,4.000000,,,,0.000000,4.000000,4.000000,4.000000,4.000000,4.000000,4.000000,4.000000,4.000000,4.000000,4.000000,4.000000,4.000000,4.000000,4.000000,100.000000
1602006854.381071,6.000000,0.000000,4145.128418,4153.846191,4125.641113,4138.461426,4124.615234,4128.717773,4123.077148,4122.563965,4114.871582,4124.102539,4110.769043,4124.102539,4074.871826,4117.948730,746.000000,4.000000,,,,0.000000,4.000000,4.000000,4.000000,4.000000,4.000000,4.000000,4.000000,4.000000,4.000000,4.000000,4.000000,4.000000,4.000000,4.000000,100.000000
1602006854.388952,7.000000,0.000000,4138.974121,4153.333496,4125.641113,4137.948730,4122.563965,4123.589844,4126.153809,4124.102539,4106.666504,4116.922852,4110.256348,4128.717773,4074.871826,4104.615234,659.000000,4.000000,,,,0.000000,4.000000,4.000000,4.000000,4.000000,4.000000,4.000000,4.000000,4.000000,4.000000,4.000000,4.000000,4.000000,4.000000,4.000000,100.000000
1602006854.396833,8.000000,0.000000,4136.410156,4147.692383,4128.717773,4136.922852,4120.512695,4123.589844,4128.205078,4123.589844,4111.282227,4112.820313,4111.282227,4125.128418,4073.333252,4104.102539,776.000000,4.000000,,,,0.000000,4.000000,4.000000,4.000000,4.000000,4.000000,4.000000,4.000000,4.000000,4.000000,4.000000,4.000000,4.000000,4.000000,4.000000,100.000000
1602006854.404714,9.000000,0.000000,4142.563965,4145.641113,4133.846191,4135.384766,4118.461426,4123.077148,4126.666504,4122.563965,4111.794922,4105.128418,4104.615234,4122.563965,4067.179443,4113.333496,836.000000,4.000000,,,,0.000000,4.000000,4.000000,4.000000,4.000000,4.000000,4.000000,4.000000,4.000000,4.000000,4.000000,4.000000,4.000000,4.000000,4.000000,100.000000
1602006854.412595,10.000000,0.000000,4153.846191,4150.769043,4143.589844,4136.922852,4120.512695,4120.000000,4123.589844,4128.205078,4114.358887,4105.641113,4110.256348,4135.384766,4075.384521,4127.179688,870.000000,4.000000,,,,0.000000,4.000000,4.000000,4.000000,4.000000,4.000000,4.000000,4.000000,4.000000,4.000000,4.000000,4.000000,4.000000,4.000000,4.000000,100.000000
1602006854.420476,11.000000,0.000000,4165.128418,4157.436035,4153.333496,4142.051270,4122.563965,4121.538574,4123.589844,4137.948730,4128.717773,4125.641113,4133.333496,4149.230957,4095.384521,4141.025879,838.000000,4.000000,,,,0.000000,4.000000,4.000000,4.000000,4.000000,4.000000,4.000000,4.000000,4.000000,4.000000,4.000000,4.000000,4.000000,4.000000,4.000000,100.000000
1602006854.428258,12.000000,0.000000,4165.128418,4162.051270,4154.871582,4141.538574,4121.025879,4123.077148,4122.563965,4138.974121,4136.922852,4146.153809,4144.615234,4148.717773,4105.128418,4141.025879,760.000000,4.000000,,,,0.000000,4.000000,4.000000,4.000000,4.000000,4.000000,4.000000,4.000000,4.000000,4.000000,4.000000,4.000000,4.000000,4.000000,4.000000,100.000000
1602006854.436139,13.000000,0.000000,4162.563965,4166.666504,4153.846191,4145.128418,4122.563965,4119.487305,4124.102539,4136.410156,4128.205078,4145.641113,4142.051270,4143.077148,4106.153809,4139.487305,727.000000,4.000000,,,,0.000000,4.000000,4.000000,4.000000,4.000000,4.000000,4.000000,4.000000,4.000000,4.000000,4.000000,4.000000,4.000000,4.000000,4.000000,100.000000
1602006854.444020,14.000000,0.000000,4163.589844,4167.692383,4154.358887,4151.794922,4130.256348,4116.922852,4132.307617,4137.948730,4121.025879,4143.077148,4139.487305,4138.974121,4105.128418,4140.512695,870.000000,4.000000,,,,0.000000,4.000000,4.000000,4.000000,4.000000,4.000000,4.000000,4.000000,4.000000,4.000000,4.000000,4.000000,4.000000,4.000000,4.000000,100.000000
1602006854.451901,15.000000,0.000000,4165.128418,4167.692383,4153.333496,4150.769043,4134.358887,4128.205078,4139.487305,4139.487305,4123.589844,4153.333496,4138.974121,4136.410156,4105.641113,4137.436035,838.000000,4.000000,,,,0.000000,4.000000,4.000000,4.000000,4.000000,4.000000,4.000000,4.000000,4.000000,4.000000,4.000000,4.000000,4.000000,4.000000,4.000000,100.000000
1602006854.459782,16.000000,0.000000,4166.666504,4168.717773,4152.820313,4151.794922,4131.282227,4142.051270,4139.487305,4140.000000,4125.128418,4157.436035,4139.487305,4141.025879,4109.743652,4141.025879,0.000000,4.000000,,,,0.000000,4.000000,4.000000,4.000000,4.000000,4.000000,4.000000,4.000000,4.000000,4.000000,4.000000,4.000000,4.000000,4.000000,4.000000,100.000000
1602006854.467664,17.000000,0.000000,4158.461426,4159.487305,4150.256348,4150.769043,4126.153809,4136.410156,4138.974121,4137.436035,4119.487305,4142.051270,4132.307617,4140.512695,4105.641113,4141.025879,0.000000,4.000000,,,,0.000000,4.000000,4.000000,4.000000,4.000000,4.000000,4.000000,4.000000,4.000000,4.000000,4.000000,4.000000,4.000000,4.000000,4.000000,100.000000
1602006854.475545,18.000000,0.000000,4138.461426,4147.179688,4138.974121,4138.974121,4120.512695,4121.538574,4136.922852,4125.641113,4112.820313,4120.000000,4121.538574,4124.615234,4091.281982,4125.128418,0.000000,4.000000,,,,0.000000,4.000000,4.000000,4.000000,4.000000,4.000000,4.000000,4.000000,4.000000,4.000000,4.000000,4.000000,4.000000,4.000000,4.000000,100.000000
1602006854.483426,19.000000,0.000000,4133.333496,4145.641113,4133.333496,4131.794922,4118.461426,4120.000000,4129.743652,4122.051270,4117.948730,4120.512695,4126.153809,4120.000000,4086.153809,4120.512695,0.000000,4.000000,,,,0.000000,4.000000,4.000000,4.000000,4.000000,4.000000,4.000000,4.000000,4.000000,4.000000,4.000000,4.000000,4.000000,4.000000,4.000000,100.000000
1602006854.491307,20.000000,0.000000,4152.820313,4150.769043,4140.512695,4141.538574,4126.153809,4129.743652,4126.153809,4134.358887,4132.307617,4146.153809,4142.051270,4135.384766,4098.974121,4138.974121,0.000000,4.000000,,,,0.000000,4.000000,4.000000,4.000000,4.000000,4.000000,4.000000,4.000000,4.000000,4.000000,4.000000,4.000000,4.000000,4.000000,4.000000,100.000000
1602006854.499288,21.000000,0.000000,4160.000000,4156.922852,4148.717773,4146.666504,4131.794922,4137.436035,4125.641113,4139.487305,4137.948730,4165.641113,4142.563965,4141.538574,4107.692383,4145.641113,0.000000,4.000000,,,,0.000000,4.000000,4.000000,4.000000,4.000000,4.000000,4.000000,4.000000,4.000000,4.000000,4.000000,4.000000,4.000000,4.000000,4.000000,100.000000
1602006854.507169,22.000000,0.000000,4153.846191,4157.948730,4151.282227,4143.077148,4127.692383,4141.025879,4126.666504,4136.410156,4142.051270,4170.769043,4133.333496,4136.922852,4104.102539,4133.846191,0.000000,4.000000,,,,0.000000,4.000000,4.000000,4.000000,4.000000,4.000000,4.000000,4.000000,4.000000,4.000000,4.000000,4.000000,4.000000,4.000000,4.000000,100.000000
1602006854.515050,23.000000,0.000000,4158.974121,4155.384766,4153.846191,4147.179688,4130.769043,4143.589844,4135.384766,4147.692383,4155.384766,4164.615234,4139.487305,4140.512695,4101.538574,4135.384766,0.000000,4.000000,,,,0.000000,4.000000,4.000000,4.000000,4.000000,4.000000,4.000000,4.000000,4.000000,4.000000,4.000000,4.000000,4.000000,4.000000,4.000000,100.000000
1602006854.522931,24.000000,0.000000,4157.948730,4154.871582,4150.769043,4149.743652,4141.538574,4141.025879,4141.025879,4155.897461,4154.871582,4141.538574,4142.563965,4142.051270,4100.512695,4143.077148,0.000000,4.000000,,,,0.000000,4.000000,4.000000,4.000000,4.000000,4.000000,4.000000,4.000000,4.000000,4.000000,4.000000,4.000000,4.000000,4.000000,4.000000,100.000000
1602006854.530912,25.000000,0.000000,4144.615234,4155.384766,4142.051270,4142.563965,4135.897461,4132.820313,4137.948730,4145.128418,4135.384766,4119.487305,4127.179688,4138.461426,4091.794922,4135.897461,0.000000,4.000000,,,,0.000000,4.000000,4.000000,4.000000,4.000000,4.000000,4.000000,4.000000,4.000000,4.000000,4.000000,4.000000,4.000000,4.000000,4.000000,100.000000
1602006854.538793,26.000000,0.000000,4138.974121,4152.307617,4137.436035,4135.384766,4122.563965,4125.641113,4138.461426,4135.897461,4118.461426,4115.897461,4118.461426,4141.025879,4080.512939,4125.128418,0.000000,4.000000,,,,0.000000,4.000000,4.000000,4.000000,4.000000,4.000000,4.000000,4.000000,4.000000,4.000000,4.000000,4.000000,4.000000,4.000000,4.000000,100.000000
1602006854.546674,27.000000,0.000000,4139.487305,4145.128418,4138.461426,4136.922852,4123.589844,4119.487305,4137.948730,4133.333496,4109.230957,4117.436035,4121.025879,4143.589844,4076.923096,4114.871582,0.000000,4.000000,,,,0.000000,4.000000,4.000000,4.000000,4.000000,4.000000,4.000000,4.000000,4.000000,4.000000,4.000000,4.000000,4.000000,4.000000,4.000000,100.000000
1602006854.554555,28.000000,0.000000,4137.948730,4142.051270,4135.897461,4138.461426,4126.153809,4115.897461,4126.666504,4122.563965,4102.563965,4118.461426,4116.922852,4136.922852,4074.871826,4111.282227,0.000000,4.000000,,,,0.000000,4.000000,4.000000,4.000000,4.000000,4.000000,4.000000,4.000000,4.000000,4.000000,4.000000,4.000000,4.000000,4.000000,4.000000,100.000000
1602006854.562436,29.000000,0.000000,4140.000000,4143.077148,4132.820313,4136.410156,4125.641113,4121.025879,4120.512695,4111.282227,4099.487305,4126.153809,4113.846191,4133.846191,4073.846191,4121.025879,0.000000,4.000000,,,,0.000000,4.000000,4.000000,4.000000,4.000000,4.000000,4.000000,4.000000,4.000000,4.000000,4.000000,4.000000,4.000000,4.000000,4.000000,100.000000
1602006854.570318,30.000000,0.000000,4141.025879,4140.512695,4135.897461,4133.846191,4128.717773,4126.153809,4123.077148,4108.205078,4096.922852,4122.563965,4121.025879,4140.512695,4079.487061,4122.051270,0.000000,4.000000,,,,0.000000,4.000000,4.000000,4.000000,4.000000,4.000000,4.000000,4.000000,4.000000,4.000000,4.000000,4.000000,4.000000,4.000000,4.000000,100.000000
1602006854.578199,31.000000,0.000000,4135.897461,4137.436035,4138.461426,4132.307617,4126.153809,4122.051270,4124.615234,4109.743652,4098.461426,4107.179688,4123.589844,4142.051270,4087.692383,4110.769043,0.000000,4.000000,,,,0.000000,4.000000,4.000000,4.000000,4.000000,4.000000,4.000000,4.000000,4.000000,4.000000,4.000000,4.000000,4.000000,4.000000,4.000000,100.000000
1602006854.586080,32.000000,0.000000,4135.384766,4138.461426,4137.436035,4132.820313,4120.000000,4111.282227,4122.563965,4113.333496,4107.179688,4110.256348,4117.436035,4138.461426,4088.718018,4118.974121,0.000000,4.000000,,,,0.000000,4.000000,4.000000,4.000000,4.000000,4.000000,4.000000,4.000000,4.000000,4.000000,4.000000,4.000000,4.000000,4.000000,4.000000,100.000000
1602006854.593961,33.000000,0.000000,4141.025879,4140.000000,4140.512695,4131.794922,4121.538574,4111.282227,4119.487305,4117.948730,4117.948730,4121.025879,4120.000000,4142.051270,4089.230713,4141.538574,0.000000,4.000000,,,,0.000000,4.000000,4.000000,4.000000,4.000000,4.000000,4.000000,4.000000,4.000000,4.000000,4.000000,4.000000,4.000000,4.000000,4.000000,100.000000
1602006854.601742,34.000000,0.000000,4142.051270,4138.974121,4145.128418,4133.846191,4124.615234,4117.436035,4119.487305,4125.128418,4130.256348,4120.512695,4131.282227,4152.820313,4095.384521,4141.538574,0.000000,4.000000,,,,0.000000,4.000000,4.000000,4.000000,4.000000,4.000000,4.000000,4.000000,4.000000,4.000000,4.000000,4.000000,4.000000,4.000000,4.000000,100.000000
1602006854.609623,35.000000,0.000000,4136.922852,4137.436035,4143.077148,4137.436035,4120.512695,4115.897461,4121.025879,4132.307617,4137.436035,4128.717773,4129.743652,4156.922852,4096.410156,4125.128418,0.000000,4.000000,,,,0.000000,4.000000,4.000000,4.000000,4.000000,4.000000,4.000000,4.000000,4.000000,4.000000,4.000000,4.000000,4.000000,4.000000,4.000000,100.000000
1602006854.617505,36.000000,0.000000,4140.000000,4137.948730,4137.948730,4136.410156,4119.487305,4114.358887,4122.051270,4137.436035,4142.051270,4149.743652,4122.563965,4158.461426,4097.436035,4126.153809,0.000000,4.000000,,,,0.000000,4.000000,4.000000,4.000000,4.000000,4.000000,4.000000,4.000000,4.000000,4.000000,4.000000,4.000000,4.000000,4.000000,4.000000,100.000000
1602006854.625386,37.000000,0.000000,4151.794922,4141.025879,4141.025879,4136.922852,4122.051270,4123.077148,4129.230957,4141.538574,4154.871582,4153.333496,4134.358887,4162.563965,4106.666504,4144.615234,0.000000,4.000000,,,,0.000000,4.000000,4.000000,4.000000,4.000000,4.000000,4.000000,4.000000,4.000000,4.000000,4.000000,4.000000,4.000000,4.000000,4.000000,100.000000
1602006854.633267,38.000000,0.000000,4148.205078,4140.512695,4142.051270,4139.487305,4123.589844,4134.358887,4134.358887,4137.436035,4157.436035,4142.051270,4143.589844,4161.025879,4111.282227,4144.615234,0.000000,4.000000,,,,0.000000,4.000000,4.000000,4.000000,4.000000,4.000000,4.000000,4.000000,4.000000,4.000000,4.000000,4.000000,4.000000,4.000000,4.000000,100.000000
1602006854.641148,39.000000,0.000000,4134.871582,4136.410156,4128.717773,4133.846191,4124.615234,4134.871582,4130.256348,4126.153809,4143.589844,4139.487305,4132.820313,4151.794922,4103.077148,4124.615234,0.000000,4.000000,,,,0.000000,4.000000,4.000000,4.000000,4.000000,4.000000,4.000000,4.000000,4.000000,4.000000,4.000000,4.000000,4.000000,4.000000,4.000000,100.000000
1602006854.649029,40.000000,0.000000,4136.922852,4138.974121,4120.000000,4131.794922,4127.179688,4127.692383,4127.692383,4124.615234,4140.512695,4137.436035,4129.230957,4146.666504,4096.410156,4118.974121,0.000000,4.000000,,,,0.000000,4.000000,4.000000,4.000000,4.000000,4.000000,4.000000,4.000000,4.000000,4.000000,4.000000,4.000000,4.000000,4.000000,4.000000,100.000000
1602006854.656910,41.000000,0.000000,4139.487305,4143.077148,4121.025879,4136.922852,4126.666504,4116.922852,4128.205078,4129.230957,4147.179688,4134.871582,4128.205078,4139.487305,4093.846191,4117.436035,0.000000,4.000000,,,,0.000000,4.000000,4.000000,4.000000,4.000000,4.000000,4.000000,4.000000,4.000000,4.000000,4.000000,4.000000,4.000000,4.000000,4.000000,100.000000
1602006854.664892,42.000000,0.000000,4124.615234,4136.922852,4116.922852,4132.820313,4121.538574,4106.153809,4123.077148,4125.128418,4143.077148,4135.384766,4109.743652,4124.102539,4088.718018,4104.102539,0.000000,4.000000,,,,0.000000,4.000000,4.000000,4.000000,4.000000,4.000000,4.000000,4.000000,4.000000,4.000000,4.000000,4.000000,4.000000,4.000000,4.000000,100.000000
1602006854.672773,43.000000,0.000000,4120.512695,4132.307617,4115.897461,4128.717773,4123.589844,4107.179688,4120.000000,4125.128418,4138.974121,4136.410156,4106.666504,4123.589844,4086.666748,4104.615234,0.000000,4.000000,,,,0.000000,4.000000,4.000000,4.000000,4.000000,4.000000,4.000000,4.000000,4.000000,4.000000,4.000000,4.000000,4.000000,4.000000,4.000000,100.000000
1602006854.680654,44.000000,0.000000,4138.461426,4140.000000,4130.256348,4136.922852,4135.897461,4126.153809,4129.230957,4137.948730,4143.077148,4134.871582,4122.563965,4144.615234,4100.512695,4122.051270,0.000000,4.000000,,,,0.000000,4.000000,4.000000,4.000000,4.000000,4.000000,4.000000,4.000000,4.000000,4.000000,4.000000,4.000000,4.000000,4.000000,4.000000,100.000000
1602006854.688535,45.000000,0.000000,4147.179688,4140.512695,4138.461426,4141.538574,4141.025879,4143.589844,4134.871582,4138.461426,4143.589844,4135.897461,4120.000000,4152.820313,4108.717773,4128.205078,0.000000,4.000000,,,,0.000000,4.000000,4.000000,4.000000,4.000000,4.000000,4.000000,4.000000,4.000000,4.000000,4.000000,4.000000,4.000000,4.000000,4.000000,100.000000
1602006854.696416,46.000000,0.000000,4139.487305,4129.743652,4132.307617,4136.922852,4130.256348,4132.820313,4125.641113,4122.563965,4132.307617,4137.436035,4105.641113,4142.051270,4092.307617,4123.077148,0.000000,4.000000,,,,0.000000,4.000000,4.000000,4.000000,4.000000,4.000000,4.000000,4.000000,4.000000,4.000000,4.000000,4.000000,4.000000,4.000000,4.000000,100.000000
1602006854.704297,47.000000,0.000000,4138.461426,4130.256348,4134.358887,4136.410156,4121.025879,4123.077148,4122.051270,4121.025879,4125.128418,4132.820313,4112.820313,4143.077148,4089.230713,4125.128418,0.000000,4.000000,,,,0.000000,4.000000,4.000000,4.000000,4.000000,4.000000,4.000000,4.000000,4.000000,4.000000,4.000000,4.000000,4.000000,4.000000,4.000000,100.000000
1602006854.712179,48.000000,0.000000,4144.102539,4140.000000,4142.051270,4140.000000,4124.102539,4133.333496,4134.871582,4136.410156,4135.384766,4142.051270,4130.256348,4154.358887,4107.179688,4130.256348,0.000000,4.000000,,,,0.000000,4.000000,4.000000,4.000000,4.000000,4.000000,4.000000,4.000000,4.000000,4.000000,4.000000,4.000000,4.000000,4.000000,4.000000,100.000000
1602006854.720060,49.000000,0.000000,4141.538574,4139.487305,4138.974121,4138.974121,4124.615234,4131.282227,4141.538574,4140.000000,4146.153809,4156.922852,4126.666504,4154.871582,4103.589844,4124.615234,0.000000,4.000000,,,,0.000000,4.000000,4.000000,4.000000,4.000000,4.000000,4.000000,4.000000,4.000000,4.000000,4.000000,4.000000,4.000000,4.000000,4.000000,100.000000
1602006854.727941,50.000000,0.000000,4135.384766,4136.410156,4135.384766,4138.461426,4119.487305,4118.974121,4135.384766,4136.410156,4142.563965,4143.077148,4116.410156,4151.282227,4090.256348,4120.000000,0.000000,4.000000,,,,0.000000,4.000000,4.000000,4.000000,4.000000,4.000000,4.000000,4.000000,4.000000,4.000000,4.000000,4.000000,4.000000,4.000000,4.000000,100.000000
1602006854.735722,51.000000,0.000000,4142.563965,4141.538574,4140.000000,4144.102539,4127.179688,4127.179688,4135.897461,4138.974121,4141.538574,4121.025879,4129.230957,4154.871582,4101.025879,4131.794922,0.000000,4.000000,,,,0.000000,4.000000,4.000000,4.000000,4.000000,4.000000,4.000000,4.000000,4.000000,4.000000,4.000000,4.000000,4.000000,4.000000,4.000000,100.000000
1602006854.743603,52.000000,0.000000,4154.358887,4144.615234,4142.563965,4146.153809,4140.512695,4144.102539,4138.974121,4142.051270,4152.820313,4136.922852,4138.974121,4158.974121,4109.743652,4141.025879,0.000000,4.000000,,,,0.000000,4.000000,4.000000,4.000000,4.000000,4.000000,4.000000,4.000000,4.000000,4.000000,4.000000,4.000000,4.000000,4.000000,4.000000,100.000000
1602006854.751484,53.000000,0.000000,4150.256348,4143.077148,4137.436035,4140.000000,4141.025879,4135.384766,4132.820313,4141.025879,4157.436035,4162.563965,4121.025879,4156.922852,4104.615234,4129.230957,0.000000,4.000000,,,,0.000000,4.000000,4.000000,4.000000,4.000000,4.000000,4.000000,4.000000,4.000000,4.000000,4.000000,4.000000,4.000000,4.000000,4.000000,100.000000
1602006854.759366,54.000000,0.000000,4138.974121,4141.538574,4126.153809,4136.410156,4134.358887,4124.102539,4124.615234,4132.307617,4148.205078,4150.256348,4104.102539,4152.307617,4101.538574,4116.410156,0.000000,4.000000,,,,0.000000,4.000000,4.000000,4.000000,4.000000,4.000000,4.000000,4.000000,4.000000,4.000000,4.000000,4.000000,4.000000,4.000000,4.000000,100.000000
1602006854.767247,55.000000,0.000000,4138.461426,4143.589844,4124.102539,4140.512695,4138.461426,4143.077148,4122.563965,4124.102539,4144.615234,4128.717773,4123.077148,4151.282227,4100.512695,4130.769043,0.000000,4.000000,,,,0.000000,4.000000,4.000000,4.000000,4.000000,4.000000,4.000000,4.000000,4.000000,4.000000,4.000000,4.000000,4.000000,4.000000,4.000000,100.000000
1602006854.775128,56.000000,0.000000,4142.051270,4147.179688,4134.358887,4140.512695,4145.128418,4158.461426,4123.589844,4126.666504,4151.282227,4135.384766,4143.077148,4152.307617,4100.512695,4145.641113,0.000000,4.000000,,,,0.000000,4.000000,4.000000,4.000000,4.000000,4.000000,4.000000,4.000000,4.000000,4.000000,4.000000,4.000000,4.000000,4.000000,4.000000,100.000000
1602006854.783009,57.000000,0.000000,4140.000000,4143.589844,4136.922852,4135.897461,4137.948730,4138.461426,4122.051270,4128.205078,4155.384766,4148.717773,4132.307617,4150.769043,4105.641113,4132.820313,0.000000,4.000000,,,,0.000000,4.000000,4.000000,4.000000,4.000000,4.000000,4.000000,4.000000,4.000000,4.000000,4.000000,4.000000,4.000000,4.000000,4.000000,100.000000
1602006854.790890,58.000000,0.000000,4140.000000,4137.436035,4134.871582,4135.897461,4125.128418,4119.487305,4120.000000,4126.153809,4153.846191,4143.077148,4127.179688,4154.358887,4107.692383,4126.153809,0.000000,4.000000,,,,0.000000,4.000000,4.000000,4.000000,4.000000,4.000000,4.000000,4.000000,4.000000,4.000000,4.000000,4.000000,4.000000,4.000000,4.000000,100.000000
1602006854.798771,59.000000,0.000000,4142.563965,4137.436035,4138.461426,4136.410156,4121.025879,4131.282227,4121.025879,4127.179688,4149.230957,4133.846191,4143.077148,4159.487305,4108.717773,4138.461426,0.000000,4.000000,,,,0.000000,4.000000,4.000000,4.000000,4.000000,4.000000,4.000000,4.000000,4.000000,4.000000,4.000000,4.000000,4.000000,4.000000,4.000000,100.000000
1602006854.806552,60.000000,0.000000,4142.051270,4136.410156,4134.358887,4130.769043,4125.128418,4139.487305,4129.230957,4127.179688,4144.615234,4141.025879,4150.256348,4156.922852,4112.307617,4144.102539,0.000000,4.000000,,,,0.000000,4.000000,4.000000,4.000000,4.000000,4.000000,4.000000,4.000000,4.000000,4.000000,4.000000,4.000000,4.000000,4.000000,4.000000,100.000000
1602006854.814433,61.000000,0.000000,4137.436035,4129.743652,4125.128418,4129.230957,4125.128418,4128.205078,4135.384766,4128.717773,4143.077148,4141.025879,4134.871582,4156.410156,4109.230957,4135.897461,0.000000,4.000000,,,,0.000000,4.000000,4.000000,4.000000,4.000000,4.000000,4.000000,4.000000,4.000000,4.000000,4.000000,4.000000,4.000000,4.000000,4.000000,100.000000
1602006854.822214,62.000000,0.000000,4138.974121,4131.282227,4128.205078,4136.410156,4122.563965,4121.538574,4132.307617,4136.410156,4146.666504,4132.820313,4125.128418,4160.000000,4104.102539,4128.717773,0.000000,4.000000,,,,0.000000,4.000000,4.000000,4.000000,4.000000,4.000000,4.000000,4.000000,4.000000,4.000000,4.000000,4.000000,4.000000,4.000000,4.000000,100.000000
1602006854.830094,63.000000,0.000000,4143.589844,4140.000000,4130.769043,4140.000000,4127.692383,4124.102539,4128.205078,4140.000000,4150.256348,4143.589844,4127.692383,4152.820313,4105.128418,4123.589844,0.000000,4.000000,,,,0.000000,4.000000,4.000000,4.000000,4.000000,4.000000,4.000000,4.000000,4.000000,4.000000,4.000000,4.000000,4.000000,4.000000,4.000000,100.000000
1602006854.837875,64.000000,0.000000,4133.846191,4138.974121,4123.077148,4137.436035,4135.897461,4124.615234,4128.717773,4137.948730,4153.846191,4150.769043,4125.641113,4140.512695,4105.641113,4116.922852,794.000000,4.000000,,,,0.000000,4.000000,4.000000,4.000000,4.000000,4.000000,4.000000,4.000000,4.000000,4.000000,4.000000,4.000000,4.000000,4.000000,4.000000,100.000000
1602006854.845756,65.000000,0.000000,4123.589844,4135.897461,4120.512695,4137.948730,4136.410156,4129.230957,4127.179688,4134.871582,4160.512695,4147.692383,4123.077148,4137.948730,4106.666504,4118.461426,789.000000,4.000000,,,,0.000000,4.000000,4.000000,4.000000,4.000000,4.000000,4.000000,4.000000,4.000000,4.000000,4.000000,4.000000,4.000000,4.000000,4.000000,100.000000
1602006854.853537,66.000000,0.000000,4133.333496,4147.179688,4127.179688,4141.025879,4136.922852,4138.461426,4123.077148,4122.563965,4153.846191,4147.179688,4117.948730,4140.512695,4104.615234,4125.641113,849.000000,4.000000,,,,0.000000,4.000000,4.000000,4.000000,4.000000,4.000000,4.000000,4.000000,4.000000,4.000000,4.000000,4.000000,4.000000,4.000000,4.000000,100.000000
1602006854.861418,67.000000,0.000000,4142.563965,4152.820313,4128.205078,4142.051270,4143.077148,4144.615234,4121.025879,4108.205078,4134.871582,4133.846191,4113.846191,4137.948730,4092.820557,4126.666504,867.000000,4.000000,,,,0.000000,4.000000,4.000000,4.000000,4.000000,4.000000,4.000000,4.000000,4.000000,4.000000,4.000000,4.000000,4.000000,4.000000,4.000000,100.000000
1602006854.869299,68.000000,0.000000,4137.948730,4144.102539,4126.153809,4143.077148,4136.410156,4143.589844,4117.436035,4107.692383,4127.179688,4113.333496,4121.538574,4138.974121,4087.692383,4120.000000,810.000000,4.000000,,,,0.000000,4.000000,4.000000,4.000000,4.000000,4.000000,4.000000,4.000000,4.000000,4.000000,4.000000,4.000000,4.000000,4.000000,4.000000,100.000000
1602006854.877181,69.000000,0.000000,4137.436035,4135.897461,4128.717773,4141.025879,4122.563965,4132.307617,4116.922852,4111.282227,4130.256348,4119.487305,4125.641113,4141.538574,4092.820557,4123.077148,824.000000,4.000000,,,,0.000000,4.000000,4.000000,4.000000,4.000000,4.000000,4.000000,4.000000,4.000000,4.000000,4.000000,4.000000,4.000000,4.000000,4.000000,100.000000
1602006854.885062,70.000000,0.000000,4133.846191,4128.205078,4126.153809,4130.769043,4122.563965,4120.512695,4121.538574,4111.794922,4126.153809,4130.256348,4110.256348,4137.948730,4091.281982,4125.641113,758.000000,4.000000,,,,0.000000,4.000000,4.000000,4.000000,4.000000,4.000000,4.000000,4.000000,4.000000,4.000000,4.000000,4.000000,4.000000,4.000000,4.000000,100.000000
1602006854.892943,71.000000,0.000000,4124.615234,4127.692383,4122.051270,4129.230957,4127.179688,4123.077148,4125.641113,4116.922852,4127.692383,4121.538574,4106.666504,4142.563965,4091.281982,4121.025879,659.000000,4.000000,,,,0.000000,4.000000,4.000000,4.000000,4.000000,4.000000,4.000000,4.000000,4.000000,4.000000,4.000000,4.000000,4.000000,4.000000,4.000000,100.000000
1602006854.900824,72.000000,0.000000,4126.153809,4135.384766,4128.205078,4137.436035,4124.615234,4126.153809,4125.641113,4126.666504,4137.948730,4128.205078,4129.230957,4152.820313,4100.512695,4129.230957,776.000000,4.000000,,,,0.000000,4.000000,4.000000,4.000000,4.000000,4.000000,4.000000,4.000000,4.000000,4.000000,4.000000,4.000000,4.000000,4.000000,4.000000,100.000000
1602006854.908705,73.000000,0.000000,4132.820313,4141.025879,4136.410156,4137.436035,4123.589844,4119.487305,4127.692383,4134.871582,4145.128418,4142.563965,4137.948730,4155.384766,4103.589844,4137.436035,836.000000,4.000000,,,,0.000000,4.000000,4.000000,4.000000,4.000000,4.000000,4.000000,4.000000,4.000000,4.000000,4.000000,4.000000,4.000000,4.000000,4.000000,100.000000
1602006854.916486,74.000000,0.000000,4144.102539,4148.717773,4140.512695,4143.077148,4135.384766,4130.256348,4137.436035,4141.538574,4158.461426,4143.589844,4136.410156,4163.589844,4112.307617,4138.461426,871.000000,4.000000,,,,0.000000,4.000000,4.000000,4.000000,4.000000,4.000000,4.000000,4.000000,4.000000,4.000000,4.000000,4.000000,4.000000,4.000000,4.000000,100.000000
1602006854.924367,75.000000,0.000000,4152.307617,4160.512695,4145.641113,4153.333496,4145.128418,4146.153809,4138.974121,4146.153809,4168.205078,4146.666504,4146.153809,4172.820313,4128.205078,4143.589844,838.000000,4.000000,,,,0.000000,4.000000,4.000000,4.000000,4.000000,4.000000,4.000000,4.000000,4.000000,4.000000,4.000000,4.000000,4.000000,4.000000,4.000000,100.000000
1602006854.932248,76.000000,0.000000,4144.102539,4158.461426,4141.025879,4146.153809,4136.922852,4133.333496,4126.666504,4137.436035,4155.897461,4142.051270,4144.102539,4162.051270,4127.692383,4144.102539,760.000000,4.000000,,,,0.000000,4.000000,4.000000,4.000000,4.000000,4.000000,4.000000,4.000000,4.000000,4.000000,4.000000,4.000000,4.000000,4.000000,4.000000,100.000000
1602006854.940129,77.000000,0.000000,4134.358887,4150.769043,4128.717773,4134.358887,4128.205078,4121.538574,4118.461426,4125.128418,4144.615234,4135.384766,4123.077148,4146.153809,4117.436035,4135.897461,727.000000,4.000000,,,,0.000000,4.000000,4.000000,4.000000,4.000000,4.000000,4.000000,4.000000,4.000000,4.000000,4.000000,4.000000,4.000000,4.000000,4.000000,100.000000
1602006854.947910,78.000000,0.000000,4141.025879,4154.358887,4131.282227,4141.025879,4134.871582,4137.948730,4123.077148,4126.153809,4145.128418,4149.743652,4117.948730,4144.615234,4121.538574,4137.436035,871.000000,4.000000,,,,0.000000,4.000000,4.000000,4.000000,4.000000,4.000000,4.000000,4.000000,4.000000,4.000000,4.000000,4.000000,4.000000,4.000000,4.000000,100.000000
1602006854.955792,79.000000,0.000000,4141.025879,4153.846191,4137.436035,4145.128418,4133.333496,4144.615234,4124.615234,4127.692383,4138.974121,4155.384766,4129.230957,4143.589844,4128.205078,4140.000000,838.000000,4.000000,,,,0.000000,4.000000,4.000000,4.000000,4.000000,4.000000,4.000000,4.000000,4.000000,4.000000,4.000000,4.000000,4.000000,4.000000,4.000000,100.000000
1602006854.963673,80.000000,0.000000,4134.871582,4148.205078,4134.871582,4137.436035,4124.615234,4125.641113,4119.487305,4120.000000,4141.025879,4139.487305,4135.897461,4146.153809,4124.615234,4136.410156,760.000000,4.000000,,,,0.000000,4.000000,4.000000,4.000000,4.000000,4.000000,4.000000,4.000000,4.000000,4.000000,4.000000,4.000000,4.000000,4.000000,4.000000,100.000000
1602006854.971554,81.000000,0.000000,4146.153809,4151.794922,4143.589844,4143.589844,4132.307617,4122.051270,4120.512695,4124.102539,4161.025879,4151.282227,4146.153809,4153.846191,4128.717773,4145.641113,727.000000,4.000000,,,,0.000000,4.000000,4.000000,4.000000,4.000000,4.000000,4.000000,4.000000,4.000000,4.000000,4.000000,4.000000,4.000000,4.000000,4.000000,100.000000
1602006854.979435,82.000000,0.000000,4161.538574,4157.436035,4153.846191,4150.256348,4136.922852,4136.922852,4123.589844,4136.922852,4179.487305,4175.384766,4160.000000,4156.410156,4146.153809,4159.487305,871.000000,4.000000,,,,0.000000,4.000000,4.000000,4.000000,4.000000,4.000000,4.000000,4.000000,4.000000,4.000000,4.000000,4.000000,4.000000,4.000000,4.000000,100.000000
1602006854.987316,83.000000,0.000000,4160.512695,4151.282227,4144.615234,4143.589844,4126.153809,4140.512695,4127.692383,4137.948730,4176.410156,4166.666504,4155.897461,4155.897461,4158.461426,4164.615234,838.000000,4.000000,,,,0.000000,4.000000,4.000000,4.000000,4.000000,4.000000,4.000000,4.000000,4.000000,4.000000,4.000000,4.000000,4.000000,4.000000,4.000000,100.000000
1602006854.995197,84.000000,0.000000,4143.077148,4138.461426,4136.410156,4135.384766,4120.000000,4130.256348,4134.871582,4142.051270,4159.487305,4148.205078,4134.358887,4154.871582,4137.436035,4149.743652,760.000000,4.000000,,,,0.000000,4.000000,4.000000,4.000000,4.000000,4.000000,4.000000,4.000000,4.000000,4.000000,4.000000,4.000000,4.000000,4.000000,4.000000,100.000000
1602006855.003079,85.000000,0.000000,4130.256348,4134.358887,4146.666504,4137.948730,4121.538574,4132.307617,4143.077148,4154.358887,4152.820313,4140.512695,4122.051270,4158.461426,4110.256348,4130.769043,727.000000,4.000000,,,,0.000000,4.000000,4.000000,4.000000,4.000000,4.000000,4.000000,4.000000,4.000000,4.000000,4.000000,4.000000,4.000000,4.000000,4.000000,100.000000
1602006855.010960,86.000000,0.000000,4145.128418,4143.077148,4154.871582,4148.205078,4131.282227,4151.794922,4145.128418,4157.436035,4156.922852,4137.948730,4132.820313,4166.666504,4124.102539,4147.179688,871.000000,4.000000,,,,0.000000,4.000000,4.000000,4.000000,4.000000,4.000000,4.000000,4.000000,4.000000,4.000000,4.000000,4.000000,4.000000,4.000000,4.000000,100.000000
1602006855.018941,87.000000,0.000000,4155.897461,4147.692383,4156.922852,4150.769043,4136.922852,4153.333496,4143.077148,4152.820313,4152.307617,4144.102539,4147.692383,4171.282227,4155.897461,4175.384766,838.000000,4.000000,,,,0.000000,4.000000,4.000000,4.000000,4.000000,4.000000,4.000000,4.000000,4.000000,4.000000,4.000000,4.000000,4.000000,4.000000,4.000000,100.000000
1602006855.026822,88.000000,0.000000,4132.820313,4134.358887,4155.384766,4141.538574,4126.666504,4133.846191,4140.512695,4151.794922,4141.025879,4153.333496,4149.743652,4166.666504,4165.128418,4174.871582,760.000000,4.000000,,,,0.000000,4.000000,4.000000,4.000000,4.000000,4.000000,4.000000,4.000000,4.000000,4.000000,4.000000,4.000000,4.000000,4.000000,4.000000,100.000000
1602006855.034703,89.000000,0.000000,4111.282227,4118.461426,4145.641113,4132.307617,4126.153809,4127.692383,4139.487305,4153.333496,4139.487305,4156.922852,4159.487305,4156.922852,4170.769043,4170.769043,727.000000,4.000000,,,,0.000000,4.000000,4.000000,4.000000,4.000000,4.000000,4.000000,4.000000,4.000000,4.000000,4.000000,4.000000,4.000000,4.000000,4.000000,100.000000
1602006855.042584,90.000000,0.000000,4114.358887,4121.025879,4138.461426,4136.410156,4135.897461,4139.487305,4141.025879,4148.717773,4143.589844,4153.846191,4171.794922,4157.436035,4187.692383,4178.974121,871.000000,4.000000,,,,0.000000,4.000000,4.000000,4.000000,4.000000,4.000000,4.000000,4.000000,4.000000,4.000000,4.000000,4.000000,4.000000,4.000000,4.000000,100.000000
1602006855.050465,91.000000,0.000000,4110.256348,4122.563965,4140.512695,4137.948730,4126.666504,4140.512695,4139.487305,4140.000000,4134.871582,4141.538574,4162.563965,4167.692383,4185.641113,4175.384766,838.000000,4.000000,,,,0.000000,4.000000,4.000000,4.000000,4.000000,4.000000,4.000000,4.000000,4.000000,4.000000,4.000000,4.000000,4.000000,4.000000,4.000000,100.000000
1602006855.058347,92.000000,0.000000,4100.512695,4111.282227,4135.897461,4128.717773,4124.102539,4139.487305,4135.384766,4131.282227,4125.128418,4149.230957,4155.897461,4171.794922,4175.897461,4168.205078,760.000000,4.000000,,,,0.000000,4.000000,4.000000,4.000000,4.000000,4.000000,4.000000,4.000000,4.000000,4.000000,4.000000,4.000000,4.000000,4.000000,4.000000,100.000000
1602006855.066228,93.000000,0.000000,4101.538574,4110.256348,4126.666504,4126.153809,4136.922852,4140.000000,4133.846191,4126.153809,4129.230957,4171.282227,4166.666504,4168.205078,4181.025879,4172.307617,727.000000,4.000000,,,,0.000000,4.000000,4.000000,4.000000,4.000000,4.000000,4.000000,4.000000,4.000000,4.000000,4.000000,4.000000,4.000000,4.000000,4.000000,100.000000
1602006855.074109,94.000000,0.000000,4102.563965,4120.512695,4130.769043,4132.307617,4133.846191,4128.205078,4134.358887,4126.153809,4136.410156,4170.769043,4171.794922,4166.153809,4186.153809,4175.897461,871.000000,4.000000,,,,0.000000,4.000000,4.000000,4.000000,4.000000,4.000000,4.000000,4.000000,4.000000,4.000000,4.000000,4.000000,4.000000,4.000000,4.000000,100.000000
1602006855.081990,95.000000,0.000000,4112.307617,4125.128418,4141.538574,4138.461426,4131.282227,4127.692383,4137.436035,4133.333496,4145.128418,4175.384766,4166.153809,4168.205078,4186.153809,4176.922852,838.000000,4.000000,,,,0.000000,4.000000,4.000000,4.000000,4.000000,4.000000,4.000000,4.000000,4.000000,4.000000,4.000000,4.000000,4.000000,4.000000,4.000000,100.000000
1602006855.089871,96.000000,0.000000,4128.717773,4124.615234,4143.077148,4140.512695,4143.077148,4143.077148,4141.025879,4147.179688,4160.000000,4189.230957,4168.205078,4170.256348,4180.512695,4172.307617,760.000000,4.000000,,,,0.000000,4.000000,4.000000,4.000000,4.000000,4.000000,4.000000,4.000000,4.000000,4.000000,4.000000,4.000000,4.000000,4.000000,4.000000,100.000000
1602006855.097652,97.000000,0.000000,4124.615234,4123.589844,4141.538574,4135.897461,4144.102539,4147.179688,4145.128418,4154.871582,4162.563965,4165.128418,4169.230957,4165.128418,4172.307617,4168.205078,727.000000,4.000000,,,,0.000000,4.000000,4.000000,4.000000,4.000000,4.000000,4.000000,4.000000,4.000000,4.000000,4.000000,4.000000,4.000000,4.000000,4.000000,100.000000
1602006855.105534,98.000000,0.000000,4106.666504,4118.461426,4139.487305,4130.256348,4137.436035,4143.589844,4149.230957,4157.948730,4153.333496,4143.077148,4160.000000,4153.846191,4168.205078,4170.256348,871.000000,4.000000,,,,0.000000,4.000000,4.000000,4.000000,4.000000,4.000000,4.000000,4.000000,4.000000,4.000000,4.000000,4.000000,4.000000,4.000000,4.000000,100.000000
1602006855.113415,99.000000,0.000000,4103.589844,4117.436035,4136.410156,4131.794922,4139.487305,4144.102539,4152.820313,4163.077148,4152.820313,4164.615234,4152.820313,4150.256348,4166.153809,4165.641113,838.000000,4.000000,,,,0.000000,4.000000,4.000000,4.000000,4.000000,4.000000,4.000000,4.000000,4.000000,4.000000,4.000000,4.000000,4.000000,4.000000,4.000000,100.000000
1602006855.121296,100.000000,0.000000,4110.256348,4117.948730,4136.410156,4134.358887,4140.000000,4142.051270,4148.205078,4162.563965,4151.282227,4166.153809,4153.846191,4153.846191,4155.384766,4158.461426,760.000000,4.000000,,,,0.000000,4.000000,4.000000,4.000000,4.000000,4.000000,4.000000,4.000000,4.000000,4.000000,4.000000,4.000000,4.000000,4.000000,4.000000,100.000000
1602006855.129177,101.000000,0.000000,4108.717773,4113.846191,4136.410156,4132.820313,4135.384766,4137.436035,4140.000000,4154.871582,4145.128418,4149.230957,4154.871582,4152.820313,4151.794922,4155.897461,727.000000,4.000000,,,,0.000000,4.000000,4.000000,4.000000,4.000000,4.000000,4.000000,4.000000,4.000000,4.000000,4.000000,4.000000,4.000000,4.000000,4.000000,100.000000
1602006855.137058,102.000000,0.000000,4105.641113,4110.769043,4133.333496,4130.769043,4133.846191,4139.487305,4137.436035,4151.282227,4152.307617,4163.589844,4151.794922,4153.846191,4161.538574,4152.307617,871.000000,4.000000,,,,0.000000,4.000000,4.000000,4.000000,4.000000,4.000000,4.000000,4.000000,4.000000,4.000000,4.000000,4.000000,4.000000,4.000000,4.000000,100.000000
1602006855.144939,103.000000,0.000000,4107.179688,4110.769043,4132.820313,4129.743652,4136.410156,4140.000000,4136.922852,4150.256348,4161.538574,4174.358887,4158.974121,4157.436035,4166.666504,4153.846191,838.000000,4.000000,,,,0.000000,4.000000,4.000000,4.000000,4.000000,4.000000,4.000000,4.000000,4.000000,4.000000,4.000000,4.000000,4.000000,4.000000,4.000000,100.000000
1602006855.152821,104.000000,0.000000,4106.666504,4114.358887,4135.897461,4132.307617,4136.410156,4136.410156,4137.948730,4144.102539,4157.436035,4160.512695,4171.794922,4156.922852,4167.692383,4168.205078,760.000000,4.000000,,,,0.000000,4.000000,4.000000,4.000000,4.000000,4.000000,4.000000,4.000000,4.000000,4.000000,4.000000,4.000000,4.000000,4.000000,4.000000,100.000000
1602006855.160702,105.000000,0.000000,4110.769043,4120.000000,4138.461426,4138.461426,4134.871582,4134.358887,4135.897461,4141.025879,4149.743652,4152.820313,4168.205078,4153.333496,4169.743652,4176.410156,727.000000,4.000000,,,,0.000000,4.000000,4.000000,4.000000,4.000000,4.000000,4.000000,4.000000,4.000000,4.000000,4.000000,4.000000,4.000000,4.000000,4.000000,100.000000
1602006855.168483,106.000000,0.000000,4120.000000,4123.589844,4139.487305,4139.487305,4136.922852,4134.358887,4127.692383,4138.461426,4142.051270,4154.871582,4156.922852,4155.384766,4171.282227,4170.256348,871.000000,4.000000,,,,0.000000,4.000000,4.000000,4.000000,4.000000,4.000000,4.000000,4.000000,4.000000,4.000000,4.000000,4.000000,4.000000,4.000000,4.000000,100.000000
1602006855.176364,107.000000,0.000000,4123.589844,4124.615234,4145.128418,4138.974121,4140.000000,4137.436035,4128.717773,4135.897461,4134.871582,4156.922852,4158.974121,4165.641113,4170.256348,4169.743652,838.000000,4.000000,,,,0.000000,4.000000,4.000000,4.000000,4.000000,4.000000,4.000000,4.000000,4.000000,4.000000,4.000000,4.000000,4.000000,4.000000,4.000000,100.000000
1602006855.184245,108.000000,0.000000,4118.974121,4123.077148,4150.769043,4141.025879,4137.436035,4134.871582,4135.384766,4131.282227,4124.615234,4145.641113,4155.897461,4165.128418,4158.974121,4172.307617,760.000000,4.000000,,,,0.000000,4.000000,4.000000,4.000000,4.000000,4.000000,4.000000,4.000000,4.000000,4.000000,4.000000,4.000000,4.000000,4.000000,4.000000,100.000000
1602006855.192127,109.000000,0.000000,4119.487305,4123.077148,4152.307617,4138.974121,4136.922852,4125.641113,4130.256348,4125.128418,4110.769043,4127.692383,4139.487305,4154.871582,4147.179688,4166.153809,727.000000,4.000000,,,,0.000000,4.000000,4.000000,4.000000,4.000000,4.000000,4.000000,4.000000,4.000000,4.000000,4.000000,4.000000,4.000000,4.000000,4.000000,100.000000
1602006855.200008,110.000000,0.000000,4126.666504,4129.230957,4152.820313,4138.461426,4137.948730,4125.641113,4127.692383,4129.230957,4113.333496,4139.487305,4141.025879,4157.436035,4152.307617,4162.051270,871.000000,4.000000,,,,0.000000,4.000000,4.000000,4.000000,4.000000,4.000000,4.000000,4.000000,4.000000,4.000000,4.000000,4.000000,4.000000,4.000000,4.000000,100.000000
1602006855.207889,111.000000,0.000000,4121.538574,4128.717773,4145.641113,4140.512695,4130.256348,4129.743652,4136.922852,4137.436035,4127.692383,4150.769043,4151.794922,4163.077148,4160.512695,4162.051270,838.000000,4.000000,,,,0.000000,4.000000,4.000000,4.000000,4.000000,4.000000,4.000000,4.000000,4.000000,4.000000,4.000000,4.000000,4.000000,4.000000,4.000000,100.000000
1602006855.215770,112.000000,0.000000,4109.743652,4120.512695,4134.871582,4138.461426,4127.692383,4124.615234,4138.974121,4137.436035,4134.358887,4124.615234,4150.769043,4150.256348,4148.205078,4155.897461,760.000000,4.000000,,,,0.000000,4.000000,4.000000,4.000000,4.000000,4.000000,4.000000,4.000000,4.000000,4.000000,4.000000,4.000000,4.000000,4.000000,4.000000,100.000000
1602006855.223651,113.000000,0.000000,4105.641113,4116.410156,4134.871582,4133.846191,4134.871582,4124.615234,4135.897461,4137.436035,4135.897461,4120.512695,4150.256348,4136.922852,4135.897461,4151.282227,727.000000,4.000000,,,,0.000000,4.000000,4.000000,4.000000,4.000000,4.000000,4.000000,4.000000,4.000000,4.000000,4.000000,4.000000,4.000000,4.000000,4.000000,100.000000
1602006855.231632,114.000000,0.000000,4098.974121,4111.794922,4135.384766,4127.179688,4132.307617,4135.897461,4137.948730,4145.128418,4139.487305,4152.307617,4156.410156,4144.615234,4146.153809,4154.871582,871.000000,4.000000,,,,0.000000,4.000000,4.000000,4.000000,4.000000,4.000000,4.000000,4.000000,4.000000,4.000000,4.000000,4.000000,4.000000,4.000000,4.000000,100.000000
1602006855.239512,115.000000,0.000000,4092.307617,4105.128418,4125.128418,4122.563965,4125.641113,4139.487305,4136.922852,4152.307617,4145.128418,4158.461426,4152.307617,4156.410156,4156.410156,4148.717773,838.000000,4.000000,,,,0.000000,4.000000,4.000000,4.000000,4.000000,4.000000,4.000000,4.000000,4.000000,4.000000,4.000000,4.000000,4.000000,4.000000,4.000000,100.000000
1602006855.247493,116.000000,0.000000,4101.538574,4106.666504,4120.000000,4122.051270,4128.205078,4135.384766,4136.410156,4152.307617,4151.794922,4145.641113,4148.205078,4151.794922,4148.717773,4136.410156,760.000000,4.000000,,,,0.000000,4.000000,4.000000,4.000000,4.000000,4.000000,4.000000,4.000000,4.000000,4.000000,4.000000,4.000000,4.000000,4.000000,4.000000,100.000000
1602006855.255374,117.000000,0.000000,4105.128418,4107.692383,4125.128418,4122.563965,4127.692383,4138.974121,4140.000000,4148.205078,4157.948730,4153.846191,4154.358887,4141.538574,4146.666504,4144.102539,727.000000,4.000000,,,,0.000000,4.000000,4.000000,4.000000,4.000000,4.000000,4.000000,4.000000,4.000000,4.000000,4.000000,4.000000,4.000000,4.000000,4.000000,100.000000
1602006855.263355,118.000000,0.000000,4088.205078,4096.922852,4124.102539,4120.512695,4121.025879,4141.538574,4142.051270,4143.077148,4151.282227,4157.436035,4152.820313,4140.000000,4153.333496,4158.461426,871.000000,4.000000,,,,0.000000,4.000000,4.000000,4.000000,4.000000,4.000000,4.000000,4.000000,4.000000,4.000000,4.000000,4.000000,4.000000,4.000000,4.000000,100.000000
1602006855.271236,119.000000,0.000000,4087.692383,4095.384521,4119.487305,4118.974121,4120.000000,4136.410156,4138.974121,4143.589844,4137.436035,4138.461426,4143.589844,4138.461426,4151.794922,4157.436035,838.000000,4.000000,,,,0.000000,4.000000,4.000000,4.000000,4.000000,4.000000,4.000000,4.000000,4.000000,4.000000,4.000000,4.000000,4.000000,4.000000,4.000000,100.000000
1602006855.279117,120.000000,0.000000,4107.692383,4107.179688,4121.538574,4124.102539,4122.563965,4143.077148,4135.897461,4145.128418,4140.512695,4130.256348,4138.974121,4134.871582,4148.717773,4151.282227,760.000000,4.000000,,,,0.000000,4.000000,4.000000,4.000000,4.000000,4.000000,4.000000,4.000000,4.000000,4.000000,4.000000,4.000000,4.000000,4.000000,4.000000,100.000000
1602006855.286998,121.000000,0.000000,4108.717773,4113.333496,4123.589844,4128.717773,4130.769043,4152.820313,4133.846191,4144.102539,4151.794922,4146.153809,4145.641113,4136.922852,4152.307617,4153.333496,727.000000,4.000000,,,,0.000000,4.000000,4.000000,4.000000,4.000000,4.000000,4.000000,4.000000,4.000000,4.000000,4.000000,4.000000,4.000000,4.000000,4.000000,100.000000
1602006855.294879,122.000000,0.000000,4095.897461,4108.717773,4122.051270,4124.615234,4137.436035,4144.615234,4129.743652,4144.615234,4156.922852,4168.717773,4153.333496,4140.000000,4154.358887,4154.871582,871.000000,4.000000,,,,0.000000,4.000000,4.000000,4.000000,4.000000,4.000000,4.000000,4.000000,4.000000,4.000000,4.000000,4.000000,4.000000,4.000000,4.000000,100.000000
1602006855.302761,123.000000,0.000000,4098.461426,4105.641113,4121.538574,4122.563965,4134.871582,4135.384766,4124.615234,4147.179688,4157.948730,4173.333496,4152.307617,4137.948730,4154.871582,4150.256348,838.000000,4.000000,,,,0.000000,4.000000,4.000000,4.000000,4.000000,4.000000,4.000000,4.000000,4.000000,4.000000,4.000000,4.000000,4.000000,4.000000,4.000000,100.000000
1602006855.310642,124.000000,0.000000,4107.179688,4107.692383,4122.563965,4127.179688,4133.846191,4138.461426,4121.538574,4147.692383,4149.743652,4151.282227,4149.743652,4136.922852,4152.307617,4142.563965,760.000000,4.000000,,,,0.000000,4.000000,4.000000,4.000000,4.000000,4.000000,4.000000,4.000000,4.000000,4.000000,4.000000,4.000000,4.000000,4.000000,4.000000,100.000000
1602006855.318523,125.000000,0.000000,4107.692383,4112.307617,4130.256348,4131.282227,4135.384766,4141.538574,4126.666504,4149.743652,4138.974121,4134.358887,4151.794922,4145.128418,4144.615234,4136.922852,727.000000,4.000000,,,,0.000000,4.000000,4.000000,4.000000,4.000000,4.000000,4.000000,4.000000,4.000000,4.000000,4.000000,4.000000,4.000000,4.000000,4.000000,100.000000
1602006855.326504,126.000000,0.000000,4109.743652,4113.333496,4140.512695,4130.256348,4129.743652,4138.461426,4138.974121,4155.897461,4147.179688,4139.487305,4155.897461,4156.410156,4145.641113,4140.000000,871.000000,4.000000,,,,0.000000,4.000000,4.000000,4.000000,4.000000,4.000000,4.000000,4.000000,4.000000,4.000000,4.000000,4.000000,4.000000,4.000000,4.000000,100.000000
1602006855.334385,127.000000,0.000000,4100.512695,4101.538574,4130.256348,4122.563965,4123.077148,4133.846191,4146.666504,4155.897461,4158.461426,4145.641113,4150.769043,4151.794922,4144.615234,4136.410156,838.000000,4.000000,,,,0.000000,4.000000,4.000000,4.000000,4.000000,4.000000,4.000000,4.000000,4.000000,4.000000,4.000000,4.000000,4.000000,4.000000,4.000000,100.000000
1602006855.342266,128.000000,0.000000,4082.051270,4089.743652,4110.769043,4111.282227,4116.922852,4130.769043,4147.692383,4150.769043,4151.794922,4148.205078,4141.025879,4139.487305,4135.897461,4132.820313,760.000000,4.000000,,,,0.000000,4.000000,4.000000,4.000000,4.000000,4.000000,4.000000,4.000000,4.000000,4.000000,4.000000,4.000000,4.000000,4.000000,4.000000,100.000000
1602006855.350147,0.000000,0.000000,4089.743652,4097.436035,4115.897461,4114.871582,4118.461426,4136.410156,4153.333496,4154.871582,4147.179688,4161.538574,4145.128418,4147.179688,4143.589844,4144.615234,794.000000,4.000000,,,,0.000000,4.000000,4.000000,4.000000,4.000000,4.000000,4.000000,4.000000,4.000000,4.000000,4.000000,4.000000,4.000000,4.000000,4.000000,100.000000
1602006855.358028,1.000000,0.000000,4117.436035,4117.436035,4143.077148,4133.846191,4132.307617,4148.205078,4153.846191,4160.000000,4162.051270,4175.897461,4163.589844,4166.153809,4166.666504,4167.179688,789.000000,4.000000,,,,0.000000,4.000000,4.000000,4.000000,4.000000,4.000000,4.000000,4.000000,4.000000,4.000000,4.000000,4.000000,4.000000,4.000000,4.000000,100.000000
1602006855.365908,2.000000,0.000000,4129.743652,4128.717773,4155.384766,4143.589844,4143.077148,4153.333496,4142.563965,4158.461426,4176.410156,4166.153809,4174.358887,4169.743652,4174.871582,4176.410156,849.000000,4.000000,,,,0.000000,4.000000,4.000000,4.000000,4.000000,4.000000,4.000000,4.000000,4.000000,4.000000,4.000000,4.000000,4.000000,4.000000,4.000000,100.000000
1602006855.373789,3.000000,0.000000,4121.538574,4122.563965,4140.512695,4135.384766,4140.512695,4150.256348,4133.333496,4152.820313,4173.333496,4152.307617,4162.051270,4160.512695,4165.128418,4160.000000,867.000000,4.000000,,,,0.000000,4.000000,4.000000,4.000000,4.000000,4.000000,4.000000,4.000000,4.000000,4.000000,4.000000,4.000000,4.000000,4.000000,4.000000,100.000000
1602006855.381570,4.000000,0.000000,4111.794922,4113.333496,4125.641113,4125.641113,4139.487305,4150.256348,4133.846191,4153.846191,4171.282227,4163.077148,4147.692383,4155.384766,4160.512695,4141.025879,810.000000,4.000000,,,,0.000000,4.000000,4.000000,4.000000,4.000000,4.000000,4.000000,4.000000,4.000000,4.000000,4.000000,4.000000,4.000000,4.000000,4.000000,100.000000
1602006855.389451,5.000000,0.000000,4100.000000,4109.230957,4122.051270,4124.102539,4142.563965,4151.282227,4135.897461,4156.922852,4171.282227,4173.846191,4143.077148,4147.179688,4158.974121,4135.384766,824.000000,4.000000,,,,0.000000,4.000000,4.000000,4.000000,4.000000,4.000000,4.000000,4.000000,4.000000,4.000000,4.000000,4.000000,4.000000,4.000000,4.000000,100.000000
1602006855.397332,6.000000,0.000000,4089.230713,4105.641113,4118.461426,4123.589844,4135.384766,4143.589844,4135.384766,4149.230957,4161.025879,4161.025879,4141.538574,4136.410156,4147.692383,4133.846191,759.000000,4.000000,,,,0.000000,4.000000,4.000000,4.000000,4.000000,4.000000,4.000000,4.000000,4.000000,4.000000,4.000000,4.000000,4.000000,4.000000,4.000000,100.000000
1602006855.405213,7.000000,0.000000,4096.410156,4106.153809,4126.153809,4121.025879,4128.717773,4138.461426,4136.922852,4140.000000,4154.358887,4146.666504,4140.512695,4143.589844,4139.487305,4135.384766,659.000000,4.000000,,,,0.000000,4.000000,4.000000,4.000000,4.000000,4.000000,4.000000,4.000000,4.000000,4.000000,4.000000,4.000000,4.000000,4.000000,4.000000,100.000000
1602006855.413094,8.000000,0.000000,4105.641113,4108.205078,4134.871582,4121.538574,4126.666504,4141.025879,4137.436035,4136.922852,4156.922852,4134.358887,4140.000000,4156.410156,4142.563965,4138.461426,778.000000,4.000000,,,,0.000000,4.000000,4.000000,4.000000,4.000000,4.000000,4.000000,4.000000,4.000000,4.000000,4.000000,4.000000,4.000000,4.000000,4.000000,100.000000
1602006855.420975,9.000000,0.000000,4102.051270,4105.641113,4126.153809,4123.077148,4125.128418,4137.948730,4136.410156,4136.410156,4151.794922,4126.153809,4136.410156,4154.358887,4140.000000,4133.333496,836.000000,4.000000,,,,0.000000,4.000000,4.000000,4.000000,4.000000,4.000000,4.000000,4.000000,4.000000,4.000000,4.000000,4.000000,4.000000,4.000000,4.000000,100.000000
1602006855.428756,10.000000,0.000000,4101.538574,4104.615234,4122.563965,4122.563965,4133.333496,4135.384766,4136.922852,4136.922852,4149.230957,4134.358887,4136.922852,4149.743652,4136.922852,4128.717773,871.000000,4.000000,,,,0.000000,4.000000,4.000000,4.000000,4.000000,4.000000,4.000000,4.000000,4.000000,4.000000,4.000000,4.000000,4.000000,4.000000,4.000000,100.000000
1602006855.436637,11.000000,0.000000,4111.282227,4105.641113,4125.128418,4123.077148,4138.461426,4139.487305,4131.794922,4138.461426,4156.410156,4140.512695,4138.974121,4148.205078,4141.025879,4134.871582,838.000000,4.000000,,,,0.000000,4.000000,4.000000,4.000000,4.000000,4.000000,4.000000,4.000000,4.000000,4.000000,4.000000,4.000000,4.000000,4.000000,4.000000,100.000000
1602006855.444518,12.000000,0.000000,4106.666504,4098.461426,4110.256348,4120.000000,4131.794922,4136.922852,4125.641113,4136.410156,4154.871582,4139.487305,4134.358887,4142.051270,4136.410156,4134.358887,760.000000,4.000000,,,,0.000000,4.000000,4.000000,4.000000,4.000000,4.000000,4.000000,4.000000,4.000000,4.000000,4.000000,4.000000,4.000000,4.000000,4.000000,100.000000
1602006855.452399,13.000000,0.000000,4100.512695,4100.512695,4108.717773,4122.051270,4132.820313,4133.846191,4131.282227,4136.410156,4149.743652,4146.666504,4136.922852,4146.666504,4138.974121,4134.358887,727.000000,4.000000,,,,0.000000,4.000000,4.000000,4.000000,4.000000,4.000000,4.000000,4.000000,4.000000,4.000000,4.000000,4.000000,4.000000,4.000000,4.000000,100.000000
1602006855.460280,14.000000,0.000000,4117.436035,4119.487305,4135.897461,4132.307617,4142.563965,4144.102539,4139.487305,4149.230957,4157.948730,4155.384766,4153.333496,4168.205078,4160.000000,4151.282227,871.000000,4.000000,,,,0.000000,4.000000,4.000000,4.000000,4.000000,4.000000,4.000000,4.000000,4.000000,4.000000,4.000000,4.000000,4.000000,4.000000,4.000000,100.000000
1602006855.468161,15.000000,0.000000,4128.205078,4124.102539,4146.666504,4134.358887,4142.563965,4157.436035,4136.410156,4152.820313,4170.769043,4155.384766,4156.922852,4176.922852,4163.589844,4154.358887,838.000000,4.000000,,,,0.000000,4.000000,4.000000,4.000000,4.000000,4.000000,4.000000,4.000000,4.000000,4.000000,4.000000,4.000000,4.000000,4.000000,4.000000,100.000000
1602006855.476142,16.000000,0.000000,4112.820313,4108.717773,4130.769043,4122.563965,4137.948730,4154.871582,4132.820313,4140.000000,4169.230957,4140.000000,4141.025879,4166.666504,4142.563965,4137.948730,0.000000,4.000000,,,,0.000000,4.000000,4.000000,4.000000,4.000000,4.000000,4.000000,4.000000,4.000000,4.000000,4.000000,4.000000,4.000000,4.000000,4.000000,100.000000
1602006855.484022,17.000000,0.000000,4095.384521,4102.051270,4120.512695,4117.436035,4135.384766,4140.000000,4135.384766,4135.897461,4156.922852,4117.948730,4127.179688,4165.641113,4132.820313,4133.846191,0.000000,4.000000,,,,0.000000,4.000000,4.000000,4.000000,4.000000,4.000000,4.000000,4.000000,4.000000,4.000000,4.000000,4.000000,4.000000,4.000000,4.000000,100.000000
1602006855.491903,18.000000,0.000000,4096.410156,4108.205078,4124.102539,4125.128418,4135.384766,4138.461426,4135.384766,4142.563965,4155.384766,4125.641113,4128.205078,4172.820313,4139.487305,4133.333496,0.000000,4.000000,,,,0.000000,4.000000,4.000000,4.000000,4.000000,4.000000,4.000000,4.000000,4.000000,4.000000,4.000000,4.000000,4.000000,4.000000,4.000000,100.000000
1602006855.499784,19.000000,0.000000,4099.487305,4104.615234,4125.128418,4124.102539,4138.461426,4136.410156,4134.871582,4139.487305,4153.333496,4147.179688,4131.282227,4162.563965,4135.384766,4120.512695,0.000000,4.000000,,,,0.000000,4.000000,4.000000,4.000000,4.000000,4.000000,4.000000,4.000000,4.000000,4.000000,4.000000,4.000000,4.000000,4.000000,4.000000,100.000000
1602006855.507665,20.000000,0.000000,4100.512695,4102.051270,4123.077148,4118.974121,4136.922852,4129.230957,4133.846191,4136.922852,4150.769043,4145.641113,4135.384766,4148.717773,4132.820313,4124.615234,0.000000,4.000000,,,,0.000000,4.000000,4.000000,4.000000,4.000000,4.000000,4.000000,4.000000,4.000000,4.000000,4.000000,4.000000,4.000000,4.000000,4.000000,100.000000
1602006855.515546,21.000000,0.000000,4116.410156,4119.487305,4131.794922,4131.282227,4142.051270,4140.512695,4134.871582,4150.769043,4161.025879,4148.717773,4148.717773,4167.692383,4155.897461,4154.358887,0.000000,4.000000,,,,0.000000,4.000000,4.000000,4.000000,4.000000,4.000000,4.000000,4.000000,4.000000,4.000000,4.000000,4.000000,4.000000,4.000000,4.000000,100.000000
1602006855.523427,22.000000,0.000000,4131.282227,4134.358887,4146.153809,4144.615234,4155.897461,4156.922852,4139.487305,4157.436035,4162.051270,4155.384766,4160.000000,4191.282227,4174.358887,4163.589844,0.000000,4.000000,,,,0.000000,4.000000,4.000000,4.000000,4.000000,4.000000,4.000000,4.000000,4.000000,4.000000,4.000000,4.000000,4.000000,4.000000,4.000000,100.000000
1602006855.531208,23.000000,0.000000,4125.641113,4128.205078,4140.512695,4136.922852,4156.410156,4157.948730,4138.461426,4143.589844,4156.922852,4141.025879,4156.922852,4181.025879,4162.051270,4144.102539,0.000000,4.000000,,,,0.000000,4.000000,4.000000,4.000000,4.000000,4.000000,4.000000,4.000000,4.000000,4.000000,4.000000,4.000000,4.000000,4.000000,4.000000,100.000000
1602006855.539089,24.000000,0.000000,4110.769043,4110.256348,4122.051270,4121.025879,4142.563965,4155.384766,4133.333496,4131.282227,4161.025879,4123.589844,4139.487305,4157.436035,4138.461426,4126.666504,0.000000,4.000000,,,,0.000000,4.000000,4.000000,4.000000,4.000000,4.000000,4.000000,4.000000,4.000000,4.000000,4.000000,4.000000,4.000000,4.000000,4.000000,100.000000
1602006855.546971,25.000000,0.000000,4098.461426,4100.512695,4116.922852,4117.948730,4133.333496,4150.769043,4135.384766,4135.897461,4161.538574,4121.538574,4122.051270,4151.794922,4124.615234,4121.538574,0.000000,4.000000,,,,0.000000,4.000000,4.000000,4.000000,4.000000,4.000000,4.000000,4.000000,4.000000,4.000000,4.000000,4.000000,4.000000,4.000000,4.000000,100.000000
1602006855.554852,26.000000,0.000000,4092.820557,4102.051270,4122.563965,4121.538574,4132.307617,4136.410156,4140.000000,4142.051270,4154.358887,4132.307617,4124.102539,4157.436035,4126.666504,4122.563965,0.000000,4.000000,,,,0.000000,4.000000,4.000000,4.000000,4.000000,4.000000,4.000000,4.000000,4.000000,4.000000,4.000000,4.000000,4.000000,4.000000,4.000000,100.000000
1602006855.562733,27.000000,0.000000,4097.948730,4105.641113,4120.512695,4119.487305,4132.307617,4123.589844,4139.487305,4144.102539,4145.641113,4141.538574,4136.410156,4158.461426,4133.333496,4122.051270,0.000000,4.000000,,,,0.000000,4.000000,4.000000,4.000000,4.000000,4.000000,4.000000,4.000000,4.000000,4.000000,4.000000,4.000000,4.000000,4.000000,4.000000,100.000000
1602006855.570614,28.000000,0.000000,4109.230957,4112.307617,4124.102539,4122.563965,4131.794922,4121.025879,4138.974121,4150.256348,4143.077148,4136.410156,4140.512695,4158.974121,4141.025879,4126.666504,0.000000,4.000000,,,,0.000000,4.000000,4.000000,4.000000,4.000000,4.000000,4.000000,4.000000,4.000000,4.000000,4.000000,4.000000,4.000000,4.000000,4.000000,100.000000
1602006855.578495,29.000000,0.000000,4119.487305,4123.589844,4138.974121,4135.897461,4133.846191,4126.666504,4142.051270,4156.922852,4149.230957,4137.948730,4142.563965,4168.717773,4152.307617,4146.666504,0.000000,4.000000,,,,0.000000,4.000000,4.000000,4.000000,4.000000,4.000000,4.000000,4.000000,4.000000,4.000000,4.000000,4.000000,4.000000,4.000000,4.000000,100.000000
1602006855.586376,30.000000,0.000000,4125.641113,4127.179688,4146.153809,4144.102539,4138.461426,4133.846191,4139.487305,4152.820313,4154.358887,4156.410156,4146.666504,4176.410156,4158.974121,4158.974121,0.000000,4.000000,,,,0.000000,4.000000,4.000000,4.000000,4.000000,4.000000,4.000000,4.000000,4.000000,4.000000,4.000000,4.000000,4.000000,4.000000,4.000000,100.000000
1602006855.594158,31.000000,0.000000,4127.179688,4124.102539,4144.102539,4140.512695,4140.000000,4142.051270,4135.384766,4142.563965,4151.282227,4163.077148,4144.615234,4170.769043,4156.922852,4149.743652,0.000000,4.000000,,,,0.000000,4.000000,4.000000,4.000000,4.000000,4.000000,4.000000,4.000000,4.000000,4.000000,4.000000,4.000000,4.000000,4.000000,4.000000,100.000000
1602006855.602038,32.000000,0.000000,4121.025879,4124.615234,4137.948730,4135.897461,4139.487305,4152.307617,4135.897461,4139.487305,4150.256348,4150.256348,4141.538574,4159.487305,4150.769043,4140.512695,0.000000,4.000000,,,,0.000000,4.000000,4.000000,4.000000,4.000000,4.000000,4.000000,4.000000,4.000000,4.000000,4.000000,4.000000,4.000000,4.000000,4.000000,100.000000
1602006855.609919,33.000000,0.000000,4110.769043,4117.436035,4127.179688,4130.769043,4138.974121,4152.307617,4137.436035,4136.922852,4143.077148,4135.384766,4130.256348,4150.256348,4135.897461,4137.436035,0.000000,4.000000,,,,0.000000,4.000000,4.000000,4.000000,4.000000,4.000000,4.000000,4.000000,4.000000,4.000000,4.000000,4.000000,4.000000,4.000000,4.000000,100.000000
1602006855.617800,34.000000,0.000000,4105.128418,4105.641113,4120.000000,4122.563965,4137.436035,4142.563965,4136.922852,4129.743652,4127.179688,4124.615234,4112.820313,4142.563965,4118.461426,4124.615234,0.000000,4.000000,,,,0.000000,4.000000,4.000000,4.000000,4.000000,4.000000,4.000000,4.000000,4.000000,4.000000,4.000000,4.000000,4.000000,4.000000,4.000000,100.000000
1602006855.625681,35.000000,0.000000,4106.666504,4104.102539,4119.487305,4119.487305,4131.794922,4135.384766,4133.333496,4123.589844,4119.487305,4113.846191,4113.333496,4136.922852,4117.948730,4108.205078,0.000000,4.000000,,,,0.000000,4.000000,4.000000,4.000000,4.000000,4.000000,4.000000,4.000000,4.000000,4.000000,4.000000,4.000000,4.000000,4.000000,4.000000,100.000000
1602006855.633662,36.000000,0.000000,4105.128418,4107.179688,4118.974121,4123.077148,4124.102539,4122.563965,4128.717773,4123.077148,4122.563965,4111.794922,4126.153809,4141.025879,4123.077148,4108.717773,0.000000,4.000000,,,,0.000000,4.000000,4.000000,4.000000,4.000000,4.000000,4.000000,4.000000,4.000000,4.000000,4.000000,4.000000,4.000000,4.000000,4.000000,100.000000
1602006855.641543,37.000000,0.000000,4104.615234,4112.307617,4121.538574,4130.256348,4121.538574,4106.153809,4126.153809,4123.589844,4130.769043,4124.615234,4133.333496,4150.256348,4125.641113,4117.948730,0.000000,4.000000,,,,0.000000,4.000000,4.000000,4.000000,4.000000,4.000000,4.000000,4.000000,4.000000,4.000000,4.000000,4.000000,4.000000,4.000000,4.000000,100.000000
1602006855.649424,38.000000,0.000000,4117.436035,4120.512695,4127.179688,4137.948730,4126.153809,4106.666504,4126.666504,4128.205078,4137.948730,4138.461426,4134.871582,4155.384766,4134.358887,4128.717773,0.000000,4.000000,,,,0.000000,4.000000,4.000000,4.000000,4.000000,4.000000,4.000000,4.000000,4.000000,4.000000,4.000000,4.000000,4.000000,4.000000,4.000000,100.000000
1602006855.657305,39.000000,0.000000,4123.077148,4124.615234,4126.666504,4140.000000,4127.179688,4122.563965,4129.230957,4136.922852,4140.512695,4147.692383,4138.461426,4156.922852,4143.077148,4138.974121,0.000000,4.000000,,,,0.000000,4.000000,4.000000,4.000000,4.000000,4.000000,4.000000,4.000000,4.000000,4.000000,4.000000,4.000000,4.000000,4.000000,4.000000,100.000000
1602006855.665186,40.000000,0.000000,4113.333496,4124.102539,4122.563965,4135.384766,4126.666504,4136.410156,4134.871582,4140.000000,4133.333496,4143.077148,4136.410156,4153.333496,4139.487305,4134.358887,0.000000,4.000000,,,,0.000000,4.000000,4.000000,4.000000,4.000000,4.000000,4.000000,4.000000,4.000000,4.000000,4.000000,4.000000,4.000000,4.000000,4.000000,100.000000
1602006855.673067,41.000000,0.000000,4107.692383,4118.461426,4121.538574,4127.692383,4126.153809,4141.025879,4138.461426,4130.256348,4120.512695,4123.589844,4123.589844,4141.538574,4126.153809,4122.051270,0.000000,4.000000,,,,0.000000,4.000000,4.000000,4.000000,4.000000,4.000000,4.000000,4.000000,4.000000,4.000000,4.000000,4.000000,4.000000,4.000000,4.000000,100.000000
1602006855.680948,42.000000,0.000000,4109.743652,4109.743652,4122.051270,4123.077148,4125.128418,4140.000000,4137.436035,4124.102539,4125.641113,4120.512695,4114.358887,4133.333496,4122.563965,4121.538574,0.000000,4.000000,,,,0.000000,4.000000,4.000000,4.000000,4.000000,4.000000,4.000000,4.000000,4.000000,4.000000,4.000000,4.000000,4.000000,4.000000,4.000000,100.000000
1602006855.688729,43.000000,0.000000,4111.282227,4111.794922,4121.538574,4124.615234,4126.153809,4140.512695,4139.487305,4131.794922,4141.025879,4146.666504,4117.948730,4136.410156,4135.384766,4130.769043,0.000000,4.000000,,,,0.000000,4.000000,4.000000,4.000000,4.000000,4.000000,4.000000,4.000000,4.000000,4.000000,4.000000,4.000000,4.000000,4.000000,4.000000,100.000000
1602006855.696610,44.000000,0.000000,4114.871582,4122.051270,4123.077148,4130.256348,4127.179688,4143.077148,4141.025879,4138.461426,4133.846191,4155.384766,4127.692383,4144.615234,4142.563965,4134.358887,0.000000,4.000000,,,,0.000000,4.000000,4.000000,4.000000,4.000000,4.000000,4.000000,4.000000,4.000000,4.000000,4.000000,4.000000,4.000000,4.000000,4.000000,100.000000
1602006855.704491,45.000000,0.000000,4120.512695,4124.102539,4126.153809,4134.871582,4130.256348,4143.589844,4141.025879,4138.461426,4124.615234,4143.077148,4135.384766,4151.794922,4142.563965,4140.512695,0.000000,4.000000,,,,0.000000,4.000000,4.000000,4.000000,4.000000,4.000000,4.000000,4.000000,4.000000,4.000000,4.000000,4.000000,4.000000,4.000000,4.000000,100.000000
1602006855.712372,46.000000,0.000000,4126.153809,4123.077148,4127.179688,4138.461426,4137.436035,4133.846191,4141.538574,4138.461426,4130.256348,4145.128418,4143.077148,4155.897461,4149.743652,4151.794922,0.000000,4.000000,,,,0.000000,4.000000,4.000000,4.000000,4.000000,4.000000,4.000000,4.000000,4.000000,4.000000,4.000000,4.000000,4.000000,4.000000,4.000000,100.000000
1602006855.720254,47.000000,0.000000,4137.436035,4128.205078,4131.794922,4138.974121,4139.487305,4119.487305,4140.512695,4139.487305,4128.717773,4145.128418,4153.333496,4160.512695,4157.436035,4156.410156,0.000000,4.000000,,,,0.000000,4.000000,4.000000,4.000000,4.000000,4.000000,4.000000,4.000000,4.000000,4.000000,4.000000,4.000000,4.000000,4.000000,4.000000,100.000000
1602006855.728135,48.000000,0.000000,4139.487305,4130.256348,4133.333496,4136.922852,4135.384766,4116.410156,4136.922852,4138.974121,4121.538574,4134.871582,4154.358887,4168.717773,4155.384766,4155.897461,0.000000,4.000000,,,,0.000000,4.000000,4.000000,4.000000,4.000000,4.000000,4.000000,4.000000,4.000000,4.000000,4.000000,4.000000,4.000000,4.000000,4.000000,100.000000
1602006855.736016,49.000000,0.000000,4128.205078,4128.717773,4130.769043,4137.948730,4136.922852,4124.615234,4136.922852,4139.487305,4124.615234,4139.487305,4145.128418,4167.692383,4152.820313,4152.307617,0.000000,4.000000,,,,0.000000,4.000000,4.000000,4.000000,4.000000,4.000000,4.000000,4.000000,4.000000,4.000000,4.000000,4.000000,4.000000,4.000000,4.000000,100.000000
1602006855.743897,50.000000,0.000000,4120.512695,4126.153809,4128.717773,4142.051270,4140.000000,4132.307617,4137.948730,4135.897461,4124.615234,4140.512695,4143.589844,4154.871582,4147.692383,4142.051270,0.000000,4.000000,,,,0.000000,4.000000,4.000000,4.000000,4.000000,4.000000,4.000000,4.000000,4.000000,4.000000,4.000000,4.000000,4.000000,4.000000,4.000000,100.000000
1602006855.751678,51.000000,0.000000,4116.922852,4118.974121,4124.615234,4136.410156,4131.282227,4137.948730,4131.282227,4126.153809,4118.461426,4123.077148,4138.974121,4146.666504,4133.846191,4124.615234,0.000000,4.000000,,,,0.000000,4.000000,4.000000,4.000000,4.000000,4.000000,4.000000,4.000000,4.000000,4.000000,4.000000,4.000000,4.000000,4.000000,4.000000,100.000000
1602006855.759559,52.000000,0.000000,4110.256348,4109.743652,4124.102539,4125.128418,4122.563965,4141.025879,4126.666504,4125.128418,4125.641113,4124.102539,4121.538574,4152.820313,4122.051270,4115.897461,0.000000,4.000000,,,,0.000000,4.000000,4.000000,4.000000,4.000000,4.000000,4.000000,4.000000,4.000000,4.000000,4.000000,4.000000,4.000000,4.000000,4.000000,100.000000
1602006855.767441,53.000000,0.000000,4105.641113,4099.487305,4121.025879,4119.487305,4119.487305,4135.897461,4123.589844,4133.333496,4137.436035,4135.897461,4123.077148,4150.256348,4118.461426,4121.025879,0.000000,4.000000,,,,0.000000,4.000000,4.000000,4.000000,4.000000,4.000000,4.000000,4.000000,4.000000,4.000000,4.000000,4.000000,4.000000,4.000000,4.000000,100.000000
1602006855.775322,54.000000,0.000000,4105.128418,4092.307617,4110.769043,4116.922852,4118.974121,4125.641113,4123.589844,4137.436035,4137.948730,4137.436035,4142.051270,4138.461426,4126.153809,4122.563965,0.000000,4.000000,,,,0.000000,4.000000,4.000000,4.000000,4.000000,4.000000,4.000000,4.000000,4.000000,4.000000,4.000000,4.000000,4.000000,4.000000,4.000000,100.000000
1602006855.783203,55.000000,0.000000,4111.282227,4101.538574,4108.205078,4118.461426,4125.128418,4125.641113,4132.820313,4136.410156,4136.410156,4147.179688,4144.615234,4142.051270,4136.922852,4118.974121,0.000000,4.000000,,,,0.000000,4.000000,4.000000,4.000000,4.000000,4.000000,4.000000,4.000000,4.000000,4.000000,4.000000,4.000000,4.000000,4.000000,4.000000,100.000000
1602006855.791084,56.000000,0.000000,4120.512695,4119.487305,4119.487305,4126.153809,4134.358887,4133.846191,4132.820313,4136.410156,4136.922852,4151.794922,4135.384766,4151.282227,4135.897461,4126.666504,0.000000,4.000000,,,,0.000000,4.000000,4.000000,4.000000,4.000000,4.000000,4.000000,4.000000,4.000000,4.000000,4.000000,4.000000,4.000000,4.000000,4.000000,100.000000
1602006855.798965,57.000000,0.000000,4130.769043,4132.307617,4131.794922,4142.051270,4137.948730,4137.948730,4125.641113,4136.410156,4128.717773,4137.436035,4140.512695,4152.820313,4140.512695,4149.743652,0.000000,4.000000,,,,0.000000,4.000000,4.000000,4.000000,4.000000,4.000000,4.000000,4.000000,4.000000,4.000000,4.000000,4.000000,4.000000,4.000000,4.000000,100.000000
1602006855.806846,58.000000,0.000000,4142.051270,4140.000000,4143.589844,4151.794922,4140.000000,4136.922852,4130.769043,4136.922852,4122.563965,4140.512695,4153.333496,4156.922852,4154.871582,4162.563965,0.000000,4.000000,,,,0.000000,4.000000,4.000000,4.000000,4.000000,4.000000,4.000000,4.000000,4.000000,4.000000,4.000000,4.000000,4.000000,4.000000,4.000000,100.000000
1602006855.814627,59.000000,0.000000,4138.461426,4136.410156,4145.641113,4142.051270,4140.512695,4131.794922,4137.948730,4137.436035,4129.230957,4144.615234,4149.743652,4153.846191,4148.205078,4146.666504,0.000000,4.000000,,,,0.000000,4.000000,4.000000,4.000000,4.000000,4.000000,4.000000,4.000000,4.000000,4.000000,4.000000,4.000000,4.000000,4.000000,4.000000,100.000000
1602006855.822508,60.000000,0.000000,4118.461426,4116.922852,4131.282227,4125.128418,4134.358887,4128.717773,4134.871582,4136.410156,4127.179688,4125.128418,4129.230957,4139.487305,4123.077148,4120.512695,0.000000,4.000000,,,,0.000000,4.000000,4.000000,4.000000,4.000000,4.000000,4.000000,4.000000,4.000000,4.000000,4.000000,4.000000,4.000000,4.000000,4.000000,100.000000
1602006855.830389,61.000000,0.000000,4105.641113,4105.641113,4121.025879,4120.000000,4127.692383,4134.358887,4136.922852,4137.948730,4119.487305,4127.692383,4119.487305,4130.769043,4116.410156,4109.230957,0.000000,4.000000,,,,0.000000,4.000000,4.000000,4.000000,4.000000,4.000000,4.000000,4.000000,4.000000,4.000000,4.000000,4.000000,4.000000,4.000000,4.000000,100.000000
1602006855.838270,62.000000,0.000000,4101.025879,4105.641113,4114.871582,4118.974121,4123.077148,4140.512695,4141.538574,4139.487305,4126.153809,4145.641113,4122.051270,4125.128418,4116.410156,4107.692383,0.000000,4.000000,,,,0.000000,4.000000,4.000000,4.000000,4.000000,4.000000,4.000000,4.000000,4.000000,4.000000,4.000000,4.000000,4.000000,4.000000,4.000000,100.000000
1602006855.846151,63.000000,0.000000,4090.256348,4100.000000,4106.153809,4112.307617,4125.128418,4140.512695,4141.538574,4136.922852,4128.205078,4127.179688,4113.846191,4115.897461,4103.589844,4103.077148,0.000000,4.000000,,,,0.000000,4.000000,4.000000,4.000000,4.000000,4.000000,4.000000,4.000000,4.000000,4.000000,4.000000,4.000000,4.000000,4.000000,4.000000,100.000000
1602006855.853932,64.000000,0.000000,4090.256348,4101.538574,4109.743652,4116.922852,4137.436035,4143.589844,4147.692383,4136.410156,4120.000000,4109.230957,4110.256348,4121.538574,4102.563965,4099.487305,794.000000,4.000000,,,,0.000000,4.000000,4.000000,4.000000,4.000000,4.000000,4.000000,4.000000,4.000000,4.000000,4.000000,4.000000,4.000000,4.000000,4.000000,100.000000
1602006855.861814,65.000000,0.000000,4103.589844,4115.384766,4126.153809,4129.743652,4142.051270,4147.179688,4152.307617,4138.974121,4119.487305,4116.922852,4129.743652,4141.538574,4121.025879,4107.179688,789.000000,4.000000,,,,0.000000,4.000000,4.000000,4.000000,4.000000,4.000000,4.000000,4.000000,4.000000,4.000000,4.000000,4.000000,4.000000,4.000000,4.000000,100.000000
1602006855.869695,66.000000,0.000000,4114.358887,4127.692383,4145.128418,4135.384766,4134.871582,4137.948730,4153.846191,4143.077148,4117.948730,4121.538574,4151.282227,4157.948730,4138.461426,4128.205078,849.000000,4.000000,,,,0.000000,4.000000,4.000000,4.000000,4.000000,4.000000,4.000000,4.000000,4.000000,4.000000,4.000000,4.000000,4.000000,4.000000,4.000000,100.000000
1602006855.877576,67.000000,0.000000,4127.179688,4136.922852,4156.410156,4141.538574,4141.538574,4136.410156,4151.794922,4143.589844,4112.820313,4136.410156,4153.333496,4169.743652,4148.205078,4151.794922,867.000000,4.000000,,,,0.000000,4.000000,4.000000,4.000000,4.000000,4.000000,4.000000,4.000000,4.000000,4.000000,4.000000,4.000000,4.000000,4.000000,4.000000,100.000000
1602006855.885457,68.000000,0.000000,4140.000000,4150.256348,4160.000000,4153.333496,4156.922852,4150.256348,4143.077148,4142.051270,4120.512695,4164.102539,4152.307617,4173.846191,4156.410156,4162.051270,810.000000,4.000000,,,,0.000000,4.000000,4.000000,4.000000,4.000000,4.000000,4.000000,4.000000,4.000000,4.000000,4.000000,4.000000,4.000000,4.000000,4.000000,100.000000
1602006855.893338,69.000000,0.000000,4138.461426,4155.384766,4155.897461,4152.820313,4152.307617,4154.358887,4133.846191,4139.487305,4122.563965,4157.948730,4151.794922,4166.666504,4157.436035,4162.051270,824.000000,4.000000,,,,0.000000,4.000000,4.000000,4.000000,4.000000,4.000000,4.000000,4.000000,4.000000,4.000000,4.000000,4.000000,4.000000,4.000000,4.000000,100.000000
1602006855.901219,70.000000,0.000000,4127.692383,4141.538574,4141.538574,4142.563965,4134.871582,4136.922852,4125.641113,4132.307617,4113.846191,4129.743652,4142.051270,4156.410156,4144.102539,4152.820313,759.000000,4.000000,,,,0.000000,4.000000,4.000000,4.000000,4.000000,4.000000,4.000000,4.000000,4.000000,4.000000,4.000000,4.000000,4.000000,4.000000,4.000000,100.000000
1602006855.909101,71.000000,0.000000,4115.897461,4125.128418,4121.025879,4132.820313,4128.205078,4125.641113,4120.000000,4126.153809,4111.282227,4123.589844,4134.871582,4148.205078,4130.769043,4133.333496,659.000000,4.000000,,,,0.000000,4.000000,4.000000,4.000000,4.000000,4.000000,4.000000,4.000000,4.000000,4.000000,4.000000,4.000000,4.000000,4.000000,4.000000,100.000000
1602006855.917081,72.000000,0.000000,4105.128418,4114.871582,4107.179688,4124.615234,4124.102539,4135.897461,4121.025879,4124.102539,4109.230957,4114.358887,4132.307617,4135.897461,4127.692383,4115.897461,778.000000,4.000000,,,,0.000000,4.000000,4.000000,4.000000,4.000000,4.000000,4.000000,4.000000,4.000000,4.000000,4.000000,4.000000,4.000000,4.000000,4.000000,100.000000
1602006855.924962,73.000000,0.000000,4091.794922,4104.102539,4103.077148,4115.897461,4114.871582,4136.922852,4123.077148,4120.512695,4109.230957,4103.077148,4127.692383,4123.077148,4121.538574,4107.692383,836.000000,4.000000,,,,0.000000,4.000000,4.000000,4.000000,4.000000,4.000000,4.000000,4.000000,4.000000,4.000000,4.000000,4.000000,4.000000,4.000000,4.000000,100.000000
1602006855.932843,74.000000,0.000000,4087.179443,4102.051270,4111.282227,4117.436035,4114.871582,4124.615234,4122.563965,4123.589844,4122.051270,4125.128418,4123.589844,4118.461426,4118.461426,4103.589844,871.000000,4.000000,,,,0.000000,4.000000,4.000000,4.000000,4.000000,4.000000,4.000000,4.000000,4.000000,4.000000,4.000000,4.000000,4.000000,4.000000,4.000000,100.000000
1602006855.940724,75.000000,0.000000,4103.077148,4118.974121,4129.743652,4128.717773,4128.205078,4127.179688,4129.230957,4136.410156,4125.641113,4146.153809,4122.563965,4122.563965,4129.743652,4105.641113,838.000000,4.000000,,,,0.000000,4.000000,4.000000,4.000000,4.000000,4.000000,4.000000,4.000000,4.000000,4.000000,4.000000,4.000000,4.000000,4.000000,4.000000,100.000000
1602006855.948605,76.000000,0.000000,4123.589844,4136.410156,4139.487305,4136.922852,4139.487305,4143.077148,4135.384766,4142.051270,4117.948730,4141.025879,4126.666504,4130.769043,4139.487305,4120.000000,760.000000,4.000000,,,,0.000000,4.000000,4.000000,4.000000,4.000000,4.000000,4.000000,4.000000,4.000000,4.000000,4.000000,4.000000,4.000000,4.000000,4.000000,100.000000
1602006855.956486,77.000000,0.000000,4129.230957,4142.051270,4132.307617,4138.461426,4141.025879,4147.179688,4130.256348,4138.461426,4123.077148,4144.615234,4140.000000,4138.974121,4138.461426,4135.897461,727.000000,4.000000,,,,0.000000,4.000000,4.000000,4.000000,4.000000,4.000000,4.000000,4.000000,4.000000,4.000000,4.000000,4.000000,4.000000,4.000000,4.000000,100.000000
1602006855.964267,78.000000,0.000000,4125.128418,4138.461426,4120.512695,4136.922852,4139.487305,4140.000000,4126.666504,4138.974121,4131.794922,4149.743652,4147.179688,4141.025879,4140.512695,4132.820313,871.000000,4.000000,,,,0.000000,4.000000,4.000000,4.000000,4.000000,4.000000,4.000000,4.000000,4.000000,4.000000,4.000000,4.000000,4.000000,4.000000,4.000000,100.000000
1602006855.972148,79.000000,0.000000,4112.820313,4127.179688,4103.077148,4129.230957,4138.974121,4137.948730,4124.615234,4136.410156,4120.512695,4126.153809,4132.820313,4132.820313,4141.025879,4114.358887,838.000000,4.000000,,,,0.000000,4.000000,4.000000,4.000000,4.000000,4.000000,4.000000,4.000000,4.000000,4.000000,4.000000,4.000000,4.000000,4.000000,4.000000,100.000000
1602006855.980030,80.000000,0.000000,4093.333252,4119.487305,4086.153809,4118.974121,4137.436035,4139.487305,4122.563965,4123.589844,4102.563965,4101.538574,4122.051270,4123.589844,4127.692383,4111.282227,760.000000,4.000000,,,,0.000000,4.000000,4.000000,4.000000,4.000000,4.000000,4.000000,4.000000,4.000000,4.000000,4.000000,4.000000,4.000000,4.000000,4.000000,100.000000
1602006855.987911,81.000000,0.000000,4094.358887,4122.051270,4090.769287,4122.563965,4140.512695,4140.512695,4130.769043,4122.051270,4103.589844,4105.128418,4126.666504,4129.230957,4119.487305,4118.461426,727.000000,4.000000,,,,0.000000,4.000000,4.000000,4.000000,4.000000,4.000000,4.000000,4.000000,4.000000,4.000000,4.000000,4.000000,4.000000,4.000000,4.000000,100.000000
1602006855.995792,82.000000,0.000000,4114.358887,4124.615234,4114.871582,4134.871582,4143.077148,4137.436035,4142.051270,4134.358887,4112.820313,4126.153809,4127.179688,4143.589844,4126.153809,4117.948730,871.000000,4.000000,,,,0.000000,4.000000,4.000000,4.000000,4.000000,4.000000,4.000000,4.000000,4.000000,4.000000,4.000000,4.000000,4.000000,4.000000,4.000000,100.000000
1602006856.003673,83.000000,0.000000,4121.025879,4126.666504,4135.897461,4138.461426,4135.897461,4133.846191,4142.051270,4140.512695,4107.692383,4134.871582,4127.692383,4152.307617,4134.358887,4124.102539,838.000000,4.000000,,,,0.000000,4.000000,4.000000,4.000000,4.000000,4.000000,4.000000,4.000000,4.000000,4.000000,4.000000,4.000000,4.000000,4.000000,4.000000,100.000000
1602006856.011554,84.000000,0.000000,4122.563965,4136.922852,4144.615234,4143.077148,4136.410156,4136.410156,4141.025879,4139.487305,4104.615234,4130.256348,4149.230957,4157.436035,4148.717773,4144.615234,760.000000,4.000000,,,,0.000000,4.000000,4.000000,4.000000,4.000000,4.000000,4.000000,4.000000,4.000000,4.000000,4.000000,4.000000,4.000000,4.000000,4.000000,100.000000
1602006856.019435,85.000000,0.000000,4126.153809,4135.897461,4136.922852,4141.025879,4140.512695,4132.820313,4138.974121,4140.000000,4111.794922,4133.846191,4159.487305,4151.282227,4154.871582,4148.205078,727.000000,4.000000,,,,0.000000,4.000000,4.000000,4.000000,4.000000,4.000000,4.000000,4.000000,4.000000,4.000000,4.000000,4.000000,4.000000,4.000000,4.000000,100.000000
1602006856.027317,86.000000,0.000000,4110.769043,4115.897461,4111.282227,4126.153809,4128.205078,4117.436035,4126.666504,4137.436035,4108.717773,4132.307617,4135.384766,4128.717773,4138.461426,4122.563965,871.000000,4.000000,,,,0.000000,4.000000,4.000000,4.000000,4.000000,4.000000,4.000000,4.000000,4.000000,4.000000,4.000000,4.000000,4.000000,4.000000,4.000000,100.000000
1602006856.035198,87.000000,0.000000,4091.281982,4110.256348,4089.743652,4118.974121,4123.077148,4111.794922,4117.436035,4134.871582,4109.230957,4121.025879,4126.666504,4115.897461,4128.205078,4109.743652,838.000000,4.000000,,,,0.000000,4.000000,4.000000,4.000000,4.000000,4.000000,4.000000,4.000000,4.000000,4.000000,4.000000,4.000000,4.000000,4.000000,4.000000,100.000000
1602006856.043079,88.000000,0.000000,4092.307617,4120.512695,4088.205078,4121.538574,4134.358887,4120.000000,4122.563965,4135.897461,4122.563965,4132.307617,4140.000000,4123.077148,4137.436035,4122.051270,760.000000,4.000000,,,,0.000000,4.000000,4.000000,4.000000,4.000000,4.000000,4.000000,4.000000,4.000000,4.000000,4.000000,4.000000,4.000000,4.000000,4.000000,100.000000
1602006856.050960,89.000000,0.000000,4097.948730,4118.974121,4098.974121,4122.051270,4139.487305,4130.256348,4132.307617,4135.384766,4126.666504,4162.051270,4137.948730,4132.820313,4143.077148,4130.256348,727.000000,4.000000,,,,0.000000,4.000000,4.000000,4.000000,4.000000,4.000000,4.000000,4.000000,4.000000,4.000000,4.000000,4.000000,4.000000,4.000000,4.000000,100.000000
1602006856.058841,90.000000,0.000000,4091.281982,4108.717773,4107.692383,4117.948730,4134.358887,4145.128418,4140.000000,4134.358887,4121.538574,4157.436035,4127.692383,4135.384766,4138.461426,4118.974121,871.000000,4.000000,,,,0.000000,4.000000,4.000000,4.000000,4.000000,4.000000,4.000000,4.000000,4.000000,4.000000,4.000000,4.000000,4.000000,4.000000,4.000000,100.000000
1602006856.066722,91.000000,0.000000,4087.179443,4107.179688,4115.384766,4115.897461,4127.692383,4155.384766,4141.538574,4132.820313,4114.358887,4124.102539,4115.897461,4136.922852,4126.153809,4105.641113,838.000000,4.000000,,,,0.000000,4.000000,4.000000,4.000000,4.000000,4.000000,4.000000,4.000000,4.000000,4.000000,4.000000,4.000000,4.000000,4.000000,4.000000,100.000000
1602006856.074604,92.000000,0.000000,4095.897461,4109.230957,4123.589844,4118.461426,4120.512695,4147.692383,4139.487305,4126.153809,4096.410156,4112.820313,4103.589844,4136.410156,4105.641113,4111.794922,760.000000,4.000000,,,,0.000000,4.000000,4.000000,4.000000,4.000000,4.000000,4.000000,4.000000,4.000000,4.000000,4.000000,4.000000,4.000000,4.000000,4.000000,100.000000
1602006856.082485,93.000000,0.000000,4104.615234,4107.179688,4127.179688,4122.563965,4117.948730,4140.000000,4138.974121,4127.179688,4091.794922,4117.948730,4109.743652,4131.794922,4103.077148,4125.641113,727.000000,4.000000,,,,0.000000,4.000000,4.000000,4.000000,4.000000,4.000000,4.000000,4.000000,4.000000,4.000000,4.000000,4.000000,4.000000,4.000000,4.000000,100.000000
1602006856.090366,94.000000,0.000000,4107.692383,4109.743652,4120.512695,4123.077148,4122.051270,4142.563965,4142.051270,4137.436035,4109.230957,4123.077148,4124.102539,4128.717773,4120.000000,4122.563965,871.000000,4.000000,,,,0.000000,4.000000,4.000000,4.000000,4.000000,4.000000,4.000000,4.000000,4.000000,4.000000,4.000000,4.000000,4.000000,4.000000,4.000000,100.000000
1602006856.098347,95.000000,0.000000,4108.205078,4112.307617,4109.230957,4120.512695,4123.589844,4141.025879,4138.461426,4136.410156,4113.846191,4118.461426,4121.025879,4122.563965,4124.102539,4104.615234,838.000000,4.000000,,,,0.000000,4.000000,4.000000,4.000000,4.000000,4.000000,4.000000,4.000000,4.000000,4.000000,4.000000,4.000000,4.000000,4.000000,4.000000,100.000000
1602006856.106228,96.000000,0.000000,4104.102539,4107.692383,4098.974121,4114.871582,4123.589844,4136.410156,4126.666504,4124.102539,4109.230957,4105.128418,4118.461426,4106.666504,4120.000000,4102.563965,760.000000,4.000000,,,,0.000000,4.000000,4.000000,4.000000,4.000000,4.000000,4.000000,4.000000,4.000000,4.000000,4.000000,4.000000,4.000000,4.000000,4.000000,100.000000
1602006856.114109,97.000000,0.000000,4097.948730,4104.102539,4087.179443,4108.205078,4123.589844,4130.769043,4117.436035,4118.974121,4116.410156,4109.230957,4125.641113,4093.846191,4120.000000,4108.717773,727.000000,4.000000,,,,0.000000,4.000000,4.000000,4.000000,4.000000,4.000000,4.000000,4.000000,4.000000,4.000000,4.000000,4.000000,4.000000,4.000000,4.000000,100.000000
1602006856.121990,98.000000,0.000000,4100.000000,4110.256348,4085.641113,4107.692383,4127.179688,4124.615234,4117.948730,4127.179688,4124.615234,4142.563965,4124.615234,4098.461426,4125.641113,4102.051270,871.000000,4.000000,,,,0.000000,4.000000,4.000000,4.000000,4.000000,4.000000,4.000000,4.000000,4.000000,4.000000,4.000000,4.000000,4.000000,4.000000,4.000000,100.000000
1602006856.129872,99.000000,0.000000,4115.384766,4123.077148,4105.128418,4118.461426,4137.436035,4127.179688,4118.461426,4135.897461,4130.256348,4165.641113,4129.230957,4115.384766,4140.000000,4111.794922,838.000000,4.000000,,,,0.000000,4.000000,4.000000,4.000000,4.000000,4.000000,4.000000,4.000000,4.000000,4.000000,4.000000,4.000000,4.000000,4.000000,4.000000,100.000000
1602006856.137753,100.000000,0.000000,4133.846191,4135.897461,4131.282227,4134.871582,4144.615234,4136.922852,4121.025879,4140.512695,4138.461426,4162.563965,4143.077148,4136.922852,4155.897461,4145.128418,760.000000,4.000000,,,,0.000000,4.000000,4.000000,4.000000,4.000000,4.000000,4.000000,4.000000,4.000000,4.000000,4.000000,4.000000,4.000000,4.000000,4.000000,100.000000
1602006856.145634,101.000000,0.000000,4136.410156,4140.000000,4139.487305,4142.051270,4142.563965,4141.538574,4129.743652,4145.641113,4137.436035,4155.897461,4143.077148,4145.641113,4156.410156,4157.948730,727.000000,4.000000,,,,0.000000,4.000000,4.000000,4.000000,4.000000,4.000000,4.000000,4.000000,4.000000,4.000000,4.000000,4.000000,4.000000,4.000000,4.000000,100.000000
1602006856.153515,102.000000,0.000000,4125.641113,4130.256348,4132.820313,4132.307617,4136.922852,4139.487305,4130.769043,4144.615234,4122.051270,4138.974121,4135.384766,4137.948730,4145.128418,4142.563965,871.000000,4.000000,,,,0.000000,4.000000,4.000000,4.000000,4.000000,4.000000,4.000000,4.000000,4.000000,4.000000,4.000000,4.000000,4.000000,4.000000,4.000000,100.000000
1602006856.161396,103.000000,0.000000,4124.102539,4122.563965,4129.230957,4121.538574,4135.384766,4133.333496,4130.769043,4133.846191,4104.615234,4120.000000,4136.922852,4136.410156,4137.948730,4139.487305,838.000000,4.000000,,,,0.000000,4.000000,4.000000,4.000000,4.000000,4.000000,4.000000,4.000000,4.000000,4.000000,4.000000,4.000000,4.000000,4.000000,4.000000,100.000000
