Timestamp,EEG.Counter,EEG.Interpolated,EEG.AF3,EEG.F7,EEG.F3,EEG.FC5,EEG.T7,EEG.P7,EEG.O1,EEG.O2,EEG.P8,EEG.T8,EEG.FC6,EEG.F4,EEG.F8,EEG.AF4,EEG.RawCq,EEG.Battery,MarkerIndex,MarkerType,MarkerValueInt,EEG.MarkerHardware,CQ.AF3,CQ.F7,CQ.F3,CQ.FC5,CQ.T7,CQ.P7,CQ.O1,CQ.O2,CQ.P8,CQ.T8,CQ.FC6,CQ.F4,CQ.F8,CQ.AF4,CQ.Overall
1602006902.421934,37.000000,0.000000,4225.641113,4105.641113,4115.384766,4119.487305,4134.358887,4128.205078,4118.974121,4119.487305,4129.230957,4126.666504,4122.563965,4118.974121,4091.281982,4120.000000,0.000000,4.000000,,,,0.000000,4.000000,4.000000,4.000000,4.000000,4.000000,4.000000,4.000000,4.000000,4.000000,4.000000,4.000000,4.000000,4.000000,4.000000,100.000000
1602006902.429915,38.000000,0.000000,4232.820313,4123.077148,4124.615234,4123.077148,4136.410156,4133.333496,4117.948730,4126.666504,4135.897461,4115.384766,4132.820313,4132.820313,4105.128418,4131.282227,0.000000,4.000000,,,,0.000000,4.000000,4.000000,4.000000,4.000000,4.000000,4.000000,4.000000,4.000000,4.000000,4.000000,4.000000,4.000000,4.000000,4.000000,100.000000
1602006902.437796,39.000000,0.000000,4240.512695,4138.461426,4130.256348,4132.307617,4142.563965,4144.615234,4120.512695,4140.000000,4141.025879,4123.589844,4147.179688,4144.102539,4128.205078,4145.128418,0.000000,4.000000,,,,0.000000,4.000000,4.000000,4.000000,4.000000,4.000000,4.000000,4.000000,4.000000,4.000000,4.000000,4.000000,4.000000,4.000000,4.000000,100.000000
1602006902.445677,40.000000,0.000000,4245.641113,4140.000000,4133.846191,4138.974121,4139.487305,4142.051270,4122.563965,4136.410156,4138.461426,4149.743652,4136.410156,4149.743652,4141.025879,4156.410156,0.000000,4.000000,,,,0.000000,4.000000,4.000000,4.000000,4.000000,4.000000,4.000000,4.000000,4.000000,4.000000,4.000000,4.000000,4.000000,4.000000,4.000000,100.000000
1602006902.453558,41.000000,0.000000,4253.333496,4146.666504,4144.615234,4140.512695,4139.487305,4132.820313,4123.077148,4124.102539,4135.897461,4162.051270,4123.589844,4155.897461,4139.487305,4153.333496,0.000000,4.000000,,,,0.000000,4.000000,4.000000,4.000000,4.000000,4.000000,4.000000,4.000000,4.000000,4.000000,4.000000,4.000000,4.000000,4.000000,4.000000,100.000000
1602006902.461440,42.000000,0.000000,4265.128418,4153.846191,4153.333496,4142.563965,4151.794922,4140.000000,4129.230957,4120.512695,4140.512695,4149.743652,4143.077148,4154.871582,4139.487305,4150.256348,0.000000,4.000000,,,,0.000000,4.000000,4.000000,4.000000,4.000000,4.000000,4.000000,4.000000,4.000000,4.000000,4.000000,4.000000,4.000000,4.000000,4.000000,100.000000
1602006902.469321,43.000000,0.000000,4268.205078,4147.692383,4156.410156,4141.538574,4152.307617,4149.230957,4140.000000,4122.563965,4137.436035,4138.974121,4162.563965,4152.307617,4140.000000,4164.102539,0.000000,4.000000,,,,0.000000,4.000000,4.000000,4.000000,4.000000,4.000000,4.000000,4.000000,4.000000,4.000000,4.000000,4.000000,4.000000,4.000000,4.000000,100.000000
1602006902.477202,44.000000,0.000000,4262.051270,4138.461426,4163.077148,4137.436035,4139.487305,4143.077148,4145.128418,4120.512695,4125.641113,4137.948730,4152.307617,4160.512695,4133.333496,4169.743652,0.000000,4.000000,,,,0.000000,4.000000,4.000000,4.000000,4.000000,4.000000,4.000000,4.000000,4.000000,4.000000,4.000000,4.000000,4.000000,4.000000,4.000000,100.000000
1602006902.485083,45.000000,0.000000,4263.589844,4140.000000,4167.692383,4139.487305,4137.436035,4137.948730,4142.563965,4121.025879,4130.256348,4139.487305,4138.974121,4170.256348,4131.282227,4156.922852,0.000000,4.000000,,,,0.000000,4.000000,4.000000,4.000000,4.000000,4.000000,4.000000,4.000000,4.000000,4.000000,4.000000,4.000000,4.000000,4.000000,4.000000,100.000000
1602006902.492964,46.000000,0.000000,4272.820313,4148.205078,4161.538574,4142.563965,4147.692383,4143.589844,4141.538574,4127.179688,4145.641113,4140.000000,4143.589844,4169.230957,4138.461426,4150.256348,0.000000,4.000000,,,,0.000000,4.000000,4.000000,4.000000,4.000000,4.000000,4.000000,4.000000,4.000000,4.000000,4.000000,4.000000,4.000000,4.000000,4.000000,100.000000
1602006902.500745,47.000000,0.000000,4277.436035,4153.846191,4156.410156,4142.051270,4151.794922,4146.153809,4137.436035,4129.743652,4146.666504,4133.333496,4153.333496,4165.128418,4138.461426,4159.487305,0.000000,4.000000,,,,0.000000,4.000000,4.000000,4.000000,4.000000,4.000000,4.000000,4.000000,4.000000,4.000000,4.000000,4.000000,4.000000,4.000000,4.000000,100.000000
1602006902.508626,48.000000,0.000000,4277.436035,4158.974121,4164.102539,4149.230957,4150.256348,4136.922852,4124.615234,4126.666504,4137.436035,4131.282227,4152.307617,4168.717773,4139.487305,4168.717773,0.000000,4.000000,,,,0.000000,4.000000,4.000000,4.000000,4.000000,4.000000,4.000000,4.000000,4.000000,4.000000,4.000000,4.000000,4.000000,4.000000,4.000000,100.000000
1602006902.516507,49.000000,0.000000,4278.461426,4164.615234,4167.692383,4156.922852,4151.282227,4125.641113,4110.769043,4123.077148,4135.897461,4144.102539,4149.230957,4173.846191,4150.769043,4173.846191,0.000000,4.000000,,,,0.000000,4.000000,4.000000,4.000000,4.000000,4.000000,4.000000,4.000000,4.000000,4.000000,4.000000,4.000000,4.000000,4.000000,4.000000,100.000000
1602006902.524388,50.000000,0.000000,4283.589844,4170.256348,4162.051270,4157.436035,4154.358887,4123.589844,4105.128418,4123.589844,4141.025879,4158.974121,4163.589844,4175.897461,4160.000000,4180.000000,0.000000,4.000000,,,,0.000000,4.000000,4.000000,4.000000,4.000000,4.000000,4.000000,4.000000,4.000000,4.000000,4.000000,4.000000,4.000000,4.000000,4.000000,100.000000
1602006902.532169,51.000000,0.000000,4280.000000,4169.230957,4156.410156,4156.922852,4155.897461,4127.692383,4105.128418,4125.641113,4140.512695,4158.461426,4173.846191,4174.871582,4158.974121,4178.974121,0.000000,4.000000,,,,0.000000,4.000000,4.000000,4.000000,4.000000,4.000000,4.000000,4.000000,4.000000,4.000000,4.000000,4.000000,4.000000,4.000000,4.000000,100.000000
1602006902.540051,52.000000,0.000000,4268.205078,4157.948730,4150.769043,4151.282227,4148.205078,4125.641113,4108.205078,4118.461426,4126.153809,4146.666504,4161.025879,4167.179688,4152.820313,4167.179688,0.000000,4.000000,,,,0.000000,4.000000,4.000000,4.000000,4.000000,4.000000,4.000000,4.000000,4.000000,4.000000,4.000000,4.000000,4.000000,4.000000,4.000000,100.000000
1602006902.547932,53.000000,0.000000,4260.000000,4146.153809,4144.615234,4141.538574,4139.487305,4126.153809,4116.922852,4111.282227,4112.820313,4145.128418,4147.692383,4156.922852,4144.615234,4160.000000,0.000000,4.000000,,,,0.000000,4.000000,4.000000,4.000000,4.000000,4.000000,4.000000,4.000000,4.000000,4.000000,4.000000,4.000000,4.000000,4.000000,4.000000,100.000000
1602006902.555813,54.000000,0.000000,4254.358887,4135.897461,4141.538574,4137.948730,4133.846191,4135.384766,4129.743652,4114.358887,4110.769043,4151.794922,4142.051270,4150.256348,4133.333496,4156.922852,0.000000,4.000000,,,,0.000000,4.000000,4.000000,4.000000,4.000000,4.000000,4.000000,4.000000,4.000000,4.000000,4.000000,4.000000,4.000000,4.000000,4.000000,100.000000
1602006902.563694,55.000000,0.000000,4245.641113,4126.666504,4135.897461,4134.871582,4126.666504,4140.000000,4137.436035,4119.487305,4112.307617,4140.512695,4134.871582,4144.102539,4121.025879,4144.615234,0.000000,4.000000,,,,0.000000,4.000000,4.000000,4.000000,4.000000,4.000000,4.000000,4.000000,4.000000,4.000000,4.000000,4.000000,4.000000,4.000000,4.000000,100.000000
1602006902.571575,56.000000,0.000000,4233.846191,4117.948730,4123.589844,4123.589844,4125.128418,4143.077148,4140.000000,4124.615234,4118.461426,4123.589844,4133.846191,4135.897461,4116.922852,4134.871582,0.000000,4.000000,,,,0.000000,4.000000,4.000000,4.000000,4.000000,4.000000,4.000000,4.000000,4.000000,4.000000,4.000000,4.000000,4.000000,4.000000,4.000000,100.000000
1602006902.579456,57.000000,0.000000,4229.230957,4118.461426,4118.461426,4118.974121,4134.871582,4153.846191,4143.077148,4134.871582,4133.846191,4134.358887,4133.333496,4130.769043,4121.538574,4134.871582,0.000000,4.000000,,,,0.000000,4.000000,4.000000,4.000000,4.000000,4.000000,4.000000,4.000000,4.000000,4.000000,4.000000,4.000000,4.000000,4.000000,4.000000,100.000000
1602006902.587338,58.000000,0.000000,4236.410156,4125.641113,4128.205078,4128.205078,4146.666504,4158.974121,4144.102539,4144.102539,4149.743652,4156.410156,4132.307617,4141.025879,4121.538574,4138.461426,0.000000,4.000000,,,,0.000000,4.000000,4.000000,4.000000,4.000000,4.000000,4.000000,4.000000,4.000000,4.000000,4.000000,4.000000,4.000000,4.000000,4.000000,100.000000
1602006902.595219,59.000000,0.000000,4248.717773,4134.358887,4140.000000,4136.922852,4151.794922,4151.794922,4136.410156,4142.051270,4155.897461,4157.948730,4136.410156,4152.820313,4124.615234,4143.589844,0.000000,4.000000,,,,0.000000,4.000000,4.000000,4.000000,4.000000,4.000000,4.000000,4.000000,4.000000,4.000000,4.000000,4.000000,4.000000,4.000000,4.000000,100.000000
1602006902.603200,60.000000,0.000000,4265.641113,4151.282227,4150.769043,4142.051270,4153.846191,4141.538574,4126.153809,4134.871582,4154.871582,4150.769043,4138.974121,4152.307617,4138.974121,4149.230957,0.000000,4.000000,,,,0.000000,4.000000,4.000000,4.000000,4.000000,4.000000,4.000000,4.000000,4.000000,4.000000,4.000000,4.000000,4.000000,4.000000,4.000000,100.000000
1602006902.611081,61.000000,0.000000,4275.384766,4153.333496,4165.128418,4146.666504,4148.717773,4132.820313,4118.461426,4128.717773,4150.769043,4152.820313,4147.692383,4157.948730,4145.641113,4162.051270,0.000000,4.000000,,,,0.000000,4.000000,4.000000,4.000000,4.000000,4.000000,4.000000,4.000000,4.000000,4.000000,4.000000,4.000000,4.000000,4.000000,4.000000,100.000000
1602006902.618962,62.000000,0.000000,4271.282227,4137.948730,4177.948730,4146.666504,4141.025879,4123.589844,4110.769043,4125.128418,4144.615234,4157.436035,4158.461426,4170.256348,4142.051270,4174.358887,0.000000,4.000000,,,,0.000000,4.000000,4.000000,4.000000,4.000000,4.000000,4.000000,4.000000,4.000000,4.000000,4.000000,4.000000,4.000000,4.000000,4.000000,100.000000
1602006902.626843,63.000000,0.000000,4277.436035,4149.230957,4185.641113,4152.820313,4141.538574,4113.333496,4105.128418,4124.615234,4129.230957,4153.333496,4155.897461,4174.871582,4143.589844,4176.410156,0.000000,4.000000,,,,0.000000,4.000000,4.000000,4.000000,4.000000,4.000000,4.000000,4.000000,4.000000,4.000000,4.000000,4.000000,4.000000,4.000000,4.000000,100.000000
1602006902.634724,64.000000,0.000000,4298.974121,4177.436035,4187.692383,4161.538574,4143.589844,4104.615234,4103.589844,4122.563965,4111.794922,4138.974121,4143.589844,4173.846191,4138.974121,4171.794922,794.000000,4.000000,,,,0.000000,4.000000,4.000000,4.000000,4.000000,4.000000,4.000000,4.000000,4.000000,4.000000,4.000000,4.000000,4.000000,4.000000,4.000000,100.000000
1602006902.642606,65.000000,0.000000,4305.641113,4183.077148,4181.538574,4161.025879,4140.000000,4101.538574,4105.641113,4118.461426,4107.179688,4121.538574,4127.692383,4172.307617,4117.948730,4164.615234,785.000000,4.000000,,,,0.000000,4.000000,4.000000,4.000000,4.000000,4.000000,4.000000,4.000000,4.000000,4.000000,4.000000,4.000000,4.000000,4.000000,4.000000,100.000000
1602006902.650487,66.000000,0.000000,4307.179688,4181.538574,4174.871582,4162.051270,4136.922852,4109.230957,4116.410156,4115.384766,4107.692383,4120.512695,4113.846191,4167.179688,4105.128418,4152.820313,852.000000,4.000000,,,,0.000000,4.000000,4.000000,4.000000,4.000000,4.000000,4.000000,4.000000,4.000000,4.000000,4.000000,4.000000,4.000000,4.000000,4.000000,100.000000
1602006902.658368,67.000000,0.000000,4313.333496,4187.179688,4171.794922,4167.692383,4137.948730,4124.615234,4127.692383,4112.820313,4100.512695,4123.077148,4109.743652,4162.051270,4098.974121,4140.512695,870.000000,4.000000,,,,0.000000,4.000000,4.000000,4.000000,4.000000,4.000000,4.000000,4.000000,4.000000,4.000000,4.000000,4.000000,4.000000,4.000000,4.000000,100.000000
1602006902.666249,68.000000,0.000000,4303.077148,4176.410156,4160.000000,4158.461426,4136.410156,4125.641113,4127.179688,4108.717773,4090.769287,4109.230957,4104.615234,4152.307617,4081.538574,4129.743652,982.000000,4.000000,,,,0.000000,4.000000,4.000000,4.000000,4.000000,4.000000,4.000000,4.000000,4.000000,4.000000,4.000000,4.000000,4.000000,4.000000,4.000000,100.000000
1602006902.674030,69.000000,0.000000,4291.282227,4166.666504,4149.743652,4149.743652,4133.846191,4120.512695,4122.051270,4108.205078,4100.000000,4103.077148,4094.871826,4137.948730,4073.846191,4122.563965,797.000000,4.000000,,,,0.000000,4.000000,4.000000,4.000000,4.000000,4.000000,4.000000,4.000000,4.000000,4.000000,4.000000,4.000000,4.000000,4.000000,4.000000,100.000000
1602006902.681912,70.000000,0.000000,4293.333496,4171.794922,4154.358887,4154.871582,4135.897461,4131.794922,4124.102539,4114.871582,4117.948730,4121.025879,4098.974121,4136.922852,4085.128174,4121.025879,783.000000,4.000000,,,,0.000000,4.000000,4.000000,4.000000,4.000000,4.000000,4.000000,4.000000,4.000000,4.000000,4.000000,4.000000,4.000000,4.000000,4.000000,100.000000
1602006902.689793,71.000000,0.000000,4291.282227,4171.282227,4151.282227,4155.384766,4139.487305,4144.615234,4124.102539,4119.487305,4121.025879,4129.230957,4109.743652,4142.051270,4092.307617,4118.461426,703.000000,4.000000,,,,0.000000,4.000000,4.000000,4.000000,4.000000,4.000000,4.000000,4.000000,4.000000,4.000000,4.000000,4.000000,4.000000,4.000000,4.000000,100.000000
1602006902.697674,72.000000,0.000000,4290.256348,4168.205078,4139.487305,4151.794922,4140.512695,4141.025879,4122.563965,4121.538574,4120.512695,4120.512695,4105.641113,4139.487305,4092.307617,4123.589844,777.000000,4.000000,,,,0.000000,4.000000,4.000000,4.000000,4.000000,4.000000,4.000000,4.000000,4.000000,4.000000,4.000000,4.000000,4.000000,4.000000,4.000000,100.000000
1602006902.705555,73.000000,0.000000,4295.897461,4173.333496,4141.538574,4155.897461,4138.974121,4138.461426,4123.589844,4123.589844,4128.205078,4120.000000,4101.025879,4135.384766,4096.922852,4137.948730,837.000000,4.000000,,,,0.000000,4.000000,4.000000,4.000000,4.000000,4.000000,4.000000,4.000000,4.000000,4.000000,4.000000,4.000000,4.000000,4.000000,4.000000,100.000000
1602006902.713436,74.000000,0.000000,4287.179688,4177.948730,4143.077148,4155.897461,4137.948730,4141.025879,4123.077148,4121.538574,4129.743652,4126.153809,4113.846191,4136.410156,4101.025879,4140.512695,872.000000,4.000000,,,,0.000000,4.000000,4.000000,4.000000,4.000000,4.000000,4.000000,4.000000,4.000000,4.000000,4.000000,4.000000,4.000000,4.000000,4.000000,100.000000
1602006902.721317,75.000000,0.000000,4273.333496,4174.871582,4136.410156,4152.307617,4139.487305,4136.922852,4121.538574,4120.000000,4123.589844,4129.743652,4124.615234,4135.384766,4100.512695,4135.384766,838.000000,4.000000,,,,0.000000,4.000000,4.000000,4.000000,4.000000,4.000000,4.000000,4.000000,4.000000,4.000000,4.000000,4.000000,4.000000,4.000000,4.000000,100.000000
1602006902.729199,76.000000,0.000000,4281.538574,4170.769043,4143.077148,4158.461426,4141.025879,4133.846191,4122.051270,4123.077148,4121.538574,4130.769043,4120.000000,4134.871582,4103.589844,4137.436035,764.000000,4.000000,,,,0.000000,4.000000,4.000000,4.000000,4.000000,4.000000,4.000000,4.000000,4.000000,4.000000,4.000000,4.000000,4.000000,4.000000,4.000000,100.000000
1602006902.737180,77.000000,0.000000,4294.358887,4173.333496,4156.922852,4167.692383,4143.077148,4133.846191,4125.128418,4124.102539,4118.974121,4128.205078,4118.974121,4142.051270,4108.205078,4141.025879,766.000000,4.000000,,,,0.000000,4.000000,4.000000,4.000000,4.000000,4.000000,4.000000,4.000000,4.000000,4.000000,4.000000,4.000000,4.000000,4.000000,4.000000,100.000000
1602006902.745061,78.000000,0.000000,4285.641113,4174.358887,4157.436035,4163.077148,4141.025879,4129.230957,4125.641113,4123.077148,4114.358887,4123.077148,4120.512695,4144.102539,4101.025879,4140.000000,872.000000,4.000000,,,,0.000000,4.000000,4.000000,4.000000,4.000000,4.000000,4.000000,4.000000,4.000000,4.000000,4.000000,4.000000,4.000000,4.000000,4.000000,100.000000
1602006902.752942,79.000000,0.000000,4276.922852,4170.256348,4153.333496,4154.358887,4138.461426,4130.256348,4129.743652,4126.153809,4120.000000,4124.102539,4112.820313,4136.922852,4091.281982,4141.025879,838.000000,4.000000,,,,0.000000,4.000000,4.000000,4.000000,4.000000,4.000000,4.000000,4.000000,4.000000,4.000000,4.000000,4.000000,4.000000,4.000000,4.000000,100.000000
1602006902.760823,80.000000,0.000000,4287.179688,4172.307617,4153.333496,4156.410156,4143.077148,4145.641113,4137.436035,4135.384766,4132.307617,4129.230957,4107.692383,4137.948730,4092.820557,4142.051270,764.000000,4.000000,,,,0.000000,4.000000,4.000000,4.000000,4.000000,4.000000,4.000000,4.000000,4.000000,4.000000,4.000000,4.000000,4.000000,4.000000,4.000000,100.000000
1602006902.768704,81.000000,0.000000,4296.410156,4174.358887,4152.307617,4157.436035,4143.077148,4154.871582,4140.000000,4141.025879,4137.436035,4123.589844,4111.794922,4148.205078,4096.922852,4139.487305,766.000000,4.000000,,,,0.000000,4.000000,4.000000,4.000000,4.000000,4.000000,4.000000,4.000000,4.000000,4.000000,4.000000,4.000000,4.000000,4.000000,4.000000,100.000000
1602006902.776585,82.000000,0.000000,4291.794922,4170.769043,4151.794922,4153.846191,4137.436035,4152.820313,4139.487305,4135.384766,4141.025879,4125.641113,4117.948730,4151.282227,4098.974121,4145.641113,872.000000,4.000000,,,,0.000000,4.000000,4.000000,4.000000,4.000000,4.000000,4.000000,4.000000,4.000000,4.000000,4.000000,4.000000,4.000000,4.000000,4.000000,100.000000
1602006902.784467,83.000000,0.000000,4289.743652,4170.769043,4154.358887,4157.436035,4138.974121,4156.922852,4137.948730,4126.666504,4144.615234,4144.102539,4125.128418,4144.102539,4103.077148,4156.410156,838.000000,4.000000,,,,0.000000,4.000000,4.000000,4.000000,4.000000,4.000000,4.000000,4.000000,4.000000,4.000000,4.000000,4.000000,4.000000,4.000000,4.000000,100.000000
1602006902.792448,84.000000,0.000000,4291.794922,4171.794922,4152.307617,4157.948730,4135.897461,4153.846191,4126.666504,4117.436035,4128.717773,4141.025879,4119.487305,4138.461426,4095.384521,4145.641113,764.000000,4.000000,,,,0.000000,4.000000,4.000000,4.000000,4.000000,4.000000,4.000000,4.000000,4.000000,4.000000,4.000000,4.000000,4.000000,4.000000,4.000000,100.000000
1602006902.800329,85.000000,0.000000,4291.794922,4170.769043,4151.794922,4156.922852,4128.205078,4141.538574,4114.358887,4107.692383,4105.641113,4121.025879,4107.692383,4145.641113,4088.205078,4132.820313,766.000000,4.000000,,,,0.000000,4.000000,4.000000,4.000000,4.000000,4.000000,4.000000,4.000000,4.000000,4.000000,4.000000,4.000000,4.000000,4.000000,4.000000,100.000000
1602006902.808210,86.000000,0.000000,4293.333496,4169.743652,4156.922852,4161.025879,4132.820313,4140.000000,4116.410156,4104.615234,4105.641113,4122.051270,4107.179688,4152.307617,4095.897461,4145.128418,872.000000,4.000000,,,,0.000000,4.000000,4.000000,4.000000,4.000000,4.000000,4.000000,4.000000,4.000000,4.000000,4.000000,4.000000,4.000000,4.000000,4.000000,100.000000
1602006902.816091,87.000000,0.000000,4291.282227,4166.666504,4157.948730,4159.487305,4136.410156,4140.000000,4120.512695,4111.282227,4108.205078,4123.589844,4111.282227,4146.153809,4097.436035,4151.794922,838.000000,4.000000,,,,0.000000,4.000000,4.000000,4.000000,4.000000,4.000000,4.000000,4.000000,4.000000,4.000000,4.000000,4.000000,4.000000,4.000000,4.000000,100.000000
1602006902.823972,88.000000,0.000000,4290.769043,4167.179688,4152.820313,4153.333496,4130.256348,4127.179688,4118.461426,4118.461426,4091.794922,4105.128418,4110.256348,4137.436035,4089.743652,4141.025879,764.000000,4.000000,,,,0.000000,4.000000,4.000000,4.000000,4.000000,4.000000,4.000000,4.000000,4.000000,4.000000,4.000000,4.000000,4.000000,4.000000,4.000000,100.000000
1602006902.831853,89.000000,0.000000,4295.384766,4173.333496,4152.307617,4155.384766,4131.794922,4125.128418,4124.615234,4120.000000,4091.281982,4098.461426,4107.692383,4129.230957,4088.205078,4136.922852,766.000000,4.000000,,,,0.000000,4.000000,4.000000,4.000000,4.000000,4.000000,4.000000,4.000000,4.000000,4.000000,4.000000,4.000000,4.000000,4.000000,4.000000,100.000000
1602006902.839735,90.000000,0.000000,4295.897461,4172.820313,4154.871582,4156.922852,4137.436035,4141.538574,4137.436035,4127.179688,4116.922852,4112.307617,4108.205078,4124.102539,4088.718018,4137.436035,872.000000,4.000000,,,,0.000000,4.000000,4.000000,4.000000,4.000000,4.000000,4.000000,4.000000,4.000000,4.000000,4.000000,4.000000,4.000000,4.000000,4.000000,100.000000
1602006902.847616,91.000000,0.000000,4292.820313,4170.256348,4153.846191,4153.333496,4136.922852,4152.820313,4143.077148,4138.461426,4140.000000,4123.589844,4116.922852,4130.769043,4091.281982,4136.922852,838.000000,4.000000,,,,0.000000,4.000000,4.000000,4.000000,4.000000,4.000000,4.000000,4.000000,4.000000,4.000000,4.000000,4.000000,4.000000,4.000000,4.000000,100.000000
1602006902.855397,92.000000,0.000000,4292.820313,4172.820313,4151.794922,4155.384766,4141.025879,4154.871582,4141.538574,4142.563965,4146.153809,4131.282227,4126.666504,4137.436035,4094.871826,4137.948730,764.000000,4.000000,,,,0.000000,4.000000,4.000000,4.000000,4.000000,4.000000,4.000000,4.000000,4.000000,4.000000,4.000000,4.000000,4.000000,4.000000,4.000000,100.000000
1602006902.863278,93.000000,0.000000,4293.846191,4175.384766,4151.794922,4159.487305,4145.128418,4150.769043,4140.000000,4141.538574,4145.128418,4147.692383,4123.589844,4135.384766,4092.820557,4135.897461,766.000000,4.000000,,,,0.000000,4.000000,4.000000,4.000000,4.000000,4.000000,4.000000,4.000000,4.000000,4.000000,4.000000,4.000000,4.000000,4.000000,4.000000,100.000000
1602006902.871159,94.000000,0.000000,4296.410156,4176.410156,4153.333496,4157.948730,4141.025879,4143.077148,4132.820313,4139.487305,4145.128418,4158.974121,4118.461426,4140.000000,4095.897461,4143.077148,872.000000,4.000000,,,,0.000000,4.000000,4.000000,4.000000,4.000000,4.000000,4.000000,4.000000,4.000000,4.000000,4.000000,4.000000,4.000000,4.000000,4.000000,100.000000
1602006902.879041,95.000000,0.000000,4295.384766,4175.897461,4157.436035,4155.897461,4137.948730,4137.436035,4122.563965,4130.769043,4144.102539,4147.179688,4122.563965,4147.179688,4099.487305,4152.307617,838.000000,4.000000,,,,0.000000,4.000000,4.000000,4.000000,4.000000,4.000000,4.000000,4.000000,4.000000,4.000000,4.000000,4.000000,4.000000,4.000000,4.000000,100.000000
1602006902.886922,96.000000,0.000000,4282.563965,4171.282227,4156.410156,4153.333496,4141.025879,4137.436035,4120.000000,4120.000000,4134.871582,4121.538574,4121.538574,4144.102539,4094.871826,4143.589844,764.000000,4.000000,,,,0.000000,4.000000,4.000000,4.000000,4.000000,4.000000,4.000000,4.000000,4.000000,4.000000,4.000000,4.000000,4.000000,4.000000,4.000000,100.000000
1602006902.894803,97.000000,0.000000,4275.897461,4164.615234,4152.820313,4153.846191,4140.000000,4141.025879,4121.538574,4120.512695,4123.077148,4106.153809,4113.846191,4144.102539,4090.769287,4135.384766,766.000000,4.000000,,,,0.000000,4.000000,4.000000,4.000000,4.000000,4.000000,4.000000,4.000000,4.000000,4.000000,4.000000,4.000000,4.000000,4.000000,4.000000,100.000000
1602006902.902684,98.000000,0.000000,4276.922852,4156.410156,4153.333496,4153.333496,4128.205078,4132.307617,4120.000000,4123.589844,4120.512695,4109.230957,4108.717773,4146.666504,4084.102539,4138.974121,872.000000,4.000000,,,,0.000000,4.000000,4.000000,4.000000,4.000000,4.000000,4.000000,4.000000,4.000000,4.000000,4.000000,4.000000,4.000000,4.000000,4.000000,100.000000
1602006902.910565,99.000000,0.000000,4268.717773,4149.743652,4150.769043,4147.179688,4118.974121,4121.538574,4120.000000,4123.077148,4120.000000,4122.563965,4112.307617,4141.538574,4077.435791,4136.922852,838.000000,4.000000,,,,0.000000,4.000000,4.000000,4.000000,4.000000,4.000000,4.000000,4.000000,4.000000,4.000000,4.000000,4.000000,4.000000,4.000000,4.000000,100.000000
1602006902.918346,100.000000,0.000000,4260.512695,4153.846191,4148.717773,4146.153809,4123.589844,4126.666504,4126.666504,4125.128418,4118.974121,4120.512695,4112.820313,4138.461426,4084.615479,4135.384766,764.000000,4.000000,,,,0.000000,4.000000,4.000000,4.000000,4.000000,4.000000,4.000000,4.000000,4.000000,4.000000,4.000000,4.000000,4.000000,4.000000,4.000000,100.000000
1602006902.926228,101.000000,0.000000,4262.563965,4155.897461,4146.153809,4151.282227,4126.666504,4132.820313,4132.820313,4129.743652,4126.153809,4105.128418,4106.666504,4140.000000,4092.307617,4141.025879,766.000000,4.000000,,,,0.000000,4.000000,4.000000,4.000000,4.000000,4.000000,4.000000,4.000000,4.000000,4.000000,4.000000,4.000000,4.000000,4.000000,4.000000,100.000000
1602006902.934109,102.000000,0.000000,4268.717773,4150.256348,4141.538574,4152.820313,4122.051270,4133.333496,4130.256348,4131.282227,4136.922852,4109.230957,4109.743652,4137.948730,4088.718018,4142.051270,872.000000,4.000000,,,,0.000000,4.000000,4.000000,4.000000,4.000000,4.000000,4.000000,4.000000,4.000000,4.000000,4.000000,4.000000,4.000000,4.000000,4.000000,100.000000
1602006902.941990,103.000000,0.000000,4278.974121,4158.461426,4146.153809,4153.846191,4122.051270,4133.333496,4122.563965,4129.743652,4141.025879,4126.153809,4121.025879,4137.948730,4097.436035,4149.230957,838.000000,4.000000,,,,0.000000,4.000000,4.000000,4.000000,4.000000,4.000000,4.000000,4.000000,4.000000,4.000000,4.000000,4.000000,4.000000,4.000000,4.000000,100.000000
1602006902.949871,104.000000,0.000000,4284.615234,4170.256348,4154.358887,4156.410156,4125.128418,4129.230957,4121.538574,4127.179688,4147.692383,4133.846191,4128.717773,4143.077148,4112.307617,4164.102539,764.000000,4.000000,,,,0.000000,4.000000,4.000000,4.000000,4.000000,4.000000,4.000000,4.000000,4.000000,4.000000,4.000000,4.000000,4.000000,4.000000,4.000000,100.000000
1602006902.957752,105.000000,0.000000,4278.461426,4168.205078,4152.307617,4157.436035,4121.538574,4127.692383,4121.538574,4126.666504,4163.077148,4140.000000,4128.205078,4142.563965,4113.333496,4170.769043,766.000000,4.000000,,,,0.000000,4.000000,4.000000,4.000000,4.000000,4.000000,4.000000,4.000000,4.000000,4.000000,4.000000,4.000000,4.000000,4.000000,4.000000,100.000000
1602006902.965633,106.000000,0.000000,4277.948730,4167.179688,4150.256348,4156.922852,4123.589844,4138.974121,4113.846191,4127.692383,4173.333496,4140.512695,4127.692383,4137.948730,4111.282227,4168.205078,872.000000,4.000000,,,,0.000000,4.000000,4.000000,4.000000,4.000000,4.000000,4.000000,4.000000,4.000000,4.000000,4.000000,4.000000,4.000000,4.000000,4.000000,100.000000
1602006902.973515,107.000000,0.000000,4277.948730,4169.230957,4149.230957,4156.922852,4130.769043,4136.410156,4109.230957,4126.666504,4167.692383,4130.769043,4126.666504,4140.512695,4108.717773,4161.025879,838.000000,4.000000,,,,0.000000,4.000000,4.000000,4.000000,4.000000,4.000000,4.000000,4.000000,4.000000,4.000000,4.000000,4.000000,4.000000,4.000000,4.000000,100.000000
1602006902.981496,108.000000,0.000000,4269.743652,4160.000000,4143.589844,4153.846191,4126.666504,4121.025879,4115.897461,4128.205078,4168.717773,4122.563965,4120.000000,4148.717773,4104.615234,4152.820313,764.000000,4.000000,,,,0.000000,4.000000,4.000000,4.000000,4.000000,4.000000,4.000000,4.000000,4.000000,4.000000,4.000000,4.000000,4.000000,4.000000,4.000000,100.000000
1602006902.989377,109.000000,0.000000,4264.615234,4154.871582,4147.692383,4155.384766,4122.563965,4128.205078,4123.077148,4138.974121,4189.230957,4128.717773,4121.538574,4154.358887,4113.333496,4153.333496,766.000000,4.000000,,,,0.000000,4.000000,4.000000,4.000000,4.000000,4.000000,4.000000,4.000000,4.000000,4.000000,4.000000,4.000000,4.000000,4.000000,4.000000,100.000000
1602006902.997258,110.000000,0.000000,4268.205078,4161.538574,4153.846191,4157.948730,4127.692383,4143.077148,4124.615234,4144.102539,4197.948730,4144.615234,4131.282227,4152.820313,4121.025879,4158.461426,872.000000,4.000000,,,,0.000000,4.000000,4.000000,4.000000,4.000000,4.000000,4.000000,4.000000,4.000000,4.000000,4.000000,4.000000,4.000000,4.000000,4.000000,100.000000
1602006903.005139,111.000000,0.000000,4267.179688,4158.974121,4143.589844,4152.307617,4127.179688,4138.461426,4123.589844,4131.794922,4184.615234,4154.358887,4132.307617,4143.589844,4110.769043,4150.769043,838.000000,4.000000,,,,0.000000,4.000000,4.000000,4.000000,4.000000,4.000000,4.000000,4.000000,4.000000,4.000000,4.000000,4.000000,4.000000,4.000000,4.000000,100.000000
1602006903.013020,112.000000,0.000000,4264.615234,4151.794922,4135.384766,4150.769043,4123.077148,4130.256348,4123.589844,4120.512695,4179.487305,4140.000000,4127.179688,4136.922852,4102.563965,4144.102539,764.000000,4.000000,,,,0.000000,4.000000,4.000000,4.000000,4.000000,4.000000,4.000000,4.000000,4.000000,4.000000,4.000000,4.000000,4.000000,4.000000,4.000000,100.000000
1602006903.020901,113.000000,0.000000,4269.743652,4153.333496,4140.000000,4154.358887,4124.102539,4144.615234,4123.589844,4125.128418,4185.641113,4118.974121,4125.641113,4138.974121,4108.717773,4153.846191,766.000000,4.000000,,,,0.000000,4.000000,4.000000,4.000000,4.000000,4.000000,4.000000,4.000000,4.000000,4.000000,4.000000,4.000000,4.000000,4.000000,4.000000,100.000000
1602006903.028883,114.000000,0.000000,4268.717773,4155.384766,4142.563965,4151.794922,4123.077148,4155.384766,4121.538574,4129.230957,4188.717773,4123.589844,4123.077148,4140.512695,4109.743652,4160.000000,872.000000,4.000000,,,,0.000000,4.000000,4.000000,4.000000,4.000000,4.000000,4.000000,4.000000,4.000000,4.000000,4.000000,4.000000,4.000000,4.000000,4.000000,100.000000
1602006903.036764,115.000000,0.000000,4265.641113,4153.846191,4143.077148,4148.717773,4121.025879,4144.102539,4120.512695,4125.641113,4195.384766,4138.974121,4126.153809,4141.538574,4102.051270,4154.871582,838.000000,4.000000,,,,0.000000,4.000000,4.000000,4.000000,4.000000,4.000000,4.000000,4.000000,4.000000,4.000000,4.000000,4.000000,4.000000,4.000000,4.000000,100.000000
1602006903.044645,116.000000,0.000000,4266.153809,4154.358887,4143.077148,4153.333496,4123.077148,4136.410156,4121.538574,4127.692383,4203.589844,4140.000000,4140.512695,4144.102539,4103.589844,4155.897461,764.000000,4.000000,,,,0.000000,4.000000,4.000000,4.000000,4.000000,4.000000,4.000000,4.000000,4.000000,4.000000,4.000000,4.000000,4.000000,4.000000,4.000000,100.000000
1602006903.052526,117.000000,0.000000,4255.897461,4153.846191,4138.974121,4151.794922,4122.563965,4134.358887,4124.102539,4136.922852,4202.051270,4135.384766,4142.563965,4141.025879,4109.743652,4154.358887,766.000000,4.000000,,,,0.000000,4.000000,4.000000,4.000000,4.000000,4.000000,4.000000,4.000000,4.000000,4.000000,4.000000,4.000000,4.000000,4.000000,4.000000,100.000000
1602006903.060407,118.000000,0.000000,4247.179688,4150.769043,4136.922852,4142.563965,4120.512695,4124.615234,4126.153809,4140.512695,4201.025879,4137.948730,4135.897461,4137.948730,4108.717773,4144.615234,872.000000,4.000000,,,,0.000000,4.000000,4.000000,4.000000,4.000000,4.000000,4.000000,4.000000,4.000000,4.000000,4.000000,4.000000,4.000000,4.000000,4.000000,100.000000
1602006903.068288,119.000000,0.000000,4256.922852,4151.282227,4136.410156,4146.153809,4121.538574,4122.563965,4125.128418,4139.487305,4202.051270,4140.512695,4137.436035,4140.512695,4110.769043,4146.153809,838.000000,4.000000,,,,0.000000,4.000000,4.000000,4.000000,4.000000,4.000000,4.000000,4.000000,4.000000,4.000000,4.000000,4.000000,4.000000,4.000000,4.000000,100.000000
1602006903.076170,120.000000,0.000000,4267.179688,4153.846191,4137.436035,4152.820313,4123.077148,4134.871582,4127.692383,4140.512695,4202.051270,4135.384766,4135.384766,4140.512695,4117.436035,4151.794922,764.000000,4.000000,,,,0.000000,4.000000,4.000000,4.000000,4.000000,4.000000,4.000000,4.000000,4.000000,4.000000,4.000000,4.000000,4.000000,4.000000,4.000000,100.000000
1602006903.084051,121.000000,0.000000,4263.077148,4154.871582,4144.615234,4151.282227,4120.512695,4140.512695,4134.871582,4141.025879,4201.538574,4133.333496,4128.205078,4143.077148,4115.897461,4152.820313,766.000000,4.000000,,,,0.000000,4.000000,4.000000,4.000000,4.000000,4.000000,4.000000,4.000000,4.000000,4.000000,4.000000,4.000000,4.000000,4.000000,4.000000,100.000000
1602006903.091832,122.000000,0.000000,4264.615234,4155.384766,4151.794922,4150.256348,4123.077148,4137.436035,4137.436035,4141.025879,4201.538574,4136.922852,4124.615234,4152.307617,4108.717773,4156.922852,872.000000,4.000000,,,,0.000000,4.000000,4.000000,4.000000,4.000000,4.000000,4.000000,4.000000,4.000000,4.000000,4.000000,4.000000,4.000000,4.000000,4.000000,100.000000
1602006903.099713,123.000000,0.000000,4265.128418,4149.743652,4147.692383,4150.256348,4124.615234,4127.692383,4135.384766,4140.000000,4204.102539,4139.487305,4128.205078,4156.922852,4106.153809,4153.846191,838.000000,4.000000,,,,0.000000,4.000000,4.000000,4.000000,4.000000,4.000000,4.000000,4.000000,4.000000,4.000000,4.000000,4.000000,4.000000,4.000000,4.000000,100.000000
1602006903.107594,124.000000,0.000000,4251.282227,4138.974121,4139.487305,4141.538574,4112.820313,4118.461426,4133.333496,4136.410156,4199.487305,4134.358887,4136.922852,4147.692383,4105.128418,4142.563965,764.000000,4.000000,,,,0.000000,4.000000,4.000000,4.000000,4.000000,4.000000,4.000000,4.000000,4.000000,4.000000,4.000000,4.000000,4.000000,4.000000,4.000000,100.000000
1602006903.115475,125.000000,0.000000,4242.563965,4135.384766,4136.922852,4136.922852,4108.717773,4130.256348,4129.230957,4135.384766,4188.205078,4125.128418,4134.358887,4141.538574,4104.615234,4150.256348,766.000000,4.000000,,,,0.000000,4.000000,4.000000,4.000000,4.000000,4.000000,4.000000,4.000000,4.000000,4.000000,4.000000,4.000000,4.000000,4.000000,4.000000,100.000000
1602006903.123357,126.000000,0.000000,4248.205078,4142.051270,4143.077148,4143.077148,4120.000000,4144.102539,4125.641113,4143.077148,4188.717773,4125.128418,4122.563965,4144.102539,4110.769043,4168.717773,872.000000,4.000000,,,,0.000000,4.000000,4.000000,4.000000,4.000000,4.000000,4.000000,4.000000,4.000000,4.000000,4.000000,4.000000,4.000000,4.000000,4.000000,100.000000
1602006903.131338,127.000000,0.000000,4254.871582,4150.769043,4151.794922,4144.102539,4125.128418,4141.025879,4130.256348,4152.820313,4197.948730,4138.974121,4128.717773,4141.538574,4119.487305,4163.589844,838.000000,4.000000,,,,0.000000,4.000000,4.000000,4.000000,4.000000,4.000000,4.000000,4.000000,4.000000,4.000000,4.000000,4.000000,4.000000,4.000000,4.000000,100.000000
1602006903.139219,128.000000,0.000000,4260.000000,4155.384766,4150.769043,4144.102539,4126.153809,4141.025879,4135.897461,4151.794922,4204.102539,4152.307617,4138.974121,4139.487305,4124.102539,4153.333496,764.000000,4.000000,,,,0.000000,4.000000,4.000000,4.000000,4.000000,4.000000,4.000000,4.000000,4.000000,4.000000,4.000000,4.000000,4.000000,4.000000,4.000000,100.000000
1602006903.147101,0.000000,0.000000,4260.512695,4154.358887,4143.077148,4151.794922,4129.743652,4145.641113,4135.897461,4144.102539,4201.538574,4149.743652,4129.743652,4149.230957,4120.512695,4161.538574,794.000000,4.000000,,,,0.000000,4.000000,4.000000,4.000000,4.000000,4.000000,4.000000,4.000000,4.000000,4.000000,4.000000,4.000000,4.000000,4.000000,4.000000,100.000000
1602006903.154982,1.000000,0.000000,4251.282227,4152.820313,4140.000000,4152.307617,4125.641113,4138.461426,4132.820313,4143.077148,4187.692383,4135.897461,4131.282227,4156.410156,4118.461426,4173.846191,785.000000,4.000000,,,,0.000000,4.000000,4.000000,4.000000,4.000000,4.000000,4.000000,4.000000,4.000000,4.000000,4.000000,4.000000,4.000000,4.000000,4.000000,100.000000
1602006903.162864,2.000000,0.000000,4246.153809,4154.871582,4142.051270,4142.051270,4123.077148,4128.205078,4136.410156,4141.025879,4171.282227,4130.769043,4144.615234,4151.282227,4124.615234,4169.743652,852.000000,4.000000,,,,0.000000,4.000000,4.000000,4.000000,4.000000,4.000000,4.000000,4.000000,4.000000,4.000000,4.000000,4.000000,4.000000,4.000000,4.000000,100.000000
1602006903.170745,3.000000,0.000000,4251.282227,4150.256348,4144.102539,4140.000000,4126.666504,4120.512695,4139.487305,4132.307617,4162.051270,4139.487305,4133.333496,4144.102539,4118.974121,4155.384766,870.000000,4.000000,,,,0.000000,4.000000,4.000000,4.000000,4.000000,4.000000,4.000000,4.000000,4.000000,4.000000,4.000000,4.000000,4.000000,4.000000,4.000000,100.000000
1602006903.178626,4.000000,0.000000,4249.230957,4140.512695,4142.051270,4143.077148,4123.589844,4115.897461,4128.717773,4132.307617,4159.487305,4135.897461,4115.384766,4138.461426,4104.615234,4150.256348,838.000000,4.000000,,,,0.000000,4.000000,4.000000,4.000000,4.000000,4.000000,4.000000,4.000000,4.000000,4.000000,4.000000,4.000000,4.000000,4.000000,4.000000,100.000000
1602006903.186508,5.000000,0.000000,4243.589844,4137.436035,4140.512695,4138.461426,4117.436035,4118.461426,4123.077148,4137.948730,4158.974121,4116.922852,4120.000000,4136.410156,4107.179688,4155.897461,811.000000,4.000000,,,,0.000000,4.000000,4.000000,4.000000,4.000000,4.000000,4.000000,4.000000,4.000000,4.000000,4.000000,4.000000,4.000000,4.000000,4.000000,100.000000
1602006903.194389,6.000000,0.000000,4245.641113,4142.051270,4140.512695,4136.922852,4118.461426,4123.077148,4132.307617,4141.538574,4165.128418,4123.077148,4127.179688,4138.461426,4112.307617,4152.820313,776.000000,4.000000,,,,0.000000,4.000000,4.000000,4.000000,4.000000,4.000000,4.000000,4.000000,4.000000,4.000000,4.000000,4.000000,4.000000,4.000000,4.000000,100.000000
1602006903.202271,7.000000,0.000000,4249.230957,4143.589844,4140.000000,4138.974121,4126.153809,4125.641113,4139.487305,4149.230957,4182.051270,4155.384766,4122.563965,4141.538574,4110.769043,4142.563965,674.000000,4.000000,,,,0.000000,4.000000,4.000000,4.000000,4.000000,4.000000,4.000000,4.000000,4.000000,4.000000,4.000000,4.000000,4.000000,4.000000,4.000000,100.000000
1602006903.210052,8.000000,0.000000,4246.666504,4140.000000,4136.410156,4134.871582,4127.179688,4123.589844,4133.333496,4152.820313,4181.538574,4162.563965,4121.025879,4144.615234,4115.384766,4146.153809,777.000000,4.000000,,,,0.000000,4.000000,4.000000,4.000000,4.000000,4.000000,4.000000,4.000000,4.000000,4.000000,4.000000,4.000000,4.000000,4.000000,4.000000,100.000000
1602006903.217933,9.000000,0.000000,4243.589844,4138.461426,4136.410156,4133.846191,4119.487305,4120.000000,4126.666504,4141.538574,4158.974121,4139.487305,4129.743652,4145.641113,4123.077148,4155.897461,837.000000,4.000000,,,,0.000000,4.000000,4.000000,4.000000,4.000000,4.000000,4.000000,4.000000,4.000000,4.000000,4.000000,4.000000,4.000000,4.000000,4.000000,100.000000
1602006903.225813,10.000000,0.000000,4250.769043,4147.692383,4146.666504,4145.641113,4123.077148,4129.230957,4131.794922,4133.333496,4153.846191,4134.358887,4138.461426,4154.871582,4128.717773,4160.000000,872.000000,4.000000,,,,0.000000,4.000000,4.000000,4.000000,4.000000,4.000000,4.000000,4.000000,4.000000,4.000000,4.000000,4.000000,4.000000,4.000000,4.000000,100.000000
1602006903.233594,11.000000,0.000000,4262.563965,4161.025879,4157.436035,4155.897461,4138.461426,4143.077148,4136.410156,4136.922852,4171.282227,4139.487305,4138.461426,4169.743652,4139.487305,4165.641113,838.000000,4.000000,,,,0.000000,4.000000,4.000000,4.000000,4.000000,4.000000,4.000000,4.000000,4.000000,4.000000,4.000000,4.000000,4.000000,4.000000,4.000000,100.000000
1602006903.241375,12.000000,0.000000,4263.589844,4166.153809,4160.000000,4155.384766,4143.589844,4143.077148,4127.692383,4134.358887,4170.256348,4119.487305,4137.436035,4174.871582,4145.128418,4172.307617,764.000000,4.000000,,,,0.000000,4.000000,4.000000,4.000000,4.000000,4.000000,4.000000,4.000000,4.000000,4.000000,4.000000,4.000000,4.000000,4.000000,4.000000,100.000000
1602006903.249256,13.000000,0.000000,4262.051270,4163.077148,4158.974121,4153.846191,4140.000000,4135.897461,4119.487305,4127.179688,4158.461426,4108.205078,4136.922852,4171.282227,4141.025879,4173.333496,742.000000,4.000000,,,,0.000000,4.000000,4.000000,4.000000,4.000000,4.000000,4.000000,4.000000,4.000000,4.000000,4.000000,4.000000,4.000000,4.000000,4.000000,100.000000
1602006903.257037,14.000000,0.000000,4264.615234,4159.487305,4158.461426,4156.410156,4138.461426,4131.794922,4122.051270,4124.102539,4152.820313,4127.692383,4127.692383,4171.282227,4134.871582,4165.641113,872.000000,4.000000,,,,0.000000,4.000000,4.000000,4.000000,4.000000,4.000000,4.000000,4.000000,4.000000,4.000000,4.000000,4.000000,4.000000,4.000000,4.000000,100.000000
1602006903.264918,15.000000,0.000000,4260.512695,4157.948730,4155.384766,4154.871582,4137.948730,4132.820313,4126.153809,4126.666504,4143.077148,4135.897461,4122.051270,4171.282227,4125.641113,4155.897461,838.000000,4.000000,,,,0.000000,4.000000,4.000000,4.000000,4.000000,4.000000,4.000000,4.000000,4.000000,4.000000,4.000000,4.000000,4.000000,4.000000,4.000000,100.000000
1602006903.272899,16.000000,0.000000,4247.692383,4149.230957,4148.717773,4144.615234,4136.410156,4139.487305,4132.820313,4132.307617,4141.025879,4121.538574,4126.153809,4164.102539,4122.051270,4149.743652,0.000000,4.000000,,,,0.000000,4.000000,4.000000,4.000000,4.000000,4.000000,4.000000,4.000000,4.000000,4.000000,4.000000,4.000000,4.000000,4.000000,4.000000,100.000000
1602006903.280780,17.000000,0.000000,4234.871582,4141.025879,4141.538574,4137.436035,4136.410156,4140.512695,4141.538574,4137.948730,4151.282227,4123.077148,4126.666504,4156.410156,4125.128418,4144.615234,0.000000,4.000000,,,,0.000000,4.000000,4.000000,4.000000,4.000000,4.000000,4.000000,4.000000,4.000000,4.000000,4.000000,4.000000,4.000000,4.000000,4.000000,100.000000
1602006903.288661,18.000000,0.000000,4229.743652,4143.589844,4135.897461,4140.000000,4137.436035,4138.461426,4136.410156,4137.948730,4162.051270,4147.179688,4121.538574,4147.692383,4121.538574,4137.436035,0.000000,4.000000,,,,0.000000,4.000000,4.000000,4.000000,4.000000,4.000000,4.000000,4.000000,4.000000,4.000000,4.000000,4.000000,4.000000,4.000000,4.000000,100.000000
1602006903.296442,19.000000,0.000000,4230.769043,4147.692383,4135.384766,4139.487305,4138.974121,4141.025879,4126.666504,4131.794922,4169.230957,4157.948730,4121.025879,4143.589844,4126.666504,4133.846191,0.000000,4.000000,,,,0.000000,4.000000,4.000000,4.000000,4.000000,4.000000,4.000000,4.000000,4.000000,4.000000,4.000000,4.000000,4.000000,4.000000,4.000000,100.000000
1602006903.304323,20.000000,0.000000,4233.846191,4147.692383,4138.461426,4138.974121,4136.410156,4131.282227,4119.487305,4128.205078,4168.717773,4141.025879,4126.666504,4148.205078,4136.410156,4140.000000,0.000000,4.000000,,,,0.000000,4.000000,4.000000,4.000000,4.000000,4.000000,4.000000,4.000000,4.000000,4.000000,4.000000,4.000000,4.000000,4.000000,4.000000,100.000000
1602006903.312205,21.000000,0.000000,4241.025879,4152.820313,4145.641113,4149.743652,4138.974121,4120.000000,4112.307617,4127.179688,4163.077148,4130.769043,4128.205078,4153.333496,4129.230957,4153.333496,0.000000,4.000000,,,,0.000000,4.000000,4.000000,4.000000,4.000000,4.000000,4.000000,4.000000,4.000000,4.000000,4.000000,4.000000,4.000000,4.000000,4.000000,100.000000
1602006903.320086,22.000000,0.000000,4251.282227,4158.974121,4149.743652,4152.820313,4142.563965,4118.974121,4105.641113,4117.948730,4151.794922,4142.563965,4123.077148,4153.846191,4119.487305,4160.512695,0.000000,4.000000,,,,0.000000,4.000000,4.000000,4.000000,4.000000,4.000000,4.000000,4.000000,4.000000,4.000000,4.000000,4.000000,4.000000,4.000000,4.000000,100.000000
1602006903.327967,23.000000,0.000000,4247.692383,4151.282227,4143.589844,4140.512695,4130.256348,4111.282227,4101.538574,4103.589844,4141.538574,4138.974121,4118.974121,4151.794922,4122.051270,4149.230957,0.000000,4.000000,,,,0.000000,4.000000,4.000000,4.000000,4.000000,4.000000,4.000000,4.000000,4.000000,4.000000,4.000000,4.000000,4.000000,4.000000,4.000000,100.000000
1602006903.335848,24.000000,0.000000,4235.384766,4140.000000,4138.974121,4136.410156,4121.025879,4107.179688,4105.128418,4104.102539,4142.051270,4118.974121,4122.563965,4153.846191,4125.128418,4137.436035,0.000000,4.000000,,,,0.000000,4.000000,4.000000,4.000000,4.000000,4.000000,4.000000,4.000000,4.000000,4.000000,4.000000,4.000000,4.000000,4.000000,4.000000,100.000000
1602006903.343729,25.000000,0.000000,4233.846191,4138.461426,4143.077148,4140.512695,4132.307617,4119.487305,4118.461426,4117.948730,4145.641113,4117.948730,4126.153809,4155.897461,4123.589844,4141.025879,0.000000,4.000000,,,,0.000000,4.000000,4.000000,4.000000,4.000000,4.000000,4.000000,4.000000,4.000000,4.000000,4.000000,4.000000,4.000000,4.000000,4.000000,100.000000
1602006903.351610,26.000000,0.000000,4231.794922,4135.897461,4140.000000,4133.846191,4139.487305,4128.717773,4127.179688,4123.589844,4139.487305,4124.615234,4127.692383,4155.897461,4121.025879,4135.897461,0.000000,4.000000,,,,0.000000,4.000000,4.000000,4.000000,4.000000,4.000000,4.000000,4.000000,4.000000,4.000000,4.000000,4.000000,4.000000,4.000000,4.000000,100.000000
1602006903.359492,27.000000,0.000000,4221.538574,4128.205078,4128.717773,4127.692383,4133.333496,4133.333496,4123.589844,4115.897461,4131.794922,4113.333496,4125.641113,4154.358887,4119.487305,4123.077148,0.000000,4.000000,,,,0.000000,4.000000,4.000000,4.000000,4.000000,4.000000,4.000000,4.000000,4.000000,4.000000,4.000000,4.000000,4.000000,4.000000,4.000000,100.000000
1602006903.367473,28.000000,0.000000,4215.384766,4127.179688,4128.717773,4128.717773,4134.871582,4141.538574,4123.077148,4111.282227,4124.615234,4100.000000,4113.846191,4153.333496,4121.025879,4126.153809,0.000000,4.000000,,,,0.000000,4.000000,4.000000,4.000000,4.000000,4.000000,4.000000,4.000000,4.000000,4.000000,4.000000,4.000000,4.000000,4.000000,4.000000,100.000000
1602006903.375354,29.000000,0.000000,4217.948730,4134.871582,4132.820313,4126.153809,4140.000000,4137.948730,4123.589844,4112.307617,4117.436035,4108.205078,4112.307617,4152.820313,4120.000000,4133.846191,0.000000,4.000000,,,,0.000000,4.000000,4.000000,4.000000,4.000000,4.000000,4.000000,4.000000,4.000000,4.000000,4.000000,4.000000,4.000000,4.000000,4.000000,100.000000
1602006903.383235,30.000000,0.000000,4225.641113,4137.948730,4132.307617,4127.692383,4136.922852,4129.743652,4115.384766,4113.333496,4123.589844,4126.153809,4129.743652,4151.282227,4119.487305,4130.256348,0.000000,4.000000,,,,0.000000,4.000000,4.000000,4.000000,4.000000,4.000000,4.000000,4.000000,4.000000,4.000000,4.000000,4.000000,4.000000,4.000000,4.000000,100.000000
1602006903.391116,31.000000,0.000000,4231.794922,4140.000000,4136.410156,4138.461426,4138.974121,4136.922852,4115.384766,4120.000000,4138.461426,4131.794922,4138.974121,4153.846191,4127.692383,4137.436035,0.000000,4.000000,,,,0.000000,4.000000,4.000000,4.000000,4.000000,4.000000,4.000000,4.000000,4.000000,4.000000,4.000000,4.000000,4.000000,4.000000,4.000000,100.000000
1602006903.398997,32.000000,0.000000,4232.820313,4145.128418,4143.589844,4143.077148,4140.512695,4140.000000,4121.025879,4120.000000,4141.025879,4123.077148,4132.307617,4158.461426,4129.743652,4154.358887,0.000000,4.000000,,,,0.000000,4.000000,4.000000,4.000000,4.000000,4.000000,4.000000,4.000000,4.000000,4.000000,4.000000,4.000000,4.000000,4.000000,4.000000,100.000000
1602006903.406879,33.000000,0.000000,4230.769043,4145.128418,4143.077148,4137.948730,4132.307617,4122.563965,4115.384766,4111.794922,4134.871582,4110.769043,4122.563965,4158.974121,4123.589844,4150.769043,0.000000,4.000000,,,,0.000000,4.000000,4.000000,4.000000,4.000000,4.000000,4.000000,4.000000,4.000000,4.000000,4.000000,4.000000,4.000000,4.000000,4.000000,100.000000
1602006903.414760,34.000000,0.000000,4232.820313,4141.025879,4144.615234,4136.922852,4125.641113,4102.563965,4107.692383,4114.358887,4127.179688,4103.589844,4117.948730,4163.077148,4121.025879,4140.512695,0.000000,4.000000,,,,0.000000,4.000000,4.000000,4.000000,4.000000,4.000000,4.000000,4.000000,4.000000,4.000000,4.000000,4.000000,4.000000,4.000000,4.000000,100.000000
1602006903.422641,35.000000,0.000000,4233.846191,4137.948730,4152.820313,4138.461426,4124.102539,4106.666504,4112.307617,4122.563965,4122.563965,4111.282227,4116.410156,4167.692383,4122.051270,4142.051270,0.000000,4.000000,,,,0.000000,4.000000,4.000000,4.000000,4.000000,4.000000,4.000000,4.000000,4.000000,4.000000,4.000000,4.000000,4.000000,4.000000,4.000000,100.000000
1602006903.430522,36.000000,0.000000,4231.794922,4137.436035,4151.794922,4136.922852,4128.205078,4117.948730,4116.922852,4121.025879,4124.102539,4120.512695,4117.948730,4167.179688,4123.077148,4135.384766,0.000000,4.000000,,,,0.000000,4.000000,4.000000,4.000000,4.000000,4.000000,4.000000,4.000000,4.000000,4.000000,4.000000,4.000000,4.000000,4.000000,4.000000,100.000000
1602006903.438303,37.000000,0.000000,4233.333496,4141.538574,4143.077148,4136.922852,4136.410156,4118.461426,4116.410156,4120.512695,4129.230957,4124.102539,4128.717773,4165.128418,4129.743652,4134.358887,0.000000,4.000000,,,,0.000000,4.000000,4.000000,4.000000,4.000000,4.000000,4.000000,4.000000,4.000000,4.000000,4.000000,4.000000,4.000000,4.000000,4.000000,100.000000
1602006903.446184,38.000000,0.000000,4233.846191,4142.051270,4139.487305,4137.436035,4138.974121,4124.615234,4124.615234,4122.563965,4125.641113,4127.692383,4138.974121,4162.563965,4139.487305,4151.282227,0.000000,4.000000,,,,0.000000,4.000000,4.000000,4.000000,4.000000,4.000000,4.000000,4.000000,4.000000,4.000000,4.000000,4.000000,4.000000,4.000000,4.000000,100.000000
1602006903.454066,39.000000,0.000000,4228.717773,4140.512695,4139.487305,4136.922852,4138.461426,4136.410156,4134.871582,4114.871582,4116.410156,4128.205078,4131.282227,4157.436035,4136.922852,4154.358887,0.000000,4.000000,,,,0.000000,4.000000,4.000000,4.000000,4.000000,4.000000,4.000000,4.000000,4.000000,4.000000,4.000000,4.000000,4.000000,4.000000,4.000000,100.000000
1602006903.461947,40.000000,0.000000,4229.743652,4147.692383,4137.948730,4137.948730,4141.025879,4141.538574,4137.436035,4113.333496,4113.846191,4127.179688,4122.051270,4153.333496,4133.333496,4142.051270,0.000000,4.000000,,,,0.000000,4.000000,4.000000,4.000000,4.000000,4.000000,4.000000,4.000000,4.000000,4.000000,4.000000,4.000000,4.000000,4.000000,4.000000,100.000000
1602006903.469828,41.000000,0.000000,4242.051270,4157.948730,4142.563965,4141.025879,4143.589844,4149.743652,4140.000000,4128.717773,4130.256348,4133.333496,4134.358887,4158.461426,4146.666504,4153.333496,0.000000,4.000000,,,,0.000000,4.000000,4.000000,4.000000,4.000000,4.000000,4.000000,4.000000,4.000000,4.000000,4.000000,4.000000,4.000000,4.000000,4.000000,100.000000
1602006903.477709,42.000000,0.000000,4248.717773,4160.000000,4153.846191,4144.102539,4147.179688,4163.589844,4145.128418,4141.538574,4154.871582,4146.153809,4152.307617,4166.666504,4160.512695,4174.871582,0.000000,4.000000,,,,0.000000,4.000000,4.000000,4.000000,4.000000,4.000000,4.000000,4.000000,4.000000,4.000000,4.000000,4.000000,4.000000,4.000000,4.000000,100.000000
1602006903.485490,43.000000,0.000000,4245.641113,4155.384766,4155.897461,4143.589844,4149.743652,4161.025879,4143.077148,4139.487305,4160.512695,4152.820313,4151.282227,4169.230957,4156.922852,4168.205078,0.000000,4.000000,,,,0.000000,4.000000,4.000000,4.000000,4.000000,4.000000,4.000000,4.000000,4.000000,4.000000,4.000000,4.000000,4.000000,4.000000,4.000000,100.000000
1602006903.493371,44.000000,0.000000,4244.102539,4154.871582,4148.717773,4140.512695,4143.589844,4149.743652,4135.897461,4131.282227,4154.871582,4147.179688,4142.051270,4168.717773,4151.282227,4157.948730,0.000000,4.000000,,,,0.000000,4.000000,4.000000,4.000000,4.000000,4.000000,4.000000,4.000000,4.000000,4.000000,4.000000,4.000000,4.000000,4.000000,4.000000,100.000000
1602006903.501252,45.000000,0.000000,4240.512695,4152.307617,4141.538574,4138.974121,4136.922852,4139.487305,4128.717773,4125.641113,4154.358887,4135.897461,4140.512695,4169.230957,4153.846191,4159.487305,0.000000,4.000000,,,,0.000000,4.000000,4.000000,4.000000,4.000000,4.000000,4.000000,4.000000,4.000000,4.000000,4.000000,4.000000,4.000000,4.000000,4.000000,100.000000
1602006903.509133,46.000000,0.000000,4226.666504,4141.025879,4131.282227,4137.436035,4136.410156,4126.666504,4122.051270,4122.563965,4142.051270,4133.846191,4141.025879,4162.051270,4149.743652,4153.333496,0.000000,4.000000,,,,0.000000,4.000000,4.000000,4.000000,4.000000,4.000000,4.000000,4.000000,4.000000,4.000000,4.000000,4.000000,4.000000,4.000000,4.000000,100.000000
1602006903.517114,47.000000,0.000000,4215.897461,4137.436035,4121.538574,4132.307617,4136.410156,4120.512695,4121.538574,4122.051270,4123.589844,4138.974121,4129.743652,4152.820313,4139.487305,4142.563965,0.000000,4.000000,,,,0.000000,4.000000,4.000000,4.000000,4.000000,4.000000,4.000000,4.000000,4.000000,4.000000,4.000000,4.000000,4.000000,4.000000,4.000000,100.000000
1602006903.524995,48.000000,0.000000,4214.871582,4141.538574,4122.051270,4125.128418,4136.410156,4122.051270,4126.666504,4120.512695,4118.974121,4134.358887,4122.563965,4153.846191,4134.871582,4137.436035,0.000000,4.000000,,,,0.000000,4.000000,4.000000,4.000000,4.000000,4.000000,4.000000,4.000000,4.000000,4.000000,4.000000,4.000000,4.000000,4.000000,4.000000,100.000000
1602006903.532876,49.000000,0.000000,4216.922852,4143.589844,4130.256348,4127.179688,4135.897461,4126.153809,4129.230957,4120.000000,4117.948730,4127.692383,4133.333496,4155.897461,4139.487305,4136.922852,0.000000,4.000000,,,,0.000000,4.000000,4.000000,4.000000,4.000000,4.000000,4.000000,4.000000,4.000000,4.000000,4.000000,4.000000,4.000000,4.000000,4.000000,100.000000
1602006903.540757,50.000000,0.000000,4223.589844,4148.205078,4138.461426,4136.410156,4137.948730,4139.487305,4128.717773,4122.563965,4112.820313,4128.717773,4143.077148,4157.948730,4149.743652,4145.641113,0.000000,4.000000,,,,0.000000,4.000000,4.000000,4.000000,4.000000,4.000000,4.000000,4.000000,4.000000,4.000000,4.000000,4.000000,4.000000,4.000000,4.000000,100.000000
1602006903.548639,51.000000,0.000000,4232.307617,4155.897461,4139.487305,4140.512695,4144.615234,4152.820313,4125.641113,4123.077148,4120.000000,4135.384766,4139.487305,4167.692383,4153.333496,4158.974121,0.000000,4.000000,,,,0.000000,4.000000,4.000000,4.000000,4.000000,4.000000,4.000000,4.000000,4.000000,4.000000,4.000000,4.000000,4.000000,4.000000,4.000000,100.000000
1602006903.556520,52.000000,0.000000,4231.794922,4153.846191,4136.922852,4138.461426,4142.051270,4146.153809,4122.563965,4121.538574,4141.025879,4138.974121,4137.948730,4168.717773,4149.743652,4160.512695,0.000000,4.000000,,,,0.000000,4.000000,4.000000,4.000000,4.000000,4.000000,4.000000,4.000000,4.000000,4.000000,4.000000,4.000000,4.000000,4.000000,4.000000,100.000000
1602006903.564401,53.000000,0.000000,4225.128418,4145.641113,4136.410156,4136.410156,4135.384766,4129.230957,4120.512695,4125.128418,4156.922852,4138.974121,4142.563965,4157.436035,4151.282227,4151.794922,0.000000,4.000000,,,,0.000000,4.000000,4.000000,4.000000,4.000000,4.000000,4.000000,4.000000,4.000000,4.000000,4.000000,4.000000,4.000000,4.000000,4.000000,100.000000
1602006903.572282,54.000000,0.000000,4227.692383,4143.077148,4136.410156,4132.307617,4137.948730,4121.538574,4121.538574,4129.743652,4156.410156,4132.307617,4136.410156,4156.922852,4153.333496,4146.153809,0.000000,4.000000,,,,0.000000,4.000000,4.000000,4.000000,4.000000,4.000000,4.000000,4.000000,4.000000,4.000000,4.000000,4.000000,4.000000,4.000000,4.000000,100.000000
1602006903.580163,55.000000,0.000000,4230.769043,4140.512695,4138.461426,4131.282227,4134.358887,4122.051270,4127.179688,4129.230957,4155.384766,4124.102539,4121.025879,4166.666504,4143.077148,4142.563965,0.000000,4.000000,,,,0.000000,4.000000,4.000000,4.000000,4.000000,4.000000,4.000000,4.000000,4.000000,4.000000,4.000000,4.000000,4.000000,4.000000,4.000000,100.000000
1602006903.588044,56.000000,0.000000,4223.589844,4140.000000,4142.051270,4133.333496,4124.102539,4125.641113,4135.897461,4131.794922,4158.461426,4124.615234,4122.563965,4168.205078,4133.333496,4138.974121,0.000000,4.000000,,,,0.000000,4.000000,4.000000,4.000000,4.000000,4.000000,4.000000,4.000000,4.000000,4.000000,4.000000,4.000000,4.000000,4.000000,4.000000,100.000000
1602006903.595825,57.000000,0.000000,4216.922852,4136.922852,4140.000000,4128.205078,4119.487305,4128.205078,4142.563965,4139.487305,4151.794922,4126.153809,4141.025879,4165.641113,4132.307617,4137.436035,0.000000,4.000000,,,,0.000000,4.000000,4.000000,4.000000,4.000000,4.000000,4.000000,4.000000,4.000000,4.000000,4.000000,4.000000,4.000000,4.000000,4.000000,100.000000
1602006903.603706,58.000000,0.000000,4216.410156,4126.666504,4137.948730,4121.025879,4117.436035,4126.666504,4147.692383,4140.512695,4136.410156,4118.974121,4138.461426,4166.153809,4126.153809,4136.410156,0.000000,4.000000,,,,0.000000,4.000000,4.000000,4.000000,4.000000,4.000000,4.000000,4.000000,4.000000,4.000000,4.000000,4.000000,4.000000,4.000000,4.000000,100.000000
1602006903.611587,59.000000,0.000000,4223.589844,4126.666504,4141.538574,4122.563965,4115.897461,4126.666504,4149.230957,4137.948730,4129.743652,4123.077148,4128.717773,4168.205078,4122.563965,4135.897461,0.000000,4.000000,,,,0.000000,4.000000,4.000000,4.000000,4.000000,4.000000,4.000000,4.000000,4.000000,4.000000,4.000000,4.000000,4.000000,4.000000,4.000000,100.000000
1602006903.619468,60.000000,0.000000,4232.307617,4136.410156,4140.000000,4124.615234,4123.077148,4130.769043,4143.077148,4133.846191,4123.077148,4125.128418,4145.128418,4169.230957,4134.871582,4142.563965,0.000000,4.000000,,,,0.000000,4.000000,4.000000,4.000000,4.000000,4.000000,4.000000,4.000000,4.000000,4.000000,4.000000,4.000000,4.000000,4.000000,4.000000,100.000000
1602006903.627349,61.000000,0.000000,4231.794922,4138.974121,4140.000000,4124.102539,4133.333496,4135.384766,4136.922852,4126.153809,4113.846191,4104.615234,4161.538574,4170.769043,4151.282227,4166.153809,0.000000,4.000000,,,,0.000000,4.000000,4.000000,4.000000,4.000000,4.000000,4.000000,4.000000,4.000000,4.000000,4.000000,4.000000,4.000000,4.000000,4.000000,100.000000
1602006903.635130,62.000000,0.000000,4232.820313,4143.077148,4150.769043,4130.256348,4137.436035,4137.948730,4135.384766,4125.128418,4131.282227,4109.230957,4154.358887,4173.333496,4156.922852,4190.256348,0.000000,4.000000,,,,0.000000,4.000000,4.000000,4.000000,4.000000,4.000000,4.000000,4.000000,4.000000,4.000000,4.000000,4.000000,4.000000,4.000000,4.000000,100.000000
1602006903.643012,63.000000,0.000000,4241.538574,4152.307617,4153.333496,4137.948730,4137.948730,4140.000000,4128.205078,4129.230957,4159.487305,4144.615234,4151.282227,4171.794922,4157.436035,4185.641113,0.000000,4.000000,,,,0.000000,4.000000,4.000000,4.000000,4.000000,4.000000,4.000000,4.000000,4.000000,4.000000,4.000000,4.000000,4.000000,4.000000,4.000000,100.000000
1602006903.650893,64.000000,0.000000,4239.487305,4153.333496,4141.538574,4136.922852,4136.922852,4136.922852,4119.487305,4125.641113,4157.948730,4147.692383,4155.897461,4168.205078,4156.410156,4169.230957,794.000000,4.000000,,,,0.000000,4.000000,4.000000,4.000000,4.000000,4.000000,4.000000,4.000000,4.000000,4.000000,4.000000,4.000000,4.000000,4.000000,4.000000,100.000000
1602006903.658774,65.000000,0.000000,4231.794922,4152.820313,4138.974121,4136.922852,4138.974121,4130.769043,4117.436035,4117.948730,4149.230957,4138.974121,4146.153809,4165.641113,4153.333496,4168.717773,785.000000,4.000000,,,,0.000000,4.000000,4.000000,4.000000,4.000000,4.000000,4.000000,4.000000,4.000000,4.000000,4.000000,4.000000,4.000000,4.000000,4.000000,100.000000
1602006903.666655,66.000000,0.000000,4236.410156,4157.436035,4146.153809,4143.077148,4144.102539,4132.307617,4123.589844,4118.461426,4163.589844,4153.846191,4145.128418,4162.051270,4155.384766,4172.820313,852.000000,4.000000,,,,0.000000,4.000000,4.000000,4.000000,4.000000,4.000000,4.000000,4.000000,4.000000,4.000000,4.000000,4.000000,4.000000,4.000000,4.000000,100.000000
1602006903.674536,67.000000,0.000000,4226.153809,4146.153809,4145.128418,4137.436035,4136.410156,4137.436035,4133.846191,4122.563965,4174.358887,4142.563965,4148.205078,4154.358887,4144.102539,4154.358887,870.000000,4.000000,,,,0.000000,4.000000,4.000000,4.000000,4.000000,4.000000,4.000000,4.000000,4.000000,4.000000,4.000000,4.000000,4.000000,4.000000,4.000000,100.000000
1602006903.682417,68.000000,0.000000,4201.538574,4126.666504,4138.461426,4123.077148,4121.538574,4137.948730,4142.051270,4125.641113,4170.256348,4110.256348,4132.820313,4145.641113,4122.051270,4129.743652,819.000000,4.000000,,,,0.000000,4.000000,4.000000,4.000000,4.000000,4.000000,4.000000,4.000000,4.000000,4.000000,4.000000,4.000000,4.000000,4.000000,4.000000,100.000000
1602006903.690299,69.000000,0.000000,4203.589844,4127.179688,4140.000000,4121.025879,4121.025879,4134.871582,4143.589844,4129.743652,4168.717773,4106.153809,4128.205078,4142.051270,4123.077148,4129.230957,815.000000,4.000000,,,,0.000000,4.000000,4.000000,4.000000,4.000000,4.000000,4.000000,4.000000,4.000000,4.000000,4.000000,4.000000,4.000000,4.000000,4.000000,100.000000
1602006903.698180,70.000000,0.000000,4206.666504,4128.205078,4141.538574,4120.000000,4128.205078,4130.769043,4139.487305,4134.358887,4161.025879,4107.179688,4142.051270,4140.000000,4138.974121,4138.461426,771.000000,4.000000,,,,0.000000,4.000000,4.000000,4.000000,4.000000,4.000000,4.000000,4.000000,4.000000,4.000000,4.000000,4.000000,4.000000,4.000000,4.000000,100.000000
1602006903.706161,71.000000,0.000000,4185.641113,4113.333496,4130.769043,4115.384766,4123.589844,4131.794922,4130.769043,4138.974121,4149.230957,4111.794922,4144.615234,4139.487305,4146.666504,4144.615234,663.000000,4.000000,,,,0.000000,4.000000,4.000000,4.000000,4.000000,4.000000,4.000000,4.000000,4.000000,4.000000,4.000000,4.000000,4.000000,4.000000,4.000000,100.000000
1602006903.714042,72.000000,0.000000,4176.410156,4106.153809,4125.128418,4117.436035,4124.102539,4135.384766,4117.436035,4134.871582,4152.820313,4140.512695,4143.077148,4146.666504,4160.512695,4155.897461,777.000000,4.000000,,,,0.000000,4.000000,4.000000,4.000000,4.000000,4.000000,4.000000,4.000000,4.000000,4.000000,4.000000,4.000000,4.000000,4.000000,4.000000,100.000000
1602006903.721923,73.000000,0.000000,4183.589844,4112.307617,4134.871582,4122.051270,4137.436035,4136.410156,4108.205078,4125.128418,4163.589844,4163.077148,4162.563965,4157.436035,4185.128418,4169.743652,837.000000,4.000000,,,,0.000000,4.000000,4.000000,4.000000,4.000000,4.000000,4.000000,4.000000,4.000000,4.000000,4.000000,4.000000,4.000000,4.000000,4.000000,100.000000
1602006903.729804,74.000000,0.000000,4184.615234,4111.282227,4136.410156,4121.025879,4143.077148,4134.871582,4106.666504,4120.512695,4166.666504,4157.948730,4173.846191,4158.461426,4198.974121,4177.948730,872.000000,4.000000,,,,0.000000,4.000000,4.000000,4.000000,4.000000,4.000000,4.000000,4.000000,4.000000,4.000000,4.000000,4.000000,4.000000,4.000000,4.000000,100.000000
1602006903.737685,75.000000,0.000000,4180.512695,4108.205078,4125.128418,4120.512695,4140.512695,4137.948730,4111.282227,4120.000000,4168.717773,4154.358887,4162.051270,4155.384766,4196.410156,4178.974121,838.000000,4.000000,,,,0.000000,4.000000,4.000000,4.000000,4.000000,4.000000,4.000000,4.000000,4.000000,4.000000,4.000000,4.000000,4.000000,4.000000,4.000000,100.000000
1602006903.745567,76.000000,0.000000,4175.897461,4111.282227,4122.563965,4119.487305,4137.436035,4138.974121,4121.538574,4118.461426,4169.743652,4156.922852,4153.333496,4154.871582,4190.769043,4173.333496,764.000000,4.000000,,,,0.000000,4.000000,4.000000,4.000000,4.000000,4.000000,4.000000,4.000000,4.000000,4.000000,4.000000,4.000000,4.000000,4.000000,4.000000,100.000000
1602006903.753448,77.000000,0.000000,4166.153809,4106.153809,4127.179688,4113.333496,4134.358887,4139.487305,4132.820313,4117.436035,4171.282227,4149.743652,4152.820313,4154.871582,4183.589844,4171.282227,730.000000,4.000000,,,,0.000000,4.000000,4.000000,4.000000,4.000000,4.000000,4.000000,4.000000,4.000000,4.000000,4.000000,4.000000,4.000000,4.000000,4.000000,100.000000
1602006903.761329,78.000000,0.000000,4166.153809,4101.025879,4128.717773,4111.282227,4134.358887,4148.205078,4147.692383,4127.179688,4186.666504,4153.333496,4158.974121,4163.589844,4187.692383,4184.102539,872.000000,4.000000,,,,0.000000,4.000000,4.000000,4.000000,4.000000,4.000000,4.000000,4.000000,4.000000,4.000000,4.000000,4.000000,4.000000,4.000000,4.000000,100.000000
1602006903.769310,79.000000,0.000000,4172.820313,4104.102539,4127.179688,4108.717773,4136.410156,4153.846191,4153.846191,4137.436035,4201.538574,4169.743652,4169.230957,4170.256348,4200.512695,4190.256348,838.000000,4.000000,,,,0.000000,4.000000,4.000000,4.000000,4.000000,4.000000,4.000000,4.000000,4.000000,4.000000,4.000000,4.000000,4.000000,4.000000,4.000000,100.000000
1602006903.777191,80.000000,0.000000,4170.769043,4105.641113,4122.051270,4108.205078,4135.897461,4151.282227,4145.641113,4144.102539,4202.563965,4171.794922,4172.307617,4160.000000,4198.974121,4180.512695,764.000000,4.000000,,,,0.000000,4.000000,4.000000,4.000000,4.000000,4.000000,4.000000,4.000000,4.000000,4.000000,4.000000,4.000000,4.000000,4.000000,4.000000,100.000000
1602006903.785072,81.000000,0.000000,4166.153809,4105.641113,4122.051270,4116.410156,4136.410156,4149.743652,4146.153809,4153.846191,4203.589844,4167.692383,4171.282227,4153.846191,4190.769043,4172.307617,730.000000,4.000000,,,,0.000000,4.000000,4.000000,4.000000,4.000000,4.000000,4.000000,4.000000,4.000000,4.000000,4.000000,4.000000,4.000000,4.000000,4.000000,100.000000
1602006903.792954,82.000000,0.000000,4166.153809,4107.179688,4123.589844,4118.974121,4138.974121,4152.820313,4154.358887,4162.051270,4201.025879,4162.563965,4168.205078,4160.512695,4189.230957,4171.282227,872.000000,4.000000,,,,0.000000,4.000000,4.000000,4.000000,4.000000,4.000000,4.000000,4.000000,4.000000,4.000000,4.000000,4.000000,4.000000,4.000000,4.000000,100.000000
1602006903.800835,83.000000,0.000000,4166.153809,4107.179688,4121.538574,4113.333496,4137.948730,4152.307617,4148.205078,4159.487305,4174.871582,4140.512695,4158.461426,4160.000000,4186.153809,4173.846191,838.000000,4.000000,,,,0.000000,4.000000,4.000000,4.000000,4.000000,4.000000,4.000000,4.000000,4.000000,4.000000,4.000000,4.000000,4.000000,4.000000,4.000000,100.000000
1602006903.808716,84.000000,0.000000,4167.692383,4108.205078,4128.205078,4116.410156,4133.846191,4150.256348,4139.487305,4154.358887,4155.897461,4126.666504,4150.256348,4158.461426,4183.077148,4174.358887,764.000000,4.000000,,,,0.000000,4.000000,4.000000,4.000000,4.000000,4.000000,4.000000,4.000000,4.000000,4.000000,4.000000,4.000000,4.000000,4.000000,4.000000,100.000000
1602006903.816597,85.000000,0.000000,4166.666504,4107.692383,4139.487305,4121.025879,4129.230957,4155.384766,4145.128418,4154.358887,4166.153809,4143.077148,4156.922852,4165.128418,4184.102539,4171.794922,730.000000,4.000000,,,,0.000000,4.000000,4.000000,4.000000,4.000000,4.000000,4.000000,4.000000,4.000000,4.000000,4.000000,4.000000,4.000000,4.000000,4.000000,100.000000
1602006903.824478,86.000000,0.000000,4157.948730,4103.589844,4136.922852,4114.871582,4124.615234,4152.820313,4146.666504,4150.769043,4174.358887,4156.922852,4161.538574,4168.717773,4177.436035,4169.743652,872.000000,4.000000,,,,0.000000,4.000000,4.000000,4.000000,4.000000,4.000000,4.000000,4.000000,4.000000,4.000000,4.000000,4.000000,4.000000,4.000000,4.000000,100.000000
1602006903.832359,87.000000,0.000000,4155.384766,4100.512695,4123.589844,4108.205078,4123.077148,4138.974121,4141.538574,4144.615234,4168.717773,4163.589844,4156.922852,4165.128418,4174.358887,4170.769043,838.000000,4.000000,,,,0.000000,4.000000,4.000000,4.000000,4.000000,4.000000,4.000000,4.000000,4.000000,4.000000,4.000000,4.000000,4.000000,4.000000,4.000000,100.000000
1602006903.840340,88.000000,0.000000,4167.179688,4103.077148,4121.025879,4109.743652,4125.641113,4133.846191,4140.512695,4140.512695,4164.102539,4174.358887,4158.461426,4161.025879,4183.589844,4175.384766,764.000000,4.000000,,,,0.000000,4.000000,4.000000,4.000000,4.000000,4.000000,4.000000,4.000000,4.000000,4.000000,4.000000,4.000000,4.000000,4.000000,4.000000,100.000000
1602006903.848222,89.000000,0.000000,4173.846191,4106.153809,4129.743652,4113.846191,4128.205078,4142.563965,4140.512695,4137.436035,4161.538574,4165.641113,4158.974121,4158.461426,4177.948730,4174.871582,730.000000,4.000000,,,,0.000000,4.000000,4.000000,4.000000,4.000000,4.000000,4.000000,4.000000,4.000000,4.000000,4.000000,4.000000,4.000000,4.000000,4.000000,100.000000
1602006903.856103,90.000000,0.000000,4167.179688,4105.128418,4134.871582,4116.410156,4127.692383,4144.102539,4140.512695,4137.436035,4157.948730,4145.641113,4146.666504,4154.358887,4164.615234,4166.666504,872.000000,4.000000,,,,0.000000,4.000000,4.000000,4.000000,4.000000,4.000000,4.000000,4.000000,4.000000,4.000000,4.000000,4.000000,4.000000,4.000000,4.000000,100.000000
1602006903.863984,91.000000,0.000000,4166.153809,4104.615234,4136.922852,4117.948730,4124.615234,4135.384766,4140.000000,4142.563965,4154.871582,4140.000000,4142.051270,4153.846191,4168.205078,4163.077148,838.000000,4.000000,,,,0.000000,4.000000,4.000000,4.000000,4.000000,4.000000,4.000000,4.000000,4.000000,4.000000,4.000000,4.000000,4.000000,4.000000,4.000000,100.000000
1602006903.871865,92.000000,0.000000,4172.307617,4107.179688,4140.512695,4121.025879,4122.563965,4134.358887,4137.948730,4144.102539,4146.666504,4135.897461,4155.384766,4157.436035,4173.333496,4170.769043,764.000000,4.000000,,,,0.000000,4.000000,4.000000,4.000000,4.000000,4.000000,4.000000,4.000000,4.000000,4.000000,4.000000,4.000000,4.000000,4.000000,4.000000,100.000000
1602006903.879746,93.000000,0.000000,4172.307617,4109.743652,4142.563965,4123.589844,4127.692383,4139.487305,4141.025879,4145.128418,4141.538574,4140.000000,4161.025879,4157.948730,4169.230957,4176.410156,730.000000,4.000000,,,,0.000000,4.000000,4.000000,4.000000,4.000000,4.000000,4.000000,4.000000,4.000000,4.000000,4.000000,4.000000,4.000000,4.000000,4.000000,100.000000
1602006903.887627,94.000000,0.000000,4170.769043,4107.692383,4141.538574,4122.563965,4135.384766,4142.563965,4143.589844,4151.794922,4140.512695,4166.666504,4154.358887,4154.358887,4172.307617,4173.333496,872.000000,4.000000,,,,0.000000,4.000000,4.000000,4.000000,4.000000,4.000000,4.000000,4.000000,4.000000,4.000000,4.000000,4.000000,4.000000,4.000000,4.000000,100.000000
1602006903.895509,95.000000,0.000000,4172.307617,4104.102539,4142.051270,4122.563965,4137.948730,4147.179688,4140.512695,4150.256348,4130.769043,4174.358887,4153.333496,4151.282227,4172.820313,4164.615234,838.000000,4.000000,,,,0.000000,4.000000,4.000000,4.000000,4.000000,4.000000,4.000000,4.000000,4.000000,4.000000,4.000000,4.000000,4.000000,4.000000,4.000000,100.000000
1602006903.903490,96.000000,0.000000,4163.077148,4104.102539,4135.384766,4119.487305,4137.948730,4154.358887,4145.641113,4138.974121,4119.487305,4153.846191,4153.846191,4150.769043,4159.487305,4155.384766,764.000000,4.000000,,,,0.000000,4.000000,4.000000,4.000000,4.000000,4.000000,4.000000,4.000000,4.000000,4.000000,4.000000,4.000000,4.000000,4.000000,4.000000,100.000000
1602006903.911371,97.000000,0.000000,4154.358887,4105.128418,4123.077148,4111.282227,4138.974121,4156.410156,4153.846191,4136.410156,4120.512695,4149.230957,4149.743652,4151.794922,4154.871582,4150.256348,730.000000,4.000000,,,,0.000000,4.000000,4.000000,4.000000,4.000000,4.000000,4.000000,4.000000,4.000000,4.000000,4.000000,4.000000,4.000000,4.000000,4.000000,100.000000
1602006903.919252,98.000000,0.000000,4162.563965,4105.641113,4122.563965,4109.743652,4139.487305,4155.384766,4148.717773,4140.000000,4129.230957,4165.641113,4152.307617,4153.333496,4166.153809,4149.743652,872.000000,4.000000,,,,0.000000,4.000000,4.000000,4.000000,4.000000,4.000000,4.000000,4.000000,4.000000,4.000000,4.000000,4.000000,4.000000,4.000000,4.000000,100.000000
1602006903.927133,99.000000,0.000000,4165.641113,4106.153809,4125.641113,4112.307617,4136.922852,4150.769043,4141.025879,4143.077148,4136.922852,4160.000000,4163.077148,4152.820313,4169.230957,4155.897461,838.000000,4.000000,,,,0.000000,4.000000,4.000000,4.000000,4.000000,4.000000,4.000000,4.000000,4.000000,4.000000,4.000000,4.000000,4.000000,4.000000,4.000000,100.000000
1602006903.935014,100.000000,0.000000,4158.461426,4105.641113,4121.538574,4113.333496,4129.743652,4134.871582,4141.538574,4148.205078,4137.436035,4140.000000,4169.230957,4153.846191,4166.153809,4165.641113,764.000000,4.000000,,,,0.000000,4.000000,4.000000,4.000000,4.000000,4.000000,4.000000,4.000000,4.000000,4.000000,4.000000,4.000000,4.000000,4.000000,4.000000,100.000000
1602006903.942895,101.000000,0.000000,4164.102539,4106.153809,4125.128418,4116.922852,4129.230957,4119.487305,4140.512695,4152.307617,4123.589844,4144.102539,4161.538574,4154.358887,4172.307617,4169.230957,730.000000,4.000000,,,,0.000000,4.000000,4.000000,4.000000,4.000000,4.000000,4.000000,4.000000,4.000000,4.000000,4.000000,4.000000,4.000000,4.000000,4.000000,100.000000
1602006903.950777,102.000000,0.000000,4175.384766,4113.846191,4135.384766,4121.538574,4133.846191,4118.461426,4136.410156,4152.307617,4107.692383,4156.410156,4157.436035,4152.307617,4176.922852,4169.230957,872.000000,4.000000,,,,0.000000,4.000000,4.000000,4.000000,4.000000,4.000000,4.000000,4.000000,4.000000,4.000000,4.000000,4.000000,4.000000,4.000000,4.000000,100.000000
1602006903.958658,103.000000,0.000000,4179.487305,4121.538574,4138.974121,4125.641113,4133.333496,4125.128418,4138.974121,4152.820313,4111.282227,4158.461426,4166.666504,4160.000000,4176.922852,4178.974121,838.000000,4.000000,,,,0.000000,4.000000,4.000000,4.000000,4.000000,4.000000,4.000000,4.000000,4.000000,4.000000,4.000000,4.000000,4.000000,4.000000,4.000000,100.000000
1602006903.966539,104.000000,0.000000,4182.563965,4122.563965,4143.589844,4128.717773,4133.333496,4129.230957,4140.000000,4153.846191,4120.512695,4166.153809,4173.846191,4169.743652,4185.128418,4184.615234,764.000000,4.000000,,,,0.000000,4.000000,4.000000,4.000000,4.000000,4.000000,4.000000,4.000000,4.000000,4.000000,4.000000,4.000000,4.000000,4.000000,4.000000,100.000000
1602006903.974520,105.000000,0.000000,4187.692383,4124.102539,4152.307617,4129.743652,4139.487305,4135.384766,4137.948730,4151.794922,4126.153809,4184.102539,4169.230957,4170.769043,4191.794922,4183.589844,730.000000,4.000000,,,,0.000000,4.000000,4.000000,4.000000,4.000000,4.000000,4.000000,4.000000,4.000000,4.000000,4.000000,4.000000,4.000000,4.000000,4.000000,100.000000
1602006903.982401,106.000000,0.000000,4188.717773,4130.256348,4154.358887,4133.846191,4143.077148,4150.769043,4144.102539,4153.333496,4135.384766,4190.769043,4163.589844,4165.641113,4188.205078,4185.128418,872.000000,4.000000,,,,0.000000,4.000000,4.000000,4.000000,4.000000,4.000000,4.000000,4.000000,4.000000,4.000000,4.000000,4.000000,4.000000,4.000000,4.000000,100.000000
1602006903.990282,107.000000,0.000000,4179.487305,4124.615234,4142.051270,4134.871582,4140.000000,4158.461426,4149.230957,4154.358887,4135.897461,4167.179688,4155.897461,4152.307617,4177.436035,4173.846191,838.000000,4.000000,,,,0.000000,4.000000,4.000000,4.000000,4.000000,4.000000,4.000000,4.000000,4.000000,4.000000,4.000000,4.000000,4.000000,4.000000,4.000000,100.000000
1602006903.998164,108.000000,0.000000,4166.153809,4108.717773,4125.641113,4124.102539,4135.897461,4148.205078,4141.538574,4145.128418,4121.025879,4140.512695,4149.230957,4137.436035,4162.563965,4149.743652,764.000000,4.000000,,,,0.000000,4.000000,4.000000,4.000000,4.000000,4.000000,4.000000,4.000000,4.000000,4.000000,4.000000,4.000000,4.000000,4.000000,4.000000,100.000000
1602006904.006045,109.000000,0.000000,4163.589844,4108.717773,4126.153809,4117.948730,4133.846191,4144.102539,4135.897461,4141.538574,4115.897461,4145.128418,4157.436035,4142.563965,4154.871582,4140.512695,730.000000,4.000000,,,,0.000000,4.000000,4.000000,4.000000,4.000000,4.000000,4.000000,4.000000,4.000000,4.000000,4.000000,4.000000,4.000000,4.000000,4.000000,100.000000
1602006904.013926,110.000000,0.000000,4170.769043,4121.538574,4140.000000,4127.692383,4137.948730,4148.205078,4140.000000,4152.307617,4126.666504,4173.846191,4169.230957,4163.589844,4165.128418,4154.358887,872.000000,4.000000,,,,0.000000,4.000000,4.000000,4.000000,4.000000,4.000000,4.000000,4.000000,4.000000,4.000000,4.000000,4.000000,4.000000,4.000000,4.000000,100.000000
1602006904.021907,111.000000,0.000000,4180.512695,4126.153809,4145.128418,4130.769043,4142.051270,4140.000000,4134.871582,4153.846191,4122.563965,4185.128418,4164.615234,4171.282227,4178.461426,4165.641113,838.000000,4.000000,,,,0.000000,4.000000,4.000000,4.000000,4.000000,4.000000,4.000000,4.000000,4.000000,4.000000,4.000000,4.000000,4.000000,4.000000,4.000000,100.000000
1602006904.029788,112.000000,0.000000,4181.025879,4124.102539,4142.563965,4125.641113,4140.000000,4131.794922,4124.615234,4139.487305,4107.692383,4165.128418,4154.871582,4168.717773,4168.205078,4168.205078,764.000000,4.000000,,,,0.000000,4.000000,4.000000,4.000000,4.000000,4.000000,4.000000,4.000000,4.000000,4.000000,4.000000,4.000000,4.000000,4.000000,4.000000,100.000000
1602006904.037669,113.000000,0.000000,4173.333496,4125.128418,4140.000000,4127.179688,4138.974121,4138.461426,4129.230957,4134.358887,4105.128418,4147.179688,4148.717773,4167.179688,4149.230957,4168.205078,730.000000,4.000000,,,,0.000000,4.000000,4.000000,4.000000,4.000000,4.000000,4.000000,4.000000,4.000000,4.000000,4.000000,4.000000,4.000000,4.000000,4.000000,100.000000
1602006904.045550,114.000000,0.000000,4167.179688,4124.102539,4131.794922,4127.692383,4139.487305,4143.589844,4143.077148,4140.000000,4103.077148,4138.974121,4141.025879,4157.436035,4150.769043,4158.461426,872.000000,4.000000,,,,0.000000,4.000000,4.000000,4.000000,4.000000,4.000000,4.000000,4.000000,4.000000,4.000000,4.000000,4.000000,4.000000,4.000000,4.000000,100.000000
1602006904.053432,115.000000,0.000000,4160.512695,4115.897461,4120.000000,4118.461426,4137.948730,4142.051270,4147.179688,4140.000000,4096.922852,4126.153809,4141.538574,4139.487305,4155.384766,4145.641113,838.000000,4.000000,,,,0.000000,4.000000,4.000000,4.000000,4.000000,4.000000,4.000000,4.000000,4.000000,4.000000,4.000000,4.000000,4.000000,4.000000,4.000000,100.000000
1602006904.061313,116.000000,0.000000,4149.230957,4105.641113,4116.410156,4111.794922,4134.358887,4137.436035,4140.512695,4141.025879,4102.051270,4122.051270,4151.282227,4135.384766,4139.487305,4137.436035,764.000000,4.000000,,,,0.000000,4.000000,4.000000,4.000000,4.000000,4.000000,4.000000,4.000000,4.000000,4.000000,4.000000,4.000000,4.000000,4.000000,4.000000,100.000000
1602006904.069194,117.000000,0.000000,4151.794922,4105.641113,4124.102539,4116.410156,4132.307617,4135.897461,4141.025879,4149.743652,4117.948730,4152.820313,4153.846191,4149.743652,4136.922852,4138.461426,730.000000,4.000000,,,,0.000000,4.000000,4.000000,4.000000,4.000000,4.000000,4.000000,4.000000,4.000000,4.000000,4.000000,4.000000,4.000000,4.000000,4.000000,100.000000
1602006904.077075,118.000000,0.000000,4170.769043,4119.487305,4142.051270,4125.641113,4136.922852,4144.615234,4147.692383,4160.000000,4126.666504,4188.205078,4160.000000,4163.077148,4159.487305,4150.769043,872.000000,4.000000,,,,0.000000,4.000000,4.000000,4.000000,4.000000,4.000000,4.000000,4.000000,4.000000,4.000000,4.000000,4.000000,4.000000,4.000000,4.000000,100.000000
1602006904.084956,119.000000,0.000000,4170.769043,4121.025879,4145.128418,4124.615234,4139.487305,4146.153809,4143.589844,4154.871582,4123.077148,4177.948730,4158.974121,4155.897461,4159.487305,4158.461426,838.000000,4.000000,,,,0.000000,4.000000,4.000000,4.000000,4.000000,4.000000,4.000000,4.000000,4.000000,4.000000,4.000000,4.000000,4.000000,4.000000,4.000000,100.000000
1602006904.092737,120.000000,0.000000,4156.922852,4107.692383,4129.743652,4115.897461,4133.333496,4139.487305,4134.358887,4143.589844,4115.897461,4152.307617,4134.358887,4141.025879,4137.436035,4154.871582,764.000000,4.000000,,,,0.000000,4.000000,4.000000,4.000000,4.000000,4.000000,4.000000,4.000000,4.000000,4.000000,4.000000,4.000000,4.000000,4.000000,4.000000,100.000000
1602006904.100619,121.000000,0.000000,4157.948730,4104.615234,4125.128418,4111.282227,4125.128418,4137.436035,4134.358887,4144.615234,4110.256348,4152.820313,4125.641113,4140.000000,4136.410156,4150.769043,730.000000,4.000000,,,,0.000000,4.000000,4.000000,4.000000,4.000000,4.000000,4.000000,4.000000,4.000000,4.000000,4.000000,4.000000,4.000000,4.000000,4.000000,100.000000
1602006904.108500,122.000000,0.000000,4161.025879,4107.692383,4125.128418,4111.282227,4124.615234,4135.897461,4134.871582,4142.563965,4107.179688,4148.717773,4137.948730,4139.487305,4142.051270,4143.589844,872.000000,4.000000,,,,0.000000,4.000000,4.000000,4.000000,4.000000,4.000000,4.000000,4.000000,4.000000,4.000000,4.000000,4.000000,4.000000,4.000000,4.000000,100.000000
1602006904.116381,123.000000,0.000000,4152.820313,4105.128418,4116.410156,4109.230957,4131.282227,4135.897461,4130.256348,4138.974121,4105.128418,4124.615234,4140.512695,4130.256348,4137.436035,4134.871582,838.000000,4.000000,,,,0.000000,4.000000,4.000000,4.000000,4.000000,4.000000,4.000000,4.000000,4.000000,4.000000,4.000000,4.000000,4.000000,4.000000,4.000000,100.000000
1602006904.124262,124.000000,0.000000,4151.794922,4104.615234,4114.871582,4106.666504,4131.794922,4142.051270,4134.358887,4148.717773,4105.128418,4120.512695,4144.102539,4136.410156,4136.410156,4138.974121,764.000000,4.000000,,,,0.000000,4.000000,4.000000,4.000000,4.000000,4.000000,4.000000,4.000000,4.000000,4.000000,4.000000,4.000000,4.000000,4.000000,4.000000,100.000000
1602006904.132143,125.000000,0.000000,4161.025879,4107.692383,4127.179688,4108.205078,4126.153809,4132.820313,4137.436035,4152.820313,4101.538574,4145.641113,4144.615234,4151.794922,4140.000000,4138.974121,730.000000,4.000000,,,,0.000000,4.000000,4.000000,4.000000,4.000000,4.000000,4.000000,4.000000,4.000000,4.000000,4.000000,4.000000,4.000000,4.000000,4.000000,100.000000
1602006904.140024,126.000000,0.000000,4162.051270,4105.641113,4133.333496,4109.743652,4121.538574,4118.461426,4134.358887,4146.153809,4101.025879,4155.897461,4127.692383,4151.794922,4139.487305,4131.794922,872.000000,4.000000,,,,0.000000,4.000000,4.000000,4.000000,4.000000,4.000000,4.000000,4.000000,4.000000,4.000000,4.000000,4.000000,4.000000,4.000000,4.000000,100.000000
1602006904.147906,127.000000,0.000000,4165.128418,4108.205078,4136.922852,4114.358887,4123.077148,4128.717773,4134.358887,4149.230957,4116.410156,4150.769043,4127.692383,4151.282227,4140.000000,4146.153809,838.000000,4.000000,,,,0.000000,4.000000,4.000000,4.000000,4.000000,4.000000,4.000000,4.000000,4.000000,4.000000,4.000000,4.000000,4.000000,4.000000,4.000000,100.000000
1602006904.155687,128.000000,0.000000,4166.666504,4110.769043,4138.974121,4116.410156,4127.179688,4141.025879,4137.948730,4155.384766,4132.820313,4157.436035,4147.692383,4153.333496,4141.538574,4160.512695,764.000000,4.000000,,,,0.000000,4.000000,4.000000,4.000000,4.000000,4.000000,4.000000,4.000000,4.000000,4.000000,4.000000,4.000000,4.000000,4.000000,4.000000,100.000000
1602006904.163568,0.000000,0.000000,4156.922852,4106.666504,4128.205078,4110.256348,4129.743652,4137.948730,4140.000000,4154.871582,4126.666504,4161.538574,4146.153809,4142.563965,4140.512695,4153.333496,794.000000,4.000000,,,,0.000000,4.000000,4.000000,4.000000,4.000000,4.000000,4.000000,4.000000,4.000000,4.000000,4.000000,4.000000,4.000000,4.000000,4.000000,100.000000
1602006904.171449,1.000000,0.000000,4152.307617,4105.641113,4118.974121,4110.769043,4129.230957,4138.974121,4141.025879,4153.846191,4108.717773,4145.128418,4133.846191,4134.871582,4138.974121,4150.256348,785.000000,4.000000,,,,0.000000,4.000000,4.000000,4.000000,4.000000,4.000000,4.000000,4.000000,4.000000,4.000000,4.000000,4.000000,4.000000,4.000000,4.000000,100.000000
1602006904.179330,2.000000,0.000000,4156.922852,4107.179688,4121.538574,4117.436035,4127.692383,4136.410156,4139.487305,4146.153809,4101.025879,4131.794922,4139.487305,4134.871582,4139.487305,4147.692383,852.000000,4.000000,,,,0.000000,4.000000,4.000000,4.000000,4.000000,4.000000,4.000000,4.000000,4.000000,4.000000,4.000000,4.000000,4.000000,4.000000,4.000000,100.000000
1602006904.187212,3.000000,0.000000,4161.538574,4105.128418,4121.025879,4112.820313,4127.692383,4124.615234,4135.384766,4136.410156,4102.563965,4142.563965,4140.512695,4134.871582,4139.487305,4136.922852,870.000000,4.000000,,,,0.000000,4.000000,4.000000,4.000000,4.000000,4.000000,4.000000,4.000000,4.000000,4.000000,4.000000,4.000000,4.000000,4.000000,4.000000,100.000000
1602006904.195093,4.000000,0.000000,4165.128418,4103.077148,4118.461426,4105.641113,4126.666504,4125.128418,4136.410156,4138.974121,4102.563965,4153.333496,4125.128418,4140.000000,4137.948730,4138.974121,816.000000,4.000000,,,,0.000000,4.000000,4.000000,4.000000,4.000000,4.000000,4.000000,4.000000,4.000000,4.000000,4.000000,4.000000,4.000000,4.000000,4.000000,100.000000
1602006904.202974,5.000000,0.000000,4167.692383,4105.641113,4126.666504,4113.333496,4125.128418,4136.410156,4141.538574,4146.666504,4113.333496,4149.743652,4131.282227,4151.794922,4142.563965,4151.282227,815.000000,4.000000,,,,0.000000,4.000000,4.000000,4.000000,4.000000,4.000000,4.000000,4.000000,4.000000,4.000000,4.000000,4.000000,4.000000,4.000000,4.000000,100.000000
1602006904.210755,6.000000,0.000000,4169.743652,4111.282227,4136.410156,4122.563965,4126.666504,4142.051270,4143.077148,4151.794922,4129.743652,4158.974121,4157.948730,4156.922852,4153.846191,4156.922852,768.000000,4.000000,,,,0.000000,4.000000,4.000000,4.000000,4.000000,4.000000,4.000000,4.000000,4.000000,4.000000,4.000000,4.000000,4.000000,4.000000,4.000000,100.000000
1602006904.218636,7.000000,0.000000,4171.282227,4115.384766,4132.307617,4121.025879,4127.179688,4134.871582,4141.025879,4152.820313,4117.436035,4173.333496,4159.487305,4154.358887,4155.897461,4154.871582,663.000000,4.000000,,,,0.000000,4.000000,4.000000,4.000000,4.000000,4.000000,4.000000,4.000000,4.000000,4.000000,4.000000,4.000000,4.000000,4.000000,4.000000,100.000000
1602006904.226517,8.000000,0.000000,4171.794922,4114.358887,4122.051270,4118.461426,4124.102539,4122.563965,4138.974121,4149.743652,4096.922852,4151.794922,4147.692383,4152.307617,4151.282227,4148.717773,777.000000,4.000000,,,,0.000000,4.000000,4.000000,4.000000,4.000000,4.000000,4.000000,4.000000,4.000000,4.000000,4.000000,4.000000,4.000000,4.000000,4.000000,100.000000
1602006904.234298,9.000000,0.000000,4177.436035,4118.974121,4123.589844,4121.538574,4128.205078,4128.717773,4139.487305,4152.307617,4107.179688,4131.794922,4155.384766,4155.384766,4155.897461,4157.436035,837.000000,4.000000,,,,0.000000,4.000000,4.000000,4.000000,4.000000,4.000000,4.000000,4.000000,4.000000,4.000000,4.000000,4.000000,4.000000,4.000000,4.000000,100.000000
1602006904.242279,10.000000,0.000000,4187.179688,4127.179688,4136.922852,4125.128418,4137.436035,4136.922852,4138.974121,4154.871582,4115.384766,4157.948730,4157.948730,4158.974121,4160.000000,4175.384766,872.000000,4.000000,,,,0.000000,4.000000,4.000000,4.000000,4.000000,4.000000,4.000000,4.000000,4.000000,4.000000,4.000000,4.000000,4.000000,4.000000,4.000000,100.000000
1602006904.250160,11.000000,0.000000,4190.769043,4126.153809,4142.051270,4125.128418,4139.487305,4124.615234,4132.820313,4146.153809,4098.461426,4173.846191,4138.461426,4155.384766,4149.743652,4164.102539,838.000000,4.000000,,,,0.000000,4.000000,4.000000,4.000000,4.000000,4.000000,4.000000,4.000000,4.000000,4.000000,4.000000,4.000000,4.000000,4.000000,4.000000,100.000000
1602006904.257941,12.000000,0.000000,4189.230957,4122.563965,4137.436035,4126.666504,4136.410156,4118.974121,4122.563965,4136.410156,4090.769287,4144.615234,4133.846191,4151.794922,4139.487305,4137.948730,764.000000,4.000000,,,,0.000000,4.000000,4.000000,4.000000,4.000000,4.000000,4.000000,4.000000,4.000000,4.000000,4.000000,4.000000,4.000000,4.000000,4.000000,100.000000
1602006904.265822,13.000000,0.000000,4187.179688,4124.615234,4137.436035,4125.641113,4137.948730,4128.205078,4121.538574,4136.922852,4095.384521,4135.384766,4147.179688,4148.717773,4137.948730,4133.846191,727.000000,4.000000,,,,0.000000,4.000000,4.000000,4.000000,4.000000,4.000000,4.000000,4.000000,4.000000,4.000000,4.000000,4.000000,4.000000,4.000000,4.000000,100.000000
1602006904.273703,14.000000,0.000000,4186.666504,4125.128418,4135.897461,4124.102539,4142.051270,4129.230957,4131.794922,4140.512695,4094.871826,4152.307617,4145.641113,4145.128418,4138.974121,4144.615234,872.000000,4.000000,,,,0.000000,4.000000,4.000000,4.000000,4.000000,4.000000,4.000000,4.000000,4.000000,4.000000,4.000000,4.000000,4.000000,4.000000,4.000000,100.000000
1602006904.281584,15.000000,0.000000,4187.692383,4123.077148,4129.230957,4124.102539,4141.025879,4128.205078,4137.436035,4134.871582,4092.307617,4139.487305,4133.333496,4145.641113,4137.948730,4151.794922,838.000000,4.000000,,,,0.000000,4.000000,4.000000,4.000000,4.000000,4.000000,4.000000,4.000000,4.000000,4.000000,4.000000,4.000000,4.000000,4.000000,4.000000,100.000000
1602006904.289465,16.000000,0.000000,4185.128418,4123.589844,4130.769043,4124.102539,4136.922852,4137.436035,4135.384766,4127.179688,4090.769287,4120.000000,4137.436035,4151.794922,4136.922852,4148.717773,0.000000,4.000000,,,,0.000000,4.000000,4.000000,4.000000,4.000000,4.000000,4.000000,4.000000,4.000000,4.000000,4.000000,4.000000,4.000000,4.000000,4.000000,100.000000
1602006904.297447,17.000000,0.000000,4183.589844,4126.153809,4140.000000,4124.615234,4134.871582,4136.410156,4133.846191,4129.230957,4093.846191,4130.769043,4143.589844,4158.974121,4137.948730,4145.128418,0.000000,4.000000,,,,0.000000,4.000000,4.000000,4.000000,4.000000,4.000000,4.000000,4.000000,4.000000,4.000000,4.000000,4.000000,4.000000,4.000000,4.000000,100.000000
1602006904.305328,18.000000,0.000000,4188.717773,4128.205078,4143.077148,4125.128418,4137.948730,4128.205078,4134.871582,4136.922852,4098.974121,4149.743652,4137.436035,4164.102539,4141.538574,4150.256348,0.000000,4.000000,,,,0.000000,4.000000,4.000000,4.000000,4.000000,4.000000,4.000000,4.000000,4.000000,4.000000,4.000000,4.000000,4.000000,4.000000,4.000000,100.000000
1602006904.313209,19.000000,0.000000,4181.025879,4125.128418,4134.871582,4123.077148,4137.436035,4121.538574,4134.871582,4138.461426,4094.358887,4153.846191,4137.948730,4158.974121,4147.179688,4152.307617,0.000000,4.000000,,,,0.000000,4.000000,4.000000,4.000000,4.000000,4.000000,4.000000,4.000000,4.000000,4.000000,4.000000,4.000000,4.000000,4.000000,4.000000,100.000000
1602006904.321090,20.000000,0.000000,4168.205078,4123.077148,4124.102539,4122.563965,4135.897461,4121.025879,4134.358887,4136.410156,4093.846191,4150.256348,4146.153809,4150.769043,4151.282227,4139.487305,0.000000,4.000000,,,,0.000000,4.000000,4.000000,4.000000,4.000000,4.000000,4.000000,4.000000,4.000000,4.000000,4.000000,4.000000,4.000000,4.000000,4.000000,100.000000
1602006904.328971,21.000000,0.000000,4177.436035,4131.794922,4122.563965,4127.692383,4142.563965,4130.769043,4137.948730,4138.974121,4106.153809,4144.102539,4143.589844,4151.794922,4153.333496,4133.333496,0.000000,4.000000,,,,0.000000,4.000000,4.000000,4.000000,4.000000,4.000000,4.000000,4.000000,4.000000,4.000000,4.000000,4.000000,4.000000,4.000000,4.000000,100.000000
1602006904.336852,22.000000,0.000000,4188.205078,4138.461426,4128.717773,4128.205078,4145.128418,4140.512695,4140.000000,4138.461426,4111.794922,4133.846191,4134.871582,4154.871582,4151.282227,4146.666504,0.000000,4.000000,,,,0.000000,4.000000,4.000000,4.000000,4.000000,4.000000,4.000000,4.000000,4.000000,4.000000,4.000000,4.000000,4.000000,4.000000,4.000000,100.000000
1602006904.344734,23.000000,0.000000,4184.615234,4132.820313,4134.358887,4126.153809,4139.487305,4141.025879,4141.025879,4134.871582,4106.153809,4135.897461,4134.358887,4156.922852,4145.641113,4154.871582,0.000000,4.000000,,,,0.000000,4.000000,4.000000,4.000000,4.000000,4.000000,4.000000,4.000000,4.000000,4.000000,4.000000,4.000000,4.000000,4.000000,4.000000,100.000000
1602006904.352615,24.000000,0.000000,4178.461426,4126.666504,4135.897461,4127.179688,4137.436035,4133.333496,4140.000000,4130.769043,4100.000000,4145.641113,4137.948730,4163.589844,4140.000000,4146.153809,0.000000,4.000000,,,,0.000000,4.000000,4.000000,4.000000,4.000000,4.000000,4.000000,4.000000,4.000000,4.000000,4.000000,4.000000,4.000000,4.000000,4.000000,100.000000
1602006904.360496,25.000000,0.000000,4175.897461,4126.153809,4131.794922,4125.641113,4138.461426,4124.615234,4132.307617,4123.589844,4090.769287,4142.563965,4136.922852,4167.692383,4138.461426,4135.384766,0.000000,4.000000,,,,0.000000,4.000000,4.000000,4.000000,4.000000,4.000000,4.000000,4.000000,4.000000,4.000000,4.000000,4.000000,4.000000,4.000000,4.000000,100.000000
1602006904.368477,26.000000,0.000000,4178.974121,4127.692383,4131.282227,4124.102539,4137.436035,4123.589844,4129.743652,4125.128418,4086.153809,4138.974121,4136.922852,4168.717773,4141.025879,4137.436035,0.000000,4.000000,,,,0.000000,4.000000,4.000000,4.000000,4.000000,4.000000,4.000000,4.000000,4.000000,4.000000,4.000000,4.000000,4.000000,4.000000,4.000000,100.000000
1602006904.376358,27.000000,0.000000,4179.487305,4126.666504,4135.897461,4124.615234,4138.461426,4128.717773,4136.922852,4133.846191,4098.461426,4151.794922,4137.948730,4164.615234,4143.077148,4141.538574,0.000000,4.000000,,,,0.000000,4.000000,4.000000,4.000000,4.000000,4.000000,4.000000,4.000000,4.000000,4.000000,4.000000,4.000000,4.000000,4.000000,4.000000,100.000000
1602006904.384239,28.000000,0.000000,4173.333496,4121.538574,4134.871582,4121.538574,4140.512695,4124.615234,4136.410156,4136.922852,4108.205078,4150.256348,4137.436035,4162.051270,4143.077148,4145.128418,0.000000,4.000000,,,,0.000000,4.000000,4.000000,4.000000,4.000000,4.000000,4.000000,4.000000,4.000000,4.000000,4.000000,4.000000,4.000000,4.000000,4.000000,100.000000
1602006904.392120,29.000000,0.000000,4176.410156,4123.077148,4132.820313,4122.051270,4136.410156,4121.025879,4132.820313,4135.897461,4105.641113,4126.666504,4145.641113,4167.692383,4143.077148,4154.358887,0.000000,4.000000,,,,0.000000,4.000000,4.000000,4.000000,4.000000,4.000000,4.000000,4.000000,4.000000,4.000000,4.000000,4.000000,4.000000,4.000000,4.000000,100.000000
1602006904.400002,30.000000,0.000000,4188.205078,4128.717773,4135.897461,4126.153809,4129.743652,4128.205078,4138.974121,4135.384766,4108.717773,4127.179688,4149.743652,4172.820313,4143.077148,4158.461426,0.000000,4.000000,,,,0.000000,4.000000,4.000000,4.000000,4.000000,4.000000,4.000000,4.000000,4.000000,4.000000,4.000000,4.000000,4.000000,4.000000,4.000000,100.000000
1602006904.407883,31.000000,0.000000,4181.025879,4121.538574,4137.948730,4117.948730,4123.589844,4123.077148,4137.436035,4129.230957,4107.179688,4148.205078,4131.282227,4170.256348,4139.487305,4150.256348,0.000000,4.000000,,,,0.000000,4.000000,4.000000,4.000000,4.000000,4.000000,4.000000,4.000000,4.000000,4.000000,4.000000,4.000000,4.000000,4.000000,4.000000,100.000000
1602006904.415764,32.000000,0.000000,4172.307617,4118.461426,4133.846191,4112.820313,4123.589844,4115.897461,4127.692383,4129.230957,4095.897461,4149.230957,4117.948730,4167.179688,4133.846191,4140.512695,0.000000,4.000000,,,,0.000000,4.000000,4.000000,4.000000,4.000000,4.000000,4.000000,4.000000,4.000000,4.000000,4.000000,4.000000,4.000000,4.000000,4.000000,100.000000
1602006904.423545,33.000000,0.000000,4169.743652,4117.948730,4124.615234,4114.871582,4124.102539,4105.641113,4125.128418,4131.282227,4090.256348,4132.307617,4124.102539,4158.461426,4122.563965,4130.256348,0.000000,4.000000,,,,0.000000,4.000000,4.000000,4.000000,4.000000,4.000000,4.000000,4.000000,4.000000,4.000000,4.000000,4.000000,4.000000,4.000000,4.000000,100.000000
1602006904.431426,34.000000,0.000000,4160.512695,4106.153809,4114.871582,4110.256348,4120.000000,4081.538574,4128.717773,4126.666504,4082.051270,4119.487305,4127.179688,4146.666504,4119.487305,4120.000000,0.000000,4.000000,,,,0.000000,4.000000,4.000000,4.000000,4.000000,4.000000,4.000000,4.000000,4.000000,4.000000,4.000000,4.000000,4.000000,4.000000,4.000000,100.000000
1602006904.439307,35.000000,0.000000,4167.692383,4111.282227,4121.025879,4115.384766,4128.205078,4092.820557,4132.307617,4128.717773,4078.974365,4125.128418,4135.384766,4156.922852,4135.897461,4125.641113,0.000000,4.000000,,,,0.000000,4.000000,4.000000,4.000000,4.000000,4.000000,4.000000,4.000000,4.000000,4.000000,4.000000,4.000000,4.000000,4.000000,4.000000,100.000000
1602006904.447189,36.000000,0.000000,4188.717773,4131.794922,4136.922852,4128.717773,4142.051270,4132.820313,4130.256348,4132.307617,4098.974121,4137.436035,4150.256348,4171.794922,4148.205078,4138.974121,0.000000,4.000000,,,,0.000000,4.000000,4.000000,4.000000,4.000000,4.000000,4.000000,4.000000,4.000000,4.000000,4.000000,4.000000,4.000000,4.000000,4.000000,100.000000
1602006904.455070,37.000000,0.000000,4190.256348,4127.692383,4137.436035,4125.128418,4143.077148,4131.794922,4124.102539,4121.538574,4106.666504,4142.051270,4147.692383,4162.051270,4141.025879,4142.563965,0.000000,4.000000,,,,0.000000,4.000000,4.000000,4.000000,4.000000,4.000000,4.000000,4.000000,4.000000,4.000000,4.000000,4.000000,4.000000,4.000000,4.000000,100.000000
1602006904.462951,38.000000,0.000000,4180.512695,4120.000000,4130.256348,4121.025879,4137.436035,4118.974121,4124.102539,4114.358887,4090.769287,4139.487305,4136.410156,4151.282227,4136.922852,4141.025879,0.000000,4.000000,,,,0.000000,4.000000,4.000000,4.000000,4.000000,4.000000,4.000000,4.000000,4.000000,4.000000,4.000000,4.000000,4.000000,4.000000,4.000000,100.000000
1602006904.470932,39.000000,0.000000,4174.871582,4126.153809,4120.000000,4124.615234,4129.743652,4121.538574,4126.153809,4118.461426,4087.179443,4128.205078,4135.897461,4154.871582,4141.025879,4134.358887,0.000000,4.000000,,,,0.000000,4.000000,4.000000,4.000000,4.000000,4.000000,4.000000,4.000000,4.000000,4.000000,4.000000,4.000000,4.000000,4.000000,4.000000,100.000000
1602006904.478813,40.000000,0.000000,4162.051270,4115.384766,4106.153809,4116.410156,4115.384766,4094.871826,4122.563965,4116.410156,4091.794922,4115.384766,4142.563965,4151.282227,4135.897461,4124.102539,0.000000,4.000000,,,,0.000000,4.000000,4.000000,4.000000,4.000000,4.000000,4.000000,4.000000,4.000000,4.000000,4.000000,4.000000,4.000000,4.000000,4.000000,100.000000
1602006904.486694,41.000000,0.000000,4167.179688,4116.922852,4112.307617,4117.948730,4121.025879,4093.846191,4130.256348,4128.717773,4093.846191,4131.282227,4155.384766,4157.436035,4144.615234,4138.461426,0.000000,4.000000,,,,0.000000,4.000000,4.000000,4.000000,4.000000,4.000000,4.000000,4.000000,4.000000,4.000000,4.000000,4.000000,4.000000,4.000000,4.000000,100.000000
1602006904.494576,42.000000,0.000000,4199.487305,4146.666504,4141.025879,4142.051270,4144.102539,4148.717773,4143.589844,4152.307617,4106.666504,4169.743652,4165.128418,4184.102539,4169.743652,4165.128418,0.000000,4.000000,,,,0.000000,4.000000,4.000000,4.000000,4.000000,4.000000,4.000000,4.000000,4.000000,4.000000,4.000000,4.000000,4.000000,4.000000,4.000000,100.000000
1602006904.502457,43.000000,0.000000,4204.102539,4151.794922,4146.666504,4145.641113,4146.666504,4152.820313,4138.461426,4149.230957,4112.307617,4174.871582,4160.512695,4183.077148,4166.666504,4157.436035,0.000000,4.000000,,,,0.000000,4.000000,4.000000,4.000000,4.000000,4.000000,4.000000,4.000000,4.000000,4.000000,4.000000,4.000000,4.000000,4.000000,4.000000,100.000000
1602006904.510338,44.000000,0.000000,4182.563965,4132.820313,4126.666504,4127.179688,4136.922852,4100.000000,4123.589844,4127.692383,4106.666504,4143.077148,4155.384766,4155.384766,4144.615234,4134.358887,0.000000,4.000000,,,,0.000000,4.000000,4.000000,4.000000,4.000000,4.000000,4.000000,4.000000,4.000000,4.000000,4.000000,4.000000,4.000000,4.000000,4.000000,100.000000
1602006904.518219,45.000000,0.000000,4181.025879,4134.871582,4125.641113,4127.692383,4133.846191,4090.769287,4121.025879,4125.128418,4105.641113,4130.769043,4153.333496,4149.743652,4148.205078,4135.897461,0.000000,4.000000,,,,0.000000,4.000000,4.000000,4.000000,4.000000,4.000000,4.000000,4.000000,4.000000,4.000000,4.000000,4.000000,4.000000,4.000000,4.000000,100.000000
1602006904.526200,46.000000,0.000000,4192.307617,4139.487305,4134.871582,4140.000000,4131.282227,4114.358887,4124.615234,4132.820313,4109.230957,4146.666504,4145.641113,4158.461426,4161.025879,4145.128418,0.000000,4.000000,,,,0.000000,4.000000,4.000000,4.000000,4.000000,4.000000,4.000000,4.000000,4.000000,4.000000,4.000000,4.000000,4.000000,4.000000,4.000000,100.000000
1602006904.534081,47.000000,0.000000,4182.563965,4124.615234,4127.179688,4132.820313,4124.615234,4114.358887,4122.051270,4126.153809,4107.692383,4156.922852,4136.922852,4154.358887,4150.256348,4139.487305,0.000000,4.000000,,,,0.000000,4.000000,4.000000,4.000000,4.000000,4.000000,4.000000,4.000000,4.000000,4.000000,4.000000,4.000000,4.000000,4.000000,4.000000,100.000000
1602006904.541962,48.000000,0.000000,4165.641113,4117.436035,4118.974121,4120.512695,4120.512695,4114.871582,4120.000000,4120.000000,4100.000000,4153.846191,4139.487305,4149.743652,4138.974121,4137.436035,0.000000,4.000000,,,,0.000000,4.000000,4.000000,4.000000,4.000000,4.000000,4.000000,4.000000,4.000000,4.000000,4.000000,4.000000,4.000000,4.000000,4.000000,100.000000
1602006904.549844,49.000000,0.000000,4167.179688,4115.897461,4120.000000,4119.487305,4119.487305,4127.179688,4122.563965,4120.512695,4097.948730,4149.230957,4135.897461,4152.307617,4138.461426,4141.025879,0.000000,4.000000,,,,0.000000,4.000000,4.000000,4.000000,4.000000,4.000000,4.000000,4.000000,4.000000,4.000000,4.000000,4.000000,4.000000,4.000000,4.000000,100.000000
1602006904.557725,50.000000,0.000000,4174.358887,4110.256348,4121.538574,4114.871582,4126.666504,4126.666504,4124.102539,4120.512695,4099.487305,4142.563965,4118.461426,4152.820313,4130.769043,4129.230957,0.000000,4.000000,,,,0.000000,4.000000,4.000000,4.000000,4.000000,4.000000,4.000000,4.000000,4.000000,4.000000,4.000000,4.000000,4.000000,4.000000,4.000000,100.000000
1602006904.565606,51.000000,0.000000,4164.102539,4112.820313,4122.051270,4107.179688,4136.922852,4126.666504,4123.589844,4121.025879,4090.256348,4128.717773,4122.051270,4148.205078,4124.102539,4115.384766,0.000000,4.000000,,,,0.000000,4.000000,4.000000,4.000000,4.000000,4.000000,4.000000,4.000000,4.000000,4.000000,4.000000,4.000000,4.000000,4.000000,4.000000,100.000000
1602006904.573487,52.000000,0.000000,4155.384766,4118.974121,4116.410156,4110.769043,4135.384766,4135.384766,4122.563965,4120.000000,4093.846191,4124.102539,4135.897461,4137.948730,4128.717773,4117.948730,0.000000,4.000000,,,,0.000000,4.000000,4.000000,4.000000,4.000000,4.000000,4.000000,4.000000,4.000000,4.000000,4.000000,4.000000,4.000000,4.000000,4.000000,100.000000
1602006904.581368,53.000000,0.000000,4172.820313,4124.615234,4106.666504,4119.487305,4134.871582,4138.974121,4122.563965,4123.589844,4113.846191,4139.487305,4126.153809,4130.256348,4134.358887,4126.666504,0.000000,4.000000,,,,0.000000,4.000000,4.000000,4.000000,4.000000,4.000000,4.000000,4.000000,4.000000,4.000000,4.000000,4.000000,4.000000,4.000000,4.000000,100.000000
1602006904.589249,54.000000,0.000000,4188.205078,4134.358887,4111.794922,4124.102539,4143.589844,4145.641113,4132.307617,4136.922852,4114.871582,4156.410156,4124.102539,4141.538574,4141.025879,4134.871582,0.000000,4.000000,,,,0.000000,4.000000,4.000000,4.000000,4.000000,4.000000,4.000000,4.000000,4.000000,4.000000,4.000000,4.000000,4.000000,4.000000,4.000000,100.000000
1602006904.597031,55.000000,0.000000,4184.615234,4141.025879,4129.230957,4126.153809,4146.153809,4144.615234,4140.512695,4144.102539,4112.307617,4156.410156,4151.794922,4159.487305,4153.846191,4143.077148,0.000000,4.000000,,,,0.000000,4.000000,4.000000,4.000000,4.000000,4.000000,4.000000,4.000000,4.000000,4.000000,4.000000,4.000000,4.000000,4.000000,4.000000,100.000000
1602006904.604912,56.000000,0.000000,4187.179688,4137.948730,4137.948730,4125.128418,4136.410156,4114.358887,4130.769043,4138.461426,4122.051270,4153.333496,4160.000000,4171.282227,4159.487305,4144.102539,0.000000,4.000000,,,,0.000000,4.000000,4.000000,4.000000,4.000000,4.000000,4.000000,4.000000,4.000000,4.000000,4.000000,4.000000,4.000000,4.000000,4.000000,100.000000
1602006904.612793,57.000000,0.000000,4201.538574,4138.974121,4145.128418,4129.743652,4128.205078,4089.230713,4121.025879,4136.922852,4112.820313,4162.051270,4143.077148,4182.051270,4156.922852,4145.641113,0.000000,4.000000,,,,0.000000,4.000000,4.000000,4.000000,4.000000,4.000000,4.000000,4.000000,4.000000,4.000000,4.000000,4.000000,4.000000,4.000000,4.000000,100.000000
1602006904.620674,58.000000,0.000000,4203.589844,4145.128418,4150.256348,4138.974121,4124.615234,4096.922852,4121.025879,4134.358887,4093.846191,4156.410156,4141.025879,4183.589844,4156.410156,4148.205078,0.000000,4.000000,,,,0.000000,4.000000,4.000000,4.000000,4.000000,4.000000,4.000000,4.000000,4.000000,4.000000,4.000000,4.000000,4.000000,4.000000,4.000000,100.000000
1602006904.628555,59.000000,0.000000,4190.769043,4141.025879,4144.102539,4135.384766,4121.025879,4106.153809,4120.512695,4125.128418,4092.820557,4136.922852,4143.589844,4173.846191,4150.256348,4136.410156,0.000000,4.000000,,,,0.000000,4.000000,4.000000,4.000000,4.000000,4.000000,4.000000,4.000000,4.000000,4.000000,4.000000,4.000000,4.000000,4.000000,4.000000,100.000000
1602006904.636437,60.000000,0.000000,4182.563965,4129.743652,4135.897461,4122.563965,4122.051270,4110.256348,4119.487305,4124.102539,4100.512695,4132.820313,4134.871582,4164.615234,4140.000000,4128.205078,0.000000,4.000000,,,,0.000000,4.000000,4.000000,4.000000,4.000000,4.000000,4.000000,4.000000,4.000000,4.000000,4.000000,4.000000,4.000000,4.000000,4.000000,100.000000
1602006904.644318,61.000000,0.000000,4181.538574,4121.538574,4135.384766,4118.461426,4121.025879,4120.000000,4123.077148,4131.282227,4103.077148,4138.974121,4133.333496,4158.461426,4136.922852,4137.948730,0.000000,4.000000,,,,0.000000,4.000000,4.000000,4.000000,4.000000,4.000000,4.000000,4.000000,4.000000,4.000000,4.000000,4.000000,4.000000,4.000000,4.000000,100.000000
1602006904.652199,62.000000,0.000000,4181.538574,4123.077148,4136.922852,4120.512695,4118.974121,4126.666504,4129.230957,4129.230957,4105.128418,4143.077148,4139.487305,4160.000000,4137.948730,4148.717773,0.000000,4.000000,,,,0.000000,4.000000,4.000000,4.000000,4.000000,4.000000,4.000000,4.000000,4.000000,4.000000,4.000000,4.000000,4.000000,4.000000,4.000000,100.000000
1602006904.659980,63.000000,0.000000,4182.563965,4125.641113,4133.846191,4122.051270,4128.717773,4132.820313,4135.897461,4122.563965,4111.282227,4149.743652,4139.487305,4167.692383,4139.487305,4138.974121,0.000000,4.000000,,,,0.000000,4.000000,4.000000,4.000000,4.000000,4.000000,4.000000,4.000000,4.000000,4.000000,4.000000,4.000000,4.000000,4.000000,4.000000,100.000000
1602006904.667861,64.000000,0.000000,4185.128418,4123.077148,4131.794922,4123.077148,4139.487305,4134.871582,4135.384766,4122.051270,4112.820313,4144.615234,4137.948730,4168.717773,4137.436035,4125.128418,794.000000,4.000000,,,,0.000000,4.000000,4.000000,4.000000,4.000000,4.000000,4.000000,4.000000,4.000000,4.000000,4.000000,4.000000,4.000000,4.000000,4.000000,100.000000
1602006904.675742,65.000000,0.000000,4182.563965,4124.615234,4128.205078,4121.025879,4137.948730,4129.230957,4127.692383,4122.051270,4100.000000,4133.846191,4138.461426,4163.077148,4137.948730,4127.692383,785.000000,4.000000,,,,0.000000,4.000000,4.000000,4.000000,4.000000,4.000000,4.000000,4.000000,4.000000,4.000000,4.000000,4.000000,4.000000,4.000000,4.000000,100.000000
1602006904.683624,66.000000,0.000000,4180.512695,4133.333496,4126.666504,4121.538574,4136.922852,4128.717773,4122.563965,4118.461426,4090.769287,4146.666504,4140.512695,4165.641113,4147.692383,4135.897461,852.000000,4.000000,,,,0.000000,4.000000,4.000000,4.000000,4.000000,4.000000,4.000000,4.000000,4.000000,4.000000,4.000000,4.000000,4.000000,4.000000,4.000000,100.000000
1602006904.691505,67.000000,0.000000,4189.230957,4145.128418,4133.846191,4133.333496,4142.051270,4130.256348,4120.000000,4118.461426,4095.384521,4162.051270,4141.025879,4169.743652,4157.436035,4143.077148,870.000000,4.000000,,,,0.000000,4.000000,4.000000,4.000000,4.000000,4.000000,4.000000,4.000000,4.000000,4.000000,4.000000,4.000000,4.000000,4.000000,4.000000,100.000000
1602006904.699386,68.000000,0.000000,4198.461426,4150.769043,4140.512695,4142.563965,4142.563965,4123.589844,4120.000000,4123.077148,4096.410156,4151.794922,4140.512695,4170.769043,4155.384766,4152.307617,816.000000,4.000000,,,,0.000000,4.000000,4.000000,4.000000,4.000000,4.000000,4.000000,4.000000,4.000000,4.000000,4.000000,4.000000,4.000000,4.000000,4.000000,100.000000
1602006904.707267,69.000000,0.000000,4195.384766,4154.358887,4142.051270,4141.538574,4140.512695,4120.512695,4123.077148,4126.666504,4098.461426,4148.205078,4146.153809,4173.333496,4154.358887,4161.538574,815.000000,4.000000,,,,0.000000,4.000000,4.000000,4.000000,4.000000,4.000000,4.000000,4.000000,4.000000,4.000000,4.000000,4.000000,4.000000,4.000000,4.000000,100.000000
1602006904.715148,70.000000,0.000000,4187.179688,4153.333496,4140.512695,4139.487305,4138.461426,4118.974121,4119.487305,4122.563965,4093.333252,4156.410156,4144.615234,4170.256348,4155.897461,4152.820313,768.000000,4.000000,,,,0.000000,4.000000,4.000000,4.000000,4.000000,4.000000,4.000000,4.000000,4.000000,4.000000,4.000000,4.000000,4.000000,4.000000,4.000000,100.000000
1602006904.723029,71.000000,0.000000,4184.102539,4144.102539,4137.948730,4137.948730,4136.410156,4108.205078,4107.179688,4110.769043,4069.743652,4135.897461,4130.256348,4166.666504,4149.743652,4136.922852,662.000000,4.000000,,,,0.000000,4.000000,4.000000,4.000000,4.000000,4.000000,4.000000,4.000000,4.000000,4.000000,4.000000,4.000000,4.000000,4.000000,4.000000,100.000000
1602006904.730811,72.000000,0.000000,4183.589844,4137.436035,4135.384766,4132.307617,4137.436035,4103.077148,4102.563965,4103.589844,4060.000000,4102.563965,4126.153809,4166.666504,4141.538574,4136.410156,777.000000,4.000000,,,,0.000000,4.000000,4.000000,4.000000,4.000000,4.000000,4.000000,4.000000,4.000000,4.000000,4.000000,4.000000,4.000000,4.000000,4.000000,100.000000
1602006904.738692,73.000000,0.000000,4177.948730,4135.897461,4136.410156,4125.641113,4132.307617,4107.179688,4111.794922,4107.179688,4070.256348,4104.615234,4131.794922,4167.692383,4129.743652,4133.846191,837.000000,4.000000,,,,0.000000,4.000000,4.000000,4.000000,4.000000,4.000000,4.000000,4.000000,4.000000,4.000000,4.000000,4.000000,4.000000,4.000000,4.000000,100.000000
1602006904.746573,74.000000,0.000000,4176.410156,4135.897461,4138.461426,4123.589844,4123.077148,4116.410156,4128.205078,4114.358887,4071.794922,4127.692383,4128.717773,4170.256348,4124.615234,4124.102539,872.000000,4.000000,,,,0.000000,4.000000,4.000000,4.000000,4.000000,4.000000,4.000000,4.000000,4.000000,4.000000,4.000000,4.000000,4.000000,4.000000,4.000000,100.000000
1602006904.754454,75.000000,0.000000,4183.589844,4137.436035,4136.410156,4127.692383,4127.179688,4133.846191,4145.128418,4126.666504,4081.025635,4133.846191,4129.230957,4169.743652,4134.871582,4128.717773,838.000000,4.000000,,,,0.000000,4.000000,4.000000,4.000000,4.000000,4.000000,4.000000,4.000000,4.000000,4.000000,4.000000,4.000000,4.000000,4.000000,4.000000,100.000000
1602006904.762335,76.000000,0.000000,4185.128418,4140.512695,4134.358887,4134.358887,4138.974121,4144.615234,4155.897461,4136.922852,4105.128418,4140.512695,4138.974121,4161.025879,4140.000000,4135.384766,764.000000,4.000000,,,,0.000000,4.000000,4.000000,4.000000,4.000000,4.000000,4.000000,4.000000,4.000000,4.000000,4.000000,4.000000,4.000000,4.000000,4.000000,100.000000
1602006904.770217,77.000000,0.000000,4180.000000,4141.538574,4134.358887,4132.820313,4142.051270,4144.102539,4152.820313,4133.846191,4114.358887,4157.948730,4142.563965,4153.846191,4140.000000,4126.666504,727.000000,4.000000,,,,0.000000,4.000000,4.000000,4.000000,4.000000,4.000000,4.000000,4.000000,4.000000,4.000000,4.000000,4.000000,4.000000,4.000000,4.000000,100.000000
1602006904.778098,78.000000,0.000000,4178.974121,4138.461426,4131.794922,4125.641113,4133.333496,4140.512695,4138.461426,4124.102539,4106.153809,4150.256348,4140.000000,4151.794922,4148.717773,4127.692383,872.000000,4.000000,,,,0.000000,4.000000,4.000000,4.000000,4.000000,4.000000,4.000000,4.000000,4.000000,4.000000,4.000000,4.000000,4.000000,4.000000,4.000000,100.000000
1602006904.785979,79.000000,0.000000,4181.538574,4136.922852,4127.179688,4127.179688,4128.205078,4129.230957,4124.615234,4121.025879,4100.000000,4131.794922,4139.487305,4148.205078,4154.358887,4140.512695,838.000000,4.000000,,,,0.000000,4.000000,4.000000,4.000000,4.000000,4.000000,4.000000,4.000000,4.000000,4.000000,4.000000,4.000000,4.000000,4.000000,4.000000,100.000000
1602006904.793960,80.000000,0.000000,4184.615234,4141.538574,4135.384766,4136.410156,4132.307617,4118.461426,4120.512695,4125.641113,4101.538574,4142.051270,4146.666504,4153.846191,4151.282227,4144.615234,764.000000,4.000000,,,,0.000000,4.000000,4.000000,4.000000,4.000000,4.000000,4.000000,4.000000,4.000000,4.000000,4.000000,4.000000,4.000000,4.000000,4.000000,100.000000
1602006904.801841,81.000000,0.000000,4193.333496,4145.641113,4154.871582,4137.436035,4138.974121,4126.666504,4122.051270,4136.410156,4106.666504,4162.563965,4158.461426,4169.230957,4156.410156,4149.230957,727.000000,4.000000,,,,0.000000,4.000000,4.000000,4.000000,4.000000,4.000000,4.000000,4.000000,4.000000,4.000000,4.000000,4.000000,4.000000,4.000000,4.000000,100.000000
1602006904.809722,82.000000,0.000000,4192.307617,4140.000000,4153.846191,4127.179688,4135.384766,4130.769043,4118.461426,4135.897461,4104.102539,4154.358887,4150.256348,4172.820313,4157.948730,4157.436035,872.000000,4.000000,,,,0.000000,4.000000,4.000000,4.000000,4.000000,4.000000,4.000000,4.000000,4.000000,4.000000,4.000000,4.000000,4.000000,4.000000,4.000000,100.000000
1602006904.817603,83.000000,0.000000,4185.641113,4134.871582,4139.487305,4122.563965,4127.692383,4113.846191,4108.717773,4123.589844,4094.358887,4135.384766,4138.974121,4168.717773,4152.307617,4157.948730,838.000000,4.000000,,,,0.000000,4.000000,4.000000,4.000000,4.000000,4.000000,4.000000,4.000000,4.000000,4.000000,4.000000,4.000000,4.000000,4.000000,4.000000,100.000000
1602006904.825485,84.000000,0.000000,4189.230957,4137.948730,4143.077148,4130.769043,4130.256348,4105.128418,4103.077148,4117.948730,4086.153809,4144.102539,4150.769043,4170.256348,4151.282227,4156.410156,764.000000,4.000000,,,,0.000000,4.000000,4.000000,4.000000,4.000000,4.000000,4.000000,4.000000,4.000000,4.000000,4.000000,4.000000,4.000000,4.000000,4.000000,100.000000
1602006904.833366,85.000000,0.000000,4192.820313,4142.563965,4148.717773,4135.897461,4138.461426,4109.230957,4106.666504,4116.922852,4085.128174,4152.307617,4161.538574,4170.769043,4154.871582,4161.025879,727.000000,4.000000,,,,0.000000,4.000000,4.000000,4.000000,4.000000,4.000000,4.000000,4.000000,4.000000,4.000000,4.000000,4.000000,4.000000,4.000000,4.000000,100.000000
1602006904.841247,86.000000,0.000000,4187.179688,4141.538574,4139.487305,4128.717773,4137.948730,4108.205078,4110.256348,4114.871582,4086.666748,4137.436035,4147.692383,4165.128418,4155.384766,4158.974121,872.000000,4.000000,,,,0.000000,4.000000,4.000000,4.000000,4.000000,4.000000,4.000000,4.000000,4.000000,4.000000,4.000000,4.000000,4.000000,4.000000,4.000000,100.000000
1602006904.849128,87.000000,0.000000,4179.487305,4135.897461,4131.282227,4121.538574,4131.282227,4109.230957,4114.358887,4116.922852,4086.153809,4135.384766,4135.897461,4158.461426,4150.769043,4146.666504,838.000000,4.000000,,,,0.000000,4.000000,4.000000,4.000000,4.000000,4.000000,4.000000,4.000000,4.000000,4.000000,4.000000,4.000000,4.000000,4.000000,4.000000,100.000000
1602006904.857109,88.000000,0.000000,4173.846191,4135.384766,4137.436035,4124.615234,4134.358887,4131.282227,4127.692383,4122.563965,4093.846191,4154.358887,4143.077148,4154.871582,4152.307617,4146.153809,764.000000,4.000000,,,,0.000000,4.000000,4.000000,4.000000,4.000000,4.000000,4.000000,4.000000,4.000000,4.000000,4.000000,4.000000,4.000000,4.000000,4.000000,100.000000
1602006904.864990,89.000000,0.000000,4171.794922,4140.000000,4142.051270,4127.179688,4145.128418,4153.846191,4141.025879,4124.615234,4110.769043,4161.025879,4144.102539,4154.871582,4154.358887,4150.769043,727.000000,4.000000,,,,0.000000,4.000000,4.000000,4.000000,4.000000,4.000000,4.000000,4.000000,4.000000,4.000000,4.000000,4.000000,4.000000,4.000000,4.000000,100.000000
1602006904.872871,90.000000,0.000000,4170.256348,4133.846191,4134.358887,4121.538574,4143.077148,4149.743652,4138.974121,4122.563965,4110.769043,4150.256348,4134.871582,4150.769043,4144.615234,4140.000000,872.000000,4.000000,,,,0.000000,4.000000,4.000000,4.000000,4.000000,4.000000,4.000000,4.000000,4.000000,4.000000,4.000000,4.000000,4.000000,4.000000,4.000000,100.000000
1602006904.880753,91.000000,0.000000,4168.717773,4122.563965,4126.666504,4116.922852,4133.333496,4143.589844,4133.846191,4125.641113,4102.563965,4146.666504,4138.974121,4152.307617,4141.538574,4136.922852,838.000000,4.000000,,,,0.000000,4.000000,4.000000,4.000000,4.000000,4.000000,4.000000,4.000000,4.000000,4.000000,4.000000,4.000000,4.000000,4.000000,4.000000,100.000000
1602006904.888634,92.000000,0.000000,4176.410156,4129.743652,4139.487305,4121.538574,4131.282227,4152.820313,4137.948730,4144.615234,4115.384766,4157.436035,4162.563965,4169.743652,4160.512695,4154.871582,764.000000,4.000000,,,,0.000000,4.000000,4.000000,4.000000,4.000000,4.000000,4.000000,4.000000,4.000000,4.000000,4.000000,4.000000,4.000000,4.000000,4.000000,100.000000
1602006904.896515,93.000000,0.000000,4186.666504,4137.436035,4157.436035,4126.153809,4130.256348,4150.256348,4134.871582,4156.410156,4121.538574,4167.692383,4173.333496,4176.410156,4169.743652,4162.563965,727.000000,4.000000,,,,0.000000,4.000000,4.000000,4.000000,4.000000,4.000000,4.000000,4.000000,4.000000,4.000000,4.000000,4.000000,4.000000,4.000000,4.000000,100.000000
1602006904.904396,94.000000,0.000000,4184.102539,4128.205078,4149.743652,4122.563965,4123.077148,4123.077148,4121.025879,4144.615234,4107.692383,4152.820313,4153.333496,4161.538574,4152.307617,4145.128418,872.000000,4.000000,,,,0.000000,4.000000,4.000000,4.000000,4.000000,4.000000,4.000000,4.000000,4.000000,4.000000,4.000000,4.000000,4.000000,4.000000,4.000000,100.000000
1602006904.912277,95.000000,0.000000,4174.871582,4121.025879,4136.410156,4119.487305,4120.512695,4105.128418,4116.922852,4133.333496,4105.641113,4132.307617,4133.846191,4148.205078,4133.846191,4124.102539,838.000000,4.000000,,,,0.000000,4.000000,4.000000,4.000000,4.000000,4.000000,4.000000,4.000000,4.000000,4.000000,4.000000,4.000000,4.000000,4.000000,4.000000,100.000000
1602006904.920158,96.000000,0.000000,4167.692383,4122.563965,4134.871582,4122.563965,4117.436035,4106.153809,4118.974121,4128.205078,4111.282227,4143.077148,4135.897461,4140.000000,4123.077148,4119.487305,764.000000,4.000000,,,,0.000000,4.000000,4.000000,4.000000,4.000000,4.000000,4.000000,4.000000,4.000000,4.000000,4.000000,4.000000,4.000000,4.000000,4.000000,100.000000
1602006904.927940,97.000000,0.000000,4164.102539,4118.461426,4133.333496,4123.077148,4111.282227,4109.230957,4118.461426,4122.051270,4105.641113,4156.410156,4139.487305,4138.461426,4118.974121,4130.769043,727.000000,4.000000,,,,0.000000,4.000000,4.000000,4.000000,4.000000,4.000000,4.000000,4.000000,4.000000,4.000000,4.000000,4.000000,4.000000,4.000000,4.000000,100.000000
1602006904.935821,98.000000,0.000000,4168.205078,4118.461426,4133.846191,4122.563965,4122.051270,4122.051270,4125.641113,4124.615234,4101.538574,4145.128418,4141.025879,4157.436035,4127.692383,4137.948730,872.000000,4.000000,,,,0.000000,4.000000,4.000000,4.000000,4.000000,4.000000,4.000000,4.000000,4.000000,4.000000,4.000000,4.000000,4.000000,4.000000,4.000000,100.000000
