Timestamp,EEG.Counter,EEG.Interpolated,EEG.AF3,EEG.F7,EEG.F3,EEG.FC5,EEG.T7,EEG.P7,EEG.O1,EEG.O2,EEG.P8,EEG.T8,EEG.FC6,EEG.F4,EEG.F8,EEG.AF4,EEG.RawCq,EEG.Battery,MarkerIndex,MarkerType,MarkerValueInt,EEG.MarkerHardware,CQ.AF3,CQ.F7,CQ.F3,CQ.FC5,CQ.T7,CQ.P7,CQ.O1,CQ.O2,CQ.P8,CQ.T8,CQ.FC6,CQ.F4,CQ.F8,CQ.AF4,CQ.Overall
1602006915.109058,99.000000,0.000000,4135.897461,4137.948730,4121.025879,4124.615234,4195.384766,4138.974121,4129.743652,4133.846191,4116.410156,4122.051270,4107.179688,4125.641113,4090.256348,4102.051270,838.000000,4.000000,,,,0.000000,4.000000,4.000000,4.000000,4.000000,4.000000,4.000000,4.000000,4.000000,4.000000,4.000000,4.000000,4.000000,4.000000,4.000000,100.000000
1602006915.116839,100.000000,0.000000,4140.000000,4136.410156,4117.948730,4126.153809,4195.384766,4132.307617,4128.717773,4127.179688,4120.000000,4134.358887,4109.230957,4124.615234,4090.256348,4092.820557,764.000000,4.000000,,,,0.000000,4.000000,4.000000,4.000000,4.000000,4.000000,4.000000,4.000000,4.000000,4.000000,4.000000,4.000000,4.000000,4.000000,4.000000,100.000000
1602006915.124721,101.000000,0.000000,4146.666504,4148.717773,4128.205078,4138.974121,4201.538574,4141.025879,4129.743652,4130.256348,4122.563965,4137.948730,4124.102539,4130.256348,4093.846191,4101.538574,724.000000,4.000000,,,,0.000000,4.000000,4.000000,4.000000,4.000000,4.000000,4.000000,4.000000,4.000000,4.000000,4.000000,4.000000,4.000000,4.000000,4.000000,100.000000
1602006915.132602,102.000000,0.000000,4143.589844,4147.179688,4135.897461,4140.000000,4203.077148,4142.051270,4125.128418,4129.230957,4116.410156,4125.128418,4118.974121,4126.666504,4094.871826,4110.769043,872.000000,4.000000,,,,0.000000,4.000000,4.000000,4.000000,4.000000,4.000000,4.000000,4.000000,4.000000,4.000000,4.000000,4.000000,4.000000,4.000000,4.000000,100.000000
1602006915.140483,103.000000,0.000000,4137.948730,4136.410156,4127.692383,4129.743652,4198.974121,4137.948730,4122.563965,4122.563965,4107.179688,4117.948730,4108.205078,4122.051270,4092.307617,4101.025879,838.000000,4.000000,,,,0.000000,4.000000,4.000000,4.000000,4.000000,4.000000,4.000000,4.000000,4.000000,4.000000,4.000000,4.000000,4.000000,4.000000,4.000000,100.000000
1602006915.148364,104.000000,0.000000,4137.436035,4132.820313,4120.000000,4122.563965,4192.307617,4138.461426,4126.153809,4125.128418,4105.641113,4118.974121,4109.743652,4124.615234,4090.256348,4095.897461,764.000000,4.000000,,,,0.000000,4.000000,4.000000,4.000000,4.000000,4.000000,4.000000,4.000000,4.000000,4.000000,4.000000,4.000000,4.000000,4.000000,4.000000,100.000000
1602006915.156245,105.000000,0.000000,4138.974121,4135.897461,4123.589844,4123.077148,4191.282227,4142.051270,4128.205078,4127.179688,4113.846191,4128.205078,4111.794922,4126.153809,4089.230713,4104.102539,724.000000,4.000000,,,,0.000000,4.000000,4.000000,4.000000,4.000000,4.000000,4.000000,4.000000,4.000000,4.000000,4.000000,4.000000,4.000000,4.000000,4.000000,100.000000
1602006915.164126,106.000000,0.000000,4138.461426,4136.410156,4124.615234,4124.102539,4191.794922,4140.000000,4124.102539,4124.615234,4121.538574,4137.948730,4105.128418,4123.589844,4088.718018,4101.538574,872.000000,4.000000,,,,0.000000,4.000000,4.000000,4.000000,4.000000,4.000000,4.000000,4.000000,4.000000,4.000000,4.000000,4.000000,4.000000,4.000000,4.000000,100.000000
1602006915.172108,107.000000,0.000000,4136.922852,4136.922852,4120.512695,4121.538574,4185.641113,4135.384766,4121.538574,4129.743652,4118.974121,4125.641113,4102.563965,4121.538574,4093.846191,4095.897461,838.000000,4.000000,,,,0.000000,4.000000,4.000000,4.000000,4.000000,4.000000,4.000000,4.000000,4.000000,4.000000,4.000000,4.000000,4.000000,4.000000,4.000000,100.000000
1602006915.179989,108.000000,0.000000,4142.051270,4145.128418,4126.666504,4127.179688,4188.717773,4135.384766,4127.692383,4136.922852,4122.051270,4115.384766,4114.358887,4126.153809,4105.641113,4109.230957,764.000000,4.000000,,,,0.000000,4.000000,4.000000,4.000000,4.000000,4.000000,4.000000,4.000000,4.000000,4.000000,4.000000,4.000000,4.000000,4.000000,4.000000,100.000000
1602006915.187870,109.000000,0.000000,4151.794922,4156.410156,4138.974121,4139.487305,4202.051270,4142.563965,4138.461426,4145.641113,4136.410156,4132.820313,4126.666504,4136.922852,4119.487305,4128.205078,724.000000,4.000000,,,,0.000000,4.000000,4.000000,4.000000,4.000000,4.000000,4.000000,4.000000,4.000000,4.000000,4.000000,4.000000,4.000000,4.000000,4.000000,100.000000
1602006915.195751,110.000000,0.000000,4153.333496,4158.974121,4139.487305,4139.487305,4204.102539,4151.794922,4141.538574,4152.820313,4140.000000,4145.128418,4126.666504,4139.487305,4120.000000,4124.615234,872.000000,4.000000,,,,0.000000,4.000000,4.000000,4.000000,4.000000,4.000000,4.000000,4.000000,4.000000,4.000000,4.000000,4.000000,4.000000,4.000000,4.000000,100.000000
1602006915.203632,111.000000,0.000000,4151.282227,4149.743652,4134.871582,4135.384766,4201.538574,4150.256348,4133.846191,4144.102539,4127.179688,4139.487305,4124.615234,4129.230957,4111.794922,4110.256348,838.000000,4.000000,,,,0.000000,4.000000,4.000000,4.000000,4.000000,4.000000,4.000000,4.000000,4.000000,4.000000,4.000000,4.000000,4.000000,4.000000,4.000000,100.000000
1602006915.211513,112.000000,0.000000,4151.794922,4146.666504,4133.846191,4136.410156,4200.000000,4141.538574,4128.205078,4127.692383,4113.333496,4135.384766,4129.743652,4122.051270,4109.230957,4107.179688,764.000000,4.000000,,,,0.000000,4.000000,4.000000,4.000000,4.000000,4.000000,4.000000,4.000000,4.000000,4.000000,4.000000,4.000000,4.000000,4.000000,4.000000,100.000000
1602006915.219394,113.000000,0.000000,4146.153809,4141.538574,4129.743652,4130.769043,4189.743652,4136.922852,4127.179688,4122.563965,4101.025879,4131.794922,4126.666504,4121.538574,4104.615234,4110.256348,724.000000,4.000000,,,,0.000000,4.000000,4.000000,4.000000,4.000000,4.000000,4.000000,4.000000,4.000000,4.000000,4.000000,4.000000,4.000000,4.000000,4.000000,100.000000
1602006915.227276,114.000000,0.000000,4138.974121,4128.717773,4122.051270,4121.025879,4180.512695,4131.282227,4125.641113,4122.051270,4090.769287,4117.948730,4112.307617,4121.538574,4092.820557,4108.205078,872.000000,4.000000,,,,0.000000,4.000000,4.000000,4.000000,4.000000,4.000000,4.000000,4.000000,4.000000,4.000000,4.000000,4.000000,4.000000,4.000000,4.000000,100.000000
1602006915.235157,115.000000,0.000000,4137.436035,4129.230957,4118.461426,4123.077148,4182.051270,4130.769043,4130.769043,4117.948730,4096.922852,4103.589844,4104.102539,4119.487305,4086.153809,4104.102539,838.000000,4.000000,,,,0.000000,4.000000,4.000000,4.000000,4.000000,4.000000,4.000000,4.000000,4.000000,4.000000,4.000000,4.000000,4.000000,4.000000,4.000000,100.000000
1602006915.243038,116.000000,0.000000,4140.000000,4141.025879,4125.641113,4130.256348,4185.641113,4145.128418,4135.384766,4125.641113,4116.922852,4106.666504,4113.333496,4121.538574,4094.358887,4105.641113,764.000000,4.000000,,,,0.000000,4.000000,4.000000,4.000000,4.000000,4.000000,4.000000,4.000000,4.000000,4.000000,4.000000,4.000000,4.000000,4.000000,4.000000,100.000000
1602006915.250819,117.000000,0.000000,4148.205078,4143.589844,4137.948730,4137.436035,4186.666504,4151.794922,4129.743652,4137.436035,4133.846191,4130.769043,4127.179688,4129.230957,4104.615234,4112.307617,724.000000,4.000000,,,,0.000000,4.000000,4.000000,4.000000,4.000000,4.000000,4.000000,4.000000,4.000000,4.000000,4.000000,4.000000,4.000000,4.000000,4.000000,100.000000
1602006915.258700,118.000000,0.000000,4149.743652,4136.922852,4134.871582,4135.384766,4184.102539,4138.461426,4121.025879,4137.436035,4137.948730,4143.589844,4122.563965,4129.230957,4104.102539,4113.333496,872.000000,4.000000,,,,0.000000,4.000000,4.000000,4.000000,4.000000,4.000000,4.000000,4.000000,4.000000,4.000000,4.000000,4.000000,4.000000,4.000000,4.000000,100.000000
1602006915.266481,119.000000,0.000000,4144.615234,4136.922852,4122.051270,4125.128418,4184.615234,4131.794922,4123.589844,4132.820313,4135.897461,4129.230957,4113.846191,4127.692383,4100.000000,4110.769043,838.000000,4.000000,,,,0.000000,4.000000,4.000000,4.000000,4.000000,4.000000,4.000000,4.000000,4.000000,4.000000,4.000000,4.000000,4.000000,4.000000,4.000000,100.000000
1602006915.274362,120.000000,0.000000,4147.692383,4141.538574,4128.717773,4128.717773,4190.769043,4140.000000,4129.230957,4138.974121,4141.025879,4124.102539,4118.974121,4132.820313,4105.641113,4112.820313,764.000000,4.000000,,,,0.000000,4.000000,4.000000,4.000000,4.000000,4.000000,4.000000,4.000000,4.000000,4.000000,4.000000,4.000000,4.000000,4.000000,4.000000,100.000000
1602006915.282143,121.000000,0.000000,4147.179688,4140.000000,4138.461426,4138.461426,4186.666504,4136.922852,4124.615234,4141.538574,4135.897461,4136.922852,4124.615234,4131.282227,4107.692383,4110.769043,724.000000,4.000000,,,,0.000000,4.000000,4.000000,4.000000,4.000000,4.000000,4.000000,4.000000,4.000000,4.000000,4.000000,4.000000,4.000000,4.000000,4.000000,100.000000
1602006915.290024,122.000000,0.000000,4145.128418,4140.512695,4136.410156,4137.436035,4180.000000,4131.282227,4124.615234,4132.307617,4114.871582,4145.128418,4121.538574,4128.717773,4103.077148,4112.307617,872.000000,4.000000,,,,0.000000,4.000000,4.000000,4.000000,4.000000,4.000000,4.000000,4.000000,4.000000,4.000000,4.000000,4.000000,4.000000,4.000000,4.000000,100.000000
1602006915.297905,123.000000,0.000000,4161.025879,4149.743652,4143.077148,4137.948730,4191.282227,4137.948730,4135.384766,4131.794922,4110.256348,4138.974121,4124.615234,4142.563965,4113.846191,4129.230957,838.000000,4.000000,,,,0.000000,4.000000,4.000000,4.000000,4.000000,4.000000,4.000000,4.000000,4.000000,4.000000,4.000000,4.000000,4.000000,4.000000,4.000000,100.000000
1602006915.305787,124.000000,0.000000,4174.358887,4157.436035,4154.871582,4144.615234,4197.948730,4140.512695,4140.512695,4137.948730,4122.563965,4131.282227,4130.256348,4156.922852,4127.692383,4139.487305,764.000000,4.000000,,,,0.000000,4.000000,4.000000,4.000000,4.000000,4.000000,4.000000,4.000000,4.000000,4.000000,4.000000,4.000000,4.000000,4.000000,4.000000,100.000000
1602006915.313668,125.000000,0.000000,4162.051270,4154.871582,4154.358887,4145.128418,4186.666504,4142.563965,4135.384766,4138.461426,4124.615234,4142.051270,4129.743652,4156.410156,4125.128418,4135.384766,724.000000,4.000000,,,,0.000000,4.000000,4.000000,4.000000,4.000000,4.000000,4.000000,4.000000,4.000000,4.000000,4.000000,4.000000,4.000000,4.000000,4.000000,100.000000
1602006915.321549,126.000000,0.000000,4154.358887,4150.256348,4147.692383,4142.563965,4183.589844,4151.794922,4135.384766,4130.256348,4118.974121,4154.871582,4126.666504,4147.179688,4122.563965,4131.794922,872.000000,4.000000,,,,0.000000,4.000000,4.000000,4.000000,4.000000,4.000000,4.000000,4.000000,4.000000,4.000000,4.000000,4.000000,4.000000,4.000000,4.000000,100.000000
1602006915.329530,127.000000,0.000000,4157.436035,4145.641113,4143.077148,4141.538574,4190.769043,4150.769043,4138.461426,4126.153809,4124.102539,4144.102539,4120.000000,4137.948730,4125.128418,4130.769043,838.000000,4.000000,,,,0.000000,4.000000,4.000000,4.000000,4.000000,4.000000,4.000000,4.000000,4.000000,4.000000,4.000000,4.000000,4.000000,4.000000,4.000000,100.000000
1602006915.337411,128.000000,0.000000,4147.692383,4137.436035,4140.000000,4133.846191,4183.077148,4135.897461,4131.794922,4130.769043,4134.358887,4133.846191,4114.871582,4134.358887,4116.922852,4120.000000,764.000000,4.000000,,,,0.000000,4.000000,4.000000,4.000000,4.000000,4.000000,4.000000,4.000000,4.000000,4.000000,4.000000,4.000000,4.000000,4.000000,4.000000,100.000000
1602006915.345292,0.000000,0.000000,4140.512695,4134.358887,4140.512695,4134.871582,4176.410156,4133.333496,4128.717773,4138.461426,4139.487305,4150.769043,4117.948730,4135.897461,4111.282227,4115.384766,797.000000,4.000000,,,,0.000000,4.000000,4.000000,4.000000,4.000000,4.000000,4.000000,4.000000,4.000000,4.000000,4.000000,4.000000,4.000000,4.000000,4.000000,100.000000
1602006915.353174,1.000000,0.000000,4151.282227,4144.102539,4143.589844,4143.077148,4182.563965,4140.512695,4131.282227,4146.153809,4140.000000,4164.615234,4124.615234,4140.512695,4120.512695,4129.230957,785.000000,4.000000,,,,0.000000,4.000000,4.000000,4.000000,4.000000,4.000000,4.000000,4.000000,4.000000,4.000000,4.000000,4.000000,4.000000,4.000000,4.000000,100.000000
1602006915.361055,2.000000,0.000000,4152.820313,4149.743652,4140.000000,4141.538574,4184.102539,4133.333496,4126.666504,4147.692383,4135.897461,4151.282227,4123.589844,4143.589844,4120.000000,4138.461426,847.000000,4.000000,,,,0.000000,4.000000,4.000000,4.000000,4.000000,4.000000,4.000000,4.000000,4.000000,4.000000,4.000000,4.000000,4.000000,4.000000,4.000000,100.000000
1602006915.368936,3.000000,0.000000,4135.897461,4142.563965,4134.871582,4138.461426,4182.051270,4123.589844,4117.436035,4142.051270,4129.743652,4133.846191,4113.846191,4134.871582,4111.282227,4126.666504,869.000000,4.000000,,,,0.000000,4.000000,4.000000,4.000000,4.000000,4.000000,4.000000,4.000000,4.000000,4.000000,4.000000,4.000000,4.000000,4.000000,4.000000,100.000000
1602006915.376817,4.000000,0.000000,4134.358887,4136.410156,4133.846191,4139.487305,4179.487305,4125.128418,4117.436035,4136.410156,4123.077148,4132.307617,4113.333496,4122.051270,4114.871582,4116.410156,814.000000,4.000000,,,,0.000000,4.000000,4.000000,4.000000,4.000000,4.000000,4.000000,4.000000,4.000000,4.000000,4.000000,4.000000,4.000000,4.000000,4.000000,100.000000
1602006915.384598,5.000000,0.000000,4146.153809,4139.487305,4138.461426,4140.512695,4178.461426,4136.410156,4129.230957,4139.487305,4122.051270,4147.692383,4130.256348,4126.666504,4124.102539,4131.282227,818.000000,4.000000,,,,0.000000,4.000000,4.000000,4.000000,4.000000,4.000000,4.000000,4.000000,4.000000,4.000000,4.000000,4.000000,4.000000,4.000000,4.000000,100.000000
1602006915.392479,6.000000,0.000000,4132.307617,4143.589844,4146.153809,4141.538574,4180.000000,4147.179688,4138.461426,4136.410156,4123.077148,4156.922852,4137.436035,4139.487305,4126.666504,4143.077148,759.000000,4.000000,,,,0.000000,4.000000,4.000000,4.000000,4.000000,4.000000,4.000000,4.000000,4.000000,4.000000,4.000000,4.000000,4.000000,4.000000,4.000000,100.000000
1602006915.400361,7.000000,0.000000,4118.974121,4146.153809,4151.794922,4143.077148,4184.102539,4153.333496,4140.000000,4124.615234,4121.025879,4148.205078,4124.102539,4140.512695,4126.153809,4130.769043,667.000000,4.000000,,,,0.000000,4.000000,4.000000,4.000000,4.000000,4.000000,4.000000,4.000000,4.000000,4.000000,4.000000,4.000000,4.000000,4.000000,4.000000,100.000000
1602006915.408242,8.000000,0.000000,4138.461426,4146.666504,4152.820313,4145.641113,4180.512695,4153.846191,4136.922852,4123.077148,4120.512695,4145.641113,4117.948730,4135.897461,4122.563965,4116.922852,777.000000,4.000000,,,,0.000000,4.000000,4.000000,4.000000,4.000000,4.000000,4.000000,4.000000,4.000000,4.000000,4.000000,4.000000,4.000000,4.000000,4.000000,100.000000
1602006915.416123,9.000000,0.000000,4147.692383,4141.538574,4154.358887,4146.153809,4173.846191,4150.769043,4135.384766,4131.794922,4126.153809,4149.230957,4126.153809,4136.410156,4120.512695,4120.512695,837.000000,4.000000,,,,0.000000,4.000000,4.000000,4.000000,4.000000,4.000000,4.000000,4.000000,4.000000,4.000000,4.000000,4.000000,4.000000,4.000000,4.000000,100.000000
1602006915.424004,10.000000,0.000000,4134.358887,4146.666504,4153.846191,4146.153809,4174.358887,4153.333496,4138.974121,4138.974121,4137.948730,4155.897461,4137.436035,4133.846191,4128.717773,4138.974121,872.000000,4.000000,,,,0.000000,4.000000,4.000000,4.000000,4.000000,4.000000,4.000000,4.000000,4.000000,4.000000,4.000000,4.000000,4.000000,4.000000,4.000000,100.000000
1602006915.431785,11.000000,0.000000,4140.000000,4154.871582,4142.051270,4145.641113,4174.871582,4149.743652,4134.871582,4140.512695,4143.589844,4159.487305,4142.051270,4125.641113,4131.282227,4140.512695,871.000000,4.000000,,,,0.000000,4.000000,4.000000,4.000000,4.000000,4.000000,4.000000,4.000000,4.000000,4.000000,4.000000,4.000000,4.000000,4.000000,4.000000,100.000000
1602006915.439666,12.000000,0.000000,4157.436035,4149.230957,4133.333496,4145.128418,4169.743652,4141.538574,4123.077148,4139.487305,4136.410156,4150.256348,4133.846191,4125.128418,4124.102539,4125.641113,810.000000,4.000000,,,,0.000000,4.000000,4.000000,4.000000,4.000000,4.000000,4.000000,4.000000,4.000000,4.000000,4.000000,4.000000,4.000000,4.000000,4.000000,100.000000
1602006915.447647,13.000000,0.000000,4157.436035,4140.512695,4137.436035,4142.563965,4167.179688,4140.000000,4118.974121,4139.487305,4125.128418,4140.512695,4126.666504,4128.717773,4121.025879,4128.717773,724.000000,4.000000,,,,0.000000,4.000000,4.000000,4.000000,4.000000,4.000000,4.000000,4.000000,4.000000,4.000000,4.000000,4.000000,4.000000,4.000000,4.000000,100.000000
1602006915.455528,14.000000,0.000000,4153.333496,4141.025879,4138.974121,4140.000000,4170.256348,4132.307617,4121.538574,4138.974121,4118.974121,4138.461426,4129.743652,4128.205078,4122.563965,4140.000000,872.000000,4.000000,,,,0.000000,4.000000,4.000000,4.000000,4.000000,4.000000,4.000000,4.000000,4.000000,4.000000,4.000000,4.000000,4.000000,4.000000,4.000000,100.000000
1602006915.463509,15.000000,0.000000,4150.769043,4146.666504,4135.384766,4143.589844,4170.256348,4119.487305,4121.538574,4137.948730,4115.897461,4137.436035,4129.743652,4131.282227,4124.102539,4134.358887,871.000000,4.000000,,,,0.000000,4.000000,4.000000,4.000000,4.000000,4.000000,4.000000,4.000000,4.000000,4.000000,4.000000,4.000000,4.000000,4.000000,4.000000,100.000000
1602006915.471390,16.000000,0.000000,4153.333496,4152.307617,4137.948730,4151.282227,4172.307617,4122.563965,4128.717773,4142.051270,4116.410156,4144.102539,4131.282227,4140.512695,4133.333496,4130.769043,0.000000,4.000000,,,,0.000000,4.000000,4.000000,4.000000,4.000000,4.000000,4.000000,4.000000,4.000000,4.000000,4.000000,4.000000,4.000000,4.000000,4.000000,100.000000
1602006915.479271,17.000000,0.000000,4162.051270,4156.922852,4145.128418,4154.871582,4175.384766,4126.666504,4139.487305,4144.102539,4116.922852,4152.820313,4141.538574,4141.025879,4143.589844,4141.538574,0.000000,4.000000,,,,0.000000,4.000000,4.000000,4.000000,4.000000,4.000000,4.000000,4.000000,4.000000,4.000000,4.000000,4.000000,4.000000,4.000000,4.000000,100.000000
1602006915.487251,18.000000,0.000000,4161.538574,4154.358887,4150.769043,4147.692383,4169.743652,4112.307617,4139.487305,4140.512695,4112.820313,4141.025879,4139.487305,4138.974121,4142.563965,4141.538574,0.000000,4.000000,,,,0.000000,4.000000,4.000000,4.000000,4.000000,4.000000,4.000000,4.000000,4.000000,4.000000,4.000000,4.000000,4.000000,4.000000,4.000000,100.000000
1602006915.495032,19.000000,0.000000,4153.333496,4154.871582,4154.871582,4147.692383,4164.615234,4110.256348,4135.384766,4137.436035,4111.282227,4133.846191,4132.820313,4147.692383,4137.948730,4136.922852,0.000000,4.000000,,,,0.000000,4.000000,4.000000,4.000000,4.000000,4.000000,4.000000,4.000000,4.000000,4.000000,4.000000,4.000000,4.000000,4.000000,4.000000,100.000000
1602006915.502914,20.000000,0.000000,4149.743652,4155.897461,4151.794922,4151.282227,4169.230957,4122.051270,4134.871582,4130.769043,4113.333496,4142.051270,4138.974121,4154.871582,4140.512695,4140.512695,0.000000,4.000000,,,,0.000000,4.000000,4.000000,4.000000,4.000000,4.000000,4.000000,4.000000,4.000000,4.000000,4.000000,4.000000,4.000000,4.000000,4.000000,100.000000
1602006915.510795,21.000000,0.000000,4152.307617,4151.282227,4142.051270,4143.589844,4173.846191,4124.615234,4137.436035,4126.666504,4117.948730,4142.051270,4143.077148,4152.820313,4140.512695,4141.025879,0.000000,4.000000,,,,0.000000,4.000000,4.000000,4.000000,4.000000,4.000000,4.000000,4.000000,4.000000,4.000000,4.000000,4.000000,4.000000,4.000000,4.000000,100.000000
1602006915.518676,22.000000,0.000000,4152.820313,4150.256348,4136.410156,4137.948730,4170.769043,4130.256348,4136.922852,4132.820313,4128.205078,4140.512695,4138.974121,4151.282227,4137.436035,4140.512695,0.000000,4.000000,,,,0.000000,4.000000,4.000000,4.000000,4.000000,4.000000,4.000000,4.000000,4.000000,4.000000,4.000000,4.000000,4.000000,4.000000,4.000000,100.000000
1602006915.526557,23.000000,0.000000,4144.102539,4150.769043,4136.922852,4141.025879,4170.256348,4138.974121,4128.717773,4137.436035,4138.974121,4144.102539,4135.384766,4154.358887,4136.410156,4138.461426,0.000000,4.000000,,,,0.000000,4.000000,4.000000,4.000000,4.000000,4.000000,4.000000,4.000000,4.000000,4.000000,4.000000,4.000000,4.000000,4.000000,4.000000,100.000000
1602006915.534438,24.000000,0.000000,4133.846191,4143.077148,4135.384766,4139.487305,4174.358887,4137.948730,4125.128418,4134.871582,4142.051270,4147.179688,4130.256348,4152.307617,4134.358887,4128.205078,0.000000,4.000000,,,,0.000000,4.000000,4.000000,4.000000,4.000000,4.000000,4.000000,4.000000,4.000000,4.000000,4.000000,4.000000,4.000000,4.000000,4.000000,100.000000
1602006915.542219,25.000000,0.000000,4129.743652,4131.794922,4129.230957,4130.256348,4167.692383,4135.897461,4134.358887,4136.410156,4137.948730,4140.512695,4126.666504,4145.128418,4125.128418,4114.358887,0.000000,4.000000,,,,0.000000,4.000000,4.000000,4.000000,4.000000,4.000000,4.000000,4.000000,4.000000,4.000000,4.000000,4.000000,4.000000,4.000000,4.000000,100.000000
1602006915.550101,26.000000,0.000000,4126.666504,4122.051270,4124.102539,4123.589844,4156.410156,4136.922852,4140.512695,4140.000000,4134.871582,4124.102539,4129.230957,4138.974121,4114.358887,4108.205078,0.000000,4.000000,,,,0.000000,4.000000,4.000000,4.000000,4.000000,4.000000,4.000000,4.000000,4.000000,4.000000,4.000000,4.000000,4.000000,4.000000,4.000000,100.000000
1602006915.557982,27.000000,0.000000,4121.538574,4121.025879,4122.051270,4120.000000,4154.358887,4136.410156,4140.512695,4137.948730,4135.897461,4125.641113,4127.179688,4138.461426,4114.871582,4111.282227,0.000000,4.000000,,,,0.000000,4.000000,4.000000,4.000000,4.000000,4.000000,4.000000,4.000000,4.000000,4.000000,4.000000,4.000000,4.000000,4.000000,4.000000,100.000000
1602006915.565863,28.000000,0.000000,4121.538574,4130.769043,4122.563965,4121.025879,4156.922852,4137.436035,4140.000000,4138.461426,4137.436035,4139.487305,4121.538574,4140.000000,4120.512695,4109.230957,0.000000,4.000000,,,,0.000000,4.000000,4.000000,4.000000,4.000000,4.000000,4.000000,4.000000,4.000000,4.000000,4.000000,4.000000,4.000000,4.000000,4.000000,100.000000
1602006915.573744,29.000000,0.000000,4123.077148,4135.897461,4120.000000,4128.205078,4160.000000,4139.487305,4140.000000,4136.922852,4135.897461,4127.179688,4122.563965,4137.948730,4120.000000,4101.025879,0.000000,4.000000,,,,0.000000,4.000000,4.000000,4.000000,4.000000,4.000000,4.000000,4.000000,4.000000,4.000000,4.000000,4.000000,4.000000,4.000000,4.000000,100.000000
1602006915.581625,30.000000,0.000000,4126.666504,4135.384766,4121.538574,4137.436035,4168.205078,4147.179688,4136.410156,4129.230957,4136.922852,4112.820313,4122.051270,4143.589844,4118.974121,4105.641113,0.000000,4.000000,,,,0.000000,4.000000,4.000000,4.000000,4.000000,4.000000,4.000000,4.000000,4.000000,4.000000,4.000000,4.000000,4.000000,4.000000,4.000000,100.000000
1602006915.589506,31.000000,0.000000,4126.666504,4139.487305,4127.179688,4138.974121,4169.230957,4151.282227,4130.769043,4121.025879,4142.563965,4131.282227,4115.897461,4152.307617,4124.615234,4115.897461,0.000000,4.000000,,,,0.000000,4.000000,4.000000,4.000000,4.000000,4.000000,4.000000,4.000000,4.000000,4.000000,4.000000,4.000000,4.000000,4.000000,4.000000,100.000000
1602006915.597388,32.000000,0.000000,4119.487305,4140.512695,4126.666504,4135.384766,4161.025879,4142.563965,4129.743652,4121.025879,4143.589844,4143.077148,4117.948730,4151.282227,4124.102539,4109.743652,0.000000,4.000000,,,,0.000000,4.000000,4.000000,4.000000,4.000000,4.000000,4.000000,4.000000,4.000000,4.000000,4.000000,4.000000,4.000000,4.000000,4.000000,100.000000
1602006915.605369,33.000000,0.000000,4119.487305,4135.384766,4124.102539,4137.948730,4157.948730,4138.461426,4128.205078,4124.615234,4141.025879,4132.820313,4126.666504,4144.102539,4111.794922,4104.102539,0.000000,4.000000,,,,0.000000,4.000000,4.000000,4.000000,4.000000,4.000000,4.000000,4.000000,4.000000,4.000000,4.000000,4.000000,4.000000,4.000000,4.000000,100.000000
1602006915.613250,34.000000,0.000000,4126.666504,4133.846191,4122.563965,4136.410156,4158.461426,4141.025879,4126.153809,4126.153809,4144.102539,4126.153809,4117.948730,4141.025879,4105.128418,4108.205078,0.000000,4.000000,,,,0.000000,4.000000,4.000000,4.000000,4.000000,4.000000,4.000000,4.000000,4.000000,4.000000,4.000000,4.000000,4.000000,4.000000,4.000000,100.000000
1602006915.621131,35.000000,0.000000,4130.256348,4135.897461,4125.128418,4129.743652,4162.563965,4138.974121,4133.333496,4127.692383,4152.307617,4128.717773,4109.230957,4140.000000,4107.692383,4108.205078,0.000000,4.000000,,,,0.000000,4.000000,4.000000,4.000000,4.000000,4.000000,4.000000,4.000000,4.000000,4.000000,4.000000,4.000000,4.000000,4.000000,4.000000,100.000000
1602006915.629012,36.000000,0.000000,4126.153809,4136.410156,4128.717773,4132.820313,4164.615234,4138.461426,4138.974121,4126.153809,4149.743652,4129.230957,4116.922852,4140.000000,4108.205078,4105.641113,0.000000,4.000000,,,,0.000000,4.000000,4.000000,4.000000,4.000000,4.000000,4.000000,4.000000,4.000000,4.000000,4.000000,4.000000,4.000000,4.000000,4.000000,100.000000
1602006915.636893,37.000000,0.000000,4122.563965,4136.410156,4126.666504,4137.436035,4158.461426,4138.974121,4129.230957,4121.538574,4136.922852,4120.000000,4117.436035,4145.641113,4102.051270,4106.666504,0.000000,4.000000,,,,0.000000,4.000000,4.000000,4.000000,4.000000,4.000000,4.000000,4.000000,4.000000,4.000000,4.000000,4.000000,4.000000,4.000000,4.000000,100.000000
1602006915.644774,38.000000,0.000000,4133.846191,4139.487305,4122.051270,4135.897461,4161.025879,4137.948730,4124.615234,4120.512695,4141.538574,4117.948730,4115.384766,4150.256348,4109.230957,4108.205078,0.000000,4.000000,,,,0.000000,4.000000,4.000000,4.000000,4.000000,4.000000,4.000000,4.000000,4.000000,4.000000,4.000000,4.000000,4.000000,4.000000,4.000000,100.000000
1602006915.652656,39.000000,0.000000,4145.128418,4141.538574,4121.538574,4138.974121,4167.179688,4146.666504,4135.384766,4125.641113,4154.871582,4134.871582,4131.794922,4151.794922,4124.102539,4107.692383,0.000000,4.000000,,,,0.000000,4.000000,4.000000,4.000000,4.000000,4.000000,4.000000,4.000000,4.000000,4.000000,4.000000,4.000000,4.000000,4.000000,4.000000,100.000000
1602006915.660537,40.000000,0.000000,4127.179688,4132.820313,4120.512695,4137.948730,4159.487305,4154.871582,4138.461426,4127.179688,4148.205078,4138.974121,4130.769043,4151.794922,4119.487305,4106.153809,0.000000,4.000000,,,,0.000000,4.000000,4.000000,4.000000,4.000000,4.000000,4.000000,4.000000,4.000000,4.000000,4.000000,4.000000,4.000000,4.000000,4.000000,100.000000
1602006915.668418,41.000000,0.000000,4106.153809,4122.563965,4118.461426,4124.615234,4147.692383,4152.307617,4133.846191,4122.051270,4135.384766,4121.538574,4107.179688,4151.794922,4104.615234,4103.589844,0.000000,4.000000,,,,0.000000,4.000000,4.000000,4.000000,4.000000,4.000000,4.000000,4.000000,4.000000,4.000000,4.000000,4.000000,4.000000,4.000000,4.000000,100.000000
1602006915.676199,42.000000,0.000000,4120.000000,4123.589844,4122.563965,4121.025879,4150.769043,4149.743652,4135.897461,4122.563965,4136.410156,4125.641113,4109.230957,4153.846191,4107.692383,4108.205078,0.000000,4.000000,,,,0.000000,4.000000,4.000000,4.000000,4.000000,4.000000,4.000000,4.000000,4.000000,4.000000,4.000000,4.000000,4.000000,4.000000,4.000000,100.000000
1602006915.684080,43.000000,0.000000,4138.974121,4122.563965,4125.128418,4127.692383,4154.871582,4148.205078,4131.282227,4120.512695,4136.922852,4140.000000,4126.666504,4151.794922,4113.846191,4108.205078,0.000000,4.000000,,,,0.000000,4.000000,4.000000,4.000000,4.000000,4.000000,4.000000,4.000000,4.000000,4.000000,4.000000,4.000000,4.000000,4.000000,4.000000,100.000000
1602006915.691962,44.000000,0.000000,4129.230957,4122.563965,4121.538574,4130.256348,4153.333496,4139.487305,4117.948730,4112.307617,4132.820313,4127.692383,4123.077148,4145.128418,4104.102539,4100.000000,0.000000,4.000000,,,,0.000000,4.000000,4.000000,4.000000,4.000000,4.000000,4.000000,4.000000,4.000000,4.000000,4.000000,4.000000,4.000000,4.000000,4.000000,100.000000
1602006915.699843,45.000000,0.000000,4122.051270,4134.358887,4120.000000,4134.871582,4155.384766,4133.333496,4114.358887,4114.358887,4137.948730,4125.641113,4115.384766,4140.512695,4103.077148,4101.025879,0.000000,4.000000,,,,0.000000,4.000000,4.000000,4.000000,4.000000,4.000000,4.000000,4.000000,4.000000,4.000000,4.000000,4.000000,4.000000,4.000000,4.000000,100.000000
1602006915.707724,46.000000,0.000000,4136.922852,4141.538574,4124.615234,4142.051270,4156.410156,4135.897461,4118.461426,4122.051270,4140.512695,4139.487305,4120.512695,4140.512695,4115.384766,4109.230957,0.000000,4.000000,,,,0.000000,4.000000,4.000000,4.000000,4.000000,4.000000,4.000000,4.000000,4.000000,4.000000,4.000000,4.000000,4.000000,4.000000,4.000000,100.000000
1602006915.715605,47.000000,0.000000,4145.128418,4138.974121,4130.769043,4141.025879,4150.256348,4133.846191,4116.410156,4121.538574,4135.384766,4121.025879,4122.051270,4140.000000,4115.384766,4110.256348,0.000000,4.000000,,,,0.000000,4.000000,4.000000,4.000000,4.000000,4.000000,4.000000,4.000000,4.000000,4.000000,4.000000,4.000000,4.000000,4.000000,4.000000,100.000000
1602006915.723586,48.000000,0.000000,4137.436035,4139.487305,4130.769043,4137.436035,4145.128418,4129.743652,4115.384766,4120.000000,4136.922852,4101.025879,4120.000000,4138.461426,4110.769043,4107.179688,0.000000,4.000000,,,,0.000000,4.000000,4.000000,4.000000,4.000000,4.000000,4.000000,4.000000,4.000000,4.000000,4.000000,4.000000,4.000000,4.000000,4.000000,100.000000
1602006915.731467,49.000000,0.000000,4133.333496,4140.512695,4126.153809,4138.461426,4148.717773,4131.282227,4118.974121,4121.025879,4138.974121,4121.025879,4122.563965,4140.000000,4116.922852,4106.153809,0.000000,4.000000,,,,0.000000,4.000000,4.000000,4.000000,4.000000,4.000000,4.000000,4.000000,4.000000,4.000000,4.000000,4.000000,4.000000,4.000000,4.000000,100.000000
1602006915.739348,50.000000,0.000000,4138.461426,4139.487305,4123.589844,4139.487305,4153.846191,4136.410156,4123.589844,4122.563965,4135.897461,4141.538574,4125.128418,4147.179688,4123.589844,4104.615234,0.000000,4.000000,,,,0.000000,4.000000,4.000000,4.000000,4.000000,4.000000,4.000000,4.000000,4.000000,4.000000,4.000000,4.000000,4.000000,4.000000,4.000000,100.000000
1602006915.747230,51.000000,0.000000,4138.974121,4139.487305,4123.589844,4137.948730,4149.743652,4137.948730,4131.794922,4131.282227,4144.102539,4141.538574,4126.666504,4150.769043,4122.563965,4105.641113,0.000000,4.000000,,,,0.000000,4.000000,4.000000,4.000000,4.000000,4.000000,4.000000,4.000000,4.000000,4.000000,4.000000,4.000000,4.000000,4.000000,4.000000,100.000000
1602006915.755111,52.000000,0.000000,4134.871582,4137.436035,4123.589844,4136.410156,4140.512695,4138.461426,4140.000000,4135.384766,4152.307617,4137.948730,4122.563965,4144.102539,4115.384766,4108.717773,0.000000,4.000000,,,,0.000000,4.000000,4.000000,4.000000,4.000000,4.000000,4.000000,4.000000,4.000000,4.000000,4.000000,4.000000,4.000000,4.000000,4.000000,100.000000
1602006915.762992,53.000000,0.000000,4135.384766,4135.897461,4127.692383,4138.974121,4136.922852,4138.461426,4137.436035,4128.205078,4141.025879,4130.769043,4120.512695,4143.589844,4110.256348,4106.153809,0.000000,4.000000,,,,0.000000,4.000000,4.000000,4.000000,4.000000,4.000000,4.000000,4.000000,4.000000,4.000000,4.000000,4.000000,4.000000,4.000000,4.000000,100.000000
1602006915.770873,54.000000,0.000000,4137.948730,4137.436035,4132.820313,4138.974121,4137.436035,4131.282227,4129.230957,4123.077148,4128.205078,4120.000000,4118.461426,4151.282227,4114.358887,4105.128418,0.000000,4.000000,,,,0.000000,4.000000,4.000000,4.000000,4.000000,4.000000,4.000000,4.000000,4.000000,4.000000,4.000000,4.000000,4.000000,4.000000,4.000000,100.000000
1602006915.778754,55.000000,0.000000,4138.461426,4139.487305,4136.922852,4135.897461,4135.384766,4124.102539,4126.153809,4123.077148,4130.769043,4121.538574,4115.897461,4156.410156,4123.077148,4119.487305,0.000000,4.000000,,,,0.000000,4.000000,4.000000,4.000000,4.000000,4.000000,4.000000,4.000000,4.000000,4.000000,4.000000,4.000000,4.000000,4.000000,4.000000,100.000000
1602006915.786635,56.000000,0.000000,4138.461426,4137.948730,4136.922852,4137.948730,4135.897461,4126.153809,4128.205078,4121.025879,4132.820313,4134.358887,4118.974121,4154.871582,4123.589844,4129.743652,0.000000,4.000000,,,,0.000000,4.000000,4.000000,4.000000,4.000000,4.000000,4.000000,4.000000,4.000000,4.000000,4.000000,4.000000,4.000000,4.000000,4.000000,100.000000
1602006915.794617,57.000000,0.000000,4135.897461,4135.384766,4128.205078,4141.538574,4138.461426,4125.128418,4127.179688,4121.025879,4127.692383,4132.307617,4119.487305,4147.692383,4118.974121,4111.282227,0.000000,4.000000,,,,0.000000,4.000000,4.000000,4.000000,4.000000,4.000000,4.000000,4.000000,4.000000,4.000000,4.000000,4.000000,4.000000,4.000000,4.000000,100.000000
1602006915.802498,58.000000,0.000000,4135.384766,4136.410156,4120.000000,4137.948730,4137.948730,4118.974121,4123.589844,4125.128418,4130.256348,4123.589844,4121.025879,4146.153809,4122.563965,4104.615234,0.000000,4.000000,,,,0.000000,4.000000,4.000000,4.000000,4.000000,4.000000,4.000000,4.000000,4.000000,4.000000,4.000000,4.000000,4.000000,4.000000,4.000000,100.000000
1602006915.810379,59.000000,0.000000,4140.512695,4139.487305,4122.051270,4135.384766,4144.615234,4122.051270,4129.230957,4126.153809,4147.692383,4142.051270,4135.897461,4153.333496,4135.384766,4134.871582,0.000000,4.000000,,,,0.000000,4.000000,4.000000,4.000000,4.000000,4.000000,4.000000,4.000000,4.000000,4.000000,4.000000,4.000000,4.000000,4.000000,4.000000,100.000000
1602006915.818260,60.000000,0.000000,4139.487305,4138.974121,4122.563965,4140.000000,4151.282227,4130.256348,4136.922852,4126.153809,4162.051270,4162.563965,4144.615234,4149.230957,4146.153809,4145.641113,0.000000,4.000000,,,,0.000000,4.000000,4.000000,4.000000,4.000000,4.000000,4.000000,4.000000,4.000000,4.000000,4.000000,4.000000,4.000000,4.000000,4.000000,100.000000
1602006915.826141,61.000000,0.000000,4127.692383,4132.307617,4112.820313,4140.000000,4143.077148,4125.641113,4135.384766,4125.128418,4152.820313,4147.179688,4128.205078,4136.922852,4135.897461,4118.974121,0.000000,4.000000,,,,0.000000,4.000000,4.000000,4.000000,4.000000,4.000000,4.000000,4.000000,4.000000,4.000000,4.000000,4.000000,4.000000,4.000000,4.000000,100.000000
1602006915.834022,62.000000,0.000000,4120.000000,4124.615234,4110.769043,4135.384766,4135.384766,4118.461426,4133.846191,4121.025879,4139.487305,4128.205078,4115.384766,4134.358887,4121.025879,4107.692383,0.000000,4.000000,,,,0.000000,4.000000,4.000000,4.000000,4.000000,4.000000,4.000000,4.000000,4.000000,4.000000,4.000000,4.000000,4.000000,4.000000,4.000000,100.000000
1602006915.841903,63.000000,0.000000,4125.641113,4129.230957,4118.974121,4134.358887,4138.974121,4128.717773,4136.922852,4125.641113,4146.666504,4136.410156,4125.641113,4137.948730,4128.717773,4121.538574,0.000000,4.000000,,,,0.000000,4.000000,4.000000,4.000000,4.000000,4.000000,4.000000,4.000000,4.000000,4.000000,4.000000,4.000000,4.000000,4.000000,4.000000,100.000000
1602006915.849785,64.000000,0.000000,4132.820313,4136.922852,4126.153809,4136.410156,4140.512695,4141.025879,4138.461426,4137.436035,4159.487305,4140.000000,4138.461426,4139.487305,4141.025879,4127.179688,796.000000,4.000000,,,,0.000000,4.000000,4.000000,4.000000,4.000000,4.000000,4.000000,4.000000,4.000000,4.000000,4.000000,4.000000,4.000000,4.000000,4.000000,100.000000
1602006915.857666,65.000000,0.000000,4126.153809,4129.743652,4123.077148,4136.410156,4134.358887,4137.948730,4135.384766,4132.820313,4151.282227,4132.307617,4138.974121,4138.461426,4137.948730,4120.512695,785.000000,4.000000,,,,0.000000,4.000000,4.000000,4.000000,4.000000,4.000000,4.000000,4.000000,4.000000,4.000000,4.000000,4.000000,4.000000,4.000000,4.000000,100.000000
1602006915.865647,66.000000,0.000000,4123.077148,4124.615234,4119.487305,4135.384766,4132.307617,4132.307617,4132.820313,4124.615234,4138.461426,4140.512695,4133.846191,4143.077148,4133.333496,4118.461426,847.000000,4.000000,,,,0.000000,4.000000,4.000000,4.000000,4.000000,4.000000,4.000000,4.000000,4.000000,4.000000,4.000000,4.000000,4.000000,4.000000,4.000000,100.000000
1602006915.873528,67.000000,0.000000,4140.000000,4137.948730,4129.743652,4138.461426,4140.000000,4140.512695,4137.948730,4136.922852,4145.128418,4156.922852,4137.436035,4154.358887,4139.487305,4126.666504,869.000000,4.000000,,,,0.000000,4.000000,4.000000,4.000000,4.000000,4.000000,4.000000,4.000000,4.000000,4.000000,4.000000,4.000000,4.000000,4.000000,4.000000,100.000000
1602006915.881409,68.000000,0.000000,4147.179688,4142.051270,4137.436035,4137.948730,4137.948730,4145.128418,4141.538574,4142.563965,4153.333496,4146.666504,4144.102539,4156.922852,4142.051270,4129.743652,814.000000,4.000000,,,,0.000000,4.000000,4.000000,4.000000,4.000000,4.000000,4.000000,4.000000,4.000000,4.000000,4.000000,4.000000,4.000000,4.000000,4.000000,100.000000
1602006915.889290,69.000000,0.000000,4133.333496,4125.641113,4126.666504,4127.692383,4120.512695,4136.922852,4137.436035,4127.692383,4142.563965,4118.974121,4139.487305,4150.769043,4138.974121,4122.563965,818.000000,4.000000,,,,0.000000,4.000000,4.000000,4.000000,4.000000,4.000000,4.000000,4.000000,4.000000,4.000000,4.000000,4.000000,4.000000,4.000000,4.000000,100.000000
1602006915.897172,70.000000,0.000000,4132.820313,4124.102539,4118.461426,4124.615234,4125.128418,4142.051270,4141.025879,4125.641113,4127.692383,4121.025879,4135.897461,4151.282227,4137.436035,4122.563965,759.000000,4.000000,,,,0.000000,4.000000,4.000000,4.000000,4.000000,4.000000,4.000000,4.000000,4.000000,4.000000,4.000000,4.000000,4.000000,4.000000,4.000000,100.000000
1602006915.905053,71.000000,0.000000,4141.538574,4131.794922,4126.153809,4128.205078,4141.025879,4156.410156,4151.794922,4133.333496,4130.256348,4140.512695,4135.897461,4153.846191,4141.025879,4129.743652,668.000000,4.000000,,,,0.000000,4.000000,4.000000,4.000000,4.000000,4.000000,4.000000,4.000000,4.000000,4.000000,4.000000,4.000000,4.000000,4.000000,4.000000,100.000000
1602006915.912934,72.000000,0.000000,4131.282227,4123.589844,4125.641113,4123.589844,4132.307617,4146.153809,4145.641113,4131.794922,4137.436035,4135.384766,4128.717773,4152.307617,4140.000000,4125.641113,778.000000,4.000000,,,,0.000000,4.000000,4.000000,4.000000,4.000000,4.000000,4.000000,4.000000,4.000000,4.000000,4.000000,4.000000,4.000000,4.000000,4.000000,100.000000
1602006915.920815,73.000000,0.000000,4127.692383,4124.615234,4120.000000,4125.128418,4125.641113,4121.538574,4129.230957,4129.230957,4135.384766,4119.487305,4128.205078,4151.282227,4125.641113,4116.922852,837.000000,4.000000,,,,0.000000,4.000000,4.000000,4.000000,4.000000,4.000000,4.000000,4.000000,4.000000,4.000000,4.000000,4.000000,4.000000,4.000000,4.000000,100.000000
1602006915.928796,74.000000,0.000000,4146.153809,4146.153809,4125.641113,4138.461426,4134.358887,4122.563965,4127.179688,4128.717773,4128.205078,4124.102539,4135.897461,4149.743652,4122.051270,4124.102539,872.000000,4.000000,,,,0.000000,4.000000,4.000000,4.000000,4.000000,4.000000,4.000000,4.000000,4.000000,4.000000,4.000000,4.000000,4.000000,4.000000,4.000000,100.000000
1602006915.936677,75.000000,0.000000,4160.512695,4157.436035,4130.769043,4143.589844,4130.769043,4136.410156,4135.384766,4127.692383,4125.641113,4137.948730,4136.410156,4149.743652,4136.410156,4136.922852,856.000000,4.000000,,,,0.000000,4.000000,4.000000,4.000000,4.000000,4.000000,4.000000,4.000000,4.000000,4.000000,4.000000,4.000000,4.000000,4.000000,4.000000,100.000000
1602006915.944558,76.000000,0.000000,4157.436035,4149.230957,4129.743652,4140.000000,4123.077148,4135.897461,4137.948730,4132.820313,4128.717773,4135.897461,4135.897461,4155.384766,4141.025879,4142.563965,779.000000,4.000000,,,,0.000000,4.000000,4.000000,4.000000,4.000000,4.000000,4.000000,4.000000,4.000000,4.000000,4.000000,4.000000,4.000000,4.000000,4.000000,100.000000
1602006915.952439,77.000000,0.000000,4148.717773,4141.538574,4125.641113,4138.461426,4126.666504,4133.846191,4133.333496,4136.922852,4125.128418,4122.051270,4140.000000,4155.897461,4136.922852,4137.436035,724.000000,4.000000,,,,0.000000,4.000000,4.000000,4.000000,4.000000,4.000000,4.000000,4.000000,4.000000,4.000000,4.000000,4.000000,4.000000,4.000000,4.000000,100.000000
1602006915.960320,78.000000,0.000000,4140.000000,4137.948730,4123.589844,4136.922852,4126.153809,4138.974121,4130.769043,4132.307617,4118.461426,4119.487305,4138.974121,4153.846191,4136.922852,4126.666504,872.000000,4.000000,,,,0.000000,4.000000,4.000000,4.000000,4.000000,4.000000,4.000000,4.000000,4.000000,4.000000,4.000000,4.000000,4.000000,4.000000,4.000000,100.000000
1602006915.968101,79.000000,0.000000,4135.384766,4135.384766,4122.563965,4134.871582,4120.512695,4141.025879,4129.743652,4129.230957,4125.128418,4128.205078,4133.333496,4151.282227,4131.282227,4120.512695,856.000000,4.000000,,,,0.000000,4.000000,4.000000,4.000000,4.000000,4.000000,4.000000,4.000000,4.000000,4.000000,4.000000,4.000000,4.000000,4.000000,4.000000,100.000000
1602006915.975982,80.000000,0.000000,4137.436035,4136.410156,4123.077148,4136.410156,4122.051270,4138.974121,4126.153809,4133.846191,4138.461426,4132.820313,4131.794922,4144.615234,4127.692383,4123.589844,779.000000,4.000000,,,,0.000000,4.000000,4.000000,4.000000,4.000000,4.000000,4.000000,4.000000,4.000000,4.000000,4.000000,4.000000,4.000000,4.000000,4.000000,100.000000
1602006915.983863,81.000000,0.000000,4142.051270,4140.512695,4127.692383,4137.948730,4126.666504,4139.487305,4128.717773,4135.384766,4142.563965,4137.436035,4134.871582,4140.512695,4133.846191,4127.692383,724.000000,4.000000,,,,0.000000,4.000000,4.000000,4.000000,4.000000,4.000000,4.000000,4.000000,4.000000,4.000000,4.000000,4.000000,4.000000,4.000000,4.000000,100.000000
1602006915.991744,82.000000,0.000000,4143.589844,4142.563965,4128.205078,4137.948730,4125.128418,4140.000000,4135.897461,4130.256348,4140.512695,4137.948730,4140.000000,4142.051270,4138.974121,4124.615234,872.000000,4.000000,,,,0.000000,4.000000,4.000000,4.000000,4.000000,4.000000,4.000000,4.000000,4.000000,4.000000,4.000000,4.000000,4.000000,4.000000,4.000000,100.000000
1602006915.999625,83.000000,0.000000,4139.487305,4138.974121,4124.102539,4138.461426,4121.025879,4138.974121,4136.410156,4125.641113,4135.897461,4129.743652,4137.948730,4142.051270,4136.410156,4121.538574,856.000000,4.000000,,,,0.000000,4.000000,4.000000,4.000000,4.000000,4.000000,4.000000,4.000000,4.000000,4.000000,4.000000,4.000000,4.000000,4.000000,4.000000,100.000000
1602006916.007507,84.000000,0.000000,4143.589844,4137.436035,4124.615234,4138.461426,4132.820313,4138.974121,4133.333496,4129.743652,4133.333496,4133.333496,4133.846191,4137.948730,4129.743652,4125.128418,779.000000,4.000000,,,,0.000000,4.000000,4.000000,4.000000,4.000000,4.000000,4.000000,4.000000,4.000000,4.000000,4.000000,4.000000,4.000000,4.000000,4.000000,100.000000
1602006916.015388,85.000000,0.000000,4155.384766,4140.000000,4130.256348,4138.974121,4142.563965,4141.538574,4136.410156,4137.948730,4133.846191,4139.487305,4136.410156,4136.922852,4128.205078,4128.717773,724.000000,4.000000,,,,0.000000,4.000000,4.000000,4.000000,4.000000,4.000000,4.000000,4.000000,4.000000,4.000000,4.000000,4.000000,4.000000,4.000000,4.000000,100.000000
1602006916.023269,86.000000,0.000000,4150.769043,4137.948730,4130.256348,4137.948730,4129.230957,4137.436035,4143.077148,4141.538574,4129.230957,4123.589844,4132.820313,4136.410156,4135.384766,4127.179688,872.000000,4.000000,,,,0.000000,4.000000,4.000000,4.000000,4.000000,4.000000,4.000000,4.000000,4.000000,4.000000,4.000000,4.000000,4.000000,4.000000,4.000000,100.000000
1602006916.031250,87.000000,0.000000,4140.000000,4135.384766,4126.153809,4136.922852,4117.948730,4132.307617,4142.051270,4140.512695,4120.512695,4115.897461,4126.666504,4137.948730,4137.436035,4131.282227,856.000000,4.000000,,,,0.000000,4.000000,4.000000,4.000000,4.000000,4.000000,4.000000,4.000000,4.000000,4.000000,4.000000,4.000000,4.000000,4.000000,4.000000,100.000000
1602006916.039131,88.000000,0.000000,4142.563965,4137.436035,4126.153809,4137.948730,4123.589844,4133.333496,4138.974121,4140.512695,4121.538574,4136.410156,4131.282227,4142.051270,4132.820313,4132.307617,779.000000,4.000000,,,,0.000000,4.000000,4.000000,4.000000,4.000000,4.000000,4.000000,4.000000,4.000000,4.000000,4.000000,4.000000,4.000000,4.000000,4.000000,100.000000
1602006916.047012,89.000000,0.000000,4143.077148,4138.461426,4125.128418,4138.461426,4126.666504,4131.794922,4134.358887,4141.538574,4129.743652,4146.666504,4139.487305,4140.512695,4135.384766,4129.230957,724.000000,4.000000,,,,0.000000,4.000000,4.000000,4.000000,4.000000,4.000000,4.000000,4.000000,4.000000,4.000000,4.000000,4.000000,4.000000,4.000000,4.000000,100.000000
1602006916.054894,90.000000,0.000000,4136.410156,4137.948730,4122.563965,4138.974121,4122.051270,4125.641113,4127.179688,4136.922852,4130.769043,4138.974121,4136.922852,4138.461426,4135.897461,4133.333496,872.000000,4.000000,,,,0.000000,4.000000,4.000000,4.000000,4.000000,4.000000,4.000000,4.000000,4.000000,4.000000,4.000000,4.000000,4.000000,4.000000,4.000000,100.000000
1602006916.062775,91.000000,0.000000,4135.384766,4137.436035,4122.563965,4139.487305,4121.025879,4121.025879,4118.461426,4124.615234,4125.128418,4134.358887,4134.358887,4136.922852,4128.717773,4136.922852,856.000000,4.000000,,,,0.000000,4.000000,4.000000,4.000000,4.000000,4.000000,4.000000,4.000000,4.000000,4.000000,4.000000,4.000000,4.000000,4.000000,4.000000,100.000000
1602006916.070656,92.000000,0.000000,4138.461426,4137.948730,4124.615234,4140.000000,4126.153809,4126.153809,4117.436035,4117.948730,4119.487305,4138.974121,4138.974121,4136.410156,4131.282227,4135.897461,779.000000,4.000000,,,,0.000000,4.000000,4.000000,4.000000,4.000000,4.000000,4.000000,4.000000,4.000000,4.000000,4.000000,4.000000,4.000000,4.000000,4.000000,100.000000
1602006916.078537,93.000000,0.000000,4142.051270,4140.000000,4127.179688,4139.487305,4130.256348,4136.410156,4122.563965,4121.025879,4122.051270,4140.512695,4141.538574,4145.128418,4141.025879,4142.051270,724.000000,4.000000,,,,0.000000,4.000000,4.000000,4.000000,4.000000,4.000000,4.000000,4.000000,4.000000,4.000000,4.000000,4.000000,4.000000,4.000000,4.000000,100.000000
1602006916.086418,94.000000,0.000000,4141.025879,4139.487305,4132.307617,4137.436035,4126.666504,4140.000000,4124.102539,4121.538574,4124.615234,4128.717773,4141.025879,4152.307617,4143.077148,4146.666504,872.000000,4.000000,,,,0.000000,4.000000,4.000000,4.000000,4.000000,4.000000,4.000000,4.000000,4.000000,4.000000,4.000000,4.000000,4.000000,4.000000,4.000000,100.000000
1602006916.094399,95.000000,0.000000,4136.410156,4138.461426,4136.922852,4136.922852,4123.077148,4137.948730,4125.128418,4125.641113,4122.563965,4115.897461,4140.512695,4146.153809,4135.897461,4140.512695,856.000000,4.000000,,,,0.000000,4.000000,4.000000,4.000000,4.000000,4.000000,4.000000,4.000000,4.000000,4.000000,4.000000,4.000000,4.000000,4.000000,4.000000,100.000000
1602006916.102280,96.000000,0.000000,4145.641113,4138.974121,4138.974121,4138.461426,4123.589844,4137.436035,4126.153809,4135.384766,4128.205078,4120.512695,4139.487305,4141.025879,4128.205078,4136.922852,779.000000,4.000000,,,,0.000000,4.000000,4.000000,4.000000,4.000000,4.000000,4.000000,4.000000,4.000000,4.000000,4.000000,4.000000,4.000000,4.000000,4.000000,100.000000
1602006916.110162,97.000000,0.000000,4154.871582,4138.461426,4141.025879,4139.487305,4115.897461,4131.282227,4129.230957,4141.538574,4137.436035,4133.333496,4139.487305,4143.077148,4124.102539,4131.794922,724.000000,4.000000,,,,0.000000,4.000000,4.000000,4.000000,4.000000,4.000000,4.000000,4.000000,4.000000,4.000000,4.000000,4.000000,4.000000,4.000000,4.000000,100.000000
1602006916.118043,98.000000,0.000000,4146.666504,4137.948730,4140.512695,4138.461426,4105.641113,4123.589844,4135.384766,4142.563965,4139.487305,4138.461426,4135.897461,4143.589844,4125.128418,4124.102539,872.000000,4.000000,,,,0.000000,4.000000,4.000000,4.000000,4.000000,4.000000,4.000000,4.000000,4.000000,4.000000,4.000000,4.000000,4.000000,4.000000,4.000000,100.000000
1602006916.125924,99.000000,0.000000,4136.922852,4133.333496,4133.333496,4133.846191,4106.153809,4127.179688,4139.487305,4142.563965,4130.256348,4132.820313,4127.692383,4142.563965,4121.538574,4121.025879,856.000000,4.000000,,,,0.000000,4.000000,4.000000,4.000000,4.000000,4.000000,4.000000,4.000000,4.000000,4.000000,4.000000,4.000000,4.000000,4.000000,4.000000,100.000000
1602006916.133805,100.000000,0.000000,4129.743652,4124.615234,4122.051270,4126.666504,4108.717773,4126.153809,4135.897461,4140.000000,4122.563965,4118.974121,4121.025879,4133.333496,4109.230957,4113.333496,779.000000,4.000000,,,,0.000000,4.000000,4.000000,4.000000,4.000000,4.000000,4.000000,4.000000,4.000000,4.000000,4.000000,4.000000,4.000000,4.000000,4.000000,100.000000
1602006916.141686,101.000000,0.000000,4122.563965,4118.974121,4115.897461,4121.025879,4106.666504,4117.948730,4135.897461,4135.897461,4122.051270,4110.769043,4118.461426,4123.077148,4104.615234,4106.666504,724.000000,4.000000,,,,0.000000,4.000000,4.000000,4.000000,4.000000,4.000000,4.000000,4.000000,4.000000,4.000000,4.000000,4.000000,4.000000,4.000000,4.000000,100.000000
1602006916.149567,102.000000,0.000000,4128.717773,4121.025879,4117.436035,4124.615234,4111.282227,4126.153809,4137.436035,4133.333496,4123.077148,4122.563965,4121.025879,4130.769043,4117.948730,4112.307617,872.000000,4.000000,,,,0.000000,4.000000,4.000000,4.000000,4.000000,4.000000,4.000000,4.000000,4.000000,4.000000,4.000000,4.000000,4.000000,4.000000,4.000000,100.000000
1602006916.157449,103.000000,0.000000,4141.025879,4131.794922,4123.589844,4134.871582,4122.563965,4136.410156,4128.205078,4129.743652,4122.051270,4129.743652,4130.256348,4143.589844,4130.256348,4122.563965,856.000000,4.000000,,,,0.000000,4.000000,4.000000,4.000000,4.000000,4.000000,4.000000,4.000000,4.000000,4.000000,4.000000,4.000000,4.000000,4.000000,4.000000,100.000000
1602006916.165330,104.000000,0.000000,4140.512695,4139.487305,4127.692383,4140.000000,4121.538574,4128.717773,4118.974121,4125.641113,4119.487305,4108.717773,4138.461426,4143.589844,4126.153809,4131.282227,779.000000,4.000000,,,,0.000000,4.000000,4.000000,4.000000,4.000000,4.000000,4.000000,4.000000,4.000000,4.000000,4.000000,4.000000,4.000000,4.000000,4.000000,100.000000
1602006916.173111,105.000000,0.000000,4135.897461,4130.769043,4125.641113,4136.410156,4109.743652,4119.487305,4117.436035,4122.051270,4117.436035,4098.974121,4137.948730,4134.871582,4118.461426,4134.871582,724.000000,4.000000,,,,0.000000,4.000000,4.000000,4.000000,4.000000,4.000000,4.000000,4.000000,4.000000,4.000000,4.000000,4.000000,4.000000,4.000000,4.000000,100.000000
1602006916.180992,106.000000,0.000000,4137.436035,4123.077148,4120.512695,4134.358887,4110.769043,4126.153809,4118.461426,4125.641113,4126.153809,4128.717773,4136.922852,4128.717773,4120.512695,4127.692383,872.000000,4.000000,,,,0.000000,4.000000,4.000000,4.000000,4.000000,4.000000,4.000000,4.000000,4.000000,4.000000,4.000000,4.000000,4.000000,4.000000,4.000000,100.000000
1602006916.188873,107.000000,0.000000,4140.000000,4132.307617,4121.025879,4137.436035,4121.538574,4136.410156,4125.128418,4135.384766,4139.487305,4145.641113,4136.410156,4131.282227,4125.128418,4120.512695,856.000000,4.000000,,,,0.000000,4.000000,4.000000,4.000000,4.000000,4.000000,4.000000,4.000000,4.000000,4.000000,4.000000,4.000000,4.000000,4.000000,4.000000,100.000000
1602006916.196755,108.000000,0.000000,4139.487305,4136.922852,4129.743652,4139.487305,4118.461426,4139.487305,4137.948730,4140.000000,4136.410156,4136.410156,4137.948730,4137.948730,4128.717773,4126.666504,779.000000,4.000000,,,,0.000000,4.000000,4.000000,4.000000,4.000000,4.000000,4.000000,4.000000,4.000000,4.000000,4.000000,4.000000,4.000000,4.000000,4.000000,100.000000
1602006916.204636,109.000000,0.000000,4137.948730,4124.615234,4136.410156,4134.871582,4107.692383,4136.410156,4141.025879,4136.922852,4126.153809,4134.358887,4140.000000,4140.000000,4126.153809,4134.871582,724.000000,4.000000,,,,0.000000,4.000000,4.000000,4.000000,4.000000,4.000000,4.000000,4.000000,4.000000,4.000000,4.000000,4.000000,4.000000,4.000000,4.000000,100.000000
1602006916.212517,110.000000,0.000000,4136.922852,4119.487305,4138.461426,4125.128418,4106.153809,4125.641113,4135.897461,4135.384766,4124.102539,4121.025879,4130.256348,4142.563965,4112.307617,4130.256348,872.000000,4.000000,,,,0.000000,4.000000,4.000000,4.000000,4.000000,4.000000,4.000000,4.000000,4.000000,4.000000,4.000000,4.000000,4.000000,4.000000,4.000000,100.000000
1602006916.220398,111.000000,0.000000,4137.948730,4124.615234,4137.948730,4125.128418,4109.230957,4121.025879,4134.358887,4138.461426,4124.102539,4098.461426,4128.205078,4146.153809,4104.615234,4123.589844,856.000000,4.000000,,,,0.000000,4.000000,4.000000,4.000000,4.000000,4.000000,4.000000,4.000000,4.000000,4.000000,4.000000,4.000000,4.000000,4.000000,4.000000,100.000000
1602006916.228379,112.000000,0.000000,4134.871582,4125.641113,4137.948730,4133.333496,4106.666504,4123.589844,4131.282227,4134.871582,4120.512695,4109.743652,4137.436035,4144.102539,4104.615234,4123.077148,779.000000,4.000000,,,,0.000000,4.000000,4.000000,4.000000,4.000000,4.000000,4.000000,4.000000,4.000000,4.000000,4.000000,4.000000,4.000000,4.000000,4.000000,100.000000
1602006916.236260,113.000000,0.000000,4129.743652,4122.051270,4139.487305,4133.846191,4104.615234,4123.589844,4123.077148,4124.102539,4114.358887,4124.615234,4129.743652,4138.974121,4094.871826,4123.077148,724.000000,4.000000,,,,0.000000,4.000000,4.000000,4.000000,4.000000,4.000000,4.000000,4.000000,4.000000,4.000000,4.000000,4.000000,4.000000,4.000000,4.000000,100.000000
1602006916.244241,114.000000,0.000000,4126.666504,4121.025879,4133.333496,4126.153809,4106.666504,4124.615234,4121.025879,4117.948730,4107.692383,4108.717773,4112.820313,4130.769043,4084.615479,4118.974121,872.000000,4.000000,,,,0.000000,4.000000,4.000000,4.000000,4.000000,4.000000,4.000000,4.000000,4.000000,4.000000,4.000000,4.000000,4.000000,4.000000,4.000000,100.000000
1602006916.252121,115.000000,0.000000,4129.743652,4121.538574,4126.153809,4122.563965,4109.230957,4129.230957,4123.077148,4120.512695,4105.128418,4101.538574,4117.436035,4127.692383,4087.179443,4118.974121,856.000000,4.000000,,,,0.000000,4.000000,4.000000,4.000000,4.000000,4.000000,4.000000,4.000000,4.000000,4.000000,4.000000,4.000000,4.000000,4.000000,4.000000,100.000000
1602006916.260002,116.000000,0.000000,4135.384766,4122.563965,4129.743652,4124.102539,4108.205078,4127.179688,4122.051270,4121.538574,4104.615234,4115.897461,4129.230957,4134.358887,4091.794922,4124.102539,779.000000,4.000000,,,,0.000000,4.000000,4.000000,4.000000,4.000000,4.000000,4.000000,4.000000,4.000000,4.000000,4.000000,4.000000,4.000000,4.000000,4.000000,100.000000
1602006916.267883,117.000000,0.000000,4136.410156,4124.102539,4135.897461,4126.153809,4104.615234,4121.025879,4125.641113,4123.077148,4108.717773,4123.077148,4127.179688,4137.948730,4093.846191,4128.205078,724.000000,4.000000,,,,0.000000,4.000000,4.000000,4.000000,4.000000,4.000000,4.000000,4.000000,4.000000,4.000000,4.000000,4.000000,4.000000,4.000000,4.000000,100.000000
1602006916.275864,118.000000,0.000000,4137.948730,4122.563965,4133.846191,4128.205078,4103.077148,4120.000000,4135.384766,4133.333496,4128.205078,4130.256348,4128.717773,4137.948730,4107.692383,4132.820313,872.000000,4.000000,,,,0.000000,4.000000,4.000000,4.000000,4.000000,4.000000,4.000000,4.000000,4.000000,4.000000,4.000000,4.000000,4.000000,4.000000,4.000000,100.000000
1602006916.283746,119.000000,0.000000,4138.461426,4124.102539,4133.333496,4129.230957,4106.153809,4121.538574,4137.948730,4141.538574,4141.538574,4137.948730,4138.974121,4144.102539,4123.077148,4140.000000,856.000000,4.000000,,,,0.000000,4.000000,4.000000,4.000000,4.000000,4.000000,4.000000,4.000000,4.000000,4.000000,4.000000,4.000000,4.000000,4.000000,4.000000,100.000000
1602006916.291627,120.000000,0.000000,4130.769043,4125.641113,4135.897461,4127.179688,4105.128418,4119.487305,4128.205078,4141.025879,4135.897461,4129.743652,4142.051270,4142.563965,4122.563965,4142.051270,779.000000,4.000000,,,,0.000000,4.000000,4.000000,4.000000,4.000000,4.000000,4.000000,4.000000,4.000000,4.000000,4.000000,4.000000,4.000000,4.000000,4.000000,100.000000
1602006916.299508,121.000000,0.000000,4129.230957,4125.128418,4134.871582,4125.641113,4102.563965,4118.974121,4125.641113,4138.461426,4134.358887,4129.743652,4140.512695,4137.436035,4120.512695,4137.436035,724.000000,4.000000,,,,0.000000,4.000000,4.000000,4.000000,4.000000,4.000000,4.000000,4.000000,4.000000,4.000000,4.000000,4.000000,4.000000,4.000000,4.000000,100.000000
1602006916.307389,122.000000,0.000000,4141.538574,4132.307617,4138.974121,4133.846191,4113.846191,4131.794922,4135.384766,4138.974121,4138.461426,4147.179688,4139.487305,4150.256348,4125.641113,4141.025879,872.000000,4.000000,,,,0.000000,4.000000,4.000000,4.000000,4.000000,4.000000,4.000000,4.000000,4.000000,4.000000,4.000000,4.000000,4.000000,4.000000,4.000000,100.000000
1602006916.315270,123.000000,0.000000,4140.000000,4137.436035,4138.461426,4140.000000,4123.589844,4139.487305,4138.461426,4138.461426,4130.256348,4140.512695,4135.897461,4155.897461,4120.000000,4141.538574,856.000000,4.000000,,,,0.000000,4.000000,4.000000,4.000000,4.000000,4.000000,4.000000,4.000000,4.000000,4.000000,4.000000,4.000000,4.000000,4.000000,4.000000,100.000000
1602006916.323151,124.000000,0.000000,4121.538574,4126.666504,4125.128418,4129.230957,4113.333496,4128.717773,4130.769043,4135.384766,4121.538574,4120.512695,4135.384766,4141.025879,4104.615234,4121.538574,779.000000,4.000000,,,,0.000000,4.000000,4.000000,4.000000,4.000000,4.000000,4.000000,4.000000,4.000000,4.000000,4.000000,4.000000,4.000000,4.000000,4.000000,100.000000
1602006916.331033,125.000000,0.000000,4121.025879,4120.512695,4118.974121,4122.051270,4104.615234,4125.128418,4126.153809,4130.769043,4129.743652,4122.563965,4135.897461,4137.436035,4104.615234,4110.256348,724.000000,4.000000,,,,0.000000,4.000000,4.000000,4.000000,4.000000,4.000000,4.000000,4.000000,4.000000,4.000000,4.000000,4.000000,4.000000,4.000000,4.000000,100.000000
1602006916.338914,126.000000,0.000000,4127.179688,4124.615234,4121.538574,4127.179688,4108.717773,4128.717773,4125.641113,4124.615234,4137.436035,4120.000000,4127.179688,4144.615234,4110.256348,4117.948730,872.000000,4.000000,,,,0.000000,4.000000,4.000000,4.000000,4.000000,4.000000,4.000000,4.000000,4.000000,4.000000,4.000000,4.000000,4.000000,4.000000,4.000000,100.000000
1602006916.346895,127.000000,0.000000,4119.487305,4123.077148,4120.512695,4126.666504,4109.743652,4116.922852,4121.025879,4121.538574,4130.256348,4107.179688,4116.922852,4140.000000,4102.563965,4113.333496,856.000000,4.000000,,,,0.000000,4.000000,4.000000,4.000000,4.000000,4.000000,4.000000,4.000000,4.000000,4.000000,4.000000,4.000000,4.000000,4.000000,4.000000,100.000000
1602006916.354776,128.000000,0.000000,4115.384766,4119.487305,4124.615234,4121.538574,4107.692383,4110.769043,4118.974121,4121.025879,4128.205078,4110.256348,4118.974121,4135.897461,4098.461426,4102.563965,779.000000,4.000000,,,,0.000000,4.000000,4.000000,4.000000,4.000000,4.000000,4.000000,4.000000,4.000000,4.000000,4.000000,4.000000,4.000000,4.000000,4.000000,100.000000
1602006916.362657,0.000000,0.000000,4122.563965,4119.487305,4135.897461,4122.563965,4107.692383,4122.051270,4121.025879,4123.589844,4136.410156,4112.307617,4126.153809,4147.179688,4102.563965,4112.820313,796.000000,4.000000,,,,0.000000,4.000000,4.000000,4.000000,4.000000,4.000000,4.000000,4.000000,4.000000,4.000000,4.000000,4.000000,4.000000,4.000000,4.000000,100.000000
1602006916.370538,1.000000,0.000000,4127.692383,4121.025879,4140.000000,4125.128418,4106.666504,4126.666504,4126.666504,4129.743652,4140.512695,4108.717773,4135.897461,4157.436035,4108.717773,4130.256348,785.000000,4.000000,,,,0.000000,4.000000,4.000000,4.000000,4.000000,4.000000,4.000000,4.000000,4.000000,4.000000,4.000000,4.000000,4.000000,4.000000,4.000000,100.000000
1602006916.378419,2.000000,0.000000,4125.128418,4123.077148,4134.358887,4123.589844,4108.205078,4127.692383,4131.794922,4133.333496,4141.538574,4126.666504,4143.589844,4159.487305,4117.948730,4131.794922,847.000000,4.000000,,,,0.000000,4.000000,4.000000,4.000000,4.000000,4.000000,4.000000,4.000000,4.000000,4.000000,4.000000,4.000000,4.000000,4.000000,4.000000,100.000000
1602006916.386301,3.000000,0.000000,4121.538574,4114.871582,4125.128418,4120.000000,4108.717773,4129.230957,4128.205078,4127.692383,4143.589844,4142.051270,4134.358887,4151.282227,4116.922852,4126.153809,869.000000,4.000000,,,,0.000000,4.000000,4.000000,4.000000,4.000000,4.000000,4.000000,4.000000,4.000000,4.000000,4.000000,4.000000,4.000000,4.000000,4.000000,100.000000
1602006916.394182,4.000000,0.000000,4121.538574,4108.205078,4121.538574,4119.487305,4106.153809,4124.102539,4127.179688,4126.153809,4141.025879,4130.256348,4123.589844,4142.563965,4105.128418,4119.487305,814.000000,4.000000,,,,0.000000,4.000000,4.000000,4.000000,4.000000,4.000000,4.000000,4.000000,4.000000,4.000000,4.000000,4.000000,4.000000,4.000000,4.000000,100.000000
1602006916.402063,5.000000,0.000000,4124.615234,4117.436035,4125.641113,4123.077148,4109.230957,4127.179688,4137.436035,4133.333496,4136.922852,4116.410156,4130.769043,4142.563965,4110.256348,4110.769043,818.000000,4.000000,,,,0.000000,4.000000,4.000000,4.000000,4.000000,4.000000,4.000000,4.000000,4.000000,4.000000,4.000000,4.000000,4.000000,4.000000,4.000000,100.000000
1602006916.410044,6.000000,0.000000,4122.051270,4124.615234,4127.692383,4125.128418,4114.871582,4138.974121,4136.410156,4131.794922,4134.871582,4105.641113,4137.436035,4143.589844,4124.102539,4110.769043,759.000000,4.000000,,,,0.000000,4.000000,4.000000,4.000000,4.000000,4.000000,4.000000,4.000000,4.000000,4.000000,4.000000,4.000000,4.000000,4.000000,4.000000,100.000000
1602006916.417925,7.000000,0.000000,4118.974121,4121.538574,4123.589844,4124.102539,4114.871582,4138.461426,4123.589844,4122.051270,4132.820313,4102.051270,4132.307617,4144.615234,4121.538574,4123.589844,663.000000,4.000000,,,,0.000000,4.000000,4.000000,4.000000,4.000000,4.000000,4.000000,4.000000,4.000000,4.000000,4.000000,4.000000,4.000000,4.000000,4.000000,100.000000
1602006916.425806,8.000000,0.000000,4125.641113,4123.589844,4125.128418,4124.102539,4112.820313,4128.717773,4120.512695,4120.000000,4135.384766,4114.871582,4132.307617,4153.333496,4116.410156,4128.717773,778.000000,4.000000,,,,0.000000,4.000000,4.000000,4.000000,4.000000,4.000000,4.000000,4.000000,4.000000,4.000000,4.000000,4.000000,4.000000,4.000000,4.000000,100.000000
1602006916.433786,9.000000,0.000000,4134.871582,4126.666504,4131.794922,4125.641113,4114.358887,4125.128418,4123.077148,4125.128418,4139.487305,4122.563965,4141.025879,4161.538574,4121.025879,4122.563965,837.000000,4.000000,,,,0.000000,4.000000,4.000000,4.000000,4.000000,4.000000,4.000000,4.000000,4.000000,4.000000,4.000000,4.000000,4.000000,4.000000,4.000000,100.000000
1602006916.441667,10.000000,0.000000,4138.974121,4124.615234,4136.410156,4127.179688,4112.820313,4121.025879,4120.000000,4124.102539,4138.461426,4123.077148,4140.512695,4160.000000,4123.589844,4122.563965,872.000000,4.000000,,,,0.000000,4.000000,4.000000,4.000000,4.000000,4.000000,4.000000,4.000000,4.000000,4.000000,4.000000,4.000000,4.000000,4.000000,4.000000,100.000000
1602006916.449648,11.000000,0.000000,4139.487305,4125.128418,4138.461426,4132.307617,4106.666504,4115.384766,4121.025879,4121.025879,4135.897461,4133.333496,4138.461426,4155.384766,4123.077148,4127.692383,847.000000,4.000000,,,,0.000000,4.000000,4.000000,4.000000,4.000000,4.000000,4.000000,4.000000,4.000000,4.000000,4.000000,4.000000,4.000000,4.000000,4.000000,100.000000
1602006916.457629,12.000000,0.000000,4137.948730,4127.692383,4139.487305,4137.948730,4107.692383,4125.128418,4130.769043,4129.230957,4147.179688,4144.102539,4143.077148,4158.461426,4131.282227,4133.333496,774.000000,4.000000,,,,0.000000,4.000000,4.000000,4.000000,4.000000,4.000000,4.000000,4.000000,4.000000,4.000000,4.000000,4.000000,4.000000,4.000000,4.000000,100.000000
1602006916.465510,13.000000,0.000000,4137.436035,4127.179688,4137.948730,4140.000000,4112.307617,4137.948730,4137.948730,4141.025879,4160.000000,4138.974121,4141.538574,4161.538574,4136.410156,4133.846191,724.000000,4.000000,,,,0.000000,4.000000,4.000000,4.000000,4.000000,4.000000,4.000000,4.000000,4.000000,4.000000,4.000000,4.000000,4.000000,4.000000,4.000000,100.000000
1602006916.473392,14.000000,0.000000,4139.487305,4123.589844,4134.358887,4132.820313,4108.205078,4129.230957,4137.948730,4142.051270,4150.256348,4126.153809,4137.436035,4155.897461,4131.282227,4128.205078,872.000000,4.000000,,,,0.000000,4.000000,4.000000,4.000000,4.000000,4.000000,4.000000,4.000000,4.000000,4.000000,4.000000,4.000000,4.000000,4.000000,4.000000,100.000000
1602006916.481273,15.000000,0.000000,4140.512695,4122.051270,4137.436035,4124.102539,4103.077148,4116.922852,4136.410156,4139.487305,4139.487305,4125.128418,4138.974121,4156.922852,4132.820313,4131.794922,847.000000,4.000000,,,,0.000000,4.000000,4.000000,4.000000,4.000000,4.000000,4.000000,4.000000,4.000000,4.000000,4.000000,4.000000,4.000000,4.000000,4.000000,100.000000
1602006916.489154,16.000000,0.000000,4138.461426,4123.589844,4139.487305,4122.563965,4109.230957,4129.743652,4138.974121,4142.563965,4151.794922,4136.922852,4140.512695,4170.256348,4139.487305,4143.077148,0.000000,4.000000,,,,0.000000,4.000000,4.000000,4.000000,4.000000,4.000000,4.000000,4.000000,4.000000,4.000000,4.000000,4.000000,4.000000,4.000000,4.000000,100.000000
1602006916.497035,17.000000,0.000000,4135.897461,4123.077148,4130.256348,4125.128418,4118.461426,4142.051270,4137.948730,4138.461426,4154.358887,4136.922852,4138.461426,4168.717773,4136.922852,4136.922852,0.000000,4.000000,,,,0.000000,4.000000,4.000000,4.000000,4.000000,4.000000,4.000000,4.000000,4.000000,4.000000,4.000000,4.000000,4.000000,4.000000,4.000000,100.000000
1602006916.504916,18.000000,0.000000,4135.384766,4125.641113,4120.512695,4130.769043,4122.051270,4137.948730,4130.769043,4125.128418,4136.410156,4124.102539,4135.897461,4154.871582,4130.769043,4121.025879,0.000000,4.000000,,,,0.000000,4.000000,4.000000,4.000000,4.000000,4.000000,4.000000,4.000000,4.000000,4.000000,4.000000,4.000000,4.000000,4.000000,4.000000,100.000000
1602006916.512797,19.000000,0.000000,4139.487305,4129.743652,4123.077148,4132.820313,4126.153809,4137.948730,4124.102539,4120.512695,4131.282227,4121.538574,4129.743652,4151.794922,4126.666504,4117.436035,0.000000,4.000000,,,,0.000000,4.000000,4.000000,4.000000,4.000000,4.000000,4.000000,4.000000,4.000000,4.000000,4.000000,4.000000,4.000000,4.000000,4.000000,100.000000
1602006916.520679,20.000000,0.000000,4137.436035,4129.230957,4125.128418,4128.717773,4123.077148,4136.922852,4121.538574,4120.512695,4135.897461,4123.077148,4118.461426,4150.769043,4120.000000,4119.487305,0.000000,4.000000,,,,0.000000,4.000000,4.000000,4.000000,4.000000,4.000000,4.000000,4.000000,4.000000,4.000000,4.000000,4.000000,4.000000,4.000000,4.000000,100.000000
1602006916.528660,21.000000,0.000000,4131.794922,4130.256348,4122.051270,4129.230957,4114.358887,4124.102539,4119.487305,4118.461426,4134.871582,4127.692383,4124.102539,4148.205078,4123.589844,4124.615234,0.000000,4.000000,,,,0.000000,4.000000,4.000000,4.000000,4.000000,4.000000,4.000000,4.000000,4.000000,4.000000,4.000000,4.000000,4.000000,4.000000,4.000000,100.000000
1602006916.536541,22.000000,0.000000,4142.563965,4140.000000,4129.230957,4138.461426,4117.436035,4116.410156,4122.563965,4129.743652,4144.615234,4143.589844,4145.641113,4160.512695,4144.102539,4136.922852,0.000000,4.000000,,,,0.000000,4.000000,4.000000,4.000000,4.000000,4.000000,4.000000,4.000000,4.000000,4.000000,4.000000,4.000000,4.000000,4.000000,4.000000,100.000000
1602006916.544422,23.000000,0.000000,4158.974121,4150.769043,4144.102539,4143.589844,4122.563965,4129.743652,4134.871582,4148.205078,4166.153809,4154.358887,4156.922852,4174.358887,4161.538574,4148.717773,0.000000,4.000000,,,,0.000000,4.000000,4.000000,4.000000,4.000000,4.000000,4.000000,4.000000,4.000000,4.000000,4.000000,4.000000,4.000000,4.000000,4.000000,100.000000
1602006916.552303,24.000000,0.000000,4152.820313,4146.153809,4144.102539,4140.512695,4115.897461,4136.410156,4138.974121,4148.205078,4168.717773,4156.410156,4153.846191,4169.230957,4157.948730,4144.615234,0.000000,4.000000,,,,0.000000,4.000000,4.000000,4.000000,4.000000,4.000000,4.000000,4.000000,4.000000,4.000000,4.000000,4.000000,4.000000,4.000000,4.000000,100.000000
1602006916.560184,25.000000,0.000000,4134.871582,4133.846191,4129.743652,4134.358887,4107.692383,4125.641113,4128.717773,4138.461426,4155.384766,4155.897461,4146.666504,4157.948730,4143.077148,4131.794922,0.000000,4.000000,,,,0.000000,4.000000,4.000000,4.000000,4.000000,4.000000,4.000000,4.000000,4.000000,4.000000,4.000000,4.000000,4.000000,4.000000,4.000000,100.000000
1602006916.568065,26.000000,0.000000,4134.358887,4131.794922,4124.102539,4131.794922,4108.717773,4125.641113,4128.205078,4137.948730,4152.307617,4150.256348,4142.051270,4158.974121,4137.948730,4127.179688,0.000000,4.000000,,,,0.000000,4.000000,4.000000,4.000000,4.000000,4.000000,4.000000,4.000000,4.000000,4.000000,4.000000,4.000000,4.000000,4.000000,4.000000,100.000000
1602006916.575947,27.000000,0.000000,4140.000000,4131.794922,4125.128418,4134.358887,4107.692383,4137.436035,4135.384766,4136.922852,4151.282227,4145.641113,4135.897461,4158.974121,4138.974121,4126.153809,0.000000,4.000000,,,,0.000000,4.000000,4.000000,4.000000,4.000000,4.000000,4.000000,4.000000,4.000000,4.000000,4.000000,4.000000,4.000000,4.000000,4.000000,100.000000
1602006916.583828,28.000000,0.000000,4136.410156,4129.230957,4121.025879,4133.846191,4107.179688,4138.974121,4136.410156,4135.384766,4147.179688,4148.717773,4132.820313,4149.230957,4138.974121,4126.666504,0.000000,4.000000,,,,0.000000,4.000000,4.000000,4.000000,4.000000,4.000000,4.000000,4.000000,4.000000,4.000000,4.000000,4.000000,4.000000,4.000000,4.000000,100.000000
1602006916.591709,29.000000,0.000000,4142.051270,4133.846191,4124.102539,4134.358887,4115.897461,4137.948730,4138.461426,4146.153809,4150.769043,4157.436035,4142.563965,4154.358887,4148.717773,4140.000000,0.000000,4.000000,,,,0.000000,4.000000,4.000000,4.000000,4.000000,4.000000,4.000000,4.000000,4.000000,4.000000,4.000000,4.000000,4.000000,4.000000,4.000000,100.000000
1602006916.599490,30.000000,0.000000,4153.333496,4142.563965,4136.922852,4141.025879,4120.512695,4141.538574,4143.589844,4157.436035,4155.897461,4165.128418,4157.436035,4174.358887,4163.077148,4156.922852,0.000000,4.000000,,,,0.000000,4.000000,4.000000,4.000000,4.000000,4.000000,4.000000,4.000000,4.000000,4.000000,4.000000,4.000000,4.000000,4.000000,4.000000,100.000000
1602006916.607371,31.000000,0.000000,4145.641113,4141.025879,4142.051270,4141.538574,4112.820313,4132.820313,4142.563965,4157.436035,4150.256348,4156.922852,4158.461426,4175.897461,4165.128418,4150.256348,0.000000,4.000000,,,,0.000000,4.000000,4.000000,4.000000,4.000000,4.000000,4.000000,4.000000,4.000000,4.000000,4.000000,4.000000,4.000000,4.000000,4.000000,100.000000
1602006916.615253,32.000000,0.000000,4134.358887,4134.358887,4132.307617,4134.871582,4105.128418,4119.487305,4134.358887,4150.256348,4143.077148,4144.102539,4141.025879,4158.461426,4151.794922,4137.436035,0.000000,4.000000,,,,0.000000,4.000000,4.000000,4.000000,4.000000,4.000000,4.000000,4.000000,4.000000,4.000000,4.000000,4.000000,4.000000,4.000000,4.000000,100.000000
1602006916.623134,33.000000,0.000000,4138.974121,4131.794922,4127.179688,4133.333496,4105.128418,4119.487305,4126.153809,4136.922852,4134.358887,4139.487305,4133.846191,4150.769043,4139.487305,4138.461426,0.000000,4.000000,,,,0.000000,4.000000,4.000000,4.000000,4.000000,4.000000,4.000000,4.000000,4.000000,4.000000,4.000000,4.000000,4.000000,4.000000,4.000000,100.000000
1602006916.631015,34.000000,0.000000,4136.922852,4133.846191,4127.692383,4136.922852,4107.179688,4123.589844,4123.077148,4123.077148,4123.077148,4130.769043,4133.333496,4154.358887,4137.948730,4132.307617,0.000000,4.000000,,,,0.000000,4.000000,4.000000,4.000000,4.000000,4.000000,4.000000,4.000000,4.000000,4.000000,4.000000,4.000000,4.000000,4.000000,4.000000,100.000000
1602006916.638896,35.000000,0.000000,4125.641113,4137.948730,4129.743652,4138.461426,4104.102539,4125.128418,4126.153809,4119.487305,4121.025879,4125.128418,4124.102539,4149.743652,4137.436035,4120.000000,0.000000,4.000000,,,,0.000000,4.000000,4.000000,4.000000,4.000000,4.000000,4.000000,4.000000,4.000000,4.000000,4.000000,4.000000,4.000000,4.000000,4.000000,100.000000
1602006916.646777,36.000000,0.000000,4130.769043,4136.922852,4134.871582,4138.974121,4102.563965,4129.743652,4129.230957,4120.512695,4122.051270,4137.948730,4123.077148,4143.077148,4134.871582,4117.436035,0.000000,4.000000,,,,0.000000,4.000000,4.000000,4.000000,4.000000,4.000000,4.000000,4.000000,4.000000,4.000000,4.000000,4.000000,4.000000,4.000000,4.000000,100.000000
1602006916.654658,37.000000,0.000000,4137.948730,4135.384766,4138.461426,4139.487305,4106.153809,4131.794922,4126.666504,4118.974121,4120.512695,4145.128418,4134.358887,4146.666504,4135.384766,4126.153809,0.000000,4.000000,,,,0.000000,4.000000,4.000000,4.000000,4.000000,4.000000,4.000000,4.000000,4.000000,4.000000,4.000000,4.000000,4.000000,4.000000,4.000000,100.000000
1602006916.662440,38.000000,0.000000,4136.410156,4135.384766,4136.922852,4136.922852,4107.179688,4122.051270,4123.077148,4117.948730,4124.102539,4137.436035,4138.461426,4153.846191,4137.436035,4135.897461,0.000000,4.000000,,,,0.000000,4.000000,4.000000,4.000000,4.000000,4.000000,4.000000,4.000000,4.000000,4.000000,4.000000,4.000000,4.000000,4.000000,4.000000,100.000000
1602006916.670321,39.000000,0.000000,4140.000000,4136.922852,4136.410156,4136.410156,4111.282227,4122.563965,4128.717773,4125.641113,4136.922852,4139.487305,4136.410156,4154.871582,4141.538574,4142.051270,0.000000,4.000000,,,,0.000000,4.000000,4.000000,4.000000,4.000000,4.000000,4.000000,4.000000,4.000000,4.000000,4.000000,4.000000,4.000000,4.000000,4.000000,100.000000
1602006916.678202,40.000000,0.000000,4141.025879,4140.512695,4135.384766,4139.487305,4121.025879,4135.384766,4137.436035,4138.461426,4149.743652,4151.282227,4139.487305,4154.871582,4145.641113,4143.077148,0.000000,4.000000,,,,0.000000,4.000000,4.000000,4.000000,4.000000,4.000000,4.000000,4.000000,4.000000,4.000000,4.000000,4.000000,4.000000,4.000000,4.000000,100.000000
1602006916.686083,41.000000,0.000000,4128.205078,4135.384766,4127.692383,4134.358887,4118.461426,4135.384766,4136.410156,4142.051270,4152.307617,4149.743652,4135.384766,4150.256348,4142.563965,4134.358887,0.000000,4.000000,,,,0.000000,4.000000,4.000000,4.000000,4.000000,4.000000,4.000000,4.000000,4.000000,4.000000,4.000000,4.000000,4.000000,4.000000,4.000000,100.000000
1602006916.693964,42.000000,0.000000,4124.102539,4125.641113,4118.974121,4127.692383,4111.794922,4131.282227,4134.358887,4141.025879,4154.871582,4129.230957,4127.179688,4138.974121,4135.384766,4126.153809,0.000000,4.000000,,,,0.000000,4.000000,4.000000,4.000000,4.000000,4.000000,4.000000,4.000000,4.000000,4.000000,4.000000,4.000000,4.000000,4.000000,4.000000,100.000000
1602006916.701845,43.000000,0.000000,4125.641113,4122.051270,4108.717773,4127.692383,4117.948730,4134.358887,4137.948730,4143.589844,4157.436035,4116.922852,4116.410156,4134.358887,4129.230957,4119.487305,0.000000,4.000000,,,,0.000000,4.000000,4.000000,4.000000,4.000000,4.000000,4.000000,4.000000,4.000000,4.000000,4.000000,4.000000,4.000000,4.000000,4.000000,100.000000
1602006916.709727,44.000000,0.000000,4113.333496,4121.538574,4097.948730,4125.128418,4116.922852,4131.794922,4133.846191,4137.436035,4143.589844,4125.641113,4104.102539,4136.410156,4118.461426,4108.717773,0.000000,4.000000,,,,0.000000,4.000000,4.000000,4.000000,4.000000,4.000000,4.000000,4.000000,4.000000,4.000000,4.000000,4.000000,4.000000,4.000000,4.000000,100.000000
1602006916.717608,45.000000,0.000000,4106.666504,4114.358887,4096.922852,4121.025879,4104.615234,4125.128418,4126.666504,4122.563965,4119.487305,4128.205078,4106.666504,4134.358887,4108.717773,4101.025879,0.000000,4.000000,,,,0.000000,4.000000,4.000000,4.000000,4.000000,4.000000,4.000000,4.000000,4.000000,4.000000,4.000000,4.000000,4.000000,4.000000,4.000000,100.000000
1602006916.725489,46.000000,0.000000,4117.436035,4110.256348,4104.102539,4122.051270,4103.077148,4125.128418,4120.000000,4116.410156,4119.487305,4122.563965,4119.487305,4131.794922,4114.358887,4108.205078,0.000000,4.000000,,,,0.000000,4.000000,4.000000,4.000000,4.000000,4.000000,4.000000,4.000000,4.000000,4.000000,4.000000,4.000000,4.000000,4.000000,4.000000,100.000000
1602006916.733270,47.000000,0.000000,4129.743652,4116.410156,4112.307617,4124.615234,4110.256348,4122.051270,4110.769043,4118.461426,4135.897461,4129.743652,4128.205078,4137.436035,4130.256348,4119.487305,0.000000,4.000000,,,,0.000000,4.000000,4.000000,4.000000,4.000000,4.000000,4.000000,4.000000,4.000000,4.000000,4.000000,4.000000,4.000000,4.000000,4.000000,100.000000
1602006916.741151,48.000000,0.000000,4138.461426,4128.717773,4120.512695,4130.769043,4107.692383,4120.000000,4112.307617,4124.102539,4135.897461,4146.153809,4136.410156,4149.230957,4142.563965,4130.769043,0.000000,4.000000,,,,0.000000,4.000000,4.000000,4.000000,4.000000,4.000000,4.000000,4.000000,4.000000,4.000000,4.000000,4.000000,4.000000,4.000000,4.000000,100.000000
1602006916.749033,49.000000,0.000000,4150.256348,4139.487305,4128.717773,4140.000000,4106.666504,4128.205078,4121.025879,4133.846191,4138.461426,4154.871582,4144.102539,4158.461426,4148.717773,4151.794922,0.000000,4.000000,,,,0.000000,4.000000,4.000000,4.000000,4.000000,4.000000,4.000000,4.000000,4.000000,4.000000,4.000000,4.000000,4.000000,4.000000,4.000000,100.000000
1602006916.756914,50.000000,0.000000,4156.922852,4142.051270,4135.897461,4141.025879,4116.410156,4133.333496,4124.615234,4138.974121,4153.333496,4152.820313,4143.589844,4162.051270,4152.820313,4162.563965,0.000000,4.000000,,,,0.000000,4.000000,4.000000,4.000000,4.000000,4.000000,4.000000,4.000000,4.000000,4.000000,4.000000,4.000000,4.000000,4.000000,4.000000,100.000000
1602006916.764795,51.000000,0.000000,4157.948730,4142.563965,4140.512695,4140.512695,4126.666504,4142.051270,4130.256348,4140.512695,4161.025879,4153.846191,4142.563965,4167.179688,4159.487305,4156.922852,0.000000,4.000000,,,,0.000000,4.000000,4.000000,4.000000,4.000000,4.000000,4.000000,4.000000,4.000000,4.000000,4.000000,4.000000,4.000000,4.000000,4.000000,100.000000
1602006916.772776,52.000000,0.000000,4158.461426,4145.128418,4138.461426,4141.025879,4125.128418,4155.897461,4138.461426,4146.153809,4152.820313,4158.974121,4145.128418,4175.384766,4158.461426,4154.871582,0.000000,4.000000,,,,0.000000,4.000000,4.000000,4.000000,4.000000,4.000000,4.000000,4.000000,4.000000,4.000000,4.000000,4.000000,4.000000,4.000000,4.000000,100.000000
1602006916.780657,53.000000,0.000000,4150.256348,4141.025879,4131.794922,4138.974121,4114.871582,4152.307617,4136.922852,4146.153809,4139.487305,4153.333496,4143.589844,4170.769043,4144.615234,4150.769043,0.000000,4.000000,,,,0.000000,4.000000,4.000000,4.000000,4.000000,4.000000,4.000000,4.000000,4.000000,4.000000,4.000000,4.000000,4.000000,4.000000,4.000000,100.000000
1602006916.788538,54.000000,0.000000,4138.461426,4129.230957,4132.307617,4135.384766,4107.179688,4136.410156,4134.358887,4136.922852,4128.717773,4135.897461,4138.461426,4156.922852,4134.871582,4140.000000,0.000000,4.000000,,,,0.000000,4.000000,4.000000,4.000000,4.000000,4.000000,4.000000,4.000000,4.000000,4.000000,4.000000,4.000000,4.000000,4.000000,4.000000,100.000000
1602006916.796419,55.000000,0.000000,4136.410156,4123.589844,4136.922852,4131.282227,4106.666504,4137.436035,4136.922852,4133.846191,4118.974121,4129.230957,4134.871582,4151.794922,4134.358887,4136.410156,0.000000,4.000000,,,,0.000000,4.000000,4.000000,4.000000,4.000000,4.000000,4.000000,4.000000,4.000000,4.000000,4.000000,4.000000,4.000000,4.000000,4.000000,100.000000
1602006916.804301,56.000000,0.000000,4138.974121,4124.615234,4140.512695,4128.717773,4107.692383,4145.641113,4138.974121,4135.384766,4108.717773,4135.384766,4135.384766,4155.897461,4131.794922,4138.974121,0.000000,4.000000,,,,0.000000,4.000000,4.000000,4.000000,4.000000,4.000000,4.000000,4.000000,4.000000,4.000000,4.000000,4.000000,4.000000,4.000000,4.000000,100.000000
1602006916.812182,57.000000,0.000000,4137.948730,4124.102539,4138.974121,4130.256348,4105.128418,4131.794922,4136.410156,4123.589844,4103.589844,4134.871582,4135.384766,4162.563965,4131.282227,4137.436035,0.000000,4.000000,,,,0.000000,4.000000,4.000000,4.000000,4.000000,4.000000,4.000000,4.000000,4.000000,4.000000,4.000000,4.000000,4.000000,4.000000,4.000000,100.000000
1602006916.820063,58.000000,0.000000,4143.589844,4123.589844,4138.974121,4133.333496,4104.102539,4117.948730,4128.717773,4110.769043,4109.743652,4120.000000,4141.538574,4167.179688,4139.487305,4140.512695,0.000000,4.000000,,,,0.000000,4.000000,4.000000,4.000000,4.000000,4.000000,4.000000,4.000000,4.000000,4.000000,4.000000,4.000000,4.000000,4.000000,4.000000,100.000000
1602006916.827944,59.000000,0.000000,4153.846191,4129.230957,4146.666504,4135.897461,4104.102539,4122.051270,4122.051270,4112.307617,4111.282227,4109.743652,4147.179688,4169.743652,4143.077148,4148.717773,0.000000,4.000000,,,,0.000000,4.000000,4.000000,4.000000,4.000000,4.000000,4.000000,4.000000,4.000000,4.000000,4.000000,4.000000,4.000000,4.000000,4.000000,100.000000
1602006916.835825,60.000000,0.000000,4153.846191,4134.871582,4152.820313,4136.922852,4098.461426,4124.102539,4118.461426,4117.948730,4108.205078,4118.461426,4141.538574,4172.820313,4138.461426,4150.769043,0.000000,4.000000,,,,0.000000,4.000000,4.000000,4.000000,4.000000,4.000000,4.000000,4.000000,4.000000,4.000000,4.000000,4.000000,4.000000,4.000000,4.000000,100.000000
1602006916.843806,61.000000,0.000000,4156.922852,4135.897461,4153.846191,4137.948730,4090.256348,4118.974121,4119.487305,4126.666504,4124.615234,4136.410156,4140.000000,4183.077148,4142.051270,4161.025879,0.000000,4.000000,,,,0.000000,4.000000,4.000000,4.000000,4.000000,4.000000,4.000000,4.000000,4.000000,4.000000,4.000000,4.000000,4.000000,4.000000,4.000000,100.000000
1602006916.851687,62.000000,0.000000,4169.230957,4137.948730,4155.897461,4144.615234,4091.281982,4119.487305,4125.641113,4138.974121,4150.769043,4149.230957,4151.282227,4186.153809,4154.871582,4173.846191,0.000000,4.000000,,,,0.000000,4.000000,4.000000,4.000000,4.000000,4.000000,4.000000,4.000000,4.000000,4.000000,4.000000,4.000000,4.000000,4.000000,4.000000,100.000000
1602006916.859569,63.000000,0.000000,4170.769043,4141.538574,4160.000000,4149.743652,4100.000000,4126.153809,4127.692383,4142.051270,4156.410156,4154.358887,4155.384766,4169.743652,4158.974121,4164.615234,0.000000,4.000000,,,,0.000000,4.000000,4.000000,4.000000,4.000000,4.000000,4.000000,4.000000,4.000000,4.000000,4.000000,4.000000,4.000000,4.000000,4.000000,100.000000
1602006916.867450,64.000000,0.000000,4161.025879,4139.487305,4152.820313,4143.589844,4104.615234,4127.692383,4123.589844,4138.974121,4147.179688,4155.897461,4145.641113,4155.384766,4147.692383,4150.769043,796.000000,4.000000,,,,0.000000,4.000000,4.000000,4.000000,4.000000,4.000000,4.000000,4.000000,4.000000,4.000000,4.000000,4.000000,4.000000,4.000000,4.000000,100.000000
1602006916.875331,65.000000,0.000000,4156.410156,4135.897461,4139.487305,4138.974121,4104.615234,4124.102539,4123.589844,4139.487305,4142.051270,4154.871582,4139.487305,4154.871582,4137.948730,4156.922852,785.000000,4.000000,,,,0.000000,4.000000,4.000000,4.000000,4.000000,4.000000,4.000000,4.000000,4.000000,4.000000,4.000000,4.000000,4.000000,4.000000,4.000000,100.000000
1602006916.883212,66.000000,0.000000,4149.230957,4136.410156,4127.692383,4139.487305,4105.641113,4119.487305,4124.102539,4133.846191,4134.871582,4148.205078,4140.000000,4153.333496,4136.410156,4156.922852,847.000000,4.000000,,,,0.000000,4.000000,4.000000,4.000000,4.000000,4.000000,4.000000,4.000000,4.000000,4.000000,4.000000,4.000000,4.000000,4.000000,4.000000,100.000000
1602006916.891093,67.000000,0.000000,4138.461426,4136.410156,4121.538574,4137.948730,4108.717773,4121.538574,4124.102539,4123.077148,4120.512695,4127.692383,4140.512695,4148.717773,4133.333496,4141.538574,869.000000,4.000000,,,,0.000000,4.000000,4.000000,4.000000,4.000000,4.000000,4.000000,4.000000,4.000000,4.000000,4.000000,4.000000,4.000000,4.000000,4.000000,100.000000
1602006916.898875,68.000000,0.000000,4143.589844,4135.384766,4129.230957,4136.410156,4108.717773,4131.282227,4132.820313,4121.025879,4108.205078,4109.230957,4137.436035,4150.256348,4126.666504,4138.974121,814.000000,4.000000,,,,0.000000,4.000000,4.000000,4.000000,4.000000,4.000000,4.000000,4.000000,4.000000,4.000000,4.000000,4.000000,4.000000,4.000000,4.000000,100.000000
1602006916.906756,69.000000,0.000000,4154.358887,4132.307617,4140.512695,4136.922852,4109.230957,4136.922852,4136.410156,4121.538574,4105.641113,4114.871582,4136.410156,4153.846191,4123.077148,4144.102539,818.000000,4.000000,,,,0.000000,4.000000,4.000000,4.000000,4.000000,4.000000,4.000000,4.000000,4.000000,4.000000,4.000000,4.000000,4.000000,4.000000,4.000000,100.000000
1602006916.914637,70.000000,0.000000,4154.871582,4129.230957,4147.179688,4136.410156,4108.717773,4136.410156,4127.692383,4121.025879,4107.179688,4122.051270,4140.512695,4154.358887,4123.589844,4141.025879,759.000000,4.000000,,,,0.000000,4.000000,4.000000,4.000000,4.000000,4.000000,4.000000,4.000000,4.000000,4.000000,4.000000,4.000000,4.000000,4.000000,4.000000,100.000000
1602006916.922518,71.000000,0.000000,4151.794922,4127.179688,4151.282227,4137.436035,4103.077148,4132.307617,4122.051270,4122.563965,4104.615234,4126.153809,4136.922852,4153.846191,4123.077148,4140.000000,659.000000,4.000000,,,,0.000000,4.000000,4.000000,4.000000,4.000000,4.000000,4.000000,4.000000,4.000000,4.000000,4.000000,4.000000,4.000000,4.000000,4.000000,100.000000
1602006916.930399,72.000000,0.000000,4152.820313,4128.205078,4149.230957,4138.461426,4096.410156,4126.666504,4123.589844,4121.538574,4105.128418,4136.410156,4129.743652,4154.358887,4128.717773,4145.641113,778.000000,4.000000,,,,0.000000,4.000000,4.000000,4.000000,4.000000,4.000000,4.000000,4.000000,4.000000,4.000000,4.000000,4.000000,4.000000,4.000000,4.000000,100.000000
1602006916.938280,73.000000,0.000000,4154.358887,4130.256348,4143.077148,4138.461426,4096.922852,4124.615234,4123.077148,4123.589844,4116.410156,4143.077148,4134.871582,4156.922852,4137.948730,4144.102539,837.000000,4.000000,,,,0.000000,4.000000,4.000000,4.000000,4.000000,4.000000,4.000000,4.000000,4.000000,4.000000,4.000000,4.000000,4.000000,4.000000,4.000000,100.000000
1602006916.946162,74.000000,0.000000,4149.230957,4129.230957,4143.077148,4138.461426,4096.922852,4125.128418,4124.615234,4134.358887,4123.077148,4140.512695,4144.615234,4160.000000,4140.000000,4145.641113,872.000000,4.000000,,,,0.000000,4.000000,4.000000,4.000000,4.000000,4.000000,4.000000,4.000000,4.000000,4.000000,4.000000,4.000000,4.000000,4.000000,4.000000,100.000000
1602006916.954043,75.000000,0.000000,4139.487305,4124.102539,4142.051270,4128.717773,4089.743652,4117.436035,4131.794922,4140.512695,4123.077148,4135.384766,4142.563965,4154.871582,4133.846191,4152.820313,846.000000,4.000000,,,,0.000000,4.000000,4.000000,4.000000,4.000000,4.000000,4.000000,4.000000,4.000000,4.000000,4.000000,4.000000,4.000000,4.000000,4.000000,100.000000
1602006916.961924,76.000000,0.000000,4135.384766,4121.025879,4130.769043,4123.077148,4093.846191,4114.358887,4138.974121,4141.538574,4127.179688,4131.794922,4138.461426,4144.615234,4124.102539,4146.666504,771.000000,4.000000,,,,0.000000,4.000000,4.000000,4.000000,4.000000,4.000000,4.000000,4.000000,4.000000,4.000000,4.000000,4.000000,4.000000,4.000000,4.000000,100.000000
1602006916.969705,77.000000,0.000000,4136.922852,4123.589844,4125.128418,4131.794922,4109.743652,4129.230957,4144.615234,4144.102539,4129.230957,4133.333496,4140.000000,4139.487305,4123.077148,4136.410156,724.000000,4.000000,,,,0.000000,4.000000,4.000000,4.000000,4.000000,4.000000,4.000000,4.000000,4.000000,4.000000,4.000000,4.000000,4.000000,4.000000,4.000000,100.000000
1602006916.977586,78.000000,0.000000,4137.948730,4128.717773,4127.179688,4137.436035,4111.282227,4141.538574,4145.128418,4146.153809,4126.153809,4138.461426,4142.563965,4146.666504,4134.871582,4140.512695,872.000000,4.000000,,,,0.000000,4.000000,4.000000,4.000000,4.000000,4.000000,4.000000,4.000000,4.000000,4.000000,4.000000,4.000000,4.000000,4.000000,4.000000,100.000000
1602006916.985467,79.000000,0.000000,4137.948730,4130.769043,4128.717773,4130.769043,4105.641113,4138.974121,4143.077148,4142.563965,4122.051270,4132.820313,4144.615234,4152.307617,4138.974121,4147.692383,846.000000,4.000000,,,,0.000000,4.000000,4.000000,4.000000,4.000000,4.000000,4.000000,4.000000,4.000000,4.000000,4.000000,4.000000,4.000000,4.000000,4.000000,100.000000
1602006916.993348,80.000000,0.000000,4131.282227,4125.128418,4125.641113,4122.563965,4106.153809,4137.948730,4142.051270,4131.282227,4113.333496,4123.589844,4135.897461,4144.615234,4124.102539,4142.051270,771.000000,4.000000,,,,0.000000,4.000000,4.000000,4.000000,4.000000,4.000000,4.000000,4.000000,4.000000,4.000000,4.000000,4.000000,4.000000,4.000000,4.000000,100.000000
1602006917.001329,81.000000,0.000000,4125.128418,4120.512695,4117.948730,4124.102539,4107.179688,4138.461426,4141.025879,4117.436035,4100.000000,4124.615234,4123.077148,4132.307617,4116.922852,4130.256348,724.000000,4.000000,,,,0.000000,4.000000,4.000000,4.000000,4.000000,4.000000,4.000000,4.000000,4.000000,4.000000,4.000000,4.000000,4.000000,4.000000,4.000000,100.000000
1602006917.009210,82.000000,0.000000,4134.871582,4129.743652,4121.538574,4134.358887,4110.256348,4135.384766,4134.358887,4108.205078,4084.102539,4126.153809,4129.230957,4135.384766,4130.769043,4134.358887,872.000000,4.000000,,,,0.000000,4.000000,4.000000,4.000000,4.000000,4.000000,4.000000,4.000000,4.000000,4.000000,4.000000,4.000000,4.000000,4.000000,4.000000,100.000000
1602006917.017091,83.000000,0.000000,4146.666504,4142.563965,4136.922852,4143.077148,4115.384766,4139.487305,4126.153809,4104.102539,4071.794922,4122.051270,4142.051270,4150.256348,4141.025879,4150.256348,846.000000,4.000000,,,,0.000000,4.000000,4.000000,4.000000,4.000000,4.000000,4.000000,4.000000,4.000000,4.000000,4.000000,4.000000,4.000000,4.000000,4.000000,100.000000
1602006917.024972,84.000000,0.000000,4142.563965,4141.538574,4138.461426,4140.000000,4110.769043,4137.436035,4120.000000,4101.538574,4073.333252,4120.000000,4134.871582,4151.794922,4131.794922,4147.179688,771.000000,4.000000,,,,0.000000,4.000000,4.000000,4.000000,4.000000,4.000000,4.000000,4.000000,4.000000,4.000000,4.000000,4.000000,4.000000,4.000000,4.000000,100.000000
1602006917.032853,85.000000,0.000000,4136.410156,4134.358887,4130.256348,4134.871582,4104.615234,4124.615234,4118.974121,4111.794922,4094.358887,4126.666504,4127.179688,4138.461426,4126.153809,4131.794922,724.000000,4.000000,,,,0.000000,4.000000,4.000000,4.000000,4.000000,4.000000,4.000000,4.000000,4.000000,4.000000,4.000000,4.000000,4.000000,4.000000,4.000000,100.000000
1602006917.040735,86.000000,0.000000,4138.461426,4135.384766,4135.384766,4136.922852,4106.153809,4126.153809,4127.692383,4142.051270,4122.051270,4140.000000,4135.384766,4134.871582,4136.410156,4132.307617,872.000000,4.000000,,,,0.000000,4.000000,4.000000,4.000000,4.000000,4.000000,4.000000,4.000000,4.000000,4.000000,4.000000,4.000000,4.000000,4.000000,4.000000,100.000000
1602006917.048616,87.000000,0.000000,4140.512695,4138.974121,4141.538574,4136.922852,4108.717773,4138.974121,4138.974121,4170.256348,4139.487305,4152.307617,4139.487305,4144.615234,4140.512695,4143.077148,846.000000,4.000000,,,,0.000000,4.000000,4.000000,4.000000,4.000000,4.000000,4.000000,4.000000,4.000000,4.000000,4.000000,4.000000,4.000000,4.000000,4.000000,100.000000
1602006917.056397,88.000000,0.000000,4139.487305,4137.948730,4138.974121,4136.922852,4108.717773,4141.538574,4143.589844,4173.333496,4146.153809,4157.948730,4135.384766,4145.128418,4132.307617,4143.589844,771.000000,4.000000,,,,0.000000,4.000000,4.000000,4.000000,4.000000,4.000000,4.000000,4.000000,4.000000,4.000000,4.000000,4.000000,4.000000,4.000000,4.000000,100.000000
1602006917.064278,89.000000,0.000000,4137.436035,4137.436035,4140.512695,4137.436035,4111.794922,4141.025879,4143.589844,4162.051270,4146.153809,4154.871582,4132.820313,4138.461426,4130.769043,4131.794922,724.000000,4.000000,,,,0.000000,4.000000,4.000000,4.000000,4.000000,4.000000,4.000000,4.000000,4.000000,4.000000,4.000000,4.000000,4.000000,4.000000,4.000000,100.000000
1602006917.072159,90.000000,0.000000,4134.871582,4139.487305,4143.589844,4137.948730,4116.410156,4144.615234,4143.589844,4152.820313,4145.128418,4148.205078,4134.358887,4144.102539,4134.871582,4123.589844,872.000000,4.000000,,,,0.000000,4.000000,4.000000,4.000000,4.000000,4.000000,4.000000,4.000000,4.000000,4.000000,4.000000,4.000000,4.000000,4.000000,4.000000,100.000000
1602006917.080041,91.000000,0.000000,4136.410156,4136.922852,4143.589844,4136.922852,4114.871582,4143.589844,4141.538574,4145.128418,4141.025879,4142.563965,4138.974121,4152.820313,4136.922852,4128.205078,846.000000,4.000000,,,,0.000000,4.000000,4.000000,4.000000,4.000000,4.000000,4.000000,4.000000,4.000000,4.000000,4.000000,4.000000,4.000000,4.000000,4.000000,100.000000
1602006917.087922,92.000000,0.000000,4139.487305,4131.794922,4143.077148,4134.358887,4108.205078,4134.358887,4136.410156,4135.384766,4126.153809,4133.846191,4138.974121,4153.333496,4135.897461,4136.922852,771.000000,4.000000,,,,0.000000,4.000000,4.000000,4.000000,4.000000,4.000000,4.000000,4.000000,4.000000,4.000000,4.000000,4.000000,4.000000,4.000000,4.000000,100.000000
1602006917.095803,93.000000,0.000000,4140.512695,4133.333496,4141.025879,4135.384766,4109.230957,4124.102539,4133.846191,4122.563965,4106.153809,4129.230957,4136.922852,4149.743652,4136.410156,4139.487305,724.000000,4.000000,,,,0.000000,4.000000,4.000000,4.000000,4.000000,4.000000,4.000000,4.000000,4.000000,4.000000,4.000000,4.000000,4.000000,4.000000,4.000000,100.000000
1602006917.103684,94.000000,0.000000,4142.051270,4141.538574,4146.666504,4141.025879,4114.871582,4118.974121,4133.846191,4113.846191,4099.487305,4134.358887,4145.128418,4152.820313,4145.641113,4140.000000,872.000000,4.000000,,,,0.000000,4.000000,4.000000,4.000000,4.000000,4.000000,4.000000,4.000000,4.000000,4.000000,4.000000,4.000000,4.000000,4.000000,4.000000,100.000000
1602006917.111565,95.000000,0.000000,4143.589844,4146.666504,4152.820313,4145.641113,4116.922852,4122.563965,4134.871582,4117.436035,4110.256348,4142.563965,4156.410156,4162.051270,4156.410156,4141.538574,846.000000,4.000000,,,,0.000000,4.000000,4.000000,4.000000,4.000000,4.000000,4.000000,4.000000,4.000000,4.000000,4.000000,4.000000,4.000000,4.000000,4.000000,100.000000
1602006917.119546,96.000000,0.000000,4140.512695,4143.589844,4144.615234,4142.563965,4114.871582,4127.179688,4131.282227,4128.717773,4118.461426,4151.794922,4156.410156,4169.230957,4158.461426,4143.589844,771.000000,4.000000,,,,0.000000,4.000000,4.000000,4.000000,4.000000,4.000000,4.000000,4.000000,4.000000,4.000000,4.000000,4.000000,4.000000,4.000000,4.000000,100.000000
1602006917.127427,97.000000,0.000000,4134.871582,4136.922852,4137.436035,4134.358887,4107.692383,4125.128418,4124.615234,4135.897461,4121.025879,4155.384766,4155.384766,4166.666504,4154.358887,4144.102539,724.000000,4.000000,,,,0.000000,4.000000,4.000000,4.000000,4.000000,4.000000,4.000000,4.000000,4.000000,4.000000,4.000000,4.000000,4.000000,4.000000,4.000000,100.000000
1602006917.135309,98.000000,0.000000,4135.897461,4134.358887,4136.410156,4128.205078,4106.666504,4126.666504,4127.692383,4135.897461,4126.153809,4144.102539,4156.922852,4159.487305,4149.230957,4139.487305,872.000000,4.000000,,,,0.000000,4.000000,4.000000,4.000000,4.000000,4.000000,4.000000,4.000000,4.000000,4.000000,4.000000,4.000000,4.000000,4.000000,4.000000,100.000000
1602006917.143190,99.000000,0.000000,4138.461426,4135.897461,4127.179688,4128.205078,4112.820313,4137.436035,4138.461426,4138.461426,4134.358887,4133.333496,4146.666504,4156.410156,4140.512695,4128.717773,846.000000,4.000000,,,,0.000000,4.000000,4.000000,4.000000,4.000000,4.000000,4.000000,4.000000,4.000000,4.000000,4.000000,4.000000,4.000000,4.000000,4.000000,100.000000
1602006917.151071,100.000000,0.000000,4130.769043,4134.871582,4118.974121,4126.153809,4112.820313,4144.102539,4141.025879,4142.051270,4143.077148,4138.974121,4134.871582,4153.846191,4135.897461,4121.538574,771.000000,4.000000,,,,0.000000,4.000000,4.000000,4.000000,4.000000,4.000000,4.000000,4.000000,4.000000,4.000000,4.000000,4.000000,4.000000,4.000000,4.000000,100.000000
1602006917.158952,101.000000,0.000000,4117.948730,4131.282227,4120.512695,4122.051270,4106.666504,4135.384766,4136.922852,4138.974121,4150.256348,4143.077148,4134.871582,4146.666504,4139.487305,4123.077148,724.000000,4.000000,,,,0.000000,4.000000,4.000000,4.000000,4.000000,4.000000,4.000000,4.000000,4.000000,4.000000,4.000000,4.000000,4.000000,4.000000,4.000000,100.000000
1602006917.166833,102.000000,0.000000,4123.077148,4134.358887,4122.051270,4128.717773,4108.717773,4126.666504,4137.436035,4137.436035,4163.589844,4149.743652,4142.051270,4145.128418,4139.487305,4126.153809,872.000000,4.000000,,,,0.000000,4.000000,4.000000,4.000000,4.000000,4.000000,4.000000,4.000000,4.000000,4.000000,4.000000,4.000000,4.000000,4.000000,4.000000,100.000000
1602006917.174714,103.000000,0.000000,4136.922852,4138.461426,4120.000000,4138.461426,4112.820313,4127.692383,4136.922852,4139.487305,4171.794922,4161.538574,4145.128418,4147.692383,4138.974121,4124.615234,846.000000,4.000000,,,,0.000000,4.000000,4.000000,4.000000,4.000000,4.000000,4.000000,4.000000,4.000000,4.000000,4.000000,4.000000,4.000000,4.000000,4.000000,100.000000
1602006917.182596,104.000000,0.000000,4134.871582,4136.922852,4117.436035,4136.410156,4111.282227,4124.615234,4128.205078,4131.282227,4162.563965,4158.461426,4138.974121,4145.128418,4144.102539,4126.153809,771.000000,4.000000,,,,0.000000,4.000000,4.000000,4.000000,4.000000,4.000000,4.000000,4.000000,4.000000,4.000000,4.000000,4.000000,4.000000,4.000000,4.000000,100.000000
1602006917.190477,105.000000,0.000000,4132.820313,4143.077148,4125.641113,4136.410156,4113.846191,4118.461426,4124.615234,4121.025879,4153.846191,4154.871582,4143.077148,4148.717773,4153.846191,4136.410156,724.000000,4.000000,,,,0.000000,4.000000,4.000000,4.000000,4.000000,4.000000,4.000000,4.000000,4.000000,4.000000,4.000000,4.000000,4.000000,4.000000,4.000000,100.000000
1602006917.198258,106.000000,0.000000,4141.025879,4151.282227,4139.487305,4144.615234,4114.871582,4121.025879,4125.641113,4121.025879,4149.230957,4150.769043,4158.974121,4158.461426,4156.410156,4146.153809,872.000000,4.000000,,,,0.000000,4.000000,4.000000,4.000000,4.000000,4.000000,4.000000,4.000000,4.000000,4.000000,4.000000,4.000000,4.000000,4.000000,4.000000,100.000000
1602006917.206139,107.000000,0.000000,4141.538574,4143.077148,4139.487305,4143.077148,4109.743652,4128.717773,4126.153809,4123.077148,4138.974121,4131.794922,4156.922852,4156.410156,4145.641113,4139.487305,846.000000,4.000000,,,,0.000000,4.000000,4.000000,4.000000,4.000000,4.000000,4.000000,4.000000,4.000000,4.000000,4.000000,4.000000,4.000000,4.000000,4.000000,100.000000
1602006917.214020,108.000000,0.000000,4138.461426,4136.410156,4135.384766,4137.948730,4106.153809,4128.205078,4131.282227,4126.153809,4133.846191,4127.692383,4139.487305,4156.410156,4137.436035,4125.641113,771.000000,4.000000,,,,0.000000,4.000000,4.000000,4.000000,4.000000,4.000000,4.000000,4.000000,4.000000,4.000000,4.000000,4.000000,4.000000,4.000000,4.000000,100.000000
1602006917.221901,109.000000,0.000000,4138.974121,4136.410156,4141.025879,4138.461426,4105.641113,4122.051270,4137.948730,4134.871582,4140.000000,4138.974121,4135.384766,4167.692383,4139.487305,4127.179688,724.000000,4.000000,,,,0.000000,4.000000,4.000000,4.000000,4.000000,4.000000,4.000000,4.000000,4.000000,4.000000,4.000000,4.000000,4.000000,4.000000,4.000000,100.000000
1602006917.229781,110.000000,0.000000,4129.230957,4127.692383,4136.410156,4133.846191,4104.615234,4121.538574,4138.461426,4141.025879,4143.589844,4138.461426,4139.487305,4165.641113,4137.436035,4126.666504,872.000000,4.000000,,,,0.000000,4.000000,4.000000,4.000000,4.000000,4.000000,4.000000,4.000000,4.000000,4.000000,4.000000,4.000000,4.000000,4.000000,4.000000,100.000000
1602006917.237562,111.000000,0.000000,4120.000000,4122.051270,4123.077148,4127.692383,4107.179688,4130.256348,4137.948730,4140.000000,4140.512695,4142.051270,4137.948730,4154.358887,4130.256348,4110.769043,846.000000,4.000000,,,,0.000000,4.000000,4.000000,4.000000,4.000000,4.000000,4.000000,4.000000,4.000000,4.000000,4.000000,4.000000,4.000000,4.000000,4.000000,100.000000
1602006917.245443,112.000000,0.000000,4124.102539,4127.179688,4117.436035,4128.205078,4113.846191,4139.487305,4142.563965,4135.384766,4134.358887,4141.025879,4132.307617,4151.282227,4128.717773,4109.743652,771.000000,4.000000,,,,0.000000,4.000000,4.000000,4.000000,4.000000,4.000000,4.000000,4.000000,4.000000,4.000000,4.000000,4.000000,4.000000,4.000000,4.000000,100.000000
1602006917.253424,113.000000,0.000000,4128.205078,4127.692383,4112.307617,4128.205078,4113.846191,4140.000000,4137.948730,4127.179688,4123.589844,4116.410156,4128.205078,4144.615234,4128.205078,4121.025879,724.000000,4.000000,,,,0.000000,4.000000,4.000000,4.000000,4.000000,4.000000,4.000000,4.000000,4.000000,4.000000,4.000000,4.000000,4.000000,4.000000,4.000000,100.000000
1602006917.261205,114.000000,0.000000,4129.230957,4128.717773,4110.256348,4126.666504,4112.820313,4137.436035,4128.205078,4122.051270,4120.512695,4112.820313,4131.282227,4137.436035,4129.743652,4124.102539,872.000000,4.000000,,,,0.000000,4.000000,4.000000,4.000000,4.000000,4.000000,4.000000,4.000000,4.000000,4.000000,4.000000,4.000000,4.000000,4.000000,4.000000,100.000000
1602006917.269086,115.000000,0.000000,4136.922852,4136.922852,4117.948730,4134.871582,4120.512695,4143.589844,4130.256348,4127.692383,4128.717773,4146.153809,4138.461426,4144.615234,4141.538574,4133.333496,846.000000,4.000000,,,,0.000000,4.000000,4.000000,4.000000,4.000000,4.000000,4.000000,4.000000,4.000000,4.000000,4.000000,4.000000,4.000000,4.000000,4.000000,100.000000
1602006917.276967,116.000000,0.000000,4145.128418,4142.051270,4125.641113,4140.512695,4121.538574,4143.589844,4135.897461,4135.897461,4142.051270,4161.025879,4147.179688,4154.358887,4158.974121,4146.666504,771.000000,4.000000,,,,0.000000,4.000000,4.000000,4.000000,4.000000,4.000000,4.000000,4.000000,4.000000,4.000000,4.000000,4.000000,4.000000,4.000000,4.000000,100.000000
1602006917.284848,117.000000,0.000000,4137.948730,4134.358887,4124.102539,4130.256348,4110.256348,4126.153809,4134.358887,4135.384766,4153.333496,4146.153809,4148.717773,4152.307617,4157.948730,4130.256348,724.000000,4.000000,,,,0.000000,4.000000,4.000000,4.000000,4.000000,4.000000,4.000000,4.000000,4.000000,4.000000,4.000000,4.000000,4.000000,4.000000,4.000000,100.000000
1602006917.292729,118.000000,0.000000,4122.051270,4123.589844,4120.000000,4122.051270,4107.179688,4117.436035,4134.358887,4133.846191,4154.358887,4142.051270,4137.948730,4147.692383,4138.974121,4110.256348,872.000000,4.000000,,,,0.000000,4.000000,4.000000,4.000000,4.000000,4.000000,4.000000,4.000000,4.000000,4.000000,4.000000,4.000000,4.000000,4.000000,4.000000,100.000000
1602006917.300510,119.000000,0.000000,4118.974121,4124.615234,4126.666504,4128.717773,4110.256348,4122.051270,4138.974121,4137.436035,4152.307617,4154.358887,4133.333496,4156.922852,4137.436035,4122.563965,846.000000,4.000000,,,,0.000000,4.000000,4.000000,4.000000,4.000000,4.000000,4.000000,4.000000,4.000000,4.000000,4.000000,4.000000,4.000000,4.000000,4.000000,100.000000
1602006917.308391,120.000000,0.000000,4127.179688,4129.230957,4140.512695,4136.922852,4111.282227,4124.615234,4138.974121,4138.974121,4149.743652,4154.358887,4143.589844,4170.256348,4158.974121,4142.051270,771.000000,4.000000,,,,0.000000,4.000000,4.000000,4.000000,4.000000,4.000000,4.000000,4.000000,4.000000,4.000000,4.000000,4.000000,4.000000,4.000000,4.000000,100.000000
1602006917.316272,121.000000,0.000000,4131.282227,4127.692383,4146.666504,4138.974121,4120.000000,4130.769043,4137.436035,4141.025879,4147.179688,4144.615234,4152.820313,4170.256348,4181.025879,4154.358887,724.000000,4.000000,,,,0.000000,4.000000,4.000000,4.000000,4.000000,4.000000,4.000000,4.000000,4.000000,4.000000,4.000000,4.000000,4.000000,4.000000,4.000000,100.000000
1602006917.324153,122.000000,0.000000,4127.179688,4120.512695,4143.077148,4133.333496,4124.102539,4135.384766,4140.000000,4146.153809,4150.256348,4157.436035,4167.692383,4168.717773,4194.871582,4169.743652,872.000000,4.000000,,,,0.000000,4.000000,4.000000,4.000000,4.000000,4.000000,4.000000,4.000000,4.000000,4.000000,4.000000,4.000000,4.000000,4.000000,4.000000,100.000000
1602006917.332035,123.000000,0.000000,4111.794922,4109.743652,4138.461426,4124.102539,4113.846191,4128.205078,4138.974121,4143.077148,4153.846191,4168.205078,4181.025879,4173.333496,4199.487305,4174.358887,846.000000,4.000000,,,,0.000000,4.000000,4.000000,4.000000,4.000000,4.000000,4.000000,4.000000,4.000000,4.000000,4.000000,4.000000,4.000000,4.000000,4.000000,100.000000
1602006917.339916,124.000000,0.000000,4092.820557,4102.051270,4134.358887,4119.487305,4107.692383,4126.153809,4138.461426,4138.974121,4152.307617,4154.358887,4175.384766,4169.230957,4192.820313,4159.487305,771.000000,4.000000,,,,0.000000,4.000000,4.000000,4.000000,4.000000,4.000000,4.000000,4.000000,4.000000,4.000000,4.000000,4.000000,4.000000,4.000000,4.000000,100.000000
1602006917.347797,125.000000,0.000000,4091.794922,4106.666504,4131.794922,4120.512695,4111.794922,4136.410156,4141.538574,4143.589844,4152.307617,4148.717773,4167.179688,4158.461426,4188.205078,4148.205078,724.000000,4.000000,,,,0.000000,4.000000,4.000000,4.000000,4.000000,4.000000,4.000000,4.000000,4.000000,4.000000,4.000000,4.000000,4.000000,4.000000,4.000000,100.000000
1602006917.355678,126.000000,0.000000,4095.897461,4108.205078,4126.666504,4117.948730,4114.358887,4144.615234,4144.615234,4140.000000,4151.282227,4152.820313,4160.512695,4152.307617,4187.179688,4142.051270,872.000000,4.000000,,,,0.000000,4.000000,4.000000,4.000000,4.000000,4.000000,4.000000,4.000000,4.000000,4.000000,4.000000,4.000000,4.000000,4.000000,4.000000,100.000000
1602006917.363659,127.000000,0.000000,4078.461426,4091.794922,4114.358887,4108.205078,4108.205078,4142.051270,4142.051270,4130.769043,4143.589844,4139.487305,4147.179688,4145.128418,4171.282227,4124.102539,846.000000,4.000000,,,,0.000000,4.000000,4.000000,4.000000,4.000000,4.000000,4.000000,4.000000,4.000000,4.000000,4.000000,4.000000,4.000000,4.000000,4.000000,100.000000
1602006917.371540,128.000000,0.000000,4061.025635,4077.435791,4107.692383,4097.948730,4093.846191,4129.230957,4138.974121,4129.743652,4136.922852,4131.282227,4141.538574,4141.025879,4154.358887,4113.846191,771.000000,4.000000,,,,0.000000,4.000000,4.000000,4.000000,4.000000,4.000000,4.000000,4.000000,4.000000,4.000000,4.000000,4.000000,4.000000,4.000000,4.000000,100.000000
1602006917.379422,0.000000,0.000000,4069.743652,4083.076904,4118.461426,4100.000000,4091.794922,4126.666504,4145.641113,4134.358887,4141.538574,4145.641113,4150.769043,4150.769043,4159.487305,4128.717773,795.000000,4.000000,,,,0.000000,4.000000,4.000000,4.000000,4.000000,4.000000,4.000000,4.000000,4.000000,4.000000,4.000000,4.000000,4.000000,4.000000,4.000000,100.000000
1602006917.387303,1.000000,0.000000,4088.718018,4094.358887,4134.358887,4117.436035,4106.153809,4141.025879,4156.922852,4145.641113,4155.384766,4154.358887,4155.384766,4165.641113,4172.820313,4145.641113,785.000000,4.000000,,,,0.000000,4.000000,4.000000,4.000000,4.000000,4.000000,4.000000,4.000000,4.000000,4.000000,4.000000,4.000000,4.000000,4.000000,4.000000,100.000000
1602006917.395184,2.000000,0.000000,4092.820557,4092.307617,4137.948730,4120.512695,4111.282227,4146.666504,4160.000000,4154.358887,4155.897461,4152.820313,4154.358887,4165.641113,4171.282227,4140.000000,847.000000,4.000000,,,,0.000000,4.000000,4.000000,4.000000,4.000000,4.000000,4.000000,4.000000,4.000000,4.000000,4.000000,4.000000,4.000000,4.000000,4.000000,100.000000
1602006917.403065,3.000000,0.000000,4088.205078,4083.589844,4134.358887,4105.641113,4104.102539,4136.410156,4151.794922,4146.666504,4140.000000,4149.743652,4156.410156,4154.871582,4164.102539,4130.256348,869.000000,4.000000,,,,0.000000,4.000000,4.000000,4.000000,4.000000,4.000000,4.000000,4.000000,4.000000,4.000000,4.000000,4.000000,4.000000,4.000000,4.000000,100.000000
1602006917.410846,4.000000,0.000000,4088.205078,4087.692383,4133.846191,4108.205078,4101.538574,4128.717773,4141.025879,4136.922852,4135.384766,4142.051270,4158.461426,4151.794922,4168.205078,4144.102539,814.000000,4.000000,,,,0.000000,4.000000,4.000000,4.000000,4.000000,4.000000,4.000000,4.000000,4.000000,4.000000,4.000000,4.000000,4.000000,4.000000,4.000000,100.000000
1602006917.418727,5.000000,0.000000,4094.358887,4101.538574,4130.769043,4125.641113,4112.307617,4133.846191,4135.384766,4137.948730,4142.563965,4148.717773,4162.051270,4157.436035,4173.333496,4155.897461,818.000000,4.000000,,,,0.000000,4.000000,4.000000,4.000000,4.000000,4.000000,4.000000,4.000000,4.000000,4.000000,4.000000,4.000000,4.000000,4.000000,4.000000,100.000000
1602006917.426708,6.000000,0.000000,4094.871826,4107.692383,4124.102539,4125.641113,4122.563965,4140.000000,4128.205078,4134.358887,4144.102539,4160.000000,4167.692383,4158.974121,4171.282227,4147.179688,759.000000,4.000000,,,,0.000000,4.000000,4.000000,4.000000,4.000000,4.000000,4.000000,4.000000,4.000000,4.000000,4.000000,4.000000,4.000000,4.000000,4.000000,100.000000
1602006917.434589,7.000000,0.000000,4086.153809,4106.153809,4120.512695,4117.436035,4117.436035,4135.897461,4122.563965,4127.692383,4147.179688,4162.051270,4165.641113,4150.769043,4170.256348,4138.461426,658.000000,4.000000,,,,0.000000,4.000000,4.000000,4.000000,4.000000,4.000000,4.000000,4.000000,4.000000,4.000000,4.000000,4.000000,4.000000,4.000000,4.000000,100.000000
1602006917.442470,8.000000,0.000000,4081.538574,4107.179688,4118.974121,4121.025879,4106.666504,4134.358887,4128.717773,4133.846191,4147.692383,4162.051270,4157.948730,4142.563965,4166.666504,4134.871582,778.000000,4.000000,,,,0.000000,4.000000,4.000000,4.000000,4.000000,4.000000,4.000000,4.000000,4.000000,4.000000,4.000000,4.000000,4.000000,4.000000,4.000000,100.000000
1602006917.450352,9.000000,0.000000,4076.923096,4103.589844,4112.820313,4118.974121,4105.641113,4138.974121,4138.461426,4138.461426,4137.436035,4153.333496,4147.179688,4138.974121,4155.897461,4124.615234,837.000000,4.000000,,,,0.000000,4.000000,4.000000,4.000000,4.000000,4.000000,4.000000,4.000000,4.000000,4.000000,4.000000,4.000000,4.000000,4.000000,4.000000,100.000000
1602006917.458233,10.000000,0.000000,4068.205078,4094.358887,4108.717773,4108.717773,4105.641113,4138.974121,4138.461426,4135.897461,4140.512695,4147.179688,4136.922852,4136.410156,4149.230957,4117.436035,872.000000,4.000000,,,,0.000000,4.000000,4.000000,4.000000,4.000000,4.000000,4.000000,4.000000,4.000000,4.000000,4.000000,4.000000,4.000000,4.000000,4.000000,100.000000
1602006917.466114,11.000000,0.000000,4070.769287,4094.871826,4109.230957,4109.743652,4104.615234,4146.153809,4144.615234,4138.974121,4155.384766,4150.256348,4142.563965,4134.871582,4152.307617,4122.563965,843.000000,4.000000,,,,0.000000,4.000000,4.000000,4.000000,4.000000,4.000000,4.000000,4.000000,4.000000,4.000000,4.000000,4.000000,4.000000,4.000000,4.000000,100.000000
1602006917.473995,12.000000,0.000000,4076.923096,4094.358887,4109.743652,4113.846191,4106.153809,4158.974121,4155.897461,4142.563965,4147.179688,4135.897461,4155.384766,4135.384766,4153.846191,4116.922852,769.000000,4.000000,,,,0.000000,4.000000,4.000000,4.000000,4.000000,4.000000,4.000000,4.000000,4.000000,4.000000,4.000000,4.000000,4.000000,4.000000,4.000000,100.000000
1602006917.481976,13.000000,0.000000,4073.846191,4085.641113,4105.641113,4109.743652,4106.153809,4153.846191,4154.358887,4139.487305,4132.307617,4131.794922,4153.333496,4136.922852,4151.794922,4106.666504,724.000000,4.000000,,,,0.000000,4.000000,4.000000,4.000000,4.000000,4.000000,4.000000,4.000000,4.000000,4.000000,4.000000,4.000000,4.000000,4.000000,4.000000,100.000000
1602006917.489857,14.000000,0.000000,4075.897461,4084.615479,4104.615234,4106.666504,4101.538574,4133.333496,4150.769043,4138.461426,4137.948730,4160.000000,4147.692383,4143.589844,4150.256348,4116.922852,872.000000,4.000000,,,,0.000000,4.000000,4.000000,4.000000,4.000000,4.000000,4.000000,4.000000,4.000000,4.000000,4.000000,4.000000,4.000000,4.000000,4.000000,100.000000
1602006917.497738,15.000000,0.000000,4081.025635,4092.307617,4116.922852,4108.717773,4097.948730,4125.641113,4150.256348,4142.051270,4142.563965,4170.256348,4154.871582,4156.410156,4155.897461,4125.641113,843.000000,4.000000,,,,0.000000,4.000000,4.000000,4.000000,4.000000,4.000000,4.000000,4.000000,4.000000,4.000000,4.000000,4.000000,4.000000,4.000000,4.000000,100.000000
1602006917.505620,16.000000,0.000000,4071.281982,4090.769287,4122.563965,4109.743652,4100.000000,4136.410156,4146.153809,4142.563965,4138.461426,4148.717773,4159.487305,4162.563965,4156.410156,4121.538574,0.000000,4.000000,,,,0.000000,4.000000,4.000000,4.000000,4.000000,4.000000,4.000000,4.000000,4.000000,4.000000,4.000000,4.000000,4.000000,4.000000,4.000000,100.000000
1602006917.513501,17.000000,0.000000,4056.410156,4082.051270,4113.333496,4108.205078,4105.641113,4141.538574,4141.025879,4138.974121,4133.846191,4138.974121,4149.230957,4149.743652,4141.538574,4120.512695,0.000000,4.000000,,,,0.000000,4.000000,4.000000,4.000000,4.000000,4.000000,4.000000,4.000000,4.000000,4.000000,4.000000,4.000000,4.000000,4.000000,4.000000,100.000000
1602006917.521382,18.000000,0.000000,4054.358887,4082.564209,4106.153809,4108.717773,4107.692383,4136.922852,4140.000000,4135.897461,4126.666504,4137.948730,4141.538574,4131.794922,4140.000000,4121.538574,0.000000,4.000000,,,,0.000000,4.000000,4.000000,4.000000,4.000000,4.000000,4.000000,4.000000,4.000000,4.000000,4.000000,4.000000,4.000000,4.000000,4.000000,100.000000
1602006917.529363,19.000000,0.000000,4062.564209,4091.794922,4102.563965,4115.384766,4105.128418,4143.589844,4142.563965,4136.410156,4121.025879,4131.794922,4140.000000,4123.077148,4151.794922,4113.846191,0.000000,4.000000,,,,0.000000,4.000000,4.000000,4.000000,4.000000,4.000000,4.000000,4.000000,4.000000,4.000000,4.000000,4.000000,4.000000,4.000000,4.000000,100.000000
1602006917.537244,20.000000,0.000000,4067.692383,4094.358887,4091.281982,4121.538574,4107.692383,4157.436035,4144.102539,4138.461426,4128.205078,4134.871582,4139.487305,4117.436035,4144.615234,4104.102539,0.000000,4.000000,,,,0.000000,4.000000,4.000000,4.000000,4.000000,4.000000,4.000000,4.000000,4.000000,4.000000,4.000000,4.000000,4.000000,4.000000,4.000000,100.000000
1602006917.545125,21.000000,0.000000,4069.230713,4095.384521,4084.615479,4118.461426,4112.820313,4153.333496,4142.051270,4134.871582,4134.871582,4146.153809,4142.051270,4119.487305,4139.487305,4103.077148,0.000000,4.000000,,,,0.000000,4.000000,4.000000,4.000000,4.000000,4.000000,4.000000,4.000000,4.000000,4.000000,4.000000,4.000000,4.000000,4.000000,4.000000,100.000000
1602006917.553006,22.000000,0.000000,4073.846191,4102.051270,4097.436035,4118.461426,4115.897461,4143.077148,4146.153809,4138.974121,4135.897461,4153.333496,4153.846191,4138.974121,4156.922852,4115.384766,0.000000,4.000000,,,,0.000000,4.000000,4.000000,4.000000,4.000000,4.000000,4.000000,4.000000,4.000000,4.000000,4.000000,4.000000,4.000000,4.000000,4.000000,100.000000
1602006917.560888,23.000000,0.000000,4078.974365,4100.000000,4113.333496,4124.615234,4112.820313,4145.641113,4155.897461,4153.333496,4141.025879,4153.333496,4160.000000,4155.384766,4161.538574,4125.641113,0.000000,4.000000,,,,0.000000,4.000000,4.000000,4.000000,4.000000,4.000000,4.000000,4.000000,4.000000,4.000000,4.000000,4.000000,4.000000,4.000000,4.000000,100.000000
1602006917.568769,24.000000,0.000000,4075.897461,4090.256348,4117.948730,4118.974121,4105.641113,4143.077148,4150.769043,4152.820313,4148.205078,4157.436035,4150.769043,4151.282227,4149.230957,4122.051270,0.000000,4.000000,,,,0.000000,4.000000,4.000000,4.000000,4.000000,4.000000,4.000000,4.000000,4.000000,4.000000,4.000000,4.000000,4.000000,4.000000,4.000000,100.000000
1602006917.576650,25.000000,0.000000,4073.846191,4088.718018,4121.538574,4109.230957,4103.077148,4130.769043,4140.000000,4145.641113,4154.871582,4155.384766,4147.692383,4150.256348,4150.769043,4126.153809,0.000000,4.000000,,,,0.000000,4.000000,4.000000,4.000000,4.000000,4.000000,4.000000,4.000000,4.000000,4.000000,4.000000,4.000000,4.000000,4.000000,4.000000,100.000000
1602006917.584531,26.000000,0.000000,4078.974365,4088.205078,4132.820313,4110.256348,4105.128418,4122.051270,4137.948730,4148.205078,4154.358887,4144.615234,4156.410156,4157.948730,4156.410156,4142.563965,0.000000,4.000000,,,,0.000000,4.000000,4.000000,4.000000,4.000000,4.000000,4.000000,4.000000,4.000000,4.000000,4.000000,4.000000,4.000000,4.000000,4.000000,100.000000
1602006917.592412,27.000000,0.000000,4086.153809,4086.666748,4140.000000,4114.358887,4098.461426,4119.487305,4128.717773,4145.641113,4141.538574,4146.666504,4152.307617,4155.897461,4154.358887,4144.615234,0.000000,4.000000,,,,0.000000,4.000000,4.000000,4.000000,4.000000,4.000000,4.000000,4.000000,4.000000,4.000000,4.000000,4.000000,4.000000,4.000000,4.000000,100.000000
1602006917.600193,28.000000,0.000000,4092.307617,4092.307617,4138.461426,4120.000000,4089.230713,4118.974121,4115.384766,4134.358887,4131.282227,4154.871582,4141.025879,4151.794922,4153.333496,4139.487305,0.000000,4.000000,,,,0.000000,4.000000,4.000000,4.000000,4.000000,4.000000,4.000000,4.000000,4.000000,4.000000,4.000000,4.000000,4.000000,4.000000,4.000000,100.000000
1602006917.608074,29.000000,0.000000,4094.871826,4102.563965,4135.897461,4126.153809,4096.922852,4121.538574,4122.563965,4135.384766,4136.410156,4152.307617,4143.589844,4153.846191,4155.897461,4142.563965,0.000000,4.000000,,,,0.000000,4.000000,4.000000,4.000000,4.000000,4.000000,4.000000,4.000000,4.000000,4.000000,4.000000,4.000000,4.000000,4.000000,4.000000,100.000000
1602006917.615955,30.000000,0.000000,4092.820557,4109.743652,4127.179688,4124.615234,4115.384766,4127.692383,4136.410156,4140.512695,4140.512695,4151.794922,4138.461426,4152.307617,4153.333496,4132.307617,0.000000,4.000000,,,,0.000000,4.000000,4.000000,4.000000,4.000000,4.000000,4.000000,4.000000,4.000000,4.000000,4.000000,4.000000,4.000000,4.000000,4.000000,100.000000
1602006917.623836,31.000000,0.000000,4090.256348,4113.846191,4117.948730,4126.666504,4123.077148,4135.384766,4136.410156,4136.922852,4136.410156,4157.436035,4125.641113,4142.563965,4145.128418,4110.769043,0.000000,4.000000,,,,0.000000,4.000000,4.000000,4.000000,4.000000,4.000000,4.000000,4.000000,4.000000,4.000000,4.000000,4.000000,4.000000,4.000000,4.000000,100.000000
